Data from 1977.PennyLincolnUp.Lamp.En5.5.200Scan.071719.P1_HRD10591_16-06-27-864.txt Node
Date: Thu Jul 18 16:06:27 EDT 2019
User: cochatt
Spectrometer: HR+D1059
Trigger mode: 1
Integration Time (sec): 1.000000E-1
Scans to average: 1
Electric dark correction enabled: true
Nonlinearity correction enabled: false
Boxcar width: 0
XAxis mode: Wavelengths
Number of Pixels in Spectrum: 2048
>>>>>Begin Spectral Data<<<<<
223.165	-5.81
223.4	-5.81
223.635	-5.81
223.869	-27.81
224.104	-17.81
224.338	-22.81
224.573	-22.81
224.808	-11.81
225.042	-2.81
225.277	6.19
225.511	2.19
225.746	1.19
225.98	23.19
226.215	5.19
226.449	12.19
226.683	17.19
226.918	13.19
227.152	31.19
227.387	31.19
227.621	48.19
227.856	28.19
228.09	57.19
228.324	47.19
228.559	58.19
228.793	63.19
229.027	101.19
229.262	98.19
229.496	109.19
229.73	131.19
229.964	132.19
230.199	121.19
230.433	119.19
230.667	112.19
230.901	111.19
231.136	93.19
231.37	105.19
231.604	94.19
231.838	108.19
232.072	118.19
232.306	116.19
232.541	110.19
232.775	121.19
233.009	112.19
233.243	122.19
233.477	127.19
233.711	123.19
233.945	118.19
234.179	105.19
234.413	110.19
234.647	118.19
234.881	101.19
235.115	113.19
235.349	102.19
235.583	124.19
235.817	130.19
236.051	116.19
236.285	117.19
236.519	126.19
236.753	130.19
236.987	138.19
237.221	167.19
237.455	207.19
237.689	163.19
237.922	148.19
238.156	142.19
238.39	124.19
238.624	111.19
238.858	130.19
239.091	121.19
239.325	120.19
239.559	113.19
239.793	116.19
240.027	132.19
240.26	143.19
240.494	154.19
240.728	130.19
240.961	122.19
241.195	141.19
241.429	134.19
241.662	127.19
241.896	114.19
242.13	131.19
242.363	134.19
242.597	138.19
242.83	144.19
243.064	136.19
243.298	126.19
243.531	129.19
243.765	132.19
243.998	126.19
244.232	130.19
244.465	144.19
244.699	130.19
244.932	156.19
245.166	145.19
245.399	148.19
245.633	150.19
245.866	149.19
246.099	139.19
246.333	146.19
246.566	142.19
246.8	144.19
247.033	144.19
247.266	157.19
247.5	170.19
247.733	167.19
247.966	183.19
248.2	173.19
248.433	162.19
248.666	165.19
248.899	182.19
249.133	187.19
249.366	203.19
249.599	204.19
249.832	160.19
250.066	166.19
250.299	180.19
250.532	196.19
250.765	211.19
250.998	230.19
251.231	218.19
251.465	196.19
251.698	194.19
251.931	196.19
252.164	179.19
252.397	203.19
252.63	206.19
252.863	205.19
253.096	213.19
253.329	206.19
253.562	218.19
253.795	223.19
254.028	218.19
254.261	207.19
254.494	226.19
254.727	229.19
254.96	263.19
255.193	254.19
255.426	246.19
255.659	215.19
255.892	233.19
256.124	217.19
256.357	229.19
256.59	219.19
256.823	212.19
257.056	184.19
257.289	210.19
257.521	212.19
257.754	205.19
257.987	214.19
258.22	225.19
258.452	226.19
258.685	202.19
258.918	208.19
259.151	204.19
259.383	205.19
259.616	213.19
259.849	206.19
260.081	234.19
260.314	223.19
260.547	244.19
260.779	233.19
261.012	231.19
261.244	221.19
261.477	251.19
261.71	246.19
261.942	228.19
262.175	213.19
262.407	218.19
262.64	237.19
262.872	231.19
263.105	217.19
263.337	203.19
263.57	212.19
263.802	215.19
264.035	223.19
264.267	219.19
264.499	229.19
264.732	210.19
264.964	232.19
265.197	221.19
265.429	239.19
265.661	209.19
265.894	224.19
266.126	214.19
266.358	220.19
266.591	223.19
266.823	246.19
267.055	223.19
267.287	242.19
267.52	222.19
267.752	248.19
267.984	233.19
268.216	252.19
268.448	246.19
268.681	238.19
268.913	262.19
269.145	251.19
269.377	281.19
269.609	276.19
269.841	288.19
270.073	248.19
270.306	281.19
270.538	310.19
270.77	304.19
271.002	282.19
271.234	279.19
271.466	267.19
271.698	313.19
271.93	298.19
272.162	322.19
272.394	301.19
272.626	302.19
272.858	286.19
273.09	279.19
273.322	287.19
273.553	262.19
273.785	284.19
274.017	258.19
274.249	302.19
274.481	272.19
274.713	260.19
274.945	284.19
275.176	281.19
275.408	278.19
275.64	286.19
275.872	272.19
276.104	272.19
276.335	278.19
276.567	280.19
276.799	301.19
277.031	299.19
277.262	306.19
277.494	324.19
277.726	299.19
277.957	296.19
278.189	284.19
278.421	290.19
278.652	300.19
278.884	283.19
279.115	283.19
279.347	287.19
279.579	278.19
279.81	284.19
280.042	291.19
280.273	268.19
280.505	281.19
280.736	280.19
280.968	290.19
281.199	278.19
281.431	281.19
281.662	279.19
281.894	292.19
282.125	290.19
282.356	309.19
282.588	322.19
282.819	317.19
283.051	267.19
283.282	295.19
283.513	276.19
283.745	297.19
283.976	302.19
284.207	308.19
284.439	309.19
284.67	294.19
284.901	303.19
285.132	314.19
285.364	298.19
285.595	299.19
285.826	318.19
286.057	309.19
286.288	302.19
286.52	294.19
286.751	310.19
286.982	314.19
287.213	287.19
287.444	316.19
287.675	323.19
287.906	315.19
288.138	317.19
288.369	322.19
288.6	325.19
288.831	307.19
289.062	316.19
289.293	319.19
289.524	311.19
289.755	316.19
289.986	313.19
290.217	323.19
290.448	306.19
290.679	312.19
290.91	318.19
291.141	297.19
291.371	303.19
291.602	321.19
291.833	314.19
292.064	320.19
292.295	326.19
292.526	300.19
292.757	314.19
292.987	297.19
293.218	301.19
293.449	339.19
293.68	303.19
293.91	288.19
294.141	327.19
294.372	335.19
294.603	318.19
294.833	323.19
295.064	310.19
295.295	312.19
295.525	318.19
295.756	330.19
295.987	330.19
296.217	326.19
296.448	350.19
296.679	319.19
296.909	326.19
297.14	332.19
297.37	328.19
297.601	306.19
297.831	331.19
298.062	321.19
298.292	325.19
298.523	339.19
298.753	309.19
298.984	342.19
299.214	328.19
299.445	333.19
299.675	318.19
299.905	335.19
300.136	313.19
300.366	317.19
300.597	344.19
300.827	353.19
301.057	355.19
301.288	353.19
301.518	326.19
301.748	345.19
301.979	346.19
302.209	352.19
302.439	347.19
302.669	347.19
302.9	349.19
303.13	355.19
303.36	354.19
303.59	356.19
303.82	347.19
304.051	363.19
304.281	343.19
304.511	352.19
304.741	342.19
304.971	356.19
305.201	355.19
305.431	367.19
305.661	367.19
305.891	362.19
306.121	350.19
306.352	359.19
306.582	353.19
306.812	359.19
307.042	348.19
307.272	349.19
307.502	361.19
307.731	364.19
307.961	352.19
308.191	358.19
308.421	348.19
308.651	363.19
308.881	356.19
309.111	369.19
309.341	357.19
309.571	361.19
309.8	356.19
310.03	352.19
310.26	389.19
310.49	386.19
310.72	392.19
310.949	394.19
311.179	412.19
311.409	384.19
311.639	379.19
311.868	388.19
312.098	389.19
312.328	401.19
312.557	403.19
312.787	392.19
313.017	398.19
313.246	394.19
313.476	378.19
313.706	389.19
313.935	394.19
314.165	390.19
314.394	390.19
314.624	394.19
314.853	406.19
315.083	382.19
315.312	399.19
315.542	373.19
315.771	380.19
316.001	363.19
316.23	388.19
316.46	380.19
316.689	400.19
316.919	401.19
317.148	399.19
317.377	416.19
317.607	405.19
317.836	363.19
318.065	393.19
318.295	382.19
318.524	402.19
318.753	388.19
318.983	386.19
319.212	388.19
319.441	395.19
319.67	403.19
319.9	395.19
320.129	397.19
320.358	399.19
320.587	404.19
320.816	405.19
321.046	403.19
321.275	405.19
321.504	403.19
321.733	420.19
321.962	420.19
322.191	414.19
322.42	437.19
322.649	443.19
322.878	425.19
323.108	463.19
323.337	471.19
323.566	478.19
323.795	496.19
324.024	529.19
324.253	612.19
324.482	828.19
324.71	1215.19
324.939	1697.19
325.168	1480.19
325.397	787.19
325.626	593.19
325.855	513.19
326.084	510.19
326.313	488.19
326.542	482.19
326.77	547.19
326.999	572.19
327.228	783.19
327.457	1112.19
327.686	1297.19
327.914	860.19
328.143	639.19
328.372	567.19
328.6	518.19
328.829	544.19
329.058	518.19
329.287	545.19
329.515	497.19
329.744	498.19
329.972	480.19
330.201	514.19
330.43	525.19
330.658	545.19
330.887	532.19
331.115	541.19
331.344	490.19
331.572	474.19
331.801	495.19
332.03	490.19
332.258	463.19
332.486	463.19
332.715	449.19
332.943	463.19
333.172	485.19
333.4	483.19
333.629	502.19
333.857	495.19
334.085	500.19
334.314	510.19
334.542	513.19
334.771	535.19
334.999	518.19
335.227	476.19
335.455	463.19
335.684	474.19
335.912	476.19
336.14	450.19
336.369	457.19
336.597	471.19
336.825	479.19
337.053	466.19
337.281	480.19
337.51	479.19
337.738	465.19
337.966	435.19
338.194	456.19
338.422	453.19
338.65	424.19
338.878	448.19
339.106	446.19
339.334	431.19
339.562	460.19
339.79	454.19
340.018	445.19
340.246	434.19
340.474	434.19
340.702	437.19
340.93	450.19
341.158	448.19
341.386	444.19
341.614	456.19
341.842	442.19
342.07	435.19
342.298	427.19
342.526	422.19
342.754	423.19
342.981	424.19
343.209	421.19
343.437	432.19
343.665	449.19
343.893	440.19
344.12	454.19
344.348	451.19
344.576	454.19
344.804	447.19
345.031	446.19
345.259	460.19
345.487	458.19
345.714	427.19
345.942	423.19
346.17	444.19
346.397	421.19
346.625	414.19
346.853	418.19
347.08	407.19
347.308	414.19
347.535	441.19
347.763	405.19
347.99	422.19
348.218	406.19
348.445	435.19
348.673	448.19
348.9	417.19
349.128	410.19
349.355	391.19
349.583	431.19
349.81	408.19
350.037	385.19
350.265	376.19
350.492	402.19
350.72	405.19
350.947	424.19
351.174	428.19
351.402	419.19
351.629	418.19
351.856	419.19
352.083	407.19
352.311	399.19
352.538	416.19
352.765	410.19
352.992	417.19
353.22	410.19
353.447	396.19
353.674	406.19
353.901	415.19
354.128	407.19
354.355	406.19
354.583	362.19
354.81	392.19
355.037	396.19
355.264	401.19
355.491	378.19
355.718	384.19
355.945	383.19
356.172	397.19
356.399	397.19
356.626	393.19
356.853	395.19
357.08	399.19
357.307	391.19
357.534	400.19
357.761	393.19
357.988	386.19
358.215	406.19
358.441	377.19
358.668	387.19
358.895	392.19
359.122	410.19
359.349	392.19
359.576	414.19
359.802	423.19
360.029	440.19
360.256	446.19
360.483	424.19
360.709	411.19
360.936	430.19
361.163	429.19
361.39	401.19
361.616	417.19
361.843	413.19
362.07	404.19
362.296	396.19
362.523	403.19
362.749	396.19
362.976	402.19
363.203	394.19
363.429	390.19
363.656	387.19
363.882	395.19
364.109	386.19
364.335	397.19
364.562	378.19
364.788	396.19
365.015	402.19
365.241	391.19
365.468	384.19
365.694	379.19
365.92	396.19
366.147	393.19
366.373	384.19
366.599	394.19
366.826	388.19
367.052	394.19
367.278	399.19
367.505	391.19
367.731	400.19
367.957	405.19
368.184	385.19
368.41	394.19
368.636	396.19
368.862	420.19
369.089	403.19
369.315	391.19
369.541	392.19
369.767	395.19
369.993	406.19
370.219	387.19
370.445	396.19
370.672	382.19
370.898	399.19
371.124	400.19
371.35	408.19
371.576	367.19
371.802	388.19
372.028	372.19
372.254	403.19
372.48	383.19
372.706	384.19
372.932	392.19
373.158	419.19
373.384	418.19
373.61	395.19
373.835	378.19
374.061	398.19
374.287	383.19
374.513	400.19
374.739	396.19
374.965	386.19
375.191	396.19
375.416	404.19
375.642	403.19
375.868	393.19
376.094	402.19
376.319	400.19
376.545	382.19
376.771	386.19
376.997	387.19
377.222	386.19
377.448	404.19
377.674	381.19
377.899	386.19
378.125	368.19
378.35	405.19
378.576	394.19
378.802	382.19
379.027	369.19
379.253	378.19
379.478	374.19
379.704	387.19
379.929	391.19
380.155	392.19
380.38	401.19
380.606	391.19
380.831	389.19
381.057	412.19
381.282	388.19
381.507	387.19
381.733	391.19
381.958	391.19
382.184	376.19
382.409	387.19
382.634	416.19
382.86	380.19
383.085	394.19
383.31	407.19
383.535	406.19
383.761	416.19
383.986	409.19
384.211	411.19
384.436	429.19
384.662	422.19
384.887	408.19
385.112	408.19
385.337	422.19
385.562	423.19
385.787	418.19
386.013	429.19
386.238	435.19
386.463	456.19
386.688	434.19
386.913	424.19
387.138	421.19
387.363	444.19
387.588	440.19
387.813	422.19
388.038	438.19
388.263	431.19
388.488	428.19
388.713	428.19
388.938	410.19
389.163	427.19
389.387	435.19
389.612	436.19
389.837	432.19
390.062	410.19
390.287	403.19
390.512	408.19
390.736	433.19
390.961	439.19
391.186	419.19
391.411	436.19
391.636	455.19
391.86	454.19
392.085	452.19
392.31	432.19
392.534	453.19
392.759	431.19
392.984	445.19
393.208	432.19
393.433	431.19
393.658	418.19
393.882	424.19
394.107	450.19
394.331	438.19
394.556	409.19
394.78	445.19
395.005	442.19
395.229	450.19
395.454	449.19
395.678	450.19
395.903	448.19
396.127	463.19
396.352	471.19
396.576	446.19
396.801	452.19
397.025	436.19
397.249	445.19
397.474	447.19
397.698	455.19
397.922	455.19
398.147	481.19
398.371	478.19
398.595	474.19
398.82	498.19
399.044	495.19
399.268	528.19
399.492	549.19
399.717	556.19
399.941	600.19
400.165	616.19
400.389	626.19
400.613	580.19
400.837	527.19
401.062	501.19
401.286	503.19
401.51	497.19
401.734	477.19
401.958	481.19
402.182	485.19
402.406	501.19
402.63	483.19
402.854	500.19
403.078	505.19
403.302	522.19
403.526	488.19
403.75	517.19
403.974	519.19
404.198	514.19
404.422	532.19
404.645	534.19
404.869	538.19
405.093	542.19
405.317	581.19
405.541	588.19
405.765	549.19
405.988	511.19
406.212	536.19
406.436	552.19
406.66	550.19
406.883	541.19
407.107	588.19
407.331	592.19
407.555	654.19
407.778	656.19
408.002	605.19
408.226	572.19
408.449	547.19
408.673	550.19
408.896	556.19
409.12	628.19
409.344	592.19
409.567	534.19
409.791	504.19
410.014	509.19
410.238	485.19
410.461	501.19
410.685	526.19
410.908	516.19
411.132	544.19
411.355	575.19
411.578	557.19
411.802	504.19
412.025	490.19
412.249	498.19
412.472	514.19
412.695	549.19
412.919	514.19
413.142	506.19
413.365	504.19
413.589	486.19
413.812	459.19
414.035	467.19
414.258	471.19
414.482	475.19
414.705	477.19
414.928	475.19
415.151	492.19
415.374	468.19
415.597	470.19
415.821	472.19
416.044	463.19
416.267	476.19
416.49	473.19
416.713	485.19
416.936	472.19
417.159	479.19
417.382	465.19
417.605	464.19
417.828	492.19
418.051	470.19
418.274	476.19
418.497	485.19
418.72	465.19
418.943	473.19
419.166	492.19
419.389	531.19
419.611	492.19
419.834	488.19
420.057	502.19
420.28	483.19
420.503	487.19
420.726	494.19
420.948	516.19
421.171	539.19
421.394	537.19
421.617	507.19
421.839	470.19
422.062	488.19
422.285	509.19
422.507	534.19
422.73	600.19
422.953	602.19
423.175	538.19
423.398	520.19
423.621	494.19
423.843	523.19
424.066	510.19
424.288	529.19
424.511	539.19
424.733	596.19
424.956	606.19
425.178	590.19
425.401	621.19
425.623	621.19
425.846	559.19
426.068	526.19
426.291	491.19
426.513	503.19
426.735	511.19
426.958	558.19
427.18	632.19
427.402	731.19
427.625	811.19
427.847	677.19
428.069	586.19
428.292	534.19
428.514	498.19
428.736	470.19
428.958	479.19
429.181	454.19
429.403	453.19
429.625	482.19
429.847	492.19
430.069	548.19
430.292	526.19
430.514	481.19
430.736	454.19
430.958	474.19
431.18	455.19
431.402	444.19
431.624	431.19
431.846	456.19
432.068	463.19
432.29	463.19
432.512	425.19
432.734	460.19
432.956	441.19
433.178	470.19
433.4	461.19
433.622	446.19
433.844	450.19
434.066	466.19
434.287	450.19
434.509	469.19
434.731	474.19
434.953	459.19
435.175	463.19
435.397	482.19
435.618	503.19
435.84	522.19
436.062	610.19
436.284	655.19
436.505	552.19
436.727	496.19
436.949	475.19
437.17	469.19
437.392	474.19
437.614	464.19
437.835	493.19
438.057	555.19
438.278	646.19
438.5	646.19
438.721	691.19
438.943	688.19
439.165	532.19
439.386	524.19
439.608	512.19
439.829	509.19
440.05	506.19
440.272	549.19
440.493	535.19
440.715	496.19
440.936	478.19
441.158	478.19
441.379	501.19
441.6	477.19
441.822	509.19
442.043	560.19
442.264	608.19
442.486	635.19
442.707	542.19
442.928	510.19
443.149	509.19
443.371	522.19
443.592	548.19
443.813	640.19
444.034	703.19
444.255	581.19
444.476	525.19
444.698	533.19
444.919	529.19
445.14	590.19
445.361	562.19
445.582	536.19
445.803	588.19
446.024	643.19
446.245	656.19
446.466	617.19
446.687	540.19
446.908	528.19
447.129	495.19
447.35	475.19
447.571	467.19
447.792	432.19
448.013	455.19
448.234	468.19
448.455	508.19
448.675	593.19
448.896	692.19
449.117	589.19
449.338	579.19
449.559	655.19
449.779	719.19
450	600.19
450.221	502.19
450.442	452.19
450.662	450.19
450.883	463.19
451.104	455.19
451.324	431.19
451.545	447.19
451.766	419.19
451.986	418.19
452.207	405.19
452.428	425.19
452.648	415.19
452.869	409.19
453.089	428.19
453.31	436.19
453.53	416.19
453.751	419.19
453.971	431.19
454.192	437.19
454.412	418.19
454.633	416.19
454.853	419.19
455.073	422.19
455.294	426.19
455.514	464.19
455.734	438.19
455.955	419.19
456.175	396.19
456.395	405.19
456.616	398.19
456.836	385.19
457.056	398.19
457.276	389.19
457.497	420.19
457.717	391.19
457.937	401.19
458.157	412.19
458.377	414.19
458.598	419.19
458.818	480.19
459.038	525.19
459.258	536.19
459.478	455.19
459.698	452.19
459.918	450.19
460.138	462.19
460.358	461.19
460.578	449.19
460.798	463.19
461.018	471.19
461.238	462.19
461.458	468.19
461.678	449.19
461.898	462.19
462.118	442.19
462.338	466.19
462.558	473.19
462.777	501.19
462.997	520.19
463.217	528.19
463.437	539.19
463.657	494.19
463.876	518.19
464.096	482.19
464.316	487.19
464.536	486.19
464.755	478.19
464.975	488.19
465.195	514.19
465.414	547.19
465.634	483.19
465.854	467.19
466.073	443.19
466.293	439.19
466.512	437.19
466.732	429.19
466.951	421.19
467.171	430.19
467.391	423.19
467.61	415.19
467.829	427.19
468.049	450.19
468.268	416.19
468.488	409.19
468.707	418.19
468.927	413.19
469.146	416.19
469.365	422.19
469.585	398.19
469.804	438.19
470.023	440.19
470.243	436.19
470.462	419.19
470.681	459.19
470.901	424.19
471.12	434.19
471.339	406.19
471.558	410.19
471.777	433.19
471.997	411.19
472.216	422.19
472.435	446.19
472.654	438.19
472.873	440.19
473.092	411.19
473.311	400.19
473.53	427.19
473.749	419.19
473.968	479.19
474.187	530.19
474.406	557.19
474.625	457.19
474.844	436.19
475.063	431.19
475.282	427.19
475.501	440.19
475.72	464.19
475.939	447.19
476.158	423.19
476.377	431.19
476.596	439.19
476.814	440.19
477.033	443.19
477.252	442.19
477.471	446.19
477.69	435.19
477.908	458.19
478.127	478.19
478.346	474.19
478.564	450.19
478.783	457.19
479.002	484.19
479.22	498.19
479.439	515.19
479.658	505.19
479.876	548.19
480.095	527.19
480.313	557.19
480.532	527.19
480.751	525.19
480.969	522.19
481.188	568.19
481.406	546.19
481.624	539.19
481.843	495.19
482.061	518.19
482.28	484.19
482.498	487.19
482.717	498.19
482.935	485.19
483.153	480.19
483.372	482.19
483.59	469.19
483.808	489.19
484.027	506.19
484.245	504.19
484.463	494.19
484.681	519.19
484.9	506.19
485.118	499.19
485.336	484.19
485.554	491.19
485.772	501.19
485.99	500.19
486.209	485.19
486.427	505.19
486.645	525.19
486.863	516.19
487.081	522.19
487.299	521.19
487.517	516.19
487.735	516.19
487.953	524.19
488.171	539.19
488.389	514.19
488.607	494.19
488.825	518.19
489.043	510.19
489.261	520.19
489.479	515.19
489.696	520.19
489.914	526.19
490.132	542.19
490.35	544.19
490.568	538.19
490.786	548.19
491.003	563.19
491.221	550.19
491.439	568.19
491.657	575.19
491.874	577.19
492.092	576.19
492.31	579.19
492.527	581.19
492.745	583.19
492.963	586.19
493.18	598.19
493.398	603.19
493.615	610.19
493.833	600.19
494.05	622.19
494.268	594.19
494.485	602.19
494.703	589.19
494.92	600.19
495.138	592.19
495.355	586.19
495.573	626.19
495.79	608.19
496.008	589.19
496.225	628.19
496.442	608.19
496.66	602.19
496.877	605.19
497.094	642.19
497.312	627.19
497.529	634.19
497.746	657.19
497.963	671.19
498.181	671.19
498.398	678.19
498.615	698.19
498.832	695.19
499.049	718.19
499.267	752.19
499.484	788.19
499.701	798.19
499.918	855.19
500.135	905.19
500.352	940.19
500.569	966.19
500.786	969.19
501.003	967.19
501.22	923.19
501.437	883.19
501.654	853.19
501.871	800.19
502.088	782.19
