Data from 1977.PennyLincolnUp.Lamp.En5.5.200Scan.071719.P1_HRD10591_16-06-22-864.txt Node
Date: Thu Jul 18 16:06:22 EDT 2019
User: cochatt
Spectrometer: HR+D1059
Trigger mode: 1
Integration Time (sec): 1.000000E-1
Scans to average: 1
Electric dark correction enabled: true
Nonlinearity correction enabled: false
Boxcar width: 0
XAxis mode: Wavelengths
Number of Pixels in Spectrum: 2048
>>>>>Begin Spectral Data<<<<<
223.165	-12.56
223.4	-12.56
223.635	-12.56
223.869	-12.56
224.104	-24.56
224.338	-17.56
224.573	-8.56
224.808	-17.56
225.042	4.44
225.277	7.44
225.511	9.44
225.746	-8.56
225.98	-6.56
226.215	25.44
226.449	4.44
226.683	4.44
226.918	30.44
227.152	22.44
227.387	39.44
227.621	45.44
227.856	52.44
228.09	46.44
228.324	60.44
228.559	55.44
228.793	60.44
229.027	94.44
229.262	98.44
229.496	119.44
229.73	116.44
229.964	142.44
230.199	122.44
230.433	103.44
230.667	106.44
230.901	106.44
231.136	122.44
231.37	116.44
231.604	117.44
231.838	122.44
232.072	106.44
232.306	109.44
232.541	124.44
232.775	104.44
233.009	103.44
233.243	112.44
233.477	106.44
233.711	135.44
233.945	112.44
234.179	118.44
234.413	116.44
234.647	110.44
234.881	103.44
235.115	119.44
235.349	108.44
235.583	112.44
235.817	127.44
236.051	122.44
236.285	116.44
236.519	134.44
236.753	130.44
236.987	135.44
237.221	162.44
237.455	214.44
237.689	160.44
237.922	148.44
238.156	130.44
238.39	119.44
238.624	128.44
238.858	131.44
239.091	118.44
239.325	119.44
239.559	118.44
239.793	132.44
240.027	124.44
240.26	132.44
240.494	156.44
240.728	156.44
240.961	154.44
241.195	144.44
241.429	126.44
241.662	135.44
241.896	128.44
242.13	144.44
242.363	134.44
242.597	140.44
242.83	138.44
243.064	138.44
243.298	129.44
243.531	158.44
243.765	148.44
243.998	151.44
244.232	144.44
244.465	151.44
244.699	132.44
244.932	156.44
245.166	150.44
245.399	134.44
245.633	139.44
245.866	158.44
246.099	152.44
246.333	148.44
246.566	149.44
246.8	154.44
247.033	148.44
247.266	149.44
247.5	158.44
247.733	165.44
247.966	176.44
248.2	174.44
248.433	178.44
248.666	169.44
248.899	166.44
249.133	184.44
249.366	197.44
249.599	194.44
249.832	192.44
250.066	188.44
250.299	178.44
250.532	178.44
250.765	192.44
250.998	202.44
251.231	215.44
251.465	202.44
251.698	211.44
251.931	197.44
252.164	191.44
252.397	192.44
252.63	180.44
252.863	198.44
253.096	211.44
253.329	212.44
253.562	212.44
253.795	218.44
254.028	217.44
254.261	218.44
254.494	223.44
254.727	234.44
254.96	262.44
255.193	256.44
255.426	237.44
255.659	238.44
255.892	213.44
256.124	217.44
256.357	217.44
256.59	231.44
256.823	214.44
257.056	209.44
257.289	220.44
257.521	206.44
257.754	214.44
257.987	193.44
258.22	210.44
258.452	195.44
258.685	196.44
258.918	205.44
259.151	223.44
259.383	222.44
259.616	230.44
259.849	235.44
260.081	251.44
260.314	258.44
260.547	239.44
260.779	243.44
261.012	238.44
261.244	220.44
261.477	240.44
261.71	215.44
261.942	218.44
262.175	235.44
262.407	231.44
262.64	220.44
262.872	212.44
263.105	223.44
263.337	225.44
263.57	223.44
263.802	216.44
264.035	212.44
264.267	208.44
264.499	227.44
264.732	211.44
264.964	232.44
265.197	223.44
265.429	212.44
265.661	223.44
265.894	255.44
266.126	233.44
266.358	227.44
266.591	222.44
266.823	228.44
267.055	248.44
267.287	234.44
267.52	217.44
267.752	221.44
267.984	236.44
268.216	247.44
268.448	237.44
268.681	250.44
268.913	273.44
269.145	276.44
269.377	280.44
269.609	278.44
269.841	287.44
270.073	277.44
270.306	276.44
270.538	308.44
270.77	307.44
271.002	301.44
271.234	286.44
271.466	295.44
271.698	309.44
271.93	312.44
272.162	318.44
272.394	320.44
272.626	311.44
272.858	296.44
273.09	296.44
273.322	301.44
273.553	245.44
273.785	277.44
274.017	273.44
274.249	280.44
274.481	255.44
274.713	267.44
274.945	262.44
275.176	276.44
275.408	270.44
275.64	258.44
275.872	278.44
276.104	265.44
276.335	265.44
276.567	291.44
276.799	297.44
277.031	304.44
277.262	327.44
277.494	309.44
277.726	297.44
277.957	306.44
278.189	284.44
278.421	286.44
278.652	302.44
278.884	275.44
279.115	284.44
279.347	282.44
279.579	275.44
279.81	271.44
280.042	284.44
280.273	275.44
280.505	292.44
280.736	277.44
280.968	273.44
281.199	282.44
281.431	289.44
281.662	284.44
281.894	295.44
282.125	303.44
282.356	296.44
282.588	311.44
282.819	272.44
283.051	296.44
283.282	294.44
283.513	299.44
283.745	310.44
283.976	315.44
284.207	294.44
284.439	309.44
284.67	315.44
284.901	313.44
285.132	298.44
285.364	293.44
285.595	283.44
285.826	276.44
286.057	292.44
286.288	290.44
286.52	303.44
286.751	283.44
286.982	291.44
287.213	320.44
287.444	298.44
287.675	320.44
287.906	320.44
288.138	315.44
288.369	308.44
288.6	327.44
288.831	336.44
289.062	330.44
289.293	310.44
289.524	312.44
289.755	313.44
289.986	295.44
290.217	309.44
290.448	314.44
290.679	314.44
290.91	327.44
291.141	326.44
291.371	318.44
291.602	311.44
291.833	310.44
292.064	306.44
292.295	309.44
292.526	310.44
292.757	303.44
292.987	318.44
293.218	312.44
293.449	310.44
293.68	325.44
293.91	320.44
294.141	311.44
294.372	323.44
294.603	303.44
294.833	314.44
295.064	324.44
295.295	308.44
295.525	321.44
295.756	323.44
295.987	325.44
296.217	311.44
296.448	335.44
296.679	332.44
296.909	311.44
297.14	314.44
297.37	313.44
297.601	316.44
297.831	304.44
298.062	325.44
298.292	331.44
298.523	338.44
298.753	326.44
298.984	327.44
299.214	343.44
299.445	326.44
299.675	333.44
299.905	345.44
300.136	343.44
300.366	331.44
300.597	322.44
300.827	343.44
301.057	346.44
301.288	337.44
301.518	341.44
301.748	340.44
301.979	340.44
302.209	365.44
302.439	344.44
302.669	350.44
302.9	343.44
303.13	354.44
303.36	378.44
303.59	342.44
303.82	361.44
304.051	370.44
304.281	372.44
304.511	348.44
304.741	362.44
304.971	367.44
305.201	344.44
305.431	340.44
305.661	349.44
305.891	330.44
306.121	356.44
306.352	368.44
306.582	360.44
306.812	354.44
307.042	364.44
307.272	372.44
307.502	345.44
307.731	363.44
307.961	350.44
308.191	349.44
308.421	359.44
308.651	359.44
308.881	356.44
309.111	347.44
309.341	360.44
309.571	371.44
309.8	378.44
310.03	373.44
310.26	380.44
310.49	379.44
310.72	400.44
310.949	395.44
311.179	402.44
311.409	380.44
311.639	382.44
311.868	380.44
312.098	408.44
312.328	407.44
312.557	428.44
312.787	401.44
313.017	404.44
313.246	418.44
313.476	404.44
313.706	387.44
313.935	412.44
314.165	404.44
314.394	392.44
314.624	404.44
314.853	402.44
315.083	408.44
315.312	416.44
315.542	391.44
315.771	381.44
316.001	382.44
316.23	389.44
316.46	375.44
316.689	389.44
316.919	394.44
317.148	410.44
317.377	424.44
317.607	411.44
317.836	406.44
318.065	397.44
318.295	401.44
318.524	380.44
318.753	383.44
318.983	407.44
319.212	393.44
319.441	406.44
319.67	417.44
319.9	412.44
320.129	401.44
320.358	397.44
320.587	419.44
320.816	413.44
321.046	408.44
321.275	414.44
321.504	394.44
321.733	422.44
321.962	399.44
322.191	432.44
322.42	454.44
322.649	435.44
322.878	453.44
323.108	449.44
323.337	460.44
323.566	475.44
323.795	500.44
324.024	530.44
324.253	631.44
324.482	855.44
324.71	1225.44
324.939	1676.44
325.168	1459.44
325.397	792.44
325.626	583.44
325.855	506.44
326.084	480.44
326.313	451.44
326.542	493.44
326.77	534.44
326.999	611.44
327.228	778.44
327.457	1084.44
327.686	1258.44
327.914	870.44
328.143	616.44
328.372	538.44
328.6	529.44
328.829	534.44
329.058	543.44
329.287	518.44
329.515	499.44
329.744	495.44
329.972	484.44
330.201	498.44
330.43	523.44
330.658	564.44
330.887	572.44
331.115	545.44
331.344	523.44
331.572	487.44
331.801	490.44
332.03	486.44
332.258	482.44
332.486	490.44
332.715	470.44
332.943	451.44
333.172	480.44
333.4	494.44
333.629	483.44
333.857	480.44
334.085	493.44
334.314	529.44
334.542	546.44
334.771	540.44
334.999	509.44
335.227	488.44
335.455	489.44
335.684	486.44
335.912	471.44
336.14	470.44
336.369	451.44
336.597	463.44
336.825	474.44
337.053	459.44
337.281	439.44
337.51	456.44
337.738	448.44
337.966	456.44
338.194	453.44
338.422	472.44
338.65	455.44
338.878	450.44
339.106	446.44
339.334	459.44
339.562	436.44
339.79	442.44
340.018	458.44
340.246	450.44
340.474	439.44
340.702	453.44
340.93	459.44
341.158	450.44
341.386	435.44
341.614	464.44
341.842	423.44
342.07	424.44
342.298	433.44
342.526	420.44
342.754	443.44
342.981	442.44
343.209	446.44
343.437	444.44
343.665	457.44
343.893	455.44
344.12	459.44
344.348	476.44
344.576	466.44
344.804	453.44
345.031	462.44
345.259	442.44
345.487	449.44
345.714	440.44
345.942	454.44
346.17	422.44
346.397	424.44
346.625	411.44
346.853	426.44
347.08	422.44
347.308	419.44
347.535	414.44
347.763	428.44
347.99	429.44
348.218	438.44
348.445	418.44
348.673	404.44
348.9	411.44
349.128	401.44
349.355	415.44
349.583	419.44
349.81	418.44
350.037	396.44
350.265	386.44
350.492	412.44
350.72	428.44
350.947	418.44
351.174	425.44
351.402	443.44
351.629	410.44
351.856	415.44
352.083	412.44
352.311	430.44
352.538	413.44
352.765	405.44
352.992	419.44
353.22	395.44
353.447	392.44
353.674	400.44
353.901	389.44
354.128	420.44
354.355	382.44
354.583	398.44
354.81	387.44
355.037	388.44
355.264	380.44
355.491	407.44
355.718	386.44
355.945	387.44
356.172	380.44
356.399	406.44
356.626	390.44
356.853	392.44
357.08	394.44
357.307	400.44
357.534	380.44
357.761	373.44
357.988	394.44
358.215	389.44
358.441	416.44
358.668	410.44
358.895	411.44
359.122	382.44
359.349	414.44
359.576	404.44
359.802	431.44
360.029	451.44
360.256	451.44
360.483	440.44
360.709	410.44
360.936	416.44
361.163	414.44
361.39	406.44
361.616	413.44
361.843	405.44
362.07	415.44
362.296	388.44
362.523	408.44
362.749	412.44
362.976	401.44
363.203	396.44
363.429	382.44
363.656	398.44
363.882	407.44
364.109	402.44
364.335	387.44
364.562	401.44
364.788	400.44
365.015	385.44
365.241	388.44
365.468	421.44
365.694	416.44
365.92	414.44
366.147	387.44
366.373	378.44
366.599	404.44
366.826	393.44
367.052	381.44
367.278	390.44
367.505	378.44
367.731	406.44
367.957	395.44
368.184	382.44
368.41	401.44
368.636	408.44
368.862	408.44
369.089	405.44
369.315	383.44
369.541	412.44
369.767	381.44
369.993	392.44
370.219	404.44
370.445	404.44
370.672	379.44
370.898	391.44
371.124	388.44
371.35	383.44
371.576	392.44
371.802	400.44
372.028	382.44
372.254	392.44
372.48	400.44
372.706	396.44
372.932	399.44
373.158	408.44
373.384	394.44
373.61	408.44
373.835	382.44
374.061	390.44
374.287	390.44
374.513	394.44
374.739	393.44
374.965	403.44
375.191	408.44
375.416	412.44
375.642	397.44
375.868	386.44
376.094	385.44
376.319	407.44
376.545	412.44
376.771	386.44
376.997	375.44
377.222	376.44
377.448	415.44
377.674	419.44
377.899	373.44
378.125	388.44
378.35	381.44
378.576	375.44
378.802	392.44
379.027	379.44
379.253	388.44
379.478	381.44
379.704	390.44
379.929	394.44
380.155	382.44
380.38	395.44
380.606	393.44
380.831	366.44
381.057	386.44
381.282	388.44
381.507	383.44
381.733	389.44
381.958	382.44
382.184	392.44
382.409	406.44
382.634	394.44
382.86	390.44
383.085	403.44
383.31	418.44
383.535	394.44
383.761	408.44
383.986	426.44
384.211	424.44
384.436	402.44
384.662	411.44
384.887	429.44
385.112	397.44
385.337	439.44
385.562	430.44
385.787	440.44
386.013	438.44
386.238	425.44
386.463	436.44
386.688	419.44
386.913	423.44
387.138	419.44
387.363	425.44
387.588	427.44
387.813	434.44
388.038	425.44
388.263	426.44
388.488	408.44
388.713	429.44
388.938	423.44
389.163	431.44
389.387	425.44
389.612	422.44
389.837	436.44
390.062	428.44
390.287	428.44
390.512	422.44
390.736	436.44
390.961	421.44
391.186	440.44
391.411	427.44
391.636	439.44
391.86	443.44
392.085	452.44
392.31	426.44
392.534	432.44
392.759	432.44
392.984	435.44
393.208	439.44
393.433	421.44
393.658	439.44
393.882	434.44
394.107	418.44
394.331	426.44
394.556	434.44
394.78	424.44
395.005	449.44
395.229	434.44
395.454	438.44
395.678	444.44
395.903	463.44
396.127	480.44
396.352	450.44
396.576	452.44
396.801	436.44
397.025	452.44
397.249	437.44
397.474	461.44
397.698	447.44
397.922	467.44
398.147	486.44
398.371	497.44
398.595	484.44
398.82	488.44
399.044	493.44
399.268	518.44
399.492	566.44
399.717	586.44
399.941	624.44
400.165	587.44
400.389	599.44
400.613	557.44
400.837	531.44
401.062	491.44
401.286	489.44
401.51	493.44
401.734	497.44
401.958	504.44
402.182	498.44
402.406	501.44
402.63	491.44
402.854	489.44
403.078	488.44
403.302	513.44
403.526	518.44
403.75	517.44
403.974	507.44
404.198	498.44
404.422	521.44
404.645	508.44
404.869	520.44
405.093	559.44
405.317	579.44
405.541	603.44
405.765	544.44
405.988	502.44
406.212	542.44
406.436	544.44
406.66	529.44
406.883	545.44
407.107	570.44
407.331	613.44
407.555	652.44
407.778	633.44
408.002	599.44
408.226	571.44
408.449	594.44
408.673	554.44
408.896	559.44
409.12	588.44
409.344	563.44
409.567	533.44
409.791	511.44
410.014	518.44
410.238	507.44
410.461	483.44
410.685	522.44
410.908	523.44
411.132	526.44
411.355	559.44
411.578	553.44
411.802	508.44
412.025	486.44
412.249	522.44
412.472	527.44
412.695	564.44
412.919	540.44
413.142	501.44
413.365	482.44
413.589	510.44
413.812	480.44
414.035	488.44
414.258	477.44
414.482	462.44
414.705	468.44
414.928	488.44
415.151	490.44
415.374	476.44
415.597	460.44
415.821	439.44
416.044	443.44
416.267	485.44
416.49	470.44
416.713	467.44
416.936	472.44
417.159	454.44
417.382	473.44
417.605	460.44
417.828	465.44
418.051	474.44
418.274	476.44
418.497	464.44
418.72	462.44
418.943	479.44
419.166	480.44
419.389	512.44
419.611	504.44
419.834	494.44
420.057	482.44
420.28	503.44
420.503	485.44
420.726	475.44
420.948	499.44
421.171	503.44
421.394	546.44
421.617	499.44
421.839	483.44
422.062	487.44
422.285	496.44
422.507	533.44
422.73	592.44
422.953	598.44
423.175	522.44
423.398	479.44
423.621	502.44
423.843	537.44
424.066	524.44
424.288	492.44
424.511	520.44
424.733	551.44
424.956	638.44
425.178	570.44
425.401	582.44
425.623	603.44
425.846	543.44
426.068	508.44
426.291	502.44
426.513	483.44
426.735	510.44
426.958	570.44
427.18	618.44
427.402	704.44
427.625	762.44
427.847	681.44
428.069	591.44
428.292	539.44
428.514	498.44
428.736	489.44
428.958	486.44
429.181	459.44
429.403	453.44
429.625	484.44
429.847	495.44
430.069	547.44
430.292	558.44
430.514	466.44
430.736	457.44
430.958	459.44
431.18	440.44
431.402	432.44
431.624	425.44
431.846	452.44
432.068	441.44
432.29	450.44
432.512	437.44
432.734	482.44
432.956	444.44
433.178	476.44
433.4	448.44
433.622	460.44
433.844	443.44
434.066	451.44
434.287	440.44
434.509	458.44
434.731	479.44
434.953	491.44
435.175	490.44
435.397	484.44
435.618	517.44
435.84	546.44
436.062	610.44
436.284	656.44
436.505	567.44
436.727	516.44
436.949	477.44
437.17	478.44
437.392	471.44
437.614	479.44
437.835	471.44
438.057	576.44
438.278	646.44
438.5	663.44
438.721	693.44
438.943	708.44
439.165	557.44
439.386	505.44
439.608	492.44
439.829	492.44
440.05	501.44
440.272	524.44
440.493	529.44
440.715	499.44
440.936	481.44
441.158	487.44
441.379	474.44
441.6	477.44
441.822	509.44
442.043	547.44
442.264	604.44
442.486	605.44
442.707	546.44
442.928	499.44
443.149	510.44
443.371	546.44
443.592	577.44
443.813	649.44
444.034	676.44
444.255	598.44
444.476	516.44
444.698	523.44
444.919	525.44
445.14	644.44
445.361	599.44
445.582	556.44
445.803	584.44
446.024	672.44
446.245	667.44
446.466	592.44
446.687	547.44
446.908	503.44
447.129	460.44
447.35	457.44
447.571	479.44
447.792	452.44
448.013	472.44
448.234	486.44
448.455	526.44
448.675	626.44
448.896	684.44
449.117	580.44
449.338	572.44
449.559	648.44
449.779	724.44
450	557.44
450.221	469.44
450.442	454.44
450.662	445.44
450.883	443.44
451.104	447.44
451.324	445.44
451.545	415.44
451.766	418.44
451.986	415.44
452.207	412.44
452.428	414.44
452.648	406.44
452.869	407.44
453.089	411.44
453.31	426.44
453.53	386.44
453.751	426.44
453.971	415.44
454.192	427.44
454.412	411.44
454.633	420.44
454.853	404.44
455.073	435.44
455.294	407.44
455.514	460.44
455.734	475.44
455.955	406.44
456.175	390.44
456.395	380.44
456.616	396.44
456.836	405.44
457.056	393.44
457.276	388.44
457.497	392.44
457.717	388.44
457.937	390.44
458.157	415.44
458.377	418.44
458.598	422.44
458.818	468.44
459.038	500.44
459.258	538.44
459.478	451.44
459.698	442.44
459.918	441.44
460.138	429.44
460.358	432.44
460.578	457.44
460.798	456.44
461.018	455.44
461.238	454.44
461.458	459.44
461.678	457.44
461.898	462.44
462.118	463.44
462.338	480.44
462.558	483.44
462.777	480.44
462.997	491.44
463.217	535.44
463.437	527.44
463.657	496.44
463.876	498.44
464.096	514.44
464.316	495.44
464.536	499.44
464.755	484.44
464.975	467.44
465.195	498.44
465.414	529.44
465.634	502.44
465.854	456.44
466.073	444.44
466.293	442.44
466.512	434.44
466.732	427.44
466.951	424.44
467.171	417.44
467.391	442.44
467.61	449.44
467.829	444.44
468.049	435.44
468.268	425.44
468.488	427.44
468.707	431.44
468.927	420.44
469.146	439.44
469.365	418.44
469.585	407.44
469.804	426.44
470.023	442.44
470.243	446.44
470.462	417.44
470.681	433.44
470.901	430.44
471.12	445.44
471.339	430.44
471.558	431.44
471.777	424.44
471.997	428.44
472.216	430.44
472.435	447.44
472.654	424.44
472.873	395.44
473.092	418.44
473.311	438.44
473.53	421.44
473.749	427.44
473.968	453.44
474.187	536.44
474.406	540.44
474.625	463.44
474.844	440.44
475.063	428.44
475.282	426.44
475.501	438.44
475.72	431.44
475.939	429.44
476.158	436.44
476.377	440.44
476.596	436.44
476.814	441.44
477.033	438.44
477.252	445.44
477.471	438.44
477.69	447.44
477.908	468.44
478.127	450.44
478.346	487.44
478.564	476.44
478.783	479.44
479.002	487.44
479.22	482.44
479.439	492.44
479.658	493.44
479.876	493.44
480.095	527.44
480.313	542.44
480.532	531.44
480.751	510.44
480.969	520.44
481.188	555.44
481.406	566.44
481.624	518.44
481.843	497.44
482.061	504.44
482.28	507.44
482.498	498.44
482.717	489.44
482.935	470.44
483.153	493.44
483.372	484.44
483.59	500.44
483.808	476.44
484.027	480.44
484.245	472.44
484.463	488.44
484.681	492.44
484.9	495.44
485.118	493.44
485.336	480.44
485.554	510.44
485.772	499.44
485.99	510.44
486.209	517.44
486.427	508.44
486.645	518.44
486.863	519.44
487.081	529.44
487.299	522.44
487.517	519.44
487.735	483.44
487.953	516.44
488.171	513.44
488.389	513.44
488.607	514.44
488.825	523.44
489.043	523.44
489.261	542.44
489.479	536.44
489.696	525.44
489.914	547.44
490.132	538.44
490.35	549.44
490.568	553.44
490.786	555.44
491.003	548.44
491.221	554.44
491.439	562.44
491.657	566.44
491.874	572.44
492.092	583.44
492.31	592.44
492.527	583.44
492.745	560.44
492.963	592.44
493.18	587.44
493.398	572.44
493.615	595.44
493.833	615.44
494.05	596.44
494.268	596.44
494.485	606.44
494.703	585.44
494.92	602.44
495.138	591.44
495.355	610.44
495.573	591.44
495.79	582.44
496.008	594.44
496.225	610.44
496.442	610.44
496.66	627.44
496.877	607.44
497.094	632.44
497.312	616.44
497.529	630.44
497.746	650.44
497.963	662.44
498.181	678.44
498.398	676.44
498.615	694.44
498.832	716.44
499.049	749.44
499.267	764.44
499.484	773.44
499.701	831.44
499.918	860.44
500.135	913.44
500.352	964.44
500.569	949.44
500.786	935.44
501.003	960.44
501.22	906.44
501.437	886.44
501.654	835.44
501.871	800.44
502.088	758.44
