Data from 1977.PennyLincolnUp.Lamp.En5.5.200Scan.071719.P1_HRD10591_16-06-49-864.txt Node
Date: Thu Jul 18 16:06:49 EDT 2019
User: cochatt
Spectrometer: HR+D1059
Trigger mode: 1
Integration Time (sec): 1.000000E-1
Scans to average: 1
Electric dark correction enabled: true
Nonlinearity correction enabled: false
Boxcar width: 0
XAxis mode: Wavelengths
Number of Pixels in Spectrum: 2048
>>>>>Begin Spectral Data<<<<<
223.165	-29.31
223.4	-29.31
223.635	-29.31
223.869	-11.31
224.104	-20.31
224.338	-19.31
224.573	-7.31
224.808	-16.31
225.042	-14.31
225.277	-8.31
225.511	-6.31
225.746	-1.31
225.98	-12.31
226.215	20.69
226.449	26.69
226.683	28.69
226.918	36.69
227.152	33.69
227.387	28.69
227.621	50.69
227.856	36.69
228.09	51.69
228.324	43.69
228.559	49.69
228.793	53.69
229.027	99.69
229.262	101.69
229.496	98.69
229.73	120.69
229.964	136.69
230.199	121.69
230.433	110.69
230.667	114.69
230.901	116.69
231.136	97.69
231.37	97.69
231.604	122.69
231.838	119.69
232.072	108.69
232.306	109.69
232.541	112.69
232.775	97.69
233.009	114.69
233.243	120.69
233.477	109.69
233.711	105.69
233.945	105.69
234.179	110.69
234.413	117.69
234.647	101.69
234.881	118.69
235.115	124.69
235.349	106.69
235.583	114.69
235.817	129.69
236.051	137.69
236.285	133.69
236.519	122.69
236.753	129.69
236.987	148.69
237.221	150.69
237.455	196.69
237.689	162.69
237.922	134.69
238.156	121.69
238.39	122.69
238.624	126.69
238.858	125.69
239.091	124.69
239.325	120.69
239.559	133.69
239.793	114.69
240.027	131.69
240.26	122.69
240.494	148.69
240.728	136.69
240.961	136.69
241.195	155.69
241.429	133.69
241.662	131.69
241.896	136.69
242.13	124.69
242.363	128.69
242.597	133.69
242.83	128.69
243.064	141.69
243.298	132.69
243.531	130.69
243.765	134.69
243.998	140.69
244.232	129.69
244.465	151.69
244.699	137.69
244.932	148.69
245.166	152.69
245.399	144.69
245.633	147.69
245.866	148.69
246.099	147.69
246.333	169.69
246.566	160.69
246.8	156.69
247.033	167.69
247.266	164.69
247.5	147.69
247.733	170.69
247.966	176.69
248.2	172.69
248.433	176.69
248.666	173.69
248.899	182.69
249.133	204.69
249.366	211.69
249.599	184.69
249.832	178.69
250.066	179.69
250.299	174.69
250.532	189.69
250.765	192.69
250.998	194.69
251.231	222.69
251.465	201.69
251.698	177.69
251.931	195.69
252.164	194.69
252.397	192.69
252.63	195.69
252.863	209.69
253.096	219.69
253.329	210.69
253.562	205.69
253.795	198.69
254.028	202.69
254.261	218.69
254.494	224.69
254.727	245.69
254.96	274.69
255.193	256.69
255.426	246.69
255.659	219.69
255.892	212.69
256.124	211.69
256.357	219.69
256.59	231.69
256.823	216.69
257.056	214.69
257.289	201.69
257.521	210.69
257.754	205.69
257.987	203.69
258.22	202.69
258.452	215.69
258.685	200.69
258.918	224.69
259.151	206.69
259.383	207.69
259.616	207.69
259.849	228.69
260.081	226.69
260.314	244.69
260.547	269.69
260.779	236.69
261.012	229.69
261.244	245.69
261.477	221.69
261.71	216.69
261.942	214.69
262.175	233.69
262.407	228.69
262.64	223.69
262.872	228.69
263.105	217.69
263.337	213.69
263.57	208.69
263.802	221.69
264.035	212.69
264.267	233.69
264.499	227.69
264.732	230.69
264.964	218.69
265.197	223.69
265.429	207.69
265.661	215.69
265.894	225.69
266.126	236.69
266.358	215.69
266.591	240.69
266.823	234.69
267.055	225.69
267.287	222.69
267.52	225.69
267.752	237.69
267.984	247.69
268.216	231.69
268.448	252.69
268.681	260.69
268.913	241.69
269.145	288.69
269.377	287.69
269.609	277.69
269.841	265.69
270.073	284.69
270.306	288.69
270.538	300.69
270.77	314.69
271.002	287.69
271.234	299.69
271.466	307.69
271.698	312.69
271.93	328.69
272.162	326.69
272.394	316.69
272.626	306.69
272.858	293.69
273.09	290.69
273.322	282.69
273.553	275.69
273.785	282.69
274.017	276.69
274.249	262.69
274.481	257.69
274.713	286.69
274.945	284.69
275.176	298.69
275.408	280.69
275.64	288.69
275.872	280.69
276.104	284.69
276.335	280.69
276.567	277.69
276.799	276.69
277.031	294.69
277.262	324.69
277.494	332.69
277.726	320.69
277.957	306.69
278.189	274.69
278.421	282.69
278.652	284.69
278.884	278.69
279.115	285.69
279.347	280.69
279.579	277.69
279.81	286.69
280.042	277.69
280.273	292.69
280.505	290.69
280.736	289.69
280.968	298.69
281.199	289.69
281.431	283.69
281.662	300.69
281.894	299.69
282.125	283.69
282.356	317.69
282.588	318.69
282.819	327.69
283.051	304.69
283.282	293.69
283.513	289.69
283.745	307.69
283.976	328.69
284.207	295.69
284.439	308.69
284.67	291.69
284.901	301.69
285.132	296.69
285.364	303.69
285.595	295.69
285.826	313.69
286.057	308.69
286.288	297.69
286.52	302.69
286.751	317.69
286.982	322.69
287.213	302.69
287.444	315.69
287.675	338.69
287.906	308.69
288.138	314.69
288.369	334.69
288.6	324.69
288.831	327.69
289.062	336.69
289.293	320.69
289.524	312.69
289.755	315.69
289.986	331.69
290.217	322.69
290.448	328.69
290.679	305.69
290.91	317.69
291.141	337.69
291.371	297.69
291.602	318.69
291.833	296.69
292.064	329.69
292.295	302.69
292.526	306.69
292.757	323.69
292.987	325.69
293.218	304.69
293.449	336.69
293.68	327.69
293.91	324.69
294.141	300.69
294.372	310.69
294.603	324.69
294.833	324.69
295.064	307.69
295.295	317.69
295.525	303.69
295.756	326.69
295.987	336.69
296.217	338.69
296.448	356.69
296.679	328.69
296.909	311.69
297.14	336.69
297.37	319.69
297.601	313.69
297.831	329.69
298.062	329.69
298.292	328.69
298.523	341.69
298.753	321.69
298.984	337.69
299.214	333.69
299.445	336.69
299.675	334.69
299.905	316.69
300.136	341.69
300.366	330.69
300.597	345.69
300.827	351.69
301.057	348.69
301.288	361.69
301.518	355.69
301.748	323.69
301.979	343.69
302.209	358.69
302.439	372.69
302.669	334.69
302.9	357.69
303.13	346.69
303.36	358.69
303.59	352.69
303.82	375.69
304.051	372.69
304.281	352.69
304.511	364.69
304.741	348.69
304.971	346.69
305.201	347.69
305.431	371.69
305.661	356.69
305.891	354.69
306.121	357.69
306.352	346.69
306.582	358.69
306.812	338.69
307.042	359.69
307.272	356.69
307.502	324.69
307.731	354.69
307.961	352.69
308.191	337.69
308.421	372.69
308.651	365.69
308.881	360.69
309.111	382.69
309.341	346.69
309.571	357.69
309.8	377.69
310.03	382.69
310.26	383.69
310.49	393.69
310.72	399.69
310.949	407.69
311.179	404.69
311.409	385.69
311.639	389.69
311.868	393.69
312.098	402.69
312.328	421.69
312.557	380.69
312.787	415.69
313.017	425.69
313.246	410.69
313.476	377.69
313.706	384.69
313.935	401.69
314.165	428.69
314.394	409.69
314.624	423.69
314.853	397.69
315.083	403.69
315.312	387.69
315.542	386.69
315.771	374.69
316.001	390.69
316.23	394.69
316.46	393.69
316.689	409.69
316.919	405.69
317.148	401.69
317.377	397.69
317.607	406.69
317.836	398.69
318.065	396.69
318.295	398.69
318.524	392.69
318.753	394.69
318.983	380.69
319.212	399.69
319.441	406.69
319.67	401.69
319.9	412.69
320.129	408.69
320.358	389.69
320.587	417.69
320.816	412.69
321.046	413.69
321.275	422.69
321.504	428.69
321.733	419.69
321.962	433.69
322.191	420.69
322.42	429.69
322.649	430.69
322.878	457.69
323.108	453.69
323.337	469.69
323.566	500.69
323.795	514.69
324.024	556.69
324.253	634.69
324.482	887.69
324.71	1298.69
324.939	1773.69
325.168	1520.69
325.397	834.69
325.626	602.69
325.855	532.69
326.084	498.69
326.313	486.69
326.542	497.69
326.77	534.69
326.999	631.69
327.228	794.69
327.457	1176.69
327.686	1337.69
327.914	916.69
328.143	630.69
328.372	586.69
328.6	568.69
328.829	516.69
329.058	525.69
329.287	552.69
329.515	534.69
329.744	510.69
329.972	496.69
330.201	515.69
330.43	531.69
330.658	539.69
330.887	547.69
331.115	542.69
331.344	512.69
331.572	491.69
331.801	482.69
332.03	498.69
332.258	485.69
332.486	459.69
332.715	489.69
332.943	478.69
333.172	475.69
333.4	481.69
333.629	508.69
333.857	506.69
334.085	533.69
334.314	527.69
334.542	514.69
334.771	523.69
334.999	522.69
335.227	512.69
335.455	499.69
335.684	480.69
335.912	464.69
336.14	474.69
336.369	482.69
336.597	457.69
336.825	467.69
337.053	472.69
337.281	449.69
337.51	439.69
337.738	446.69
337.966	438.69
338.194	458.69
338.422	457.69
338.65	451.69
338.878	451.69
339.106	463.69
339.334	457.69
339.562	455.69
339.79	448.69
340.018	465.69
340.246	444.69
340.474	449.69
340.702	434.69
340.93	457.69
341.158	426.69
341.386	437.69
341.614	456.69
341.842	448.69
342.07	442.69
342.298	437.69
342.526	419.69
342.754	427.69
342.981	430.69
343.209	434.69
343.437	432.69
343.665	441.69
343.893	460.69
344.12	457.69
344.348	448.69
344.576	461.69
344.804	470.69
345.031	460.69
345.259	452.69
345.487	450.69
345.714	432.69
345.942	425.69
346.17	423.69
346.397	430.69
346.625	417.69
346.853	418.69
347.08	412.69
347.308	421.69
347.535	438.69
347.763	442.69
347.99	421.69
348.218	455.69
348.445	432.69
348.673	441.69
348.9	423.69
349.128	445.69
349.355	408.69
349.583	412.69
349.81	424.69
350.037	411.69
350.265	416.69
350.492	436.69
350.72	403.69
350.947	430.69
351.174	428.69
351.402	434.69
351.629	410.69
351.856	411.69
352.083	438.69
352.311	421.69
352.538	437.69
352.765	437.69
352.992	413.69
353.22	423.69
353.447	417.69
353.674	409.69
353.901	388.69
354.128	384.69
354.355	412.69
354.583	402.69
354.81	403.69
355.037	388.69
355.264	403.69
355.491	393.69
355.718	405.69
355.945	396.69
356.172	412.69
356.399	388.69
356.626	369.69
356.853	403.69
357.08	389.69
357.307	377.69
357.534	380.69
357.761	386.69
357.988	405.69
358.215	383.69
358.441	395.69
358.668	401.69
358.895	405.69
359.122	394.69
359.349	386.69
359.576	394.69
359.802	429.69
360.029	445.69
360.256	456.69
360.483	441.69
360.709	408.69
360.936	406.69
361.163	406.69
361.39	413.69
361.616	410.69
361.843	406.69
362.07	404.69
362.296	416.69
362.523	423.69
362.749	392.69
362.976	405.69
363.203	412.69
363.429	417.69
363.656	398.69
363.882	420.69
364.109	389.69
364.335	407.69
364.562	380.69
364.788	379.69
365.015	386.69
365.241	372.69
365.468	412.69
365.694	398.69
365.92	410.69
366.147	395.69
366.373	381.69
366.599	407.69
366.826	395.69
367.052	402.69
367.278	415.69
367.505	409.69
367.731	387.69
367.957	396.69
368.184	406.69
368.41	408.69
368.636	410.69
368.862	424.69
369.089	400.69
369.315	396.69
369.541	398.69
369.767	401.69
369.993	398.69
370.219	382.69
370.445	386.69
370.672	394.69
370.898	398.69
371.124	407.69
371.35	393.69
371.576	394.69
371.802	408.69
372.028	384.69
372.254	390.69
372.48	393.69
372.706	407.69
372.932	398.69
373.158	397.69
373.384	384.69
373.61	404.69
373.835	395.69
374.061	410.69
374.287	421.69
374.513	384.69
374.739	408.69
374.965	419.69
375.191	387.69
375.416	406.69
375.642	420.69
375.868	397.69
376.094	388.69
376.319	377.69
376.545	368.69
376.771	381.69
376.997	366.69
377.222	394.69
377.448	386.69
377.674	387.69
377.899	408.69
378.125	398.69
378.35	393.69
378.576	382.69
378.802	387.69
379.027	381.69
379.253	387.69
379.478	378.69
379.704	398.69
379.929	399.69
380.155	395.69
380.38	393.69
380.606	402.69
380.831	404.69
381.057	395.69
381.282	384.69
381.507	408.69
381.733	410.69
381.958	404.69
382.184	406.69
382.409	411.69
382.634	410.69
382.86	415.69
383.085	397.69
383.31	404.69
383.535	402.69
383.761	404.69
383.986	419.69
384.211	425.69
384.436	423.69
384.662	428.69
384.887	422.69
385.112	416.69
385.337	423.69
385.562	412.69
385.787	415.69
386.013	448.69
386.238	448.69
386.463	439.69
386.688	425.69
386.913	433.69
387.138	435.69
387.363	450.69
387.588	453.69
387.813	415.69
388.038	437.69
388.263	421.69
388.488	433.69
388.713	451.69
388.938	434.69
389.163	427.69
389.387	436.69
389.612	413.69
389.837	432.69
390.062	413.69
390.287	432.69
390.512	429.69
390.736	428.69
390.961	425.69
391.186	421.69
391.411	420.69
391.636	430.69
391.86	420.69
392.085	457.69
392.31	427.69
392.534	459.69
392.759	459.69
392.984	426.69
393.208	424.69
393.433	414.69
393.658	429.69
393.882	417.69
394.107	438.69
394.331	423.69
394.556	427.69
394.78	436.69
395.005	428.69
395.229	431.69
395.454	458.69
395.678	445.69
395.903	464.69
396.127	470.69
396.352	464.69
396.576	444.69
396.801	424.69
397.025	448.69
397.249	462.69
397.474	467.69
397.698	460.69
397.922	472.69
398.147	486.69
398.371	484.69
398.595	483.69
398.82	480.69
399.044	506.69
399.268	496.69
399.492	558.69
399.717	611.69
399.941	594.69
400.165	614.69
400.389	586.69
400.613	553.69
400.837	508.69
401.062	481.69
401.286	496.69
401.51	474.69
401.734	494.69
401.958	493.69
402.182	501.69
402.406	496.69
402.63	497.69
402.854	499.69
403.078	485.69
403.302	494.69
403.526	509.69
403.75	534.69
403.974	521.69
404.198	513.69
404.422	509.69
404.645	524.69
404.869	506.69
405.093	536.69
405.317	570.69
405.541	611.69
405.765	556.69
405.988	522.69
406.212	536.69
406.436	555.69
406.66	537.69
406.883	546.69
407.107	569.69
407.331	591.69
407.555	661.69
407.778	637.69
408.002	578.69
408.226	593.69
408.449	544.69
408.673	540.69
408.896	567.69
409.12	642.69
409.344	574.69
409.567	501.69
409.791	521.69
410.014	497.69
410.238	497.69
410.461	520.69
410.685	497.69
410.908	535.69
411.132	523.69
411.355	578.69
411.578	585.69
411.802	502.69
412.025	519.69
412.249	542.69
412.472	513.69
412.695	548.69
412.919	542.69
413.142	523.69
413.365	473.69
413.589	486.69
413.812	473.69
414.035	472.69
414.258	485.69
414.482	457.69
414.705	469.69
414.928	489.69
415.151	473.69
415.374	476.69
415.597	466.69
415.821	476.69
416.044	480.69
416.267	477.69
416.49	470.69
416.713	449.69
416.936	464.69
417.159	468.69
417.382	476.69
417.605	493.69
417.828	489.69
418.051	496.69
418.274	472.69
418.497	464.69
418.72	485.69
418.943	468.69
419.166	476.69
419.389	539.69
419.611	496.69
419.834	477.69
420.057	510.69
420.28	491.69
420.503	475.69
420.726	470.69
420.948	503.69
421.171	508.69
421.394	549.69
421.617	503.69
421.839	499.69
422.062	490.69
422.285	502.69
422.507	560.69
422.73	613.69
422.953	580.69
423.175	516.69
423.398	503.69
423.621	508.69
423.843	521.69
424.066	504.69
424.288	540.69
424.511	544.69
424.733	587.69
424.956	646.69
425.178	613.69
425.401	599.69
425.623	636.69
425.846	562.69
426.068	539.69
426.291	521.69
426.513	513.69
426.735	504.69
426.958	551.69
427.18	620.69
427.402	720.69
427.625	800.69
427.847	672.69
428.069	584.69
428.292	521.69
428.514	520.69
428.736	481.69
428.958	480.69
429.181	477.69
429.403	467.69
429.625	485.69
429.847	500.69
430.069	568.69
430.292	564.69
430.514	503.69
430.736	478.69
430.958	452.69
431.18	445.69
431.402	449.69
431.624	442.69
431.846	428.69
432.068	433.69
432.29	456.69
432.512	438.69
432.734	454.69
432.956	464.69
433.178	452.69
433.4	445.69
433.622	451.69
433.844	464.69
434.066	484.69
434.287	436.69
434.509	462.69
434.731	484.69
434.953	490.69
435.175	484.69
435.397	534.69
435.618	532.69
435.84	578.69
436.062	633.69
436.284	665.69
436.505	578.69
436.727	508.69
436.949	488.69
437.17	467.69
437.392	448.69
437.614	487.69
437.835	522.69
438.057	552.69
438.278	666.69
438.5	653.69
438.721	726.69
438.943	695.69
439.165	556.69
439.386	526.69
439.608	515.69
439.829	508.69
440.05	524.69
440.272	559.69
440.493	550.69
440.715	501.69
440.936	511.69
441.158	468.69
441.379	476.69
441.6	487.69
441.822	484.69
442.043	544.69
442.264	598.69
442.486	650.69
442.707	582.69
442.928	544.69
443.149	527.69
443.371	544.69
443.592	598.69
443.813	667.69
444.034	697.69
444.255	589.69
444.476	524.69
444.698	532.69
444.919	547.69
445.14	603.69
445.361	570.69
445.582	562.69
445.803	584.69
446.024	674.69
446.245	687.69
446.466	620.69
446.687	526.69
446.908	505.69
447.129	485.69
447.35	475.69
447.571	469.69
447.792	452.69
448.013	455.69
448.234	497.69
448.455	514.69
448.675	608.69
448.896	713.69
449.117	608.69
449.338	587.69
449.559	678.69
449.779	735.69
450	600.69
450.221	517.69
450.442	475.69
450.662	438.69
450.883	465.69
451.104	464.69
451.324	458.69
451.545	437.69
451.766	422.69
451.986	410.69
452.207	400.69
452.428	416.69
452.648	402.69
452.869	410.69
453.089	415.69
453.31	414.69
453.53	428.69
453.751	405.69
453.971	438.69
454.192	423.69
454.412	384.69
454.633	404.69
454.853	427.69
455.073	403.69
455.294	439.69
455.514	462.69
455.734	462.69
455.955	406.69
456.175	411.69
456.395	402.69
456.616	418.69
456.836	387.69
457.056	393.69
457.276	376.69
457.497	382.69
457.717	397.69
457.937	396.69
458.157	407.69
458.377	411.69
458.598	419.69
458.818	454.69
459.038	515.69
459.258	525.69
459.478	488.69
459.698	452.69
459.918	449.69
460.138	450.69
460.358	460.69
460.578	456.69
460.798	450.69
461.018	457.69
461.238	457.69
461.458	448.69
461.678	451.69
461.898	453.69
462.118	457.69
462.338	480.69
462.558	477.69
462.777	470.69
462.997	517.69
463.217	508.69
463.437	540.69
463.657	505.69
463.876	520.69
464.096	475.69
464.316	489.69
464.536	517.69
464.755	470.69
464.975	499.69
465.195	497.69
465.414	534.69
465.634	503.69
465.854	456.69
466.073	447.69
466.293	444.69
466.512	425.69
466.732	425.69
466.951	417.69
467.171	415.69
467.391	428.69
467.61	433.69
467.829	424.69
468.049	424.69
468.268	408.69
468.488	410.69
468.707	409.69
468.927	415.69
469.146	407.69
469.365	418.69
469.585	425.69
469.804	413.69
470.023	442.69
470.243	434.69
470.462	433.69
470.681	443.69
470.901	427.69
471.12	425.69
471.339	422.69
471.558	442.69
471.777	450.69
471.997	431.69
472.216	411.69
472.435	402.69
472.654	460.69
472.873	432.69
473.092	423.69
473.311	402.69
473.53	402.69
473.749	436.69
473.968	483.69
474.187	542.69
474.406	588.69
474.625	488.69
474.844	436.69
475.063	447.69
475.282	444.69
475.501	443.69
475.72	470.69
475.939	435.69
476.158	444.69
476.377	416.69
476.596	427.69
476.814	445.69
477.033	452.69
477.252	453.69
477.471	457.69
477.69	457.69
477.908	465.69
478.127	446.69
478.346	470.69
478.564	460.69
478.783	475.69
479.002	484.69
479.22	472.69
479.439	509.69
479.658	485.69
479.876	525.69
480.095	526.69
480.313	547.69
480.532	537.69
480.751	518.69
480.969	506.69
481.188	559.69
481.406	564.69
481.624	531.69
481.843	495.69
482.061	517.69
482.28	472.69
482.498	514.69
482.717	488.69
482.935	496.69
483.153	472.69
483.372	489.69
483.59	502.69
483.808	474.69
484.027	486.69
484.245	480.69
484.463	472.69
484.681	481.69
484.9	474.69
485.118	496.69
485.336	512.69
485.554	521.69
485.772	521.69
485.99	501.69
486.209	506.69
486.427	509.69
486.645	520.69
486.863	525.69
487.081	513.69
487.299	518.69
487.517	522.69
487.735	519.69
487.953	519.69
488.171	531.69
488.389	520.69
488.607	506.69
488.825	521.69
489.043	506.69
489.261	540.69
489.479	521.69
489.696	537.69
489.914	529.69
490.132	553.69
490.35	549.69
490.568	535.69
490.786	539.69
491.003	562.69
491.221	554.69
491.439	558.69
491.657	590.69
491.874	607.69
492.092	576.69
492.31	580.69
492.527	605.69
492.745	624.69
492.963	595.69
493.18	613.69
493.398	599.69
493.615	607.69
493.833	627.69
494.05	625.69
494.268	588.69
494.485	600.69
494.703	593.69
494.92	602.69
495.138	619.69
495.355	615.69
495.573	621.69
495.79	579.69
496.008	635.69
496.225	611.69
496.442	605.69
496.66	619.69
496.877	632.69
497.094	628.69
497.312	650.69
497.529	664.69
497.746	644.69
497.963	644.69
498.181	665.69
498.398	695.69
498.615	709.69
498.832	738.69
499.049	740.69
499.267	741.69
499.484	803.69
499.701	848.69
499.918	854.69
500.135	900.69
500.352	955.69
500.569	966.69
500.786	978.69
501.003	953.69
501.22	930.69
501.437	884.69
501.654	843.69
501.871	845.69
