Data from 1977.PennyLincolnUp.Lamp.En5.5.200Scan.071719.P1_HRD10591_16-04-51-864.txt Node
Date: Thu Jul 18 16:04:51 EDT 2019
User: cochatt
Spectrometer: HR+D1059
Trigger mode: 1
Integration Time (sec): 1.000000E-1
Scans to average: 1
Electric dark correction enabled: true
Nonlinearity correction enabled: false
Boxcar width: 0
XAxis mode: Wavelengths
Number of Pixels in Spectrum: 2048
>>>>>Begin Spectral Data<<<<<
223.165	-14.62
223.4	-14.62
223.635	-14.62
223.869	-8.62
224.104	-23.62
224.338	-19.62
224.573	-22.62
224.808	-15.62
225.042	5.38
225.277	-10.62
225.511	7.38
225.746	-7.62
225.98	6.38
226.215	17.38
226.449	16.38
226.683	21.38
226.918	19.38
227.152	29.38
227.387	48.38
227.621	51.38
227.856	43.38
228.09	37.38
228.324	36.38
228.559	57.38
228.793	61.38
229.027	80.38
229.262	79.38
229.496	108.38
229.73	96.38
229.964	132.38
230.199	87.38
230.433	89.38
230.667	99.38
230.901	101.38
231.136	106.38
231.37	90.38
231.604	104.38
231.838	104.38
232.072	101.38
232.306	89.38
232.541	110.38
232.775	102.38
233.009	105.38
233.243	99.38
233.477	99.38
233.711	103.38
233.945	105.38
234.179	106.38
234.413	117.38
234.647	112.38
234.881	112.38
235.115	105.38
235.349	120.38
235.583	105.38
235.817	103.38
236.051	124.38
236.285	109.38
236.519	111.38
236.753	107.38
236.987	122.38
237.221	144.38
237.455	170.38
237.689	142.38
237.922	127.38
238.156	118.38
238.39	119.38
238.624	118.38
238.858	116.38
239.091	131.38
239.325	101.38
239.559	131.38
239.793	126.38
240.027	119.38
240.26	132.38
240.494	131.38
240.728	136.38
240.961	126.38
241.195	122.38
241.429	129.38
241.662	126.38
241.896	127.38
242.13	121.38
242.363	127.38
242.597	133.38
242.83	123.38
243.064	131.38
243.298	141.38
243.531	124.38
243.765	128.38
243.998	128.38
244.232	125.38
244.465	135.38
244.699	125.38
244.932	137.38
245.166	133.38
245.399	144.38
245.633	145.38
245.866	142.38
246.099	136.38
246.333	120.38
246.566	123.38
246.8	139.38
247.033	142.38
247.266	149.38
247.5	145.38
247.733	140.38
247.966	166.38
248.2	173.38
248.433	167.38
248.666	152.38
248.899	168.38
249.133	173.38
249.366	168.38
249.599	164.38
249.832	160.38
250.066	158.38
250.299	160.38
250.532	159.38
250.765	167.38
250.998	172.38
251.231	180.38
251.465	185.38
251.698	167.38
251.931	177.38
252.164	166.38
252.397	182.38
252.63	193.38
252.863	187.38
253.096	200.38
253.329	204.38
253.562	200.38
253.795	190.38
254.028	192.38
254.261	197.38
254.494	173.38
254.727	202.38
254.96	208.38
255.193	218.38
255.426	205.38
255.659	199.38
255.892	188.38
256.124	188.38
256.357	197.38
256.59	191.38
256.823	181.38
257.056	191.38
257.289	184.38
257.521	205.38
257.754	186.38
257.987	172.38
258.22	184.38
258.452	176.38
258.685	189.38
258.918	196.38
259.151	207.38
259.383	189.38
259.616	187.38
259.849	195.38
260.081	205.38
260.314	224.38
260.547	219.38
260.779	198.38
261.012	196.38
261.244	202.38
261.477	220.38
261.71	207.38
261.942	206.38
262.175	205.38
262.407	199.38
262.64	191.38
262.872	201.38
263.105	194.38
263.337	206.38
263.57	181.38
263.802	200.38
264.035	202.38
264.267	195.38
264.499	212.38
264.732	215.38
264.964	201.38
265.197	213.38
265.429	198.38
265.661	207.38
265.894	212.38
266.126	208.38
266.358	200.38
266.591	205.38
266.823	200.38
267.055	203.38
267.287	217.38
267.52	224.38
267.752	223.38
267.984	220.38
268.216	212.38
268.448	218.38
268.681	216.38
268.913	243.38
269.145	242.38
269.377	253.38
269.609	251.38
269.841	233.38
270.073	233.38
270.306	241.38
270.538	278.38
270.77	289.38
271.002	259.38
271.234	251.38
271.466	259.38
271.698	272.38
271.93	263.38
272.162	271.38
272.394	277.38
272.626	277.38
272.858	267.38
273.09	246.38
273.322	246.38
273.553	241.38
273.785	254.38
274.017	239.38
274.249	253.38
274.481	236.38
274.713	240.38
274.945	258.38
275.176	251.38
275.408	254.38
275.64	244.38
275.872	264.38
276.104	236.38
276.335	241.38
276.567	239.38
276.799	259.38
277.031	245.38
277.262	271.38
277.494	276.38
277.726	284.38
277.957	260.38
278.189	255.38
278.421	265.38
278.652	251.38
278.884	244.38
279.115	263.38
279.347	251.38
279.579	258.38
279.81	251.38
280.042	279.38
280.273	263.38
280.505	268.38
280.736	243.38
280.968	243.38
281.199	244.38
281.431	272.38
281.662	250.38
281.894	263.38
282.125	274.38
282.356	276.38
282.588	284.38
282.819	303.38
283.051	275.38
283.282	266.38
283.513	245.38
283.745	270.38
283.976	270.38
284.207	274.38
284.439	291.38
284.67	281.38
284.901	266.38
285.132	283.38
285.364	273.38
285.595	271.38
285.826	274.38
286.057	277.38
286.288	279.38
286.52	281.38
286.751	275.38
286.982	296.38
287.213	285.38
287.444	292.38
287.675	285.38
287.906	307.38
288.138	312.38
288.369	279.38
288.6	291.38
288.831	283.38
289.062	293.38
289.293	300.38
289.524	294.38
289.755	272.38
289.986	282.38
290.217	279.38
290.448	287.38
290.679	291.38
290.91	307.38
291.141	294.38
291.371	291.38
291.602	285.38
291.833	265.38
292.064	285.38
292.295	283.38
292.526	298.38
292.757	287.38
292.987	287.38
293.218	284.38
293.449	299.38
293.68	291.38
293.91	279.38
294.141	291.38
294.372	284.38
294.603	299.38
294.833	291.38
295.064	307.38
295.295	292.38
295.525	297.38
295.756	289.38
295.987	292.38
296.217	311.38
296.448	313.38
296.679	287.38
296.909	292.38
297.14	313.38
297.37	301.38
297.601	287.38
297.831	305.38
298.062	312.38
298.292	300.38
298.523	313.38
298.753	328.38
298.984	314.38
299.214	323.38
299.445	301.38
299.675	308.38
299.905	302.38
300.136	299.38
300.366	298.38
300.597	296.38
300.827	311.38
301.057	326.38
301.288	317.38
301.518	312.38
301.748	297.38
301.979	338.38
302.209	323.38
302.439	325.38
302.669	330.38
302.9	312.38
303.13	331.38
303.36	321.38
303.59	327.38
303.82	322.38
304.051	312.38
304.281	312.38
304.511	313.38
304.741	304.38
304.971	308.38
305.201	326.38
305.431	330.38
305.661	316.38
305.891	347.38
306.121	314.38
306.352	333.38
306.582	316.38
306.812	315.38
307.042	328.38
307.272	315.38
307.502	330.38
307.731	317.38
307.961	327.38
308.191	313.38
308.421	324.38
308.651	323.38
308.881	313.38
309.111	336.38
309.341	344.38
309.571	329.38
309.8	349.38
310.03	336.38
310.26	339.38
310.49	326.38
310.72	352.38
310.949	347.38
311.179	353.38
311.409	347.38
311.639	346.38
311.868	341.38
312.098	349.38
312.328	361.38
312.557	348.38
312.787	360.38
313.017	359.38
313.246	344.38
313.476	355.38
313.706	357.38
313.935	364.38
314.165	362.38
314.394	367.38
314.624	363.38
314.853	360.38
315.083	366.38
315.312	338.38
315.542	356.38
315.771	352.38
316.001	358.38
316.23	364.38
316.46	342.38
316.689	357.38
316.919	356.38
317.148	362.38
317.377	351.38
317.607	339.38
317.836	364.38
318.065	352.38
318.295	357.38
318.524	358.38
318.753	359.38
318.983	348.38
319.212	356.38
319.441	372.38
319.67	353.38
319.9	360.38
320.129	348.38
320.358	358.38
320.587	375.38
320.816	367.38
321.046	357.38
321.275	370.38
321.504	363.38
321.733	360.38
321.962	366.38
322.191	378.38
322.42	400.38
322.649	395.38
322.878	391.38
323.108	408.38
323.337	399.38
323.566	423.38
323.795	413.38
324.024	436.38
324.253	499.38
324.482	655.38
324.71	897.38
324.939	1223.38
325.168	1079.38
325.397	583.38
325.626	469.38
325.855	427.38
326.084	395.38
326.313	424.38
326.542	403.38
326.77	431.38
326.999	480.38
327.228	621.38
327.457	827.38
327.686	991.38
327.914	663.38
328.143	507.38
328.372	432.38
328.6	436.38
328.829	399.38
329.058	435.38
329.287	427.38
329.515	421.38
329.744	409.38
329.972	423.38
330.201	425.38
330.43	419.38
330.658	443.38
330.887	455.38
331.115	444.38
331.344	416.38
331.572	423.38
331.801	431.38
332.03	404.38
332.258	418.38
332.486	396.38
332.715	413.38
332.943	431.38
333.172	449.38
333.4	441.38
333.629	451.38
333.857	448.38
334.085	454.38
334.314	458.38
334.542	457.38
334.771	479.38
334.999	451.38
335.227	463.38
335.455	440.38
335.684	439.38
335.912	458.38
336.14	409.38
336.369	401.38
336.597	431.38
336.825	428.38
337.053	406.38
337.281	437.38
337.51	409.38
337.738	401.38
337.966	400.38
338.194	407.38
338.422	411.38
338.65	398.38
338.878	421.38
339.106	403.38
339.334	418.38
339.562	407.38
339.79	398.38
340.018	390.38
340.246	397.38
340.474	402.38
340.702	423.38
340.93	411.38
341.158	405.38
341.386	391.38
341.614	399.38
341.842	403.38
342.07	395.38
342.298	395.38
342.526	382.38
342.754	391.38
342.981	379.38
343.209	408.38
343.437	411.38
343.665	415.38
343.893	421.38
344.12	423.38
344.348	403.38
344.576	416.38
344.804	422.38
345.031	439.38
345.259	409.38
345.487	393.38
345.714	402.38
345.942	400.38
346.17	393.38
346.397	403.38
346.625	377.38
346.853	367.38
347.08	355.38
347.308	384.38
347.535	399.38
347.763	403.38
347.99	381.38
348.218	398.38
348.445	402.38
348.673	359.38
348.9	371.38
349.128	397.38
349.355	383.38
349.583	377.38
349.81	372.38
350.037	361.38
350.265	352.38
350.492	364.38
350.72	365.38
350.947	371.38
351.174	397.38
351.402	364.38
351.629	380.38
351.856	371.38
352.083	413.38
352.311	386.38
352.538	375.38
352.765	380.38
352.992	383.38
353.22	372.38
353.447	380.38
353.674	360.38
353.901	364.38
354.128	363.38
354.355	370.38
354.583	366.38
354.81	374.38
355.037	363.38
355.264	376.38
355.491	361.38
355.718	347.38
355.945	344.38
356.172	359.38
356.399	364.38
356.626	365.38
356.853	380.38
357.08	363.38
357.307	369.38
357.534	365.38
357.761	358.38
357.988	360.38
358.215	371.38
358.441	374.38
358.668	383.38
358.895	355.38
359.122	370.38
359.349	353.38
359.576	379.38
359.802	373.38
360.029	368.38
360.256	391.38
360.483	386.38
360.709	377.38
360.936	370.38
361.163	365.38
361.39	364.38
361.616	377.38
361.843	369.38
362.07	373.38
362.296	393.38
362.523	364.38
362.749	371.38
362.976	363.38
363.203	354.38
363.429	358.38
363.656	367.38
363.882	370.38
364.109	375.38
364.335	363.38
364.562	362.38
364.788	367.38
365.015	362.38
365.241	371.38
365.468	368.38
365.694	366.38
365.92	375.38
366.147	371.38
366.373	367.38
366.599	372.38
366.826	360.38
367.052	357.38
367.278	364.38
367.505	356.38
367.731	353.38
367.957	361.38
368.184	375.38
368.41	371.38
368.636	362.38
368.862	367.38
369.089	353.38
369.315	375.38
369.541	375.38
369.767	365.38
369.993	381.38
370.219	364.38
370.445	376.38
370.672	375.38
370.898	366.38
371.124	367.38
371.35	368.38
371.576	356.38
371.802	353.38
372.028	367.38
372.254	381.38
372.48	389.38
372.706	382.38
372.932	378.38
373.158	393.38
373.384	368.38
373.61	373.38
373.835	371.38
374.061	367.38
374.287	362.38
374.513	371.38
374.739	389.38
374.965	376.38
375.191	369.38
375.416	364.38
375.642	356.38
375.868	369.38
376.094	372.38
376.319	385.38
376.545	375.38
376.771	380.38
376.997	377.38
377.222	379.38
377.448	384.38
377.674	351.38
377.899	349.38
378.125	368.38
378.35	362.38
378.576	369.38
378.802	371.38
379.027	361.38
379.253	355.38
379.478	383.38
379.704	373.38
379.929	349.38
380.155	356.38
380.38	384.38
380.606	353.38
380.831	364.38
381.057	384.38
381.282	385.38
381.507	381.38
381.733	385.38
381.958	380.38
382.184	388.38
382.409	379.38
382.634	382.38
382.86	380.38
383.085	383.38
383.31	389.38
383.535	393.38
383.761	390.38
383.986	384.38
384.211	401.38
384.436	391.38
384.662	403.38
384.887	409.38
385.112	426.38
385.337	419.38
385.562	422.38
385.787	413.38
386.013	432.38
386.238	417.38
386.463	438.38
386.688	421.38
386.913	402.38
387.138	413.38
387.363	448.38
387.588	427.38
387.813	423.38
388.038	421.38
388.263	419.38
388.488	421.38
388.713	401.38
388.938	378.38
389.163	409.38
389.387	396.38
389.612	403.38
389.837	409.38
390.062	386.38
390.287	383.38
390.512	413.38
390.736	392.38
390.961	415.38
391.186	389.38
391.411	416.38
391.636	413.38
391.86	429.38
392.085	423.38
392.31	411.38
392.534	419.38
392.759	419.38
392.984	439.38
393.208	416.38
393.433	435.38
393.658	454.38
393.882	418.38
394.107	413.38
394.331	428.38
394.556	405.38
394.78	417.38
395.005	441.38
395.229	416.38
395.454	426.38
395.678	408.38
395.903	432.38
396.127	424.38
396.352	417.38
396.576	425.38
396.801	416.38
397.025	443.38
397.249	445.38
397.474	427.38
397.698	444.38
397.922	436.38
398.147	438.38
398.371	463.38
398.595	460.38
398.82	457.38
399.044	468.38
399.268	503.38
399.492	519.38
399.717	561.38
399.941	572.38
400.165	576.38
400.389	556.38
400.613	529.38
400.837	501.38
401.062	468.38
401.286	465.38
401.51	469.38
401.734	448.38
401.958	471.38
402.182	473.38
402.406	449.38
402.63	462.38
402.854	463.38
403.078	474.38
403.302	483.38
403.526	486.38
403.75	487.38
403.974	490.38
404.198	454.38
404.422	484.38
404.645	473.38
404.869	464.38
405.093	476.38
405.317	515.38
405.541	522.38
405.765	501.38
405.988	488.38
406.212	505.38
406.436	468.38
406.66	506.38
406.883	533.38
407.107	537.38
407.331	565.38
407.555	605.38
407.778	576.38
408.002	565.38
408.226	547.38
408.449	511.38
408.673	512.38
408.896	527.38
409.12	517.38
409.344	540.38
409.567	501.38
409.791	475.38
410.014	471.38
410.238	480.38
410.461	478.38
410.685	469.38
410.908	471.38
411.132	504.38
411.355	521.38
411.578	508.38
411.802	468.38
412.025	454.38
412.249	468.38
412.472	481.38
412.695	480.38
412.919	493.38
413.142	457.38
413.365	455.38
413.589	463.38
413.812	450.38
414.035	449.38
414.258	436.38
414.482	461.38
414.705	433.38
414.928	442.38
415.151	455.38
415.374	428.38
415.597	439.38
415.821	423.38
416.044	417.38
416.267	454.38
416.49	447.38
416.713	438.38
416.936	439.38
417.159	447.38
417.382	434.38
417.605	435.38
417.828	422.38
418.051	457.38
418.274	440.38
418.497	439.38
418.72	462.38
418.943	439.38
419.166	447.38
419.389	486.38
419.611	476.38
419.834	453.38
420.057	457.38
420.28	436.38
420.503	447.38
420.726	446.38
420.948	451.38
421.171	493.38
421.394	491.38
421.617	443.38
421.839	438.38
422.062	449.38
422.285	471.38
422.507	493.38
422.73	558.38
422.953	538.38
423.175	486.38
423.398	452.38
423.621	477.38
423.843	483.38
424.066	455.38
424.288	473.38
424.511	480.38
424.733	518.38
424.956	575.38
425.178	538.38
425.401	546.38
425.623	575.38
425.846	504.38
426.068	464.38
426.291	458.38
426.513	457.38
426.735	448.38
426.958	485.38
427.18	533.38
427.402	621.38
427.625	670.38
427.847	575.38
428.069	512.38
428.292	468.38
428.514	454.38
428.736	447.38
428.958	440.38
429.181	410.38
429.403	427.38
429.625	432.38
429.847	454.38
430.069	500.38
430.292	469.38
430.514	437.38
430.736	439.38
430.958	452.38
431.18	408.38
431.402	422.38
431.624	414.38
431.846	413.38
432.068	433.38
432.29	414.38
432.512	423.38
432.734	427.38
432.956	425.38
433.178	449.38
433.4	420.38
433.622	399.38
433.844	416.38
434.066	402.38
434.287	416.38
434.509	413.38
434.731	444.38
434.953	435.38
435.175	437.38
435.397	435.38
435.618	462.38
435.84	465.38
436.062	536.38
436.284	596.38
436.505	479.38
436.727	457.38
436.949	442.38
437.17	415.38
437.392	416.38
437.614	419.38
437.835	440.38
438.057	496.38
438.278	562.38
438.5	579.38
438.721	623.38
438.943	587.38
439.165	499.38
439.386	478.38
439.608	429.38
439.829	453.38
440.05	447.38
440.272	478.38
440.493	480.38
440.715	444.38
440.936	437.38
441.158	444.38
441.379	432.38
441.6	469.38
441.822	453.38
442.043	484.38
442.264	534.38
442.486	561.38
442.707	479.38
442.928	471.38
443.149	471.38
443.371	489.38
443.592	502.38
443.813	548.38
444.034	614.38
444.255	517.38
444.476	475.38
444.698	463.38
444.919	478.38
445.14	563.38
445.361	511.38
445.582	494.38
445.803	512.38
446.024	574.38
446.245	585.38
446.466	533.38
446.687	465.38
446.908	449.38
447.129	441.38
447.35	412.38
447.571	425.38
447.792	409.38
448.013	411.38
448.234	422.38
448.455	448.38
448.675	526.38
448.896	580.38
449.117	522.38
449.338	495.38
449.559	569.38
449.779	646.38
450	510.38
450.221	455.38
450.442	410.38
450.662	402.38
450.883	396.38
451.104	410.38
451.324	405.38
451.545	399.38
451.766	387.38
451.986	356.38
452.207	373.38
452.428	368.38
452.648	383.38
452.869	366.38
453.089	380.38
453.31	389.38
453.53	377.38
453.751	395.38
453.971	362.38
454.192	392.38
454.412	381.38
454.633	378.38
454.853	366.38
455.073	364.38
455.294	413.38
455.514	430.38
455.734	425.38
455.955	407.38
456.175	371.38
456.395	366.38
456.616	365.38
456.836	368.38
457.056	362.38
457.276	376.38
457.497	379.38
457.717	346.38
457.937	365.38
458.157	366.38
458.377	386.38
458.598	387.38
458.818	393.38
459.038	439.38
459.258	488.38
459.478	442.38
459.698	429.38
459.918	398.38
460.138	434.38
460.358	439.38
460.578	426.38
460.798	444.38
461.018	446.38
461.238	436.38
461.458	434.38
461.678	440.38
461.898	459.38
462.118	441.38
462.338	442.38
462.558	458.38
462.777	458.38
462.997	496.38
463.217	500.38
463.437	506.38
463.657	457.38
463.876	459.38
464.096	477.38
464.316	455.38
464.536	470.38
464.755	463.38
464.975	449.38
465.195	459.38
465.414	457.38
465.634	457.38
465.854	432.38
466.073	422.38
466.293	393.38
466.512	405.38
466.732	391.38
466.951	406.38
467.171	405.38
467.391	397.38
467.61	400.38
467.829	385.38
468.049	412.38
468.268	404.38
468.488	388.38
468.707	398.38
468.927	387.38
469.146	395.38
469.365	366.38
469.585	393.38
469.804	382.38
470.023	390.38
470.243	415.38
470.462	400.38
470.681	415.38
470.901	399.38
471.12	392.38
471.339	390.38
471.558	395.38
471.777	412.38
471.997	403.38
472.216	399.38
472.435	391.38
472.654	424.38
472.873	382.38
473.092	393.38
473.311	408.38
473.53	410.38
473.749	383.38
473.968	420.38
474.187	478.38
474.406	475.38
474.625	436.38
474.844	399.38
475.063	403.38
475.282	414.38
475.501	391.38
475.72	407.38
475.939	409.38
476.158	391.38
476.377	387.38
476.596	421.38
476.814	404.38
477.033	421.38
477.252	426.38
477.471	437.38
477.69	422.38
477.908	451.38
478.127	457.38
478.346	446.38
478.564	447.38
478.783	465.38
479.002	456.38
479.22	457.38
479.439	478.38
479.658	484.38
479.876	460.38
480.095	476.38
480.313	505.38
480.532	482.38
480.751	478.38
480.969	496.38
481.188	507.38
481.406	488.38
481.624	475.38
481.843	480.38
482.061	464.38
482.28	481.38
482.498	440.38
482.717	455.38
482.935	468.38
483.153	447.38
483.372	454.38
483.59	459.38
483.808	461.38
484.027	465.38
484.245	454.38
484.463	475.38
484.681	464.38
484.9	478.38
485.118	445.38
485.336	480.38
485.554	470.38
485.772	467.38
485.99	476.38
486.209	491.38
486.427	496.38
486.645	472.38
486.863	457.38
487.081	496.38
487.299	490.38
487.517	483.38
487.735	482.38
487.953	481.38
488.171	490.38
488.389	490.38
488.607	494.38
488.825	465.38
489.043	500.38
489.261	499.38
489.479	500.38
489.696	490.38
489.914	507.38
490.132	495.38
490.35	508.38
490.568	487.38
490.786	528.38
491.003	509.38
491.221	482.38
491.439	520.38
491.657	519.38
491.874	507.38
492.092	538.38
492.31	534.38
492.527	521.38
492.745	529.38
492.963	541.38
493.18	529.38
493.398	523.38
493.615	547.38
493.833	529.38
494.05	516.38
494.268	518.38
494.485	542.38
494.703	564.38
494.92	554.38
495.138	545.38
495.355	538.38
495.573	534.38
495.79	556.38
496.008	558.38
496.225	555.38
496.442	547.38
496.66	567.38
496.877	548.38
497.094	565.38
497.312	571.38
497.529	600.38
497.746	598.38
497.963	594.38
498.181	622.38
498.398	631.38
498.615	641.38
498.832	671.38
499.049	686.38
499.267	688.38
499.484	737.38
499.701	795.38
499.918	809.38
500.135	854.38
500.352	903.38
500.569	948.38
500.786	909.38
501.003	863.38
501.22	867.38
501.437	832.38
501.654	783.38
501.871	746.38
502.088	748.38
