Data from 1977.PennyLincolnUp.Lamp.En5.5.200Scan.071719.P1_HRD10591_16-05-08-866.txt Node
Date: Thu Jul 18 16:05:08 EDT 2019
User: cochatt
Spectrometer: HR+D1059
Trigger mode: 1
Integration Time (sec): 1.000000E-1
Scans to average: 1
Electric dark correction enabled: true
Nonlinearity correction enabled: false
Boxcar width: 0
XAxis mode: Wavelengths
Number of Pixels in Spectrum: 2048
>>>>>Begin Spectral Data<<<<<
223.165	-17.38
223.4	-17.38
223.635	-17.38
223.869	-24.38
224.104	-13.38
224.338	-15.38
224.573	-22.38
224.808	-8.38
225.042	-25.38
225.277	-1.38
225.511	4.62
225.746	-0.38
225.98	10.62
226.215	15.62
226.449	9.62
226.683	23.62
226.918	28.62
227.152	35.62
227.387	19.62
227.621	28.62
227.856	31.62
228.09	43.62
228.324	48.62
228.559	44.62
228.793	42.62
229.027	73.62
229.262	101.62
229.496	109.62
229.73	102.62
229.964	128.62
230.199	107.62
230.433	86.62
230.667	83.62
230.901	89.62
231.136	98.62
231.37	119.62
231.604	117.62
231.838	105.62
232.072	96.62
232.306	98.62
232.541	98.62
232.775	95.62
233.009	95.62
233.243	114.62
233.477	102.62
233.711	100.62
233.945	99.62
234.179	133.62
234.413	113.62
234.647	117.62
234.881	116.62
235.115	106.62
235.349	108.62
235.583	111.62
235.817	108.62
236.051	118.62
236.285	109.62
236.519	106.62
236.753	125.62
236.987	126.62
237.221	132.62
237.455	201.62
237.689	150.62
237.922	130.62
238.156	114.62
238.39	118.62
238.624	111.62
238.858	111.62
239.091	105.62
239.325	111.62
239.559	137.62
239.793	129.62
240.027	130.62
240.26	137.62
240.494	123.62
240.728	131.62
240.961	124.62
241.195	137.62
241.429	127.62
241.662	123.62
241.896	119.62
242.13	105.62
242.363	116.62
242.597	131.62
242.83	129.62
243.064	124.62
243.298	135.62
243.531	124.62
243.765	134.62
243.998	135.62
244.232	128.62
244.465	137.62
244.699	132.62
244.932	126.62
245.166	134.62
245.399	147.62
245.633	130.62
245.866	139.62
246.099	158.62
246.333	120.62
246.566	137.62
246.8	138.62
247.033	133.62
247.266	128.62
247.5	143.62
247.733	150.62
247.966	145.62
248.2	159.62
248.433	158.62
248.666	156.62
248.899	170.62
249.133	185.62
249.366	174.62
249.599	160.62
249.832	158.62
250.066	164.62
250.299	156.62
250.532	166.62
250.765	173.62
250.998	192.62
251.231	197.62
251.465	185.62
251.698	169.62
251.931	174.62
252.164	181.62
252.397	176.62
252.63	166.62
252.863	169.62
253.096	193.62
253.329	193.62
253.562	176.62
253.795	193.62
254.028	199.62
254.261	198.62
254.494	186.62
254.727	198.62
254.96	232.62
255.193	216.62
255.426	215.62
255.659	181.62
255.892	203.62
256.124	200.62
256.357	190.62
256.59	204.62
256.823	194.62
257.056	192.62
257.289	185.62
257.521	180.62
257.754	202.62
257.987	195.62
258.22	190.62
258.452	178.62
258.685	190.62
258.918	188.62
259.151	189.62
259.383	193.62
259.616	205.62
259.849	206.62
260.081	199.62
260.314	207.62
260.547	220.62
260.779	225.62
261.012	218.62
261.244	193.62
261.477	198.62
261.71	201.62
261.942	196.62
262.175	198.62
262.407	213.62
262.64	188.62
262.872	198.62
263.105	202.62
263.337	199.62
263.57	183.62
263.802	203.62
264.035	209.62
264.267	195.62
264.499	201.62
264.732	201.62
264.964	205.62
265.197	196.62
265.429	205.62
265.661	200.62
265.894	199.62
266.126	198.62
266.358	195.62
266.591	196.62
266.823	202.62
267.055	206.62
267.287	212.62
267.52	223.62
267.752	222.62
267.984	224.62
268.216	224.62
268.448	219.62
268.681	234.62
268.913	214.62
269.145	233.62
269.377	243.62
269.609	235.62
269.841	242.62
270.073	252.62
270.306	260.62
270.538	268.62
270.77	273.62
271.002	244.62
271.234	257.62
271.466	258.62
271.698	257.62
271.93	263.62
272.162	281.62
272.394	275.62
272.626	265.62
272.858	253.62
273.09	267.62
273.322	251.62
273.553	244.62
273.785	261.62
274.017	257.62
274.249	255.62
274.481	251.62
274.713	233.62
274.945	242.62
275.176	246.62
275.408	234.62
275.64	239.62
275.872	239.62
276.104	243.62
276.335	267.62
276.567	250.62
276.799	261.62
277.031	262.62
277.262	269.62
277.494	260.62
277.726	268.62
277.957	271.62
278.189	258.62
278.421	266.62
278.652	266.62
278.884	267.62
279.115	255.62
279.347	265.62
279.579	245.62
279.81	268.62
280.042	255.62
280.273	247.62
280.505	261.62
280.736	259.62
280.968	244.62
281.199	266.62
281.431	261.62
281.662	261.62
281.894	279.62
282.125	268.62
282.356	260.62
282.588	290.62
282.819	278.62
283.051	264.62
283.282	260.62
283.513	275.62
283.745	259.62
283.976	287.62
284.207	271.62
284.439	278.62
284.67	280.62
284.901	283.62
285.132	279.62
285.364	244.62
285.595	273.62
285.826	283.62
286.057	289.62
286.288	271.62
286.52	274.62
286.751	278.62
286.982	291.62
287.213	268.62
287.444	302.62
287.675	274.62
287.906	267.62
288.138	302.62
288.369	294.62
288.6	282.62
288.831	286.62
289.062	282.62
289.293	286.62
289.524	295.62
289.755	282.62
289.986	287.62
290.217	270.62
290.448	279.62
290.679	278.62
290.91	290.62
291.141	290.62
291.371	301.62
291.602	286.62
291.833	281.62
292.064	288.62
292.295	277.62
292.526	279.62
292.757	284.62
292.987	292.62
293.218	295.62
293.449	290.62
293.68	277.62
293.91	274.62
294.141	299.62
294.372	290.62
294.603	282.62
294.833	312.62
295.064	297.62
295.295	295.62
295.525	287.62
295.756	300.62
295.987	302.62
296.217	312.62
296.448	313.62
296.679	294.62
296.909	286.62
297.14	302.62
297.37	305.62
297.601	293.62
297.831	306.62
298.062	296.62
298.292	283.62
298.523	306.62
298.753	307.62
298.984	300.62
299.214	286.62
299.445	298.62
299.675	319.62
299.905	313.62
300.136	310.62
300.366	305.62
300.597	318.62
300.827	331.62
301.057	322.62
301.288	323.62
301.518	312.62
301.748	336.62
301.979	314.62
302.209	324.62
302.439	315.62
302.669	305.62
302.9	324.62
303.13	323.62
303.36	344.62
303.59	334.62
303.82	322.62
304.051	353.62
304.281	323.62
304.511	322.62
304.741	314.62
304.971	308.62
305.201	330.62
305.431	322.62
305.661	318.62
305.891	336.62
306.121	321.62
306.352	326.62
306.582	336.62
306.812	318.62
307.042	327.62
307.272	333.62
307.502	323.62
307.731	327.62
307.961	318.62
308.191	329.62
308.421	333.62
308.651	323.62
308.881	326.62
309.111	354.62
309.341	343.62
309.571	332.62
309.8	337.62
310.03	321.62
310.26	338.62
310.49	340.62
310.72	348.62
310.949	359.62
311.179	359.62
311.409	337.62
311.639	352.62
311.868	341.62
312.098	346.62
312.328	338.62
312.557	358.62
312.787	368.62
313.017	359.62
313.246	353.62
313.476	362.62
313.706	332.62
313.935	355.62
314.165	351.62
314.394	345.62
314.624	367.62
314.853	346.62
315.083	348.62
315.312	347.62
315.542	360.62
315.771	348.62
316.001	359.62
316.23	347.62
316.46	358.62
316.689	373.62
316.919	356.62
317.148	355.62
317.377	363.62
317.607	374.62
317.836	361.62
318.065	344.62
318.295	366.62
318.524	365.62
318.753	357.62
318.983	360.62
319.212	367.62
319.441	360.62
319.67	366.62
319.9	354.62
320.129	350.62
320.358	360.62
320.587	352.62
320.816	367.62
321.046	370.62
321.275	362.62
321.504	374.62
321.733	376.62
321.962	371.62
322.191	361.62
322.42	362.62
322.649	377.62
322.878	373.62
323.108	396.62
323.337	413.62
323.566	411.62
323.795	439.62
324.024	425.62
324.253	512.62
324.482	681.62
324.71	952.62
324.939	1318.62
325.168	1084.62
325.397	631.62
325.626	457.62
325.855	421.62
326.084	414.62
326.313	412.62
326.542	433.62
326.77	447.62
326.999	510.62
327.228	633.62
327.457	878.62
327.686	1000.62
327.914	682.62
328.143	507.62
328.372	487.62
328.6	458.62
328.829	465.62
329.058	454.62
329.287	452.62
329.515	458.62
329.744	426.62
329.972	430.62
330.201	442.62
330.43	471.62
330.658	456.62
330.887	449.62
331.115	444.62
331.344	434.62
331.572	446.62
331.801	426.62
332.03	436.62
332.258	401.62
332.486	422.62
332.715	418.62
332.943	418.62
333.172	420.62
333.4	433.62
333.629	443.62
333.857	461.62
334.085	426.62
334.314	450.62
334.542	446.62
334.771	449.62
334.999	473.62
335.227	437.62
335.455	443.62
335.684	427.62
335.912	431.62
336.14	398.62
336.369	442.62
336.597	426.62
336.825	457.62
337.053	422.62
337.281	417.62
337.51	411.62
337.738	424.62
337.966	421.62
338.194	413.62
338.422	418.62
338.65	404.62
338.878	417.62
339.106	417.62
339.334	406.62
339.562	379.62
339.79	419.62
340.018	408.62
340.246	395.62
340.474	400.62
340.702	400.62
340.93	408.62
341.158	404.62
341.386	394.62
341.614	400.62
341.842	396.62
342.07	364.62
342.298	386.62
342.526	402.62
342.754	410.62
342.981	408.62
343.209	406.62
343.437	404.62
343.665	407.62
343.893	442.62
344.12	436.62
344.348	413.62
344.576	443.62
344.804	419.62
345.031	401.62
345.259	411.62
345.487	401.62
345.714	402.62
345.942	390.62
346.17	386.62
346.397	384.62
346.625	380.62
346.853	375.62
347.08	376.62
347.308	391.62
347.535	377.62
347.763	389.62
347.99	376.62
348.218	375.62
348.445	400.62
348.673	388.62
348.9	389.62
349.128	378.62
349.355	374.62
349.583	355.62
349.81	378.62
350.037	377.62
350.265	380.62
350.492	393.62
350.72	359.62
350.947	376.62
351.174	363.62
351.402	391.62
351.629	374.62
351.856	389.62
352.083	376.62
352.311	378.62
352.538	389.62
352.765	379.62
352.992	353.62
353.22	374.62
353.447	358.62
353.674	366.62
353.901	378.62
354.128	358.62
354.355	355.62
354.583	350.62
354.81	358.62
355.037	350.62
355.264	371.62
355.491	376.62
355.718	371.62
355.945	363.62
356.172	366.62
356.399	366.62
356.626	358.62
356.853	360.62
357.08	358.62
357.307	362.62
357.534	351.62
357.761	360.62
357.988	369.62
358.215	368.62
358.441	363.62
358.668	346.62
358.895	372.62
359.122	372.62
359.349	350.62
359.576	385.62
359.802	376.62
360.029	388.62
360.256	412.62
360.483	379.62
360.709	370.62
360.936	373.62
361.163	373.62
361.39	369.62
361.616	376.62
361.843	374.62
362.07	352.62
362.296	376.62
362.523	363.62
362.749	351.62
362.976	371.62
363.203	362.62
363.429	361.62
363.656	368.62
363.882	326.62
364.109	364.62
364.335	371.62
364.562	367.62
364.788	355.62
365.015	390.62
365.241	350.62
365.468	363.62
365.694	358.62
365.92	375.62
366.147	360.62
366.373	359.62
366.599	354.62
366.826	349.62
367.052	366.62
367.278	351.62
367.505	367.62
367.731	356.62
367.957	372.62
368.184	361.62
368.41	366.62
368.636	378.62
368.862	374.62
369.089	380.62
369.315	370.62
369.541	344.62
369.767	348.62
369.993	360.62
370.219	372.62
370.445	360.62
370.672	356.62
370.898	355.62
371.124	377.62
371.35	348.62
371.576	368.62
371.802	396.62
372.028	384.62
372.254	378.62
372.48	371.62
372.706	374.62
372.932	374.62
373.158	372.62
373.384	370.62
373.61	375.62
373.835	374.62
374.061	370.62
374.287	349.62
374.513	361.62
374.739	365.62
374.965	370.62
375.191	391.62
375.416	370.62
375.642	376.62
375.868	367.62
376.094	355.62
376.319	369.62
376.545	367.62
376.771	364.62
376.997	392.62
377.222	377.62
377.448	372.62
377.674	385.62
377.899	370.62
378.125	342.62
378.35	358.62
378.576	363.62
378.802	360.62
379.027	363.62
379.253	353.62
379.478	367.62
379.704	368.62
379.929	383.62
380.155	365.62
380.38	359.62
380.606	354.62
380.831	349.62
381.057	370.62
381.282	361.62
381.507	361.62
381.733	363.62
381.958	355.62
382.184	379.62
382.409	378.62
382.634	365.62
382.86	375.62
383.085	375.62
383.31	391.62
383.535	363.62
383.761	396.62
383.986	371.62
384.211	386.62
384.436	373.62
384.662	393.62
384.887	394.62
385.112	376.62
385.337	394.62
385.562	405.62
385.787	402.62
386.013	407.62
386.238	405.62
386.463	389.62
386.688	408.62
386.913	413.62
387.138	409.62
387.363	396.62
387.588	405.62
387.813	406.62
388.038	415.62
388.263	398.62
388.488	384.62
388.713	399.62
388.938	394.62
389.163	402.62
389.387	380.62
389.612	381.62
389.837	400.62
390.062	396.62
390.287	396.62
390.512	392.62
390.736	386.62
390.961	406.62
391.186	410.62
391.411	413.62
391.636	425.62
391.86	412.62
392.085	415.62
392.31	431.62
392.534	411.62
392.759	411.62
392.984	394.62
393.208	399.62
393.433	406.62
393.658	411.62
393.882	410.62
394.107	407.62
394.331	414.62
394.556	409.62
394.78	407.62
395.005	403.62
395.229	404.62
395.454	407.62
395.678	422.62
395.903	423.62
396.127	432.62
396.352	432.62
396.576	422.62
396.801	403.62
397.025	405.62
397.249	416.62
397.474	419.62
397.698	433.62
397.922	434.62
398.147	425.62
398.371	452.62
398.595	453.62
398.82	438.62
399.044	469.62
399.268	501.62
399.492	507.62
399.717	549.62
399.941	583.62
400.165	567.62
400.389	557.62
400.613	523.62
400.837	493.62
401.062	463.62
401.286	457.62
401.51	459.62
401.734	439.62
401.958	453.62
402.182	454.62
402.406	455.62
402.63	446.62
402.854	456.62
403.078	464.62
403.302	470.62
403.526	461.62
403.75	489.62
403.974	460.62
404.198	458.62
404.422	468.62
404.645	468.62
404.869	483.62
405.093	511.62
405.317	521.62
405.541	534.62
405.765	482.62
405.988	473.62
406.212	493.62
406.436	482.62
406.66	490.62
406.883	505.62
407.107	520.62
407.331	562.62
407.555	608.62
407.778	599.62
408.002	562.62
408.226	539.62
408.449	490.62
408.673	517.62
408.896	539.62
409.12	542.62
409.344	518.62
409.567	505.62
409.791	481.62
410.014	464.62
410.238	458.62
410.461	473.62
410.685	470.62
410.908	488.62
411.132	506.62
411.355	539.62
411.578	505.62
411.802	466.62
412.025	444.62
412.249	454.62
412.472	466.62
412.695	492.62
412.919	489.62
413.142	469.62
413.365	438.62
413.589	454.62
413.812	432.62
414.035	448.62
414.258	438.62
414.482	432.62
414.705	425.62
414.928	430.62
415.151	418.62
415.374	442.62
415.597	422.62
415.821	418.62
416.044	412.62
416.267	446.62
416.49	425.62
416.713	424.62
416.936	436.62
417.159	430.62
417.382	438.62
417.605	440.62
417.828	441.62
418.051	469.62
418.274	447.62
418.497	448.62
418.72	431.62
418.943	426.62
419.166	458.62
419.389	473.62
419.611	472.62
419.834	453.62
420.057	442.62
420.28	450.62
420.503	444.62
420.726	429.62
420.948	458.62
421.171	479.62
421.394	488.62
421.617	476.62
421.839	458.62
422.062	450.62
422.285	452.62
422.507	497.62
422.73	555.62
422.953	528.62
423.175	475.62
423.398	452.62
423.621	468.62
423.843	458.62
424.066	466.62
424.288	474.62
424.511	472.62
424.733	535.62
424.956	552.62
425.178	537.62
425.401	538.62
425.623	556.62
425.846	497.62
426.068	469.62
426.291	460.62
426.513	460.62
426.735	456.62
426.958	485.62
427.18	544.62
427.402	650.62
427.625	678.62
427.847	586.62
428.069	521.62
428.292	489.62
428.514	437.62
428.736	430.62
428.958	423.62
429.181	432.62
429.403	436.62
429.625	439.62
429.847	455.62
430.069	495.62
430.292	509.62
430.514	446.62
430.736	394.62
430.958	415.62
431.18	402.62
431.402	406.62
431.624	410.62
431.846	378.62
432.068	391.62
432.29	418.62
432.512	422.62
432.734	433.62
432.956	419.62
433.178	411.62
433.4	420.62
433.622	417.62
433.844	411.62
434.066	401.62
434.287	418.62
434.509	419.62
434.731	439.62
434.953	451.62
435.175	445.62
435.397	481.62
435.618	471.62
435.84	470.62
436.062	544.62
436.284	609.62
436.505	492.62
436.727	440.62
436.949	419.62
437.17	430.62
437.392	416.62
437.614	421.62
437.835	450.62
438.057	500.62
438.278	557.62
438.5	585.62
438.721	652.62
438.943	600.62
439.165	505.62
439.386	460.62
439.608	463.62
439.829	449.62
440.05	466.62
440.272	520.62
440.493	483.62
440.715	439.62
440.936	442.62
441.158	417.62
441.379	435.62
441.6	440.62
441.822	434.62
442.043	472.62
442.264	520.62
442.486	566.62
442.707	483.62
442.928	462.62
443.149	444.62
443.371	469.62
443.592	497.62
443.813	553.62
444.034	617.62
444.255	501.62
444.476	483.62
444.698	484.62
444.919	492.62
445.14	579.62
445.361	522.62
445.582	503.62
445.803	495.62
446.024	574.62
446.245	584.62
446.466	518.62
446.687	485.62
446.908	475.62
447.129	413.62
447.35	412.62
447.571	427.62
447.792	410.62
448.013	403.62
448.234	420.62
448.455	462.62
448.675	544.62
448.896	611.62
449.117	515.62
449.338	520.62
449.559	586.62
449.779	631.62
450	524.62
450.221	452.62
450.442	399.62
450.662	410.62
450.883	396.62
451.104	415.62
451.324	405.62
451.545	391.62
451.766	389.62
451.986	363.62
452.207	349.62
452.428	375.62
452.648	373.62
452.869	381.62
453.089	369.62
453.31	375.62
453.53	383.62
453.751	347.62
453.971	380.62
454.192	374.62
454.412	367.62
454.633	394.62
454.853	353.62
455.073	368.62
455.294	396.62
455.514	430.62
455.734	417.62
455.955	378.62
456.175	352.62
456.395	355.62
456.616	370.62
456.836	366.62
457.056	370.62
457.276	363.62
457.497	359.62
457.717	378.62
457.937	378.62
458.157	385.62
458.377	383.62
458.598	379.62
458.818	419.62
459.038	454.62
459.258	483.62
459.478	411.62
459.698	406.62
459.918	395.62
460.138	419.62
460.358	408.62
460.578	421.62
460.798	416.62
461.018	422.62
461.238	430.62
461.458	436.62
461.678	407.62
461.898	440.62
462.118	425.62
462.338	432.62
462.558	448.62
462.777	453.62
462.997	472.62
463.217	476.62
463.437	489.62
463.657	491.62
463.876	461.62
464.096	459.62
464.316	468.62
464.536	481.62
464.755	466.62
464.975	436.62
465.195	466.62
465.414	478.62
465.634	413.62
465.854	448.62
466.073	416.62
466.293	398.62
466.512	400.62
466.732	406.62
466.951	402.62
467.171	394.62
467.391	378.62
467.61	389.62
467.829	373.62
468.049	394.62
468.268	380.62
468.488	387.62
468.707	370.62
468.927	378.62
469.146	374.62
469.365	383.62
469.585	364.62
469.804	376.62
470.023	389.62
470.243	405.62
470.462	390.62
470.681	402.62
470.901	382.62
471.12	384.62
471.339	386.62
471.558	398.62
471.777	395.62
471.997	392.62
472.216	386.62
472.435	398.62
472.654	391.62
472.873	410.62
473.092	405.62
473.311	384.62
473.53	384.62
473.749	383.62
473.968	407.62
474.187	464.62
474.406	470.62
474.625	420.62
474.844	382.62
475.063	391.62
475.282	411.62
475.501	396.62
475.72	414.62
475.939	391.62
476.158	405.62
476.377	382.62
476.596	386.62
476.814	396.62
477.033	408.62
477.252	409.62
477.471	402.62
477.69	407.62
477.908	426.62
478.127	451.62
478.346	421.62
478.564	438.62
478.783	429.62
479.002	442.62
479.22	464.62
479.439	450.62
479.658	474.62
479.876	449.62
480.095	476.62
480.313	486.62
480.532	478.62
480.751	480.62
480.969	484.62
481.188	470.62
481.406	491.62
481.624	451.62
481.843	452.62
482.061	433.62
482.28	459.62
482.498	456.62
482.717	457.62
482.935	442.62
483.153	457.62
483.372	449.62
483.59	447.62
483.808	449.62
484.027	434.62
484.245	442.62
484.463	448.62
484.681	456.62
484.9	474.62
485.118	468.62
485.336	459.62
485.554	482.62
485.772	470.62
485.99	473.62
486.209	465.62
486.427	469.62
486.645	469.62
486.863	474.62
487.081	478.62
487.299	494.62
487.517	471.62
487.735	464.62
487.953	475.62
488.171	462.62
488.389	468.62
488.607	472.62
488.825	474.62
489.043	465.62
489.261	467.62
489.479	481.62
489.696	481.62
489.914	490.62
490.132	485.62
490.35	489.62
490.568	500.62
490.786	507.62
491.003	500.62
491.221	491.62
491.439	502.62
491.657	512.62
491.874	529.62
492.092	514.62
492.31	509.62
492.527	528.62
492.745	526.62
492.963	510.62
493.18	519.62
493.398	512.62
493.615	540.62
493.833	542.62
494.05	549.62
494.268	559.62
494.485	520.62
494.703	540.62
494.92	539.62
495.138	535.62
495.355	543.62
495.573	556.62
495.79	554.62
496.008	550.62
496.225	554.62
496.442	548.62
496.66	551.62
496.877	544.62
497.094	570.62
497.312	570.62
497.529	575.62
497.746	600.62
497.963	603.62
498.181	624.62
498.398	612.62
498.615	634.62
498.832	637.62
499.049	676.62
499.267	688.62
499.484	702.62
499.701	768.62
499.918	771.62
500.135	840.62
500.352	885.62
500.569	902.62
500.786	890.62
501.003	872.62
501.22	828.62
501.437	786.62
501.654	758.62
501.871	731.62
502.088	738.62
