Data from 1977.PennyLincolnUp.Lamp.En5.5.200Scan.071719.P1_HRD10591_16-07-25-865.txt Node
Date: Thu Jul 18 16:07:25 EDT 2019
User: cochatt
Spectrometer: HR+D1059
Trigger mode: 1
Integration Time (sec): 1.000000E-1
Scans to average: 1
Electric dark correction enabled: true
Nonlinearity correction enabled: false
Boxcar width: 0
XAxis mode: Wavelengths
Number of Pixels in Spectrum: 2048
>>>>>Begin Spectral Data<<<<<
223.165	-5.06
223.4	-5.06
223.635	-5.06
223.869	-15.06
224.104	-21.06
224.338	-12.06
224.573	-11.06
224.808	-20.06
225.042	1.94
225.277	-6.06
225.511	-1.06
225.746	-4.06
225.98	8.94
226.215	4.94
226.449	13.94
226.683	8.94
226.918	14.94
227.152	41.94
227.387	45.94
227.621	40.94
227.856	54.94
228.09	50.94
228.324	45.94
228.559	65.94
228.793	78.94
229.027	89.94
229.262	101.94
229.496	110.94
229.73	121.94
229.964	133.94
230.199	131.94
230.433	109.94
230.667	117.94
230.901	110.94
231.136	121.94
231.37	129.94
231.604	113.94
231.838	117.94
232.072	123.94
232.306	114.94
232.541	111.94
232.775	116.94
233.009	108.94
233.243	121.94
233.477	123.94
233.711	111.94
233.945	126.94
234.179	111.94
234.413	117.94
234.647	131.94
234.881	117.94
235.115	122.94
235.349	122.94
235.583	113.94
235.817	108.94
236.051	117.94
236.285	131.94
236.519	127.94
236.753	133.94
236.987	135.94
237.221	185.94
237.455	202.94
237.689	170.94
237.922	138.94
238.156	130.94
238.39	119.94
238.624	118.94
238.858	132.94
239.091	134.94
239.325	127.94
239.559	130.94
239.793	130.94
240.027	137.94
240.26	129.94
240.494	163.94
240.728	139.94
240.961	155.94
241.195	149.94
241.429	123.94
241.662	154.94
241.896	138.94
242.13	135.94
242.363	129.94
242.597	146.94
242.83	145.94
243.064	140.94
243.298	151.94
243.531	149.94
243.765	134.94
243.998	132.94
244.232	133.94
244.465	148.94
244.699	149.94
244.932	145.94
245.166	153.94
245.399	159.94
245.633	155.94
245.866	135.94
246.099	157.94
246.333	132.94
246.566	157.94
246.8	147.94
247.033	153.94
247.266	154.94
247.5	163.94
247.733	154.94
247.966	176.94
248.2	174.94
248.433	177.94
248.666	185.94
248.899	189.94
249.133	181.94
249.366	202.94
249.599	164.94
249.832	163.94
250.066	191.94
250.299	170.94
250.532	194.94
250.765	195.94
250.998	214.94
251.231	216.94
251.465	214.94
251.698	210.94
251.931	186.94
252.164	194.94
252.397	215.94
252.63	202.94
252.863	198.94
253.096	216.94
253.329	221.94
253.562	202.94
253.795	211.94
254.028	219.94
254.261	222.94
254.494	208.94
254.727	244.94
254.96	280.94
255.193	251.94
255.426	261.94
255.659	225.94
255.892	215.94
256.124	236.94
256.357	225.94
256.59	224.94
256.823	226.94
257.056	210.94
257.289	204.94
257.521	218.94
257.754	227.94
257.987	215.94
258.22	232.94
258.452	201.94
258.685	216.94
258.918	213.94
259.151	215.94
259.383	208.94
259.616	207.94
259.849	224.94
260.081	221.94
260.314	253.94
260.547	258.94
260.779	244.94
261.012	223.94
261.244	229.94
261.477	238.94
261.71	220.94
261.942	214.94
262.175	224.94
262.407	230.94
262.64	218.94
262.872	221.94
263.105	218.94
263.337	226.94
263.57	228.94
263.802	211.94
264.035	220.94
264.267	214.94
264.499	228.94
264.732	211.94
264.964	215.94
265.197	250.94
265.429	220.94
265.661	221.94
265.894	251.94
266.126	241.94
266.358	212.94
266.591	230.94
266.823	232.94
267.055	241.94
267.287	228.94
267.52	236.94
267.752	238.94
267.984	233.94
268.216	246.94
268.448	247.94
268.681	246.94
268.913	249.94
269.145	271.94
269.377	285.94
269.609	281.94
269.841	262.94
270.073	273.94
270.306	296.94
270.538	299.94
270.77	333.94
271.002	306.94
271.234	296.94
271.466	294.94
271.698	302.94
271.93	319.94
272.162	312.94
272.394	319.94
272.626	306.94
272.858	300.94
273.09	268.94
273.322	276.94
273.553	281.94
273.785	263.94
274.017	263.94
274.249	281.94
274.481	270.94
274.713	271.94
274.945	293.94
275.176	286.94
275.408	290.94
275.64	286.94
275.872	254.94
276.104	266.94
276.335	261.94
276.567	280.94
276.799	290.94
277.031	297.94
277.262	322.94
277.494	301.94
277.726	330.94
277.957	317.94
278.189	295.94
278.421	295.94
278.652	297.94
278.884	265.94
279.115	289.94
279.347	299.94
279.579	273.94
279.81	263.94
280.042	289.94
280.273	279.94
280.505	274.94
280.736	287.94
280.968	269.94
281.199	273.94
281.431	292.94
281.662	274.94
281.894	282.94
282.125	305.94
282.356	304.94
282.588	306.94
282.819	313.94
283.051	298.94
283.282	290.94
283.513	287.94
283.745	295.94
283.976	297.94
284.207	307.94
284.439	290.94
284.67	300.94
284.901	288.94
285.132	305.94
285.364	300.94
285.595	287.94
285.826	278.94
286.057	301.94
286.288	297.94
286.52	310.94
286.751	297.94
286.982	303.94
287.213	309.94
287.444	308.94
287.675	319.94
287.906	327.94
288.138	334.94
288.369	320.94
288.6	313.94
288.831	313.94
289.062	322.94
289.293	309.94
289.524	321.94
289.755	336.94
289.986	306.94
290.217	306.94
290.448	320.94
290.679	295.94
290.91	291.94
291.141	303.94
291.371	319.94
291.602	314.94
291.833	323.94
292.064	311.94
292.295	293.94
292.526	319.94
292.757	297.94
292.987	319.94
293.218	324.94
293.449	290.94
293.68	304.94
293.91	326.94
294.141	307.94
294.372	286.94
294.603	311.94
294.833	317.94
295.064	305.94
295.295	320.94
295.525	306.94
295.756	331.94
295.987	319.94
296.217	332.94
296.448	341.94
296.679	317.94
296.909	316.94
297.14	314.94
297.37	327.94
297.601	325.94
297.831	344.94
298.062	326.94
298.292	323.94
298.523	327.94
298.753	346.94
298.984	329.94
299.214	321.94
299.445	314.94
299.675	310.94
299.905	327.94
300.136	331.94
300.366	334.94
300.597	320.94
300.827	341.94
301.057	332.94
301.288	349.94
301.518	345.94
301.748	357.94
301.979	345.94
302.209	355.94
302.439	358.94
302.669	351.94
302.9	347.94
303.13	327.94
303.36	360.94
303.59	339.94
303.82	361.94
304.051	355.94
304.281	349.94
304.511	345.94
304.741	351.94
304.971	333.94
305.201	351.94
305.431	350.94
305.661	350.94
305.891	369.94
306.121	365.94
306.352	345.94
306.582	352.94
306.812	359.94
307.042	344.94
307.272	337.94
307.502	359.94
307.731	365.94
307.961	353.94
308.191	357.94
308.421	353.94
308.651	358.94
308.881	346.94
309.111	360.94
309.341	375.94
309.571	357.94
309.8	399.94
310.03	387.94
310.26	374.94
310.49	385.94
310.72	378.94
310.949	399.94
311.179	394.94
311.409	378.94
311.639	389.94
311.868	382.94
312.098	397.94
312.328	414.94
312.557	378.94
312.787	408.94
313.017	400.94
313.246	399.94
313.476	369.94
313.706	409.94
313.935	389.94
314.165	411.94
314.394	395.94
314.624	403.94
314.853	403.94
315.083	374.94
315.312	385.94
315.542	390.94
315.771	385.94
316.001	407.94
316.23	392.94
316.46	389.94
316.689	403.94
316.919	411.94
317.148	396.94
317.377	395.94
317.607	392.94
317.836	390.94
318.065	394.94
318.295	383.94
318.524	396.94
318.753	377.94
318.983	378.94
319.212	387.94
319.441	398.94
319.67	409.94
319.9	395.94
320.129	386.94
320.358	389.94
320.587	395.94
320.816	389.94
321.046	410.94
321.275	414.94
321.504	393.94
321.733	403.94
321.962	399.94
322.191	428.94
322.42	430.94
322.649	431.94
322.878	450.94
323.108	455.94
323.337	472.94
323.566	490.94
323.795	499.94
324.024	540.94
324.253	651.94
324.482	859.94
324.71	1245.94
324.939	1755.94
325.168	1471.94
325.397	811.94
325.626	602.94
325.855	517.94
326.084	486.94
326.313	480.94
326.542	494.94
326.77	537.94
326.999	621.94
327.228	792.94
327.457	1137.94
327.686	1361.94
327.914	906.94
328.143	621.94
328.372	563.94
328.6	560.94
328.829	533.94
329.058	527.94
329.287	538.94
329.515	524.94
329.744	494.94
329.972	483.94
330.201	525.94
330.43	535.94
330.658	536.94
330.887	567.94
331.115	528.94
331.344	502.94
331.572	496.94
331.801	478.94
332.03	498.94
332.258	466.94
332.486	457.94
332.715	466.94
332.943	470.94
333.172	452.94
333.4	498.94
333.629	502.94
333.857	501.94
334.085	518.94
334.314	545.94
334.542	530.94
334.771	530.94
334.999	528.94
335.227	477.94
335.455	469.94
335.684	478.94
335.912	462.94
336.14	467.94
336.369	465.94
336.597	484.94
336.825	474.94
337.053	475.94
337.281	445.94
337.51	422.94
337.738	440.94
337.966	437.94
338.194	435.94
338.422	460.94
338.65	457.94
338.878	459.94
339.106	438.94
339.334	462.94
339.562	444.94
339.79	443.94
340.018	433.94
340.246	465.94
340.474	446.94
340.702	451.94
340.93	426.94
341.158	410.94
341.386	442.94
341.614	445.94
341.842	441.94
342.07	414.94
342.298	441.94
342.526	447.94
342.754	409.94
342.981	428.94
343.209	444.94
343.437	432.94
343.665	441.94
343.893	476.94
344.12	447.94
344.348	430.94
344.576	466.94
344.804	456.94
345.031	451.94
345.259	449.94
345.487	449.94
345.714	422.94
345.942	420.94
346.17	420.94
346.397	411.94
346.625	439.94
346.853	418.94
347.08	401.94
347.308	430.94
347.535	432.94
347.763	412.94
347.99	444.94
348.218	423.94
348.445	429.94
348.673	426.94
348.9	418.94
349.128	369.94
349.355	415.94
349.583	429.94
349.81	392.94
350.037	406.94
350.265	422.94
350.492	405.94
350.72	394.94
350.947	407.94
351.174	406.94
351.402	418.94
351.629	441.94
351.856	419.94
352.083	423.94
352.311	439.94
352.538	408.94
352.765	419.94
352.992	407.94
353.22	399.94
353.447	413.94
353.674	405.94
353.901	411.94
354.128	399.94
354.355	370.94
354.583	387.94
354.81	399.94
355.037	402.94
355.264	384.94
355.491	370.94
355.718	392.94
355.945	403.94
356.172	373.94
356.399	391.94
356.626	393.94
356.853	394.94
357.08	403.94
357.307	374.94
357.534	397.94
357.761	395.94
357.988	384.94
358.215	385.94
358.441	371.94
358.668	385.94
358.895	407.94
359.122	398.94
359.349	394.94
359.576	406.94
359.802	416.94
360.029	417.94
360.256	441.94
360.483	435.94
360.709	424.94
360.936	401.94
361.163	399.94
361.39	421.94
361.616	411.94
361.843	401.94
362.07	428.94
362.296	413.94
362.523	400.94
362.749	399.94
362.976	390.94
363.203	401.94
363.429	404.94
363.656	403.94
363.882	403.94
364.109	402.94
364.335	393.94
364.562	399.94
364.788	402.94
365.015	399.94
365.241	409.94
365.468	400.94
365.694	414.94
365.92	407.94
366.147	382.94
366.373	378.94
366.599	375.94
366.826	381.94
367.052	377.94
367.278	389.94
367.505	411.94
367.731	393.94
367.957	394.94
368.184	404.94
368.41	413.94
368.636	417.94
368.862	409.94
369.089	404.94
369.315	397.94
369.541	386.94
369.767	391.94
369.993	400.94
370.219	389.94
370.445	411.94
370.672	391.94
370.898	378.94
371.124	410.94
371.35	398.94
371.576	387.94
371.802	389.94
372.028	393.94
372.254	408.94
372.48	402.94
372.706	383.94
372.932	403.94
373.158	388.94
373.384	379.94
373.61	407.94
373.835	402.94
374.061	381.94
374.287	391.94
374.513	394.94
374.739	402.94
374.965	418.94
375.191	407.94
375.416	400.94
375.642	400.94
375.868	412.94
376.094	414.94
376.319	396.94
376.545	371.94
376.771	375.94
376.997	378.94
377.222	369.94
377.448	383.94
377.674	398.94
377.899	386.94
378.125	383.94
378.35	379.94
378.576	397.94
378.802	402.94
379.027	408.94
379.253	381.94
379.478	404.94
379.704	398.94
379.929	385.94
380.155	385.94
380.38	378.94
380.606	385.94
380.831	375.94
381.057	389.94
381.282	379.94
381.507	397.94
381.733	401.94
381.958	398.94
382.184	394.94
382.409	391.94
382.634	408.94
382.86	401.94
383.085	410.94
383.31	401.94
383.535	410.94
383.761	391.94
383.986	401.94
384.211	424.94
384.436	407.94
384.662	420.94
384.887	426.94
385.112	403.94
385.337	434.94
385.562	413.94
385.787	411.94
386.013	465.94
386.238	445.94
386.463	431.94
386.688	425.94
386.913	440.94
387.138	439.94
387.363	423.94
387.588	426.94
387.813	437.94
388.038	415.94
388.263	432.94
388.488	413.94
388.713	416.94
388.938	438.94
389.163	447.94
389.387	425.94
389.612	415.94
389.837	423.94
390.062	414.94
390.287	410.94
390.512	426.94
390.736	431.94
390.961	428.94
391.186	416.94
391.411	428.94
391.636	435.94
391.86	437.94
392.085	462.94
392.31	435.94
392.534	469.94
392.759	442.94
392.984	426.94
393.208	422.94
393.433	445.94
393.658	421.94
393.882	434.94
394.107	436.94
394.331	441.94
394.556	434.94
394.78	428.94
395.005	444.94
395.229	432.94
395.454	436.94
395.678	459.94
395.903	470.94
396.127	461.94
396.352	478.94
396.576	440.94
396.801	439.94
397.025	459.94
397.249	445.94
397.474	437.94
397.698	443.94
397.922	462.94
398.147	474.94
398.371	445.94
398.595	463.94
398.82	471.94
399.044	501.94
399.268	524.94
399.492	569.94
399.717	587.94
399.941	609.94
400.165	603.94
400.389	588.94
400.613	559.94
400.837	518.94
401.062	521.94
401.286	499.94
401.51	483.94
401.734	470.94
401.958	482.94
402.182	479.94
402.406	488.94
402.63	501.94
402.854	481.94
403.078	497.94
403.302	519.94
403.526	539.94
403.75	501.94
403.974	497.94
404.198	502.94
404.422	535.94
404.645	505.94
404.869	524.94
405.093	539.94
405.317	555.94
405.541	569.94
405.765	568.94
405.988	520.94
406.212	512.94
406.436	551.94
406.66	583.94
406.883	531.94
407.107	569.94
407.331	613.94
407.555	658.94
407.778	635.94
408.002	611.94
408.226	570.94
408.449	537.94
408.673	560.94
408.896	574.94
409.12	577.94
409.344	558.94
409.567	516.94
409.791	517.94
410.014	494.94
410.238	491.94
410.461	506.94
410.685	475.94
410.908	525.94
411.132	567.94
411.355	567.94
411.578	543.94
411.802	493.94
412.025	473.94
412.249	503.94
412.472	511.94
412.695	539.94
412.919	546.94
413.142	475.94
413.365	478.94
413.589	481.94
413.812	484.94
414.035	487.94
414.258	465.94
414.482	478.94
414.705	474.94
414.928	463.94
415.151	451.94
415.374	469.94
415.597	496.94
415.821	453.94
416.044	460.94
416.267	466.94
416.49	476.94
416.713	472.94
416.936	505.94
417.159	454.94
417.382	458.94
417.605	468.94
417.828	462.94
418.051	493.94
418.274	452.94
418.497	450.94
418.72	466.94
418.943	457.94
419.166	479.94
419.389	499.94
419.611	513.94
419.834	519.94
420.057	490.94
420.28	474.94
420.503	461.94
420.726	486.94
420.948	517.94
421.171	513.94
421.394	580.94
421.617	509.94
421.839	464.94
422.062	490.94
422.285	496.94
422.507	543.94
422.73	608.94
422.953	563.94
423.175	538.94
423.398	513.94
423.621	505.94
423.843	524.94
424.066	498.94
424.288	520.94
424.511	527.94
424.733	587.94
424.956	635.94
425.178	609.94
425.401	610.94
425.623	611.94
425.846	545.94
426.068	493.94
426.291	496.94
426.513	523.94
426.735	519.94
426.958	549.94
427.18	610.94
427.402	704.94
427.625	775.94
427.847	667.94
428.069	566.94
428.292	539.94
428.514	497.94
428.736	489.94
428.958	487.94
429.181	454.94
429.403	448.94
429.625	480.94
429.847	502.94
430.069	563.94
430.292	549.94
430.514	483.94
430.736	474.94
430.958	453.94
431.18	443.94
431.402	442.94
431.624	430.94
431.846	417.94
432.068	445.94
432.29	474.94
432.512	458.94
432.734	483.94
432.956	437.94
433.178	453.94
433.4	456.94
433.622	456.94
433.844	442.94
434.066	438.94
434.287	458.94
434.509	461.94
434.731	469.94
434.953	466.94
435.175	472.94
435.397	494.94
435.618	517.94
435.84	527.94
436.062	611.94
436.284	677.94
436.505	562.94
436.727	527.94
436.949	485.94
437.17	450.94
437.392	476.94
437.614	496.94
437.835	497.94
438.057	566.94
438.278	655.94
438.5	647.94
438.721	711.94
438.943	689.94
439.165	561.94
439.386	510.94
439.608	487.94
439.829	507.94
440.05	496.94
440.272	526.94
440.493	524.94
440.715	485.94
440.936	461.94
441.158	478.94
441.379	461.94
441.6	486.94
441.822	503.94
442.043	541.94
442.264	593.94
442.486	648.94
442.707	547.94
442.928	503.94
443.149	515.94
443.371	547.94
443.592	559.94
443.813	654.94
444.034	709.94
444.255	589.94
444.476	535.94
444.698	499.94
444.919	533.94
445.14	630.94
445.361	568.94
445.582	567.94
445.803	576.94
446.024	658.94
446.245	675.94
446.466	606.94
446.687	543.94
446.908	491.94
447.129	457.94
447.35	476.94
447.571	449.94
447.792	473.94
448.013	446.94
448.234	477.94
448.455	508.94
448.675	619.94
448.896	679.94
449.117	583.94
449.338	590.94
449.559	681.94
449.779	738.94
450	587.94
450.221	507.94
450.442	464.94
450.662	453.94
450.883	440.94
451.104	441.94
451.324	459.94
451.545	442.94
451.766	412.94
451.986	418.94
452.207	403.94
452.428	394.94
452.648	426.94
452.869	404.94
453.089	401.94
453.31	426.94
453.53	379.94
453.751	409.94
453.971	396.94
454.192	441.94
454.412	424.94
454.633	421.94
454.853	405.94
455.073	397.94
455.294	449.94
455.514	491.94
455.734	479.94
455.955	418.94
456.175	402.94
456.395	379.94
456.616	390.94
456.836	407.94
457.056	393.94
457.276	385.94
457.497	392.94
457.717	385.94
457.937	394.94
458.157	401.94
458.377	408.94
458.598	433.94
458.818	462.94
459.038	515.94
459.258	523.94
459.478	475.94
459.698	439.94
459.918	448.94
460.138	417.94
460.358	458.94
460.578	462.94
460.798	453.94
461.018	488.94
461.238	458.94
461.458	461.94
461.678	455.94
461.898	469.94
462.118	439.94
462.338	460.94
462.558	477.94
462.777	490.94
462.997	481.94
463.217	516.94
463.437	508.94
463.657	508.94
463.876	488.94
464.096	498.94
464.316	488.94
464.536	465.94
464.755	495.94
464.975	471.94
465.195	494.94
465.414	526.94
465.634	481.94
465.854	455.94
466.073	441.94
466.293	442.94
466.512	437.94
466.732	429.94
466.951	440.94
467.171	411.94
467.391	417.94
467.61	429.94
467.829	448.94
468.049	442.94
468.268	423.94
468.488	419.94
468.707	387.94
468.927	414.94
469.146	386.94
469.365	404.94
469.585	428.94
469.804	411.94
470.023	436.94
470.243	437.94
470.462	422.94
470.681	434.94
470.901	445.94
471.12	429.94
471.339	412.94
471.558	445.94
471.777	434.94
471.997	431.94
472.216	432.94
472.435	440.94
472.654	434.94
472.873	425.94
473.092	412.94
473.311	424.94
473.53	439.94
473.749	435.94
473.968	477.94
474.187	565.94
474.406	574.94
474.625	479.94
474.844	451.94
475.063	410.94
475.282	426.94
475.501	424.94
475.72	418.94
475.939	433.94
476.158	427.94
476.377	414.94
476.596	431.94
476.814	438.94
477.033	440.94
477.252	439.94
477.471	422.94
477.69	447.94
477.908	457.94
478.127	467.94
478.346	465.94
478.564	479.94
478.783	475.94
479.002	499.94
479.22	490.94
479.439	519.94
479.658	504.94
479.876	481.94
480.095	505.94
480.313	513.94
480.532	546.94
480.751	521.94
480.969	527.94
481.188	554.94
481.406	549.94
481.624	551.94
481.843	488.94
482.061	485.94
482.28	507.94
482.498	492.94
482.717	475.94
482.935	513.94
483.153	463.94
483.372	501.94
483.59	491.94
483.808	479.94
484.027	489.94
484.245	492.94
484.463	493.94
484.681	493.94
484.9	503.94
485.118	501.94
485.336	509.94
485.554	510.94
485.772	505.94
485.99	505.94
486.209	514.94
486.427	507.94
486.645	527.94
486.863	492.94
487.081	536.94
487.299	531.94
487.517	513.94
487.735	497.94
487.953	491.94
488.171	525.94
488.389	535.94
488.607	510.94
488.825	491.94
489.043	519.94
489.261	531.94
489.479	535.94
489.696	513.94
489.914	513.94
490.132	553.94
490.35	533.94
490.568	534.94
490.786	539.94
491.003	560.94
491.221	525.94
491.439	560.94
491.657	559.94
491.874	585.94
492.092	567.94
492.31	592.94
492.527	576.94
492.745	605.94
492.963	607.94
493.18	601.94
493.398	591.94
493.615	618.94
493.833	619.94
494.05	595.94
494.268	586.94
494.485	591.94
494.703	595.94
494.92	599.94
495.138	627.94
495.355	592.94
495.573	593.94
495.79	605.94
496.008	606.94
496.225	596.94
496.442	601.94
496.66	610.94
496.877	618.94
497.094	622.94
497.312	590.94
497.529	638.94
497.746	637.94
497.963	649.94
498.181	646.94
498.398	687.94
498.615	699.94
498.832	707.94
499.049	714.94
499.267	734.94
499.484	757.94
499.701	822.94
499.918	827.94
500.135	857.94
500.352	921.94
500.569	944.94
500.786	933.94
501.003	944.94
501.22	882.94
501.437	856.94
501.654	824.94
501.871	803.94
502.088	773.94
