Data from 1977.PennyLincolnUp.Lamp.En5.5.200Scan.071719.P1_HRD10591_16-06-09-866.txt Node
Date: Thu Jul 18 16:06:09 EDT 2019
User: cochatt
Spectrometer: HR+D1059
Trigger mode: 1
Integration Time (sec): 1.000000E-1
Scans to average: 1
Electric dark correction enabled: true
Nonlinearity correction enabled: false
Boxcar width: 0
XAxis mode: Wavelengths
Number of Pixels in Spectrum: 2048
>>>>>Begin Spectral Data<<<<<
223.165	-21.44
223.4	-21.44
223.635	-21.44
223.869	-21.44
224.104	-27.44
224.338	-19.44
224.573	-8.44
224.808	-11.44
225.042	-0.44
225.277	-0.44
225.511	2.56
225.746	4.56
225.98	13.56
226.215	6.56
226.449	18.56
226.683	7.56
226.918	31.56
227.152	25.56
227.387	34.56
227.621	34.56
227.856	54.56
228.09	47.56
228.324	45.56
228.559	47.56
228.793	77.56
229.027	92.56
229.262	85.56
229.496	106.56
229.73	113.56
229.964	143.56
230.199	125.56
230.433	111.56
230.667	99.56
230.901	107.56
231.136	97.56
231.37	131.56
231.604	113.56
231.838	110.56
232.072	102.56
232.306	107.56
232.541	102.56
232.775	111.56
233.009	115.56
233.243	115.56
233.477	121.56
233.711	126.56
233.945	124.56
234.179	102.56
234.413	105.56
234.647	119.56
234.881	131.56
235.115	117.56
235.349	110.56
235.583	101.56
235.817	126.56
236.051	127.56
236.285	134.56
236.519	111.56
236.753	123.56
236.987	140.56
237.221	164.56
237.455	178.56
237.689	152.56
237.922	132.56
238.156	124.56
238.39	132.56
238.624	118.56
238.858	137.56
239.091	117.56
239.325	109.56
239.559	126.56
239.793	119.56
240.027	133.56
240.26	143.56
240.494	146.56
240.728	133.56
240.961	153.56
241.195	137.56
241.429	123.56
241.662	135.56
241.896	138.56
242.13	124.56
242.363	142.56
242.597	128.56
242.83	128.56
243.064	135.56
243.298	141.56
243.531	151.56
243.765	142.56
243.998	131.56
244.232	142.56
244.465	138.56
244.699	147.56
244.932	143.56
245.166	149.56
245.399	137.56
245.633	140.56
245.866	136.56
246.099	140.56
246.333	142.56
246.566	156.56
246.8	155.56
247.033	139.56
247.266	156.56
247.5	155.56
247.733	149.56
247.966	160.56
248.2	148.56
248.433	155.56
248.666	161.56
248.899	192.56
249.133	185.56
249.366	185.56
249.599	189.56
249.832	185.56
250.066	189.56
250.299	193.56
250.532	175.56
250.765	202.56
250.998	201.56
251.231	198.56
251.465	200.56
251.698	201.56
251.931	203.56
252.164	197.56
252.397	174.56
252.63	189.56
252.863	205.56
253.096	202.56
253.329	203.56
253.562	205.56
253.795	196.56
254.028	216.56
254.261	201.56
254.494	221.56
254.727	223.56
254.96	253.56
255.193	237.56
255.426	225.56
255.659	199.56
255.892	221.56
256.124	218.56
256.357	219.56
256.59	222.56
256.823	203.56
257.056	182.56
257.289	200.56
257.521	204.56
257.754	206.56
257.987	187.56
258.22	204.56
258.452	203.56
258.685	201.56
258.918	218.56
259.151	214.56
259.383	201.56
259.616	211.56
259.849	243.56
260.081	215.56
260.314	233.56
260.547	245.56
260.779	223.56
261.012	227.56
261.244	230.56
261.477	226.56
261.71	214.56
261.942	215.56
262.175	230.56
262.407	228.56
262.64	214.56
262.872	204.56
263.105	208.56
263.337	217.56
263.57	226.56
263.802	218.56
264.035	204.56
264.267	203.56
264.499	207.56
264.732	215.56
264.964	219.56
265.197	191.56
265.429	211.56
265.661	217.56
265.894	211.56
266.126	217.56
266.358	221.56
266.591	226.56
266.823	225.56
267.055	236.56
267.287	227.56
267.52	230.56
267.752	226.56
267.984	236.56
268.216	222.56
268.448	246.56
268.681	226.56
268.913	236.56
269.145	254.56
269.377	277.56
269.609	260.56
269.841	275.56
270.073	251.56
270.306	274.56
270.538	305.56
270.77	307.56
271.002	295.56
271.234	290.56
271.466	277.56
271.698	306.56
271.93	284.56
272.162	305.56
272.394	314.56
272.626	298.56
272.858	272.56
273.09	274.56
273.322	274.56
273.553	255.56
273.785	271.56
274.017	259.56
274.249	260.56
274.481	269.56
274.713	260.56
274.945	258.56
275.176	279.56
275.408	269.56
275.64	256.56
275.872	254.56
276.104	277.56
276.335	267.56
276.567	260.56
276.799	277.56
277.031	287.56
277.262	309.56
277.494	314.56
277.726	278.56
277.957	285.56
278.189	289.56
278.421	292.56
278.652	257.56
278.884	279.56
279.115	279.56
279.347	277.56
279.579	264.56
279.81	263.56
280.042	260.56
280.273	277.56
280.505	284.56
280.736	279.56
280.968	271.56
281.199	278.56
281.431	284.56
281.662	271.56
281.894	275.56
282.125	268.56
282.356	288.56
282.588	305.56
282.819	293.56
283.051	275.56
283.282	281.56
283.513	289.56
283.745	293.56
283.976	282.56
284.207	286.56
284.439	295.56
284.67	267.56
284.901	295.56
285.132	302.56
285.364	286.56
285.595	270.56
285.826	296.56
286.057	273.56
286.288	289.56
286.52	314.56
286.751	272.56
286.982	293.56
287.213	318.56
287.444	305.56
287.675	307.56
287.906	310.56
288.138	306.56
288.369	309.56
288.6	319.56
288.831	314.56
289.062	306.56
289.293	288.56
289.524	277.56
289.755	309.56
289.986	302.56
290.217	298.56
290.448	298.56
290.679	318.56
290.91	309.56
291.141	317.56
291.371	299.56
291.602	313.56
291.833	303.56
292.064	286.56
292.295	283.56
292.526	295.56
292.757	297.56
292.987	295.56
293.218	297.56
293.449	313.56
293.68	307.56
293.91	303.56
294.141	288.56
294.372	309.56
294.603	299.56
294.833	305.56
295.064	318.56
295.295	302.56
295.525	305.56
295.756	309.56
295.987	292.56
296.217	331.56
296.448	341.56
296.679	310.56
296.909	314.56
297.14	320.56
297.37	304.56
297.601	312.56
297.831	315.56
298.062	303.56
298.292	319.56
298.523	319.56
298.753	321.56
298.984	312.56
299.214	307.56
299.445	332.56
299.675	318.56
299.905	329.56
300.136	322.56
300.366	320.56
300.597	331.56
300.827	342.56
301.057	325.56
301.288	325.56
301.518	327.56
301.748	325.56
301.979	328.56
302.209	334.56
302.439	325.56
302.669	332.56
302.9	347.56
303.13	335.56
303.36	344.56
303.59	350.56
303.82	334.56
304.051	342.56
304.281	331.56
304.511	339.56
304.741	331.56
304.971	321.56
305.201	325.56
305.431	341.56
305.661	350.56
305.891	338.56
306.121	342.56
306.352	349.56
306.582	337.56
306.812	341.56
307.042	322.56
307.272	341.56
307.502	352.56
307.731	326.56
307.961	333.56
308.191	350.56
308.421	352.56
308.651	345.56
308.881	341.56
309.111	332.56
309.341	328.56
309.571	359.56
309.8	377.56
310.03	359.56
310.26	361.56
310.49	360.56
310.72	380.56
310.949	377.56
311.179	382.56
311.409	397.56
311.639	359.56
311.868	375.56
312.098	363.56
312.328	387.56
312.557	388.56
312.787	389.56
313.017	409.56
313.246	363.56
313.476	379.56
313.706	375.56
313.935	377.56
314.165	394.56
314.394	395.56
314.624	377.56
314.853	389.56
315.083	380.56
315.312	375.56
315.542	369.56
315.771	382.56
316.001	381.56
316.23	362.56
316.46	385.56
316.689	369.56
316.919	374.56
317.148	367.56
317.377	393.56
317.607	377.56
317.836	371.56
318.065	382.56
318.295	373.56
318.524	375.56
318.753	390.56
318.983	391.56
319.212	377.56
319.441	389.56
319.67	379.56
319.9	390.56
320.129	366.56
320.358	370.56
320.587	405.56
320.816	397.56
321.046	392.56
321.275	401.56
321.504	379.56
321.733	385.56
321.962	409.56
322.191	413.56
322.42	405.56
322.649	416.56
322.878	435.56
323.108	451.56
323.337	433.56
323.566	457.56
323.795	458.56
324.024	503.56
324.253	602.56
324.482	797.56
324.71	1167.56
324.939	1621.56
325.168	1366.56
325.397	767.56
325.626	588.56
325.855	507.56
326.084	484.56
326.313	457.56
326.542	467.56
326.77	513.56
326.999	575.56
327.228	718.56
327.457	1048.56
327.686	1185.56
327.914	822.56
328.143	590.56
328.372	539.56
328.6	512.56
328.829	511.56
329.058	524.56
329.287	524.56
329.515	490.56
329.744	468.56
329.972	503.56
330.201	482.56
330.43	465.56
330.658	527.56
330.887	522.56
331.115	533.56
331.344	494.56
331.572	483.56
331.801	449.56
332.03	451.56
332.258	448.56
332.486	454.56
332.715	442.56
332.943	457.56
333.172	470.56
333.4	495.56
333.629	477.56
333.857	484.56
334.085	485.56
334.314	483.56
334.542	504.56
334.771	511.56
334.999	481.56
335.227	463.56
335.455	475.56
335.684	473.56
335.912	455.56
336.14	444.56
336.369	442.56
336.597	449.56
336.825	457.56
337.053	459.56
337.281	454.56
337.51	459.56
337.738	428.56
337.966	454.56
338.194	453.56
338.422	466.56
338.65	443.56
338.878	440.56
339.106	429.56
339.334	444.56
339.562	421.56
339.79	425.56
340.018	423.56
340.246	422.56
340.474	438.56
340.702	412.56
340.93	417.56
341.158	414.56
341.386	419.56
341.614	448.56
341.842	441.56
342.07	406.56
342.298	407.56
342.526	410.56
342.754	429.56
342.981	439.56
343.209	419.56
343.437	427.56
343.665	418.56
343.893	457.56
344.12	445.56
344.348	455.56
344.576	450.56
344.804	427.56
345.031	448.56
345.259	469.56
345.487	438.56
345.714	429.56
345.942	412.56
346.17	417.56
346.397	413.56
346.625	388.56
346.853	384.56
347.08	390.56
347.308	393.56
347.535	391.56
347.763	421.56
347.99	403.56
348.218	411.56
348.445	412.56
348.673	405.56
348.9	400.56
349.128	405.56
349.355	395.56
349.583	387.56
349.81	403.56
350.037	386.56
350.265	390.56
350.492	397.56
350.72	391.56
350.947	381.56
351.174	401.56
351.402	419.56
351.629	385.56
351.856	396.56
352.083	405.56
352.311	425.56
352.538	409.56
352.765	397.56
352.992	399.56
353.22	392.56
353.447	397.56
353.674	391.56
353.901	406.56
354.128	394.56
354.355	394.56
354.583	397.56
354.81	378.56
355.037	385.56
355.264	376.56
355.491	377.56
355.718	367.56
355.945	383.56
356.172	372.56
356.399	388.56
356.626	379.56
356.853	379.56
357.08	378.56
357.307	364.56
357.534	379.56
357.761	363.56
357.988	385.56
358.215	370.56
358.441	393.56
358.668	379.56
358.895	369.56
359.122	393.56
359.349	377.56
359.576	391.56
359.802	398.56
360.029	422.56
360.256	436.56
360.483	435.56
360.709	412.56
360.936	379.56
361.163	383.56
361.39	399.56
361.616	380.56
361.843	397.56
362.07	377.56
362.296	399.56
362.523	384.56
362.749	379.56
362.976	408.56
363.203	391.56
363.429	373.56
363.656	398.56
363.882	375.56
364.109	388.56
364.335	378.56
364.562	385.56
364.788	377.56
365.015	373.56
365.241	389.56
365.468	406.56
365.694	386.56
365.92	380.56
366.147	391.56
366.373	377.56
366.599	390.56
366.826	361.56
367.052	393.56
367.278	377.56
367.505	375.56
367.731	411.56
367.957	366.56
368.184	360.56
368.41	364.56
368.636	386.56
368.862	387.56
369.089	389.56
369.315	383.56
369.541	381.56
369.767	387.56
369.993	382.56
370.219	384.56
370.445	379.56
370.672	383.56
370.898	362.56
371.124	378.56
371.35	358.56
371.576	377.56
371.802	383.56
372.028	370.56
372.254	365.56
372.48	375.56
372.706	378.56
372.932	373.56
373.158	391.56
373.384	377.56
373.61	385.56
373.835	404.56
374.061	391.56
374.287	377.56
374.513	398.56
374.739	399.56
374.965	403.56
375.191	394.56
375.416	377.56
375.642	380.56
375.868	378.56
376.094	386.56
376.319	371.56
376.545	392.56
376.771	379.56
376.997	377.56
377.222	378.56
377.448	390.56
377.674	379.56
377.899	374.56
378.125	363.56
378.35	376.56
378.576	381.56
378.802	391.56
379.027	363.56
379.253	381.56
379.478	373.56
379.704	378.56
379.929	381.56
380.155	386.56
380.38	388.56
380.606	390.56
380.831	370.56
381.057	393.56
381.282	369.56
381.507	356.56
381.733	378.56
381.958	378.56
382.184	390.56
382.409	404.56
382.634	387.56
382.86	406.56
383.085	393.56
383.31	376.56
383.535	379.56
383.761	389.56
383.986	402.56
384.211	404.56
384.436	399.56
384.662	403.56
384.887	395.56
385.112	407.56
385.337	408.56
385.562	413.56
385.787	406.56
386.013	394.56
386.238	420.56
386.463	421.56
386.688	435.56
386.913	393.56
387.138	430.56
387.363	413.56
387.588	417.56
387.813	436.56
388.038	415.56
388.263	406.56
388.488	417.56
388.713	417.56
388.938	425.56
389.163	416.56
389.387	436.56
389.612	409.56
389.837	405.56
390.062	413.56
390.287	404.56
390.512	390.56
390.736	394.56
390.961	429.56
391.186	405.56
391.411	374.56
391.636	423.56
391.86	418.56
392.085	433.56
392.31	426.56
392.534	425.56
392.759	421.56
392.984	437.56
393.208	438.56
393.433	419.56
393.658	424.56
393.882	418.56
394.107	414.56
394.331	404.56
394.556	412.56
394.78	430.56
395.005	440.56
395.229	425.56
395.454	411.56
395.678	414.56
395.903	433.56
396.127	465.56
396.352	441.56
396.576	441.56
396.801	438.56
397.025	412.56
397.249	429.56
397.474	437.56
397.698	445.56
397.922	431.56
398.147	456.56
398.371	460.56
398.595	468.56
398.82	465.56
399.044	489.56
399.268	525.56
399.492	543.56
399.717	567.56
399.941	594.56
400.165	589.56
400.389	563.56
400.613	536.56
400.837	501.56
401.062	513.56
401.286	483.56
401.51	485.56
401.734	476.56
401.958	484.56
402.182	473.56
402.406	463.56
402.63	481.56
402.854	460.56
403.078	494.56
403.302	482.56
403.526	482.56
403.75	508.56
403.974	470.56
404.198	487.56
404.422	471.56
404.645	478.56
404.869	509.56
405.093	520.56
405.317	535.56
405.541	566.56
405.765	534.56
405.988	519.56
406.212	501.56
406.436	517.56
406.66	524.56
406.883	519.56
407.107	541.56
407.331	586.56
407.555	619.56
407.778	601.56
408.002	563.56
408.226	545.56
408.449	548.56
408.673	521.56
408.896	565.56
409.12	577.56
409.344	558.56
409.567	505.56
409.791	504.56
410.014	468.56
410.238	484.56
410.461	481.56
410.685	499.56
410.908	501.56
411.132	540.56
411.355	539.56
411.578	537.56
411.802	475.56
412.025	454.56
412.249	467.56
412.472	517.56
412.695	529.56
412.919	549.56
413.142	498.56
413.365	478.56
413.589	472.56
413.812	465.56
414.035	447.56
414.258	454.56
414.482	470.56
414.705	462.56
414.928	471.56
415.151	456.56
415.374	456.56
415.597	455.56
415.821	465.56
416.044	453.56
416.267	457.56
416.49	457.56
416.713	449.56
416.936	457.56
417.159	443.56
417.382	458.56
417.605	461.56
417.828	479.56
418.051	477.56
418.274	442.56
418.497	453.56
418.72	460.56
418.943	444.56
419.166	486.56
419.389	511.56
419.611	480.56
419.834	473.56
420.057	476.56
420.28	462.56
420.503	473.56
420.726	462.56
420.948	457.56
421.171	510.56
421.394	516.56
421.617	458.56
421.839	459.56
422.062	473.56
422.285	463.56
422.507	545.56
422.73	577.56
422.953	555.56
423.175	491.56
423.398	466.56
423.621	482.56
423.843	514.56
424.066	520.56
424.288	516.56
424.511	511.56
424.733	520.56
424.956	625.56
425.178	581.56
425.401	594.56
425.623	607.56
425.846	511.56
426.068	498.56
426.291	490.56
426.513	484.56
426.735	476.56
426.958	525.56
427.18	583.56
427.402	698.56
427.625	731.56
427.847	654.56
428.069	555.56
428.292	501.56
428.514	481.56
428.736	465.56
428.958	458.56
429.181	447.56
429.403	461.56
429.625	451.56
429.847	490.56
430.069	537.56
430.292	530.56
430.514	486.56
430.736	447.56
430.958	445.56
431.18	431.56
431.402	425.56
431.624	434.56
431.846	433.56
432.068	426.56
432.29	424.56
432.512	426.56
432.734	424.56
432.956	431.56
433.178	423.56
433.4	429.56
433.622	445.56
433.844	415.56
434.066	430.56
434.287	441.56
434.509	460.56
434.731	439.56
434.953	431.56
435.175	472.56
435.397	494.56
435.618	484.56
435.84	505.56
436.062	575.56
436.284	646.56
436.505	536.56
436.727	502.56
436.949	477.56
437.17	452.56
437.392	447.56
437.614	443.56
437.835	463.56
438.057	541.56
438.278	619.56
438.5	633.56
438.721	699.56
438.943	656.56
439.165	541.56
439.386	490.56
439.608	501.56
439.829	481.56
440.05	495.56
440.272	541.56
440.493	510.56
440.715	457.56
440.936	461.56
441.158	463.56
441.379	458.56
441.6	461.56
441.822	467.56
442.043	510.56
442.264	578.56
442.486	610.56
442.707	515.56
442.928	491.56
443.149	521.56
443.371	515.56
443.592	547.56
443.813	614.56
444.034	668.56
444.255	569.56
444.476	508.56
444.698	521.56
444.919	495.56
445.14	594.56
445.361	563.56
445.582	525.56
445.803	553.56
446.024	620.56
446.245	643.56
446.466	569.56
446.687	507.56
446.908	482.56
447.129	450.56
447.35	437.56
447.571	439.56
447.792	439.56
448.013	444.56
448.234	469.56
448.455	525.56
448.675	584.56
448.896	668.56
449.117	580.56
449.338	533.56
449.559	622.56
449.779	699.56
450	566.56
450.221	480.56
450.442	454.56
450.662	432.56
450.883	431.56
451.104	453.56
451.324	438.56
451.545	433.56
451.766	397.56
451.986	411.56
452.207	390.56
452.428	412.56
452.648	391.56
452.869	419.56
453.089	403.56
453.31	412.56
453.53	423.56
453.751	384.56
453.971	385.56
454.192	393.56
454.412	401.56
454.633	383.56
454.853	383.56
455.073	389.56
455.294	405.56
455.514	451.56
455.734	444.56
455.955	395.56
456.175	406.56
456.395	358.56
456.616	391.56
456.836	370.56
457.056	371.56
457.276	387.56
457.497	374.56
457.717	372.56
457.937	373.56
458.157	389.56
458.377	380.56
458.598	420.56
458.818	436.56
459.038	481.56
459.258	529.56
459.478	477.56
459.698	421.56
459.918	428.56
460.138	421.56
460.358	440.56
460.578	445.56
460.798	452.56
461.018	423.56
461.238	452.56
461.458	431.56
461.678	441.56
461.898	447.56
462.118	445.56
462.338	447.56
462.558	467.56
462.777	469.56
462.997	493.56
463.217	494.56
463.437	514.56
463.657	498.56
463.876	473.56
464.096	469.56
464.316	464.56
464.536	488.56
464.755	477.56
464.975	488.56
465.195	477.56
465.414	518.56
465.634	453.56
465.854	443.56
466.073	425.56
466.293	435.56
466.512	432.56
466.732	417.56
466.951	405.56
467.171	404.56
467.391	413.56
467.61	417.56
467.829	422.56
468.049	413.56
468.268	417.56
468.488	417.56
468.707	402.56
468.927	389.56
469.146	361.56
469.365	407.56
469.585	401.56
469.804	422.56
470.023	407.56
470.243	400.56
470.462	407.56
470.681	421.56
470.901	420.56
471.12	427.56
471.339	421.56
471.558	409.56
471.777	409.56
471.997	433.56
472.216	408.56
472.435	422.56
472.654	421.56
472.873	375.56
473.092	405.56
473.311	437.56
473.53	400.56
473.749	424.56
473.968	424.56
474.187	516.56
474.406	529.56
474.625	454.56
474.844	428.56
475.063	421.56
475.282	416.56
475.501	405.56
475.72	439.56
475.939	403.56
476.158	436.56
476.377	421.56
476.596	436.56
476.814	449.56
477.033	414.56
477.252	439.56
477.471	443.56
477.69	437.56
477.908	452.56
478.127	442.56
478.346	460.56
478.564	468.56
478.783	450.56
479.002	475.56
479.22	448.56
479.439	483.56
479.658	490.56
479.876	493.56
480.095	492.56
480.313	517.56
480.532	519.56
480.751	486.56
480.969	491.56
481.188	535.56
481.406	552.56
481.624	519.56
481.843	497.56
482.061	475.56
482.28	474.56
482.498	473.56
482.717	472.56
482.935	482.56
483.153	475.56
483.372	461.56
483.59	473.56
483.808	461.56
484.027	469.56
484.245	459.56
484.463	485.56
484.681	477.56
484.9	489.56
485.118	502.56
485.336	469.56
485.554	491.56
485.772	504.56
485.99	500.56
486.209	509.56
486.427	483.56
486.645	476.56
486.863	497.56
487.081	521.56
487.299	505.56
487.517	497.56
487.735	497.56
487.953	512.56
488.171	489.56
488.389	510.56
488.607	497.56
488.825	491.56
489.043	491.56
489.261	511.56
489.479	500.56
489.696	506.56
489.914	509.56
490.132	519.56
490.35	498.56
490.568	538.56
490.786	531.56
491.003	534.56
491.221	540.56
491.439	542.56
491.657	570.56
491.874	545.56
492.092	549.56
492.31	564.56
492.527	567.56
492.745	570.56
492.963	580.56
493.18	563.56
493.398	550.56
493.615	571.56
493.833	587.56
494.05	587.56
494.268	579.56
494.485	578.56
494.703	603.56
494.92	579.56
495.138	580.56
495.355	577.56
495.573	574.56
495.79	572.56
496.008	585.56
496.225	592.56
496.442	609.56
496.66	582.56
496.877	589.56
497.094	626.56
497.312	625.56
497.529	613.56
497.746	621.56
497.963	618.56
498.181	650.56
498.398	647.56
498.615	663.56
498.832	693.56
499.049	686.56
499.267	732.56
499.484	758.56
499.701	782.56
499.918	826.56
500.135	846.56
500.352	910.56
500.569	912.56
500.786	949.56
501.003	893.56
501.22	874.56
501.437	827.56
501.654	793.56
501.871	783.56
502.088	769.56
