Data from 1977.PennyLincolnUp.Lamp.En5.5.200Scan.071719.P1_HRD10591_16-06-34-863.txt Node
Date: Thu Jul 18 16:06:34 EDT 2019
User: cochatt
Spectrometer: HR+D1059
Trigger mode: 1
Integration Time (sec): 1.000000E-1
Scans to average: 1
Electric dark correction enabled: true
Nonlinearity correction enabled: false
Boxcar width: 0
XAxis mode: Wavelengths
Number of Pixels in Spectrum: 2048
>>>>>Begin Spectral Data<<<<<
223.165	-0.75
223.4	-0.75
223.635	-0.75
223.869	-3.75
224.104	-15.75
224.338	-25.75
224.573	-23.75
224.808	-13.75
225.042	-7.75
225.277	-10.75
225.511	-13.75
225.746	5.25
225.98	15.25
226.215	9.25
226.449	19.25
226.683	15.25
226.918	19.25
227.152	32.25
227.387	22.25
227.621	34.25
227.856	42.25
228.09	55.25
228.324	47.25
228.559	53.25
228.793	53.25
229.027	92.25
229.262	118.25
229.496	115.25
229.73	137.25
229.964	143.25
230.199	125.25
230.433	96.25
230.667	118.25
230.901	110.25
231.136	104.25
231.37	111.25
231.604	115.25
231.838	121.25
232.072	107.25
232.306	105.25
232.541	122.25
232.775	123.25
233.009	126.25
233.243	106.25
233.477	104.25
233.711	121.25
233.945	103.25
234.179	120.25
234.413	119.25
234.647	116.25
234.881	125.25
235.115	113.25
235.349	118.25
235.583	110.25
235.817	124.25
236.051	120.25
236.285	122.25
236.519	117.25
236.753	138.25
236.987	152.25
237.221	160.25
237.455	199.25
237.689	177.25
237.922	137.25
238.156	149.25
238.39	118.25
238.624	134.25
238.858	114.25
239.091	117.25
239.325	118.25
239.559	114.25
239.793	129.25
240.027	134.25
240.26	133.25
240.494	153.25
240.728	147.25
240.961	142.25
241.195	146.25
241.429	136.25
241.662	129.25
241.896	128.25
242.13	123.25
242.363	136.25
242.597	135.25
242.83	138.25
243.064	136.25
243.298	159.25
243.531	135.25
243.765	139.25
243.998	147.25
244.232	148.25
244.465	160.25
244.699	145.25
244.932	141.25
245.166	148.25
245.399	160.25
245.633	153.25
245.866	148.25
246.099	140.25
246.333	150.25
246.566	137.25
246.8	155.25
247.033	154.25
247.266	168.25
247.5	162.25
247.733	156.25
247.966	172.25
248.2	180.25
248.433	154.25
248.666	175.25
248.899	192.25
249.133	174.25
249.366	202.25
249.599	193.25
249.832	170.25
250.066	188.25
250.299	164.25
250.532	190.25
250.765	205.25
250.998	220.25
251.231	209.25
251.465	205.25
251.698	198.25
251.931	193.25
252.164	196.25
252.397	190.25
252.63	197.25
252.863	200.25
253.096	201.25
253.329	197.25
253.562	225.25
253.795	217.25
254.028	213.25
254.261	203.25
254.494	228.25
254.727	243.25
254.96	268.25
255.193	258.25
255.426	215.25
255.659	227.25
255.892	212.25
256.124	220.25
256.357	220.25
256.59	240.25
256.823	209.25
257.056	213.25
257.289	206.25
257.521	201.25
257.754	200.25
257.987	205.25
258.22	204.25
258.452	210.25
258.685	213.25
258.918	206.25
259.151	210.25
259.383	211.25
259.616	220.25
259.849	217.25
260.081	228.25
260.314	250.25
260.547	256.25
260.779	242.25
261.012	256.25
261.244	253.25
261.477	232.25
261.71	214.25
261.942	236.25
262.175	243.25
262.407	224.25
262.64	218.25
262.872	225.25
263.105	210.25
263.337	227.25
263.57	229.25
263.802	210.25
264.035	221.25
264.267	228.25
264.499	211.25
264.732	220.25
264.964	242.25
265.197	242.25
265.429	212.25
265.661	241.25
265.894	217.25
266.126	214.25
266.358	243.25
266.591	235.25
266.823	227.25
267.055	240.25
267.287	235.25
267.52	242.25
267.752	222.25
267.984	246.25
268.216	260.25
268.448	232.25
268.681	240.25
268.913	256.25
269.145	268.25
269.377	293.25
269.609	289.25
269.841	259.25
270.073	269.25
270.306	281.25
270.538	294.25
270.77	310.25
271.002	296.25
271.234	312.25
271.466	300.25
271.698	322.25
271.93	304.25
272.162	322.25
272.394	313.25
272.626	318.25
272.858	299.25
273.09	276.25
273.322	292.25
273.553	277.25
273.785	281.25
274.017	279.25
274.249	272.25
274.481	280.25
274.713	270.25
274.945	275.25
275.176	271.25
275.408	285.25
275.64	284.25
275.872	269.25
276.104	274.25
276.335	272.25
276.567	269.25
276.799	294.25
277.031	325.25
277.262	320.25
277.494	326.25
277.726	323.25
277.957	298.25
278.189	292.25
278.421	278.25
278.652	293.25
278.884	294.25
279.115	282.25
279.347	298.25
279.579	275.25
279.81	286.25
280.042	307.25
280.273	288.25
280.505	304.25
280.736	292.25
280.968	285.25
281.199	299.25
281.431	285.25
281.662	297.25
281.894	285.25
282.125	283.25
282.356	296.25
282.588	317.25
282.819	312.25
283.051	297.25
283.282	284.25
283.513	297.25
283.745	315.25
283.976	306.25
284.207	324.25
284.439	291.25
284.67	301.25
284.901	281.25
285.132	292.25
285.364	288.25
285.595	274.25
285.826	299.25
286.057	285.25
286.288	317.25
286.52	302.25
286.751	301.25
286.982	308.25
287.213	294.25
287.444	306.25
287.675	313.25
287.906	304.25
288.138	336.25
288.369	333.25
288.6	341.25
288.831	323.25
289.062	307.25
289.293	306.25
289.524	323.25
289.755	313.25
289.986	309.25
290.217	308.25
290.448	312.25
290.679	305.25
290.91	308.25
291.141	308.25
291.371	319.25
291.602	322.25
291.833	316.25
292.064	305.25
292.295	317.25
292.526	337.25
292.757	335.25
292.987	294.25
293.218	312.25
293.449	326.25
293.68	317.25
293.91	323.25
294.141	315.25
294.372	323.25
294.603	308.25
294.833	319.25
295.064	309.25
295.295	304.25
295.525	340.25
295.756	320.25
295.987	324.25
296.217	339.25
296.448	358.25
296.679	332.25
296.909	334.25
297.14	339.25
297.37	323.25
297.601	337.25
297.831	322.25
298.062	333.25
298.292	331.25
298.523	329.25
298.753	341.25
298.984	341.25
299.214	336.25
299.445	310.25
299.675	338.25
299.905	348.25
300.136	331.25
300.366	338.25
300.597	334.25
300.827	350.25
301.057	353.25
301.288	362.25
301.518	336.25
301.748	338.25
301.979	351.25
302.209	347.25
302.439	362.25
302.669	352.25
302.9	346.25
303.13	351.25
303.36	333.25
303.59	358.25
303.82	352.25
304.051	354.25
304.281	357.25
304.511	364.25
304.741	365.25
304.971	340.25
305.201	352.25
305.431	357.25
305.661	359.25
305.891	356.25
306.121	347.25
306.352	346.25
306.582	353.25
306.812	336.25
307.042	376.25
307.272	344.25
307.502	371.25
307.731	359.25
307.961	378.25
308.191	354.25
308.421	355.25
308.651	357.25
308.881	356.25
309.111	357.25
309.341	373.25
309.571	385.25
309.8	366.25
310.03	366.25
310.26	377.25
310.49	385.25
310.72	397.25
310.949	381.25
311.179	405.25
311.409	392.25
311.639	401.25
311.868	400.25
312.098	412.25
312.328	414.25
312.557	412.25
312.787	408.25
313.017	420.25
313.246	405.25
313.476	402.25
313.706	394.25
313.935	393.25
314.165	387.25
314.394	403.25
314.624	408.25
314.853	384.25
315.083	414.25
315.312	394.25
315.542	402.25
315.771	386.25
316.001	388.25
316.23	421.25
316.46	397.25
316.689	397.25
316.919	420.25
317.148	406.25
317.377	407.25
317.607	400.25
317.836	396.25
318.065	404.25
318.295	422.25
318.524	423.25
318.753	397.25
318.983	395.25
319.212	407.25
319.441	426.25
319.67	401.25
319.9	397.25
320.129	410.25
320.358	402.25
320.587	412.25
320.816	391.25
321.046	411.25
321.275	425.25
321.504	420.25
321.733	400.25
321.962	413.25
322.191	446.25
322.42	460.25
322.649	443.25
322.878	443.25
323.108	436.25
323.337	467.25
323.566	472.25
323.795	517.25
324.024	540.25
324.253	632.25
324.482	850.25
324.71	1236.25
324.939	1766.25
325.168	1507.25
325.397	809.25
325.626	604.25
325.855	507.25
326.084	493.25
326.313	498.25
326.542	476.25
326.77	537.25
326.999	611.25
327.228	790.25
327.457	1120.25
327.686	1309.25
327.914	916.25
328.143	633.25
328.372	573.25
328.6	517.25
328.829	493.25
329.058	549.25
329.287	558.25
329.515	532.25
329.744	499.25
329.972	507.25
330.201	533.25
330.43	524.25
330.658	531.25
330.887	563.25
331.115	538.25
331.344	526.25
331.572	488.25
331.801	484.25
332.03	497.25
332.258	488.25
332.486	461.25
332.715	496.25
332.943	468.25
333.172	472.25
333.4	479.25
333.629	479.25
333.857	534.25
334.085	513.25
334.314	516.25
334.542	524.25
334.771	530.25
334.999	516.25
335.227	512.25
335.455	473.25
335.684	484.25
335.912	473.25
336.14	462.25
336.369	489.25
336.597	475.25
336.825	487.25
337.053	465.25
337.281	449.25
337.51	456.25
337.738	452.25
337.966	444.25
338.194	456.25
338.422	468.25
338.65	464.25
338.878	464.25
339.106	455.25
339.334	464.25
339.562	444.25
339.79	428.25
340.018	450.25
340.246	438.25
340.474	448.25
340.702	450.25
340.93	451.25
341.158	466.25
341.386	459.25
341.614	445.25
341.842	435.25
342.07	441.25
342.298	444.25
342.526	416.25
342.754	421.25
342.981	415.25
343.209	441.25
343.437	440.25
343.665	460.25
343.893	472.25
344.12	478.25
344.348	481.25
344.576	458.25
344.804	466.25
345.031	448.25
345.259	443.25
345.487	455.25
345.714	433.25
345.942	457.25
346.17	440.25
346.397	437.25
346.625	422.25
346.853	430.25
347.08	434.25
347.308	430.25
347.535	443.25
347.763	427.25
347.99	441.25
348.218	430.25
348.445	437.25
348.673	433.25
348.9	418.25
349.128	434.25
349.355	417.25
349.583	419.25
349.81	405.25
350.037	410.25
350.265	416.25
350.492	404.25
350.72	421.25
350.947	427.25
351.174	431.25
351.402	437.25
351.629	415.25
351.856	417.25
352.083	418.25
352.311	443.25
352.538	411.25
352.765	439.25
352.992	408.25
353.22	405.25
353.447	410.25
353.674	389.25
353.901	396.25
354.128	398.25
354.355	392.25
354.583	409.25
354.81	394.25
355.037	381.25
355.264	390.25
355.491	404.25
355.718	382.25
355.945	392.25
356.172	379.25
356.399	387.25
356.626	392.25
356.853	392.25
357.08	386.25
357.307	403.25
357.534	402.25
357.761	404.25
357.988	386.25
358.215	401.25
358.441	393.25
358.668	393.25
358.895	405.25
359.122	403.25
359.349	411.25
359.576	420.25
359.802	435.25
360.029	438.25
360.256	439.25
360.483	421.25
360.709	429.25
360.936	413.25
361.163	410.25
361.39	429.25
361.616	432.25
361.843	402.25
362.07	411.25
362.296	390.25
362.523	414.25
362.749	399.25
362.976	405.25
363.203	426.25
363.429	410.25
363.656	406.25
363.882	380.25
364.109	377.25
364.335	411.25
364.562	409.25
364.788	390.25
365.015	406.25
365.241	394.25
365.468	403.25
365.694	406.25
365.92	379.25
366.147	402.25
366.373	393.25
366.599	366.25
366.826	406.25
367.052	410.25
367.278	393.25
367.505	422.25
367.731	402.25
367.957	386.25
368.184	402.25
368.41	392.25
368.636	386.25
368.862	411.25
369.089	396.25
369.315	415.25
369.541	406.25
369.767	398.25
369.993	388.25
370.219	386.25
370.445	404.25
370.672	397.25
370.898	387.25
371.124	401.25
371.35	398.25
371.576	406.25
371.802	401.25
372.028	407.25
372.254	392.25
372.48	389.25
372.706	401.25
372.932	398.25
373.158	419.25
373.384	399.25
373.61	381.25
373.835	397.25
374.061	391.25
374.287	404.25
374.513	392.25
374.739	418.25
374.965	404.25
375.191	411.25
375.416	423.25
375.642	412.25
375.868	410.25
376.094	428.25
376.319	403.25
376.545	394.25
376.771	382.25
376.997	393.25
377.222	401.25
377.448	391.25
377.674	394.25
377.899	384.25
378.125	384.25
378.35	384.25
378.576	391.25
378.802	411.25
379.027	386.25
379.253	398.25
379.478	413.25
379.704	390.25
379.929	397.25
380.155	403.25
380.38	388.25
380.606	377.25
380.831	374.25
381.057	395.25
381.282	412.25
381.507	398.25
381.733	370.25
381.958	401.25
382.184	395.25
382.409	402.25
382.634	406.25
382.86	394.25
383.085	411.25
383.31	413.25
383.535	418.25
383.761	409.25
383.986	415.25
384.211	412.25
384.436	412.25
384.662	420.25
384.887	408.25
385.112	420.25
385.337	434.25
385.562	415.25
385.787	421.25
386.013	457.25
386.238	430.25
386.463	439.25
386.688	430.25
386.913	420.25
387.138	420.25
387.363	434.25
387.588	408.25
387.813	445.25
388.038	413.25
388.263	433.25
388.488	438.25
388.713	426.25
388.938	428.25
389.163	441.25
389.387	416.25
389.612	430.25
389.837	427.25
390.062	415.25
390.287	404.25
390.512	424.25
390.736	452.25
390.961	432.25
391.186	438.25
391.411	435.25
391.636	452.25
391.86	448.25
392.085	440.25
392.31	470.25
392.534	473.25
392.759	431.25
392.984	426.25
393.208	446.25
393.433	436.25
393.658	457.25
393.882	424.25
394.107	430.25
394.331	421.25
394.556	432.25
394.78	438.25
395.005	460.25
395.229	431.25
395.454	458.25
395.678	454.25
395.903	466.25
396.127	480.25
396.352	480.25
396.576	470.25
396.801	444.25
397.025	460.25
397.249	461.25
397.474	448.25
397.698	456.25
397.922	463.25
398.147	501.25
398.371	462.25
398.595	471.25
398.82	492.25
399.044	502.25
399.268	510.25
399.492	575.25
399.717	597.25
399.941	604.25
400.165	612.25
400.389	612.25
400.613	563.25
400.837	522.25
401.062	508.25
401.286	514.25
401.51	496.25
401.734	482.25
401.958	503.25
402.182	488.25
402.406	524.25
402.63	501.25
402.854	496.25
403.078	497.25
403.302	513.25
403.526	526.25
403.75	514.25
403.974	521.25
404.198	510.25
404.422	520.25
404.645	517.25
404.869	510.25
405.093	557.25
405.317	582.25
405.541	600.25
405.765	562.25
405.988	539.25
406.212	552.25
406.436	549.25
406.66	552.25
406.883	524.25
407.107	584.25
407.331	567.25
407.555	654.25
407.778	687.25
408.002	598.25
408.226	580.25
408.449	563.25
408.673	558.25
408.896	592.25
409.12	600.25
409.344	573.25
409.567	552.25
409.791	522.25
410.014	516.25
410.238	499.25
410.461	508.25
410.685	504.25
410.908	516.25
411.132	574.25
411.355	553.25
411.578	546.25
411.802	527.25
412.025	525.25
412.249	520.25
412.472	520.25
412.695	544.25
412.919	545.25
413.142	512.25
413.365	521.25
413.589	492.25
413.812	493.25
414.035	480.25
414.258	481.25
414.482	468.25
414.705	475.25
414.928	491.25
415.151	484.25
415.374	502.25
415.597	471.25
415.821	461.25
416.044	471.25
416.267	476.25
416.49	470.25
416.713	473.25
416.936	485.25
417.159	490.25
417.382	490.25
417.605	476.25
417.828	461.25
418.051	480.25
418.274	496.25
418.497	499.25
418.72	496.25
418.943	472.25
419.166	491.25
419.389	525.25
419.611	518.25
419.834	488.25
420.057	502.25
420.28	491.25
420.503	494.25
420.726	512.25
420.948	512.25
421.171	506.25
421.394	566.25
421.617	542.25
421.839	485.25
422.062	505.25
422.285	500.25
422.507	562.25
422.73	606.25
422.953	573.25
423.175	538.25
423.398	513.25
423.621	515.25
423.843	552.25
424.066	508.25
424.288	522.25
424.511	560.25
424.733	584.25
424.956	624.25
425.178	601.25
425.401	620.25
425.623	629.25
425.846	532.25
426.068	524.25
426.291	517.25
426.513	499.25
426.735	516.25
426.958	560.25
427.18	620.25
427.402	729.25
427.625	774.25
427.847	662.25
428.069	574.25
428.292	549.25
428.514	502.25
428.736	489.25
428.958	506.25
429.181	484.25
429.403	476.25
429.625	477.25
429.847	511.25
430.069	555.25
430.292	565.25
430.514	489.25
430.736	500.25
430.958	468.25
431.18	454.25
431.402	456.25
431.624	451.25
431.846	450.25
432.068	436.25
432.29	464.25
432.512	459.25
432.734	448.25
432.956	458.25
433.178	456.25
433.4	454.25
433.622	455.25
433.844	440.25
434.066	463.25
434.287	454.25
434.509	474.25
434.731	487.25
434.953	477.25
435.175	494.25
435.397	502.25
435.618	496.25
435.84	560.25
436.062	628.25
436.284	662.25
436.505	554.25
436.727	509.25
436.949	487.25
437.17	488.25
437.392	466.25
437.614	467.25
437.835	492.25
438.057	581.25
438.278	674.25
438.5	640.25
438.721	754.25
438.943	702.25
439.165	564.25
439.386	512.25
439.608	542.25
439.829	511.25
440.05	532.25
440.272	565.25
440.493	539.25
440.715	473.25
440.936	479.25
441.158	469.25
441.379	472.25
441.6	519.25
441.822	489.25
442.043	532.25
442.264	604.25
442.486	647.25
442.707	568.25
442.928	530.25
443.149	526.25
443.371	519.25
443.592	542.25
443.813	654.25
444.034	694.25
444.255	589.25
444.476	536.25
444.698	512.25
444.919	528.25
445.14	596.25
445.361	584.25
445.582	548.25
445.803	589.25
446.024	643.25
446.245	671.25
446.466	603.25
446.687	552.25
446.908	514.25
447.129	456.25
447.35	465.25
447.571	463.25
447.792	458.25
448.013	485.25
448.234	486.25
448.455	522.25
448.675	602.25
448.896	699.25
449.117	608.25
449.338	573.25
449.559	658.25
449.779	743.25
450	610.25
450.221	494.25
450.442	459.25
450.662	460.25
450.883	435.25
451.104	454.25
451.324	450.25
451.545	440.25
451.766	424.25
451.986	408.25
452.207	411.25
452.428	429.25
452.648	401.25
452.869	425.25
453.089	412.25
453.31	414.25
453.53	423.25
453.751	416.25
453.971	443.25
454.192	441.25
454.412	416.25
454.633	414.25
454.853	438.25
455.073	406.25
455.294	430.25
455.514	463.25
455.734	459.25
455.955	400.25
456.175	424.25
456.395	404.25
456.616	389.25
456.836	409.25
457.056	406.25
457.276	391.25
457.497	409.25
457.717	385.25
457.937	420.25
458.157	432.25
458.377	408.25
458.598	424.25
458.818	451.25
459.038	512.25
459.258	550.25
459.478	484.25
459.698	466.25
459.918	439.25
460.138	448.25
460.358	456.25
460.578	461.25
460.798	469.25
461.018	468.25
461.238	466.25
461.458	490.25
461.678	442.25
461.898	472.25
462.118	477.25
462.338	466.25
462.558	487.25
462.777	510.25
462.997	528.25
463.217	533.25
463.437	548.25
463.657	471.25
463.876	517.25
464.096	498.25
464.316	496.25
464.536	489.25
464.755	507.25
464.975	525.25
465.195	520.25
465.414	530.25
465.634	497.25
465.854	434.25
466.073	452.25
466.293	452.25
466.512	432.25
466.732	453.25
466.951	423.25
467.171	444.25
467.391	423.25
467.61	472.25
467.829	434.25
468.049	424.25
468.268	420.25
468.488	412.25
468.707	401.25
468.927	421.25
469.146	430.25
469.365	436.25
469.585	414.25
469.804	422.25
470.023	430.25
470.243	425.25
470.462	422.25
470.681	443.25
470.901	424.25
471.12	418.25
471.339	434.25
471.558	421.25
471.777	432.25
471.997	454.25
472.216	433.25
472.435	436.25
472.654	412.25
472.873	420.25
473.092	412.25
473.311	417.25
473.53	434.25
473.749	437.25
473.968	486.25
474.187	547.25
474.406	563.25
474.625	466.25
474.844	438.25
475.063	438.25
475.282	420.25
475.501	421.25
475.72	443.25
475.939	446.25
476.158	434.25
476.377	444.25
476.596	451.25
476.814	440.25
477.033	447.25
477.252	430.25
477.471	473.25
477.69	455.25
477.908	476.25
478.127	484.25
478.346	476.25
478.564	480.25
478.783	500.25
479.002	502.25
479.22	488.25
479.439	510.25
479.658	544.25
479.876	506.25
480.095	532.25
480.313	570.25
480.532	554.25
480.751	547.25
480.969	550.25
481.188	568.25
481.406	581.25
481.624	518.25
481.843	508.25
482.061	507.25
482.28	505.25
482.498	520.25
482.717	492.25
482.935	480.25
483.153	495.25
483.372	488.25
483.59	478.25
483.808	492.25
484.027	493.25
484.245	469.25
484.463	488.25
484.681	502.25
484.9	508.25
485.118	508.25
485.336	505.25
485.554	518.25
485.772	512.25
485.99	519.25
486.209	525.25
486.427	509.25
486.645	542.25
486.863	532.25
487.081	544.25
487.299	529.25
487.517	501.25
487.735	534.25
487.953	525.25
488.171	528.25
488.389	535.25
488.607	530.25
488.825	516.25
489.043	524.25
489.261	536.25
489.479	517.25
489.696	540.25
489.914	547.25
490.132	530.25
490.35	553.25
490.568	542.25
490.786	562.25
491.003	572.25
491.221	567.25
491.439	584.25
491.657	581.25
491.874	576.25
492.092	580.25
492.31	601.25
492.527	576.25
492.745	580.25
492.963	592.25
493.18	606.25
493.398	611.25
493.615	583.25
493.833	602.25
494.05	620.25
494.268	597.25
494.485	609.25
494.703	615.25
494.92	602.25
495.138	600.25
495.355	615.25
495.573	607.25
495.79	619.25
496.008	634.25
496.225	602.25
496.442	634.25
496.66	626.25
496.877	636.25
497.094	613.25
497.312	632.25
497.529	655.25
497.746	668.25
497.963	677.25
498.181	686.25
498.398	691.25
498.615	709.25
498.832	716.25
499.049	734.25
499.267	792.25
499.484	805.25
499.701	839.25
499.918	868.25
500.135	928.25
500.352	983.25
500.569	1000.25
500.786	980.25
501.003	936.25
501.22	946.25
501.437	855.25
501.654	851.25
501.871	824.25
