Data from 1977.PennyLincolnUp.Lamp.En5.5.200Scan.071719.P1_HRD10591_16-05-33-866.txt Node
Date: Thu Jul 18 16:05:33 EDT 2019
User: cochatt
Spectrometer: HR+D1059
Trigger mode: 1
Integration Time (sec): 1.000000E-1
Scans to average: 1
Electric dark correction enabled: true
Nonlinearity correction enabled: false
Boxcar width: 0
XAxis mode: Wavelengths
Number of Pixels in Spectrum: 2048
>>>>>Begin Spectral Data<<<<<
223.165	-10.81
223.4	-10.81
223.635	-10.81
223.869	-22.81
224.104	-21.81
224.338	-8.81
224.573	-20.81
224.808	-12.81
225.042	1.19
225.277	-4.81
225.511	1.19
225.746	3.19
225.98	1.19
226.215	10.19
226.449	23.19
226.683	19.19
226.918	25.19
227.152	18.19
227.387	42.19
227.621	46.19
227.856	38.19
228.09	42.19
228.324	45.19
228.559	54.19
228.793	65.19
229.027	79.19
229.262	96.19
229.496	91.19
229.73	114.19
229.964	125.19
230.199	124.19
230.433	113.19
230.667	104.19
230.901	99.19
231.136	107.19
231.37	95.19
231.604	113.19
231.838	100.19
232.072	108.19
232.306	106.19
232.541	126.19
232.775	109.19
233.009	115.19
233.243	120.19
233.477	100.19
233.711	117.19
233.945	113.19
234.179	118.19
234.413	102.19
234.647	102.19
234.881	118.19
235.115	121.19
235.349	115.19
235.583	130.19
235.817	111.19
236.051	111.19
236.285	126.19
236.519	109.19
236.753	104.19
236.987	142.19
237.221	152.19
237.455	183.19
237.689	167.19
237.922	123.19
238.156	135.19
238.39	118.19
238.624	124.19
238.858	111.19
239.091	123.19
239.325	119.19
239.559	118.19
239.793	103.19
240.027	121.19
240.26	117.19
240.494	139.19
240.728	133.19
240.961	124.19
241.195	141.19
241.429	124.19
241.662	132.19
241.896	111.19
242.13	117.19
242.363	131.19
242.597	122.19
242.83	147.19
243.064	115.19
243.298	120.19
243.531	119.19
243.765	127.19
243.998	149.19
244.232	140.19
244.465	141.19
244.699	136.19
244.932	156.19
245.166	140.19
245.399	154.19
245.633	141.19
245.866	137.19
246.099	147.19
246.333	149.19
246.566	137.19
246.8	147.19
247.033	147.19
247.266	154.19
247.5	144.19
247.733	171.19
247.966	153.19
248.2	186.19
248.433	151.19
248.666	163.19
248.899	179.19
249.133	189.19
249.366	173.19
249.599	156.19
249.832	163.19
250.066	159.19
250.299	171.19
250.532	173.19
250.765	175.19
250.998	171.19
251.231	193.19
251.465	185.19
251.698	181.19
251.931	175.19
252.164	179.19
252.397	181.19
252.63	178.19
252.863	189.19
253.096	190.19
253.329	203.19
253.562	229.19
253.795	214.19
254.028	201.19
254.261	200.19
254.494	217.19
254.727	229.19
254.96	229.19
255.193	239.19
255.426	209.19
255.659	197.19
255.892	210.19
256.124	221.19
256.357	216.19
256.59	203.19
256.823	198.19
257.056	199.19
257.289	190.19
257.521	195.19
257.754	201.19
257.987	196.19
258.22	196.19
258.452	194.19
258.685	192.19
258.918	203.19
259.151	208.19
259.383	215.19
259.616	203.19
259.849	199.19
260.081	212.19
260.314	207.19
260.547	213.19
260.779	217.19
261.012	214.19
261.244	200.19
261.477	210.19
261.71	218.19
261.942	203.19
262.175	213.19
262.407	203.19
262.64	191.19
262.872	206.19
263.105	210.19
263.337	213.19
263.57	207.19
263.802	196.19
264.035	181.19
264.267	197.19
264.499	209.19
264.732	202.19
264.964	230.19
265.197	212.19
265.429	225.19
265.661	231.19
265.894	212.19
266.126	217.19
266.358	218.19
266.591	218.19
266.823	214.19
267.055	221.19
267.287	214.19
267.52	227.19
267.752	222.19
267.984	226.19
268.216	211.19
268.448	245.19
268.681	216.19
268.913	217.19
269.145	243.19
269.377	235.19
269.609	262.19
269.841	260.19
270.073	265.19
270.306	251.19
270.538	276.19
270.77	296.19
271.002	277.19
271.234	283.19
271.466	284.19
271.698	280.19
271.93	296.19
272.162	276.19
272.394	284.19
272.626	280.19
272.858	288.19
273.09	258.19
273.322	269.19
273.553	257.19
273.785	253.19
274.017	252.19
274.249	262.19
274.481	265.19
274.713	245.19
274.945	271.19
275.176	272.19
275.408	261.19
275.64	275.19
275.872	248.19
276.104	270.19
276.335	273.19
276.567	269.19
276.799	268.19
277.031	291.19
277.262	281.19
277.494	297.19
277.726	295.19
277.957	276.19
278.189	277.19
278.421	268.19
278.652	275.19
278.884	241.19
279.115	288.19
279.347	253.19
279.579	262.19
279.81	241.19
280.042	242.19
280.273	277.19
280.505	237.19
280.736	274.19
280.968	251.19
281.199	276.19
281.431	273.19
281.662	271.19
281.894	267.19
282.125	269.19
282.356	282.19
282.588	289.19
282.819	299.19
283.051	284.19
283.282	290.19
283.513	276.19
283.745	269.19
283.976	291.19
284.207	285.19
284.439	290.19
284.67	282.19
284.901	292.19
285.132	288.19
285.364	266.19
285.595	289.19
285.826	282.19
286.057	287.19
286.288	298.19
286.52	301.19
286.751	268.19
286.982	273.19
287.213	278.19
287.444	274.19
287.675	296.19
287.906	302.19
288.138	310.19
288.369	316.19
288.6	309.19
288.831	311.19
289.062	301.19
289.293	307.19
289.524	307.19
289.755	315.19
289.986	311.19
290.217	297.19
290.448	269.19
290.679	285.19
290.91	283.19
291.141	283.19
291.371	292.19
291.602	298.19
291.833	305.19
292.064	287.19
292.295	309.19
292.526	300.19
292.757	305.19
292.987	295.19
293.218	294.19
293.449	286.19
293.68	295.19
293.91	296.19
294.141	286.19
294.372	293.19
294.603	282.19
294.833	323.19
295.064	304.19
295.295	290.19
295.525	303.19
295.756	309.19
295.987	295.19
296.217	323.19
296.448	305.19
296.679	302.19
296.909	296.19
297.14	314.19
297.37	296.19
297.601	307.19
297.831	324.19
298.062	319.19
298.292	307.19
298.523	293.19
298.753	326.19
298.984	325.19
299.214	308.19
299.445	300.19
299.675	316.19
299.905	313.19
300.136	325.19
300.366	326.19
300.597	322.19
300.827	324.19
301.057	319.19
301.288	303.19
301.518	326.19
301.748	320.19
301.979	329.19
302.209	330.19
302.439	329.19
302.669	314.19
302.9	333.19
303.13	317.19
303.36	334.19
303.59	334.19
303.82	334.19
304.051	327.19
304.281	330.19
304.511	333.19
304.741	338.19
304.971	337.19
305.201	329.19
305.431	327.19
305.661	334.19
305.891	336.19
306.121	329.19
306.352	315.19
306.582	322.19
306.812	335.19
307.042	346.19
307.272	340.19
307.502	318.19
307.731	338.19
307.961	342.19
308.191	334.19
308.421	334.19
308.651	335.19
308.881	346.19
309.111	339.19
309.341	338.19
309.571	328.19
309.8	339.19
310.03	356.19
310.26	342.19
310.49	358.19
310.72	363.19
310.949	377.19
311.179	361.19
311.409	360.19
311.639	380.19
311.868	365.19
312.098	373.19
312.328	359.19
312.557	373.19
312.787	357.19
313.017	387.19
313.246	368.19
313.476	374.19
313.706	357.19
313.935	373.19
314.165	374.19
314.394	391.19
314.624	377.19
314.853	365.19
315.083	370.19
315.312	355.19
315.542	359.19
315.771	349.19
316.001	356.19
316.23	371.19
316.46	374.19
316.689	372.19
316.919	348.19
317.148	384.19
317.377	377.19
317.607	375.19
317.836	389.19
318.065	365.19
318.295	379.19
318.524	376.19
318.753	354.19
318.983	358.19
319.212	364.19
319.441	387.19
319.67	371.19
319.9	383.19
320.129	393.19
320.358	367.19
320.587	377.19
320.816	380.19
321.046	389.19
321.275	374.19
321.504	384.19
321.733	389.19
321.962	383.19
322.191	422.19
322.42	433.19
322.649	416.19
322.878	410.19
323.108	430.19
323.337	419.19
323.566	430.19
323.795	451.19
324.024	493.19
324.253	546.19
324.482	750.19
324.71	1063.19
324.939	1440.19
325.168	1240.19
325.397	683.19
325.626	513.19
325.855	488.19
326.084	433.19
326.313	444.19
326.542	447.19
326.77	484.19
326.999	548.19
327.228	679.19
327.457	971.19
327.686	1116.19
327.914	771.19
328.143	586.19
328.372	515.19
328.6	492.19
328.829	456.19
329.058	489.19
329.287	463.19
329.515	462.19
329.744	470.19
329.972	471.19
330.201	455.19
330.43	498.19
330.658	492.19
330.887	525.19
331.115	505.19
331.344	426.19
331.572	456.19
331.801	476.19
332.03	456.19
332.258	447.19
332.486	445.19
332.715	442.19
332.943	433.19
333.172	446.19
333.4	444.19
333.629	461.19
333.857	477.19
334.085	461.19
334.314	476.19
334.542	481.19
334.771	483.19
334.999	467.19
335.227	453.19
335.455	457.19
335.684	438.19
335.912	443.19
336.14	438.19
336.369	437.19
336.597	454.19
336.825	448.19
337.053	412.19
337.281	426.19
337.51	447.19
337.738	439.19
337.966	399.19
338.194	423.19
338.422	417.19
338.65	422.19
338.878	439.19
339.106	421.19
339.334	410.19
339.562	426.19
339.79	419.19
340.018	394.19
340.246	409.19
340.474	405.19
340.702	412.19
340.93	415.19
341.158	432.19
341.386	403.19
341.614	415.19
341.842	404.19
342.07	410.19
342.298	417.19
342.526	403.19
342.754	403.19
342.981	393.19
343.209	410.19
343.437	421.19
343.665	413.19
343.893	426.19
344.12	453.19
344.348	427.19
344.576	416.19
344.804	426.19
345.031	428.19
345.259	432.19
345.487	404.19
345.714	403.19
345.942	405.19
346.17	406.19
346.397	385.19
346.625	383.19
346.853	385.19
347.08	374.19
347.308	401.19
347.535	399.19
347.763	386.19
347.99	410.19
348.218	408.19
348.445	420.19
348.673	393.19
348.9	380.19
349.128	400.19
349.355	372.19
349.583	394.19
349.81	388.19
350.037	397.19
350.265	394.19
350.492	381.19
350.72	392.19
350.947	379.19
351.174	374.19
351.402	402.19
351.629	381.19
351.856	399.19
352.083	398.19
352.311	403.19
352.538	391.19
352.765	406.19
352.992	396.19
353.22	386.19
353.447	393.19
353.674	368.19
353.901	384.19
354.128	395.19
354.355	378.19
354.583	376.19
354.81	371.19
355.037	364.19
355.264	358.19
355.491	380.19
355.718	383.19
355.945	370.19
356.172	379.19
356.399	357.19
356.626	371.19
356.853	379.19
357.08	362.19
357.307	367.19
357.534	362.19
357.761	363.19
357.988	377.19
358.215	389.19
358.441	380.19
358.668	387.19
358.895	367.19
359.122	385.19
359.349	389.19
359.576	361.19
359.802	394.19
360.029	393.19
360.256	403.19
360.483	397.19
360.709	390.19
360.936	389.19
361.163	383.19
361.39	395.19
361.616	374.19
361.843	377.19
362.07	389.19
362.296	389.19
362.523	372.19
362.749	397.19
362.976	380.19
363.203	356.19
363.429	361.19
363.656	363.19
363.882	374.19
364.109	385.19
364.335	365.19
364.562	359.19
364.788	366.19
365.015	362.19
365.241	361.19
365.468	363.19
365.694	370.19
365.92	364.19
366.147	373.19
366.373	374.19
366.599	370.19
366.826	363.19
367.052	373.19
367.278	369.19
367.505	373.19
367.731	357.19
367.957	379.19
368.184	371.19
368.41	377.19
368.636	393.19
368.862	390.19
369.089	376.19
369.315	366.19
369.541	387.19
369.767	377.19
369.993	362.19
370.219	369.19
370.445	371.19
370.672	372.19
370.898	367.19
371.124	375.19
371.35	367.19
371.576	373.19
371.802	350.19
372.028	371.19
372.254	365.19
372.48	375.19
372.706	397.19
372.932	383.19
373.158	381.19
373.384	389.19
373.61	395.19
373.835	354.19
374.061	366.19
374.287	375.19
374.513	374.19
374.739	390.19
374.965	377.19
375.191	377.19
375.416	396.19
375.642	392.19
375.868	378.19
376.094	391.19
376.319	367.19
376.545	368.19
376.771	379.19
376.997	387.19
377.222	373.19
377.448	366.19
377.674	357.19
377.899	374.19
378.125	370.19
378.35	364.19
378.576	381.19
378.802	361.19
379.027	366.19
379.253	378.19
379.478	380.19
379.704	353.19
379.929	358.19
380.155	381.19
380.38	353.19
380.606	377.19
380.831	387.19
381.057	372.19
381.282	374.19
381.507	375.19
381.733	374.19
381.958	354.19
382.184	373.19
382.409	361.19
382.634	377.19
382.86	367.19
383.085	393.19
383.31	381.19
383.535	394.19
383.761	401.19
383.986	396.19
384.211	395.19
384.436	398.19
384.662	396.19
384.887	381.19
385.112	391.19
385.337	410.19
385.562	400.19
385.787	405.19
386.013	410.19
386.238	427.19
386.463	397.19
386.688	401.19
386.913	396.19
387.138	425.19
387.363	393.19
387.588	422.19
387.813	408.19
388.038	420.19
388.263	417.19
388.488	401.19
388.713	423.19
388.938	427.19
389.163	410.19
389.387	387.19
389.612	422.19
389.837	407.19
390.062	398.19
390.287	391.19
390.512	415.19
390.736	394.19
390.961	419.19
391.186	407.19
391.411	410.19
391.636	430.19
391.86	412.19
392.085	433.19
392.31	414.19
392.534	407.19
392.759	439.19
392.984	397.19
393.208	411.19
393.433	414.19
393.658	412.19
393.882	409.19
394.107	415.19
394.331	416.19
394.556	409.19
394.78	417.19
395.005	418.19
395.229	407.19
395.454	421.19
395.678	426.19
395.903	433.19
396.127	457.19
396.352	427.19
396.576	437.19
396.801	423.19
397.025	422.19
397.249	429.19
397.474	411.19
397.698	435.19
397.922	462.19
398.147	467.19
398.371	483.19
398.595	477.19
398.82	473.19
399.044	470.19
399.268	497.19
399.492	547.19
399.717	539.19
399.941	552.19
400.165	574.19
400.389	556.19
400.613	513.19
400.837	482.19
401.062	469.19
401.286	476.19
401.51	466.19
401.734	453.19
401.958	472.19
402.182	461.19
402.406	473.19
402.63	478.19
402.854	489.19
403.078	487.19
403.302	498.19
403.526	496.19
403.75	475.19
403.974	469.19
404.198	479.19
404.422	489.19
404.645	490.19
404.869	489.19
405.093	501.19
405.317	541.19
405.541	552.19
405.765	516.19
405.988	483.19
406.212	499.19
406.436	499.19
406.66	526.19
406.883	511.19
407.107	554.19
407.331	568.19
407.555	598.19
407.778	601.19
408.002	596.19
408.226	544.19
408.449	508.19
408.673	519.19
408.896	541.19
409.12	567.19
409.344	533.19
409.567	476.19
409.791	474.19
410.014	473.19
410.238	499.19
410.461	487.19
410.685	482.19
410.908	481.19
411.132	510.19
411.355	525.19
411.578	507.19
411.802	483.19
412.025	467.19
412.249	470.19
412.472	502.19
412.695	508.19
412.919	513.19
413.142	473.19
413.365	472.19
413.589	457.19
413.812	457.19
414.035	426.19
414.258	473.19
414.482	445.19
414.705	440.19
414.928	455.19
415.151	470.19
415.374	429.19
415.597	427.19
415.821	465.19
416.044	450.19
416.267	447.19
416.49	438.19
416.713	439.19
416.936	421.19
417.159	430.19
417.382	443.19
417.605	451.19
417.828	442.19
418.051	450.19
418.274	463.19
418.497	438.19
418.72	468.19
418.943	441.19
419.166	453.19
419.389	466.19
419.611	464.19
419.834	490.19
420.057	467.19
420.28	464.19
420.503	461.19
420.726	449.19
420.948	479.19
421.171	486.19
421.394	516.19
421.617	463.19
421.839	450.19
422.062	469.19
422.285	457.19
422.507	534.19
422.73	553.19
422.953	522.19
423.175	489.19
423.398	476.19
423.621	472.19
423.843	477.19
424.066	452.19
424.288	511.19
424.511	490.19
424.733	535.19
424.956	565.19
425.178	554.19
425.401	578.19
425.623	605.19
425.846	489.19
426.068	478.19
426.291	480.19
426.513	488.19
426.735	475.19
426.958	519.19
427.18	561.19
427.402	661.19
427.625	697.19
427.847	613.19
428.069	553.19
428.292	498.19
428.514	469.19
428.736	455.19
428.958	446.19
429.181	417.19
429.403	438.19
429.625	423.19
429.847	465.19
430.069	536.19
430.292	505.19
430.514	475.19
430.736	445.19
430.958	439.19
431.18	420.19
431.402	431.19
431.624	425.19
431.846	437.19
432.068	416.19
432.29	443.19
432.512	416.19
432.734	446.19
432.956	441.19
433.178	444.19
433.4	422.19
433.622	439.19
433.844	427.19
434.066	430.19
434.287	426.19
434.509	445.19
434.731	435.19
434.953	446.19
435.175	432.19
435.397	462.19
435.618	487.19
435.84	484.19
436.062	555.19
436.284	621.19
436.505	535.19
436.727	476.19
436.949	456.19
437.17	446.19
437.392	449.19
437.614	442.19
437.835	486.19
438.057	534.19
438.278	602.19
438.5	585.19
438.721	650.19
438.943	636.19
439.165	517.19
439.386	467.19
439.608	477.19
439.829	454.19
440.05	490.19
440.272	507.19
440.493	473.19
440.715	443.19
440.936	451.19
441.158	431.19
441.379	439.19
441.6	459.19
441.822	468.19
442.043	492.19
442.264	540.19
442.486	585.19
442.707	501.19
442.928	465.19
443.149	506.19
443.371	503.19
443.592	539.19
443.813	585.19
444.034	642.19
444.255	541.19
444.476	503.19
444.698	483.19
444.919	484.19
445.14	559.19
445.361	549.19
445.582	501.19
445.803	569.19
446.024	598.19
446.245	616.19
446.466	566.19
446.687	494.19
446.908	459.19
447.129	441.19
447.35	445.19
447.571	438.19
447.792	421.19
448.013	419.19
448.234	437.19
448.455	485.19
448.675	549.19
448.896	653.19
449.117	552.19
449.338	529.19
449.559	598.19
449.779	677.19
450	541.19
450.221	451.19
450.442	423.19
450.662	407.19
450.883	403.19
451.104	433.19
451.324	398.19
451.545	425.19
451.766	385.19
451.986	370.19
452.207	403.19
452.428	381.19
452.648	379.19
452.869	373.19
453.089	385.19
453.31	397.19
453.53	376.19
453.751	386.19
453.971	393.19
454.192	391.19
454.412	381.19
454.633	368.19
454.853	373.19
455.073	381.19
455.294	406.19
455.514	436.19
455.734	415.19
455.955	394.19
456.175	356.19
456.395	358.19
456.616	363.19
456.836	362.19
457.056	374.19
457.276	369.19
457.497	371.19
457.717	367.19
457.937	364.19
458.157	367.19
458.377	383.19
458.598	413.19
458.818	430.19
459.038	461.19
459.258	485.19
459.478	441.19
459.698	420.19
459.918	421.19
460.138	430.19
460.358	417.19
460.578	452.19
460.798	431.19
461.018	448.19
461.238	451.19
461.458	452.19
461.678	424.19
461.898	442.19
462.118	445.19
462.338	457.19
462.558	430.19
462.777	438.19
462.997	500.19
463.217	492.19
463.437	478.19
463.657	459.19
463.876	471.19
464.096	483.19
464.316	471.19
464.536	470.19
464.755	451.19
464.975	476.19
465.195	499.19
465.414	494.19
465.634	462.19
465.854	430.19
466.073	409.19
466.293	409.19
466.512	415.19
466.732	401.19
466.951	394.19
467.171	412.19
467.391	400.19
467.61	407.19
467.829	395.19
468.049	385.19
468.268	380.19
468.488	381.19
468.707	394.19
468.927	390.19
469.146	390.19
469.365	379.19
469.585	364.19
469.804	413.19
470.023	398.19
470.243	387.19
470.462	401.19
470.681	425.19
470.901	405.19
471.12	402.19
471.339	379.19
471.558	384.19
471.777	401.19
471.997	405.19
472.216	397.19
472.435	435.19
472.654	417.19
472.873	388.19
473.092	383.19
473.311	397.19
473.53	393.19
473.749	398.19
473.968	435.19
474.187	502.19
474.406	511.19
474.625	439.19
474.844	412.19
475.063	397.19
475.282	396.19
475.501	397.19
475.72	414.19
475.939	421.19
476.158	411.19
476.377	402.19
476.596	426.19
476.814	405.19
477.033	433.19
477.252	418.19
477.471	443.19
477.69	431.19
477.908	424.19
478.127	431.19
478.346	435.19
478.564	438.19
478.783	458.19
479.002	449.19
479.22	467.19
479.439	497.19
479.658	476.19
479.876	493.19
480.095	472.19
480.313	491.19
480.532	494.19
480.751	471.19
480.969	470.19
481.188	509.19
481.406	515.19
481.624	488.19
481.843	467.19
482.061	472.19
482.28	476.19
482.498	465.19
482.717	462.19
482.935	458.19
483.153	461.19
483.372	469.19
483.59	475.19
483.808	488.19
484.027	449.19
484.245	453.19
484.463	444.19
484.681	451.19
484.9	490.19
485.118	475.19
485.336	458.19
485.554	468.19
485.772	461.19
485.99	491.19
486.209	488.19
486.427	488.19
486.645	493.19
486.863	487.19
487.081	487.19
487.299	494.19
487.517	485.19
487.735	478.19
487.953	477.19
488.171	477.19
488.389	476.19
488.607	496.19
488.825	491.19
489.043	492.19
489.261	519.19
489.479	490.19
489.696	507.19
489.914	485.19
490.132	491.19
490.35	500.19
490.568	499.19
490.786	539.19
491.003	517.19
491.221	507.19
491.439	525.19
491.657	532.19
491.874	533.19
492.092	563.19
492.31	547.19
492.527	540.19
492.745	528.19
492.963	537.19
493.18	554.19
493.398	550.19
493.615	573.19
493.833	555.19
494.05	556.19
494.268	553.19
494.485	543.19
494.703	539.19
494.92	558.19
495.138	558.19
495.355	573.19
495.573	575.19
495.79	545.19
496.008	567.19
496.225	563.19
496.442	593.19
496.66	573.19
496.877	565.19
497.094	577.19
497.312	564.19
497.529	587.19
497.746	599.19
497.963	607.19
498.181	630.19
498.398	627.19
498.615	643.19
498.832	676.19
499.049	681.19
499.267	681.19
499.484	738.19
499.701	790.19
499.918	811.19
500.135	837.19
500.352	894.19
500.569	902.19
500.786	897.19
501.003	885.19
501.22	869.19
501.437	809.19
501.654	784.19
501.871	757.19
502.088	708.19
