Data from 1977.PennyLincolnUp.Lamp.En5.5.200Scan.071719.P1_HRD10591_16-07-14-864.txt Node
Date: Thu Jul 18 16:07:14 EDT 2019
User: cochatt
Spectrometer: HR+D1059
Trigger mode: 1
Integration Time (sec): 1.000000E-1
Scans to average: 1
Electric dark correction enabled: true
Nonlinearity correction enabled: false
Boxcar width: 0
XAxis mode: Wavelengths
Number of Pixels in Spectrum: 2048
>>>>>Begin Spectral Data<<<<<
223.165	-5.06
223.4	-5.06
223.635	-5.06
223.869	-15.06
224.104	-14.06
224.338	-24.06
224.573	1.94
224.808	-20.06
225.042	-12.06
225.277	0.94
225.511	-9.06
225.746	4.94
225.98	10.94
226.215	9.94
226.449	18.94
226.683	4.94
226.918	16.94
227.152	29.94
227.387	37.94
227.621	46.94
227.856	34.94
228.09	52.94
228.324	49.94
228.559	52.94
228.793	63.94
229.027	77.94
229.262	84.94
229.496	92.94
229.73	112.94
229.964	138.94
230.199	118.94
230.433	114.94
230.667	108.94
230.901	100.94
231.136	97.94
231.37	97.94
231.604	98.94
231.838	109.94
232.072	121.94
232.306	105.94
232.541	109.94
232.775	95.94
233.009	100.94
233.243	105.94
233.477	109.94
233.711	110.94
233.945	119.94
234.179	130.94
234.413	123.94
234.647	119.94
234.881	114.94
235.115	106.94
235.349	114.94
235.583	122.94
235.817	121.94
236.051	123.94
236.285	114.94
236.519	128.94
236.753	123.94
236.987	137.94
237.221	182.94
237.455	208.94
237.689	163.94
237.922	152.94
238.156	129.94
238.39	134.94
238.624	125.94
238.858	127.94
239.091	109.94
239.325	124.94
239.559	135.94
239.793	117.94
240.027	125.94
240.26	135.94
240.494	154.94
240.728	134.94
240.961	145.94
241.195	148.94
241.429	128.94
241.662	126.94
241.896	136.94
242.13	125.94
242.363	126.94
242.597	136.94
242.83	136.94
243.064	119.94
243.298	126.94
243.531	117.94
243.765	139.94
243.998	140.94
244.232	132.94
244.465	142.94
244.699	150.94
244.932	136.94
245.166	163.94
245.399	144.94
245.633	142.94
245.866	148.94
246.099	149.94
246.333	142.94
246.566	150.94
246.8	154.94
247.033	155.94
247.266	141.94
247.5	154.94
247.733	166.94
247.966	178.94
248.2	168.94
248.433	152.94
248.666	177.94
248.899	182.94
249.133	198.94
249.366	197.94
249.599	195.94
249.832	177.94
250.066	186.94
250.299	179.94
250.532	183.94
250.765	186.94
250.998	196.94
251.231	194.94
251.465	213.94
251.698	199.94
251.931	197.94
252.164	208.94
252.397	177.94
252.63	198.94
252.863	188.94
253.096	224.94
253.329	243.94
253.562	213.94
253.795	200.94
254.028	217.94
254.261	206.94
254.494	222.94
254.727	228.94
254.96	262.94
255.193	264.94
255.426	243.94
255.659	219.94
255.892	204.94
256.124	230.94
256.357	226.94
256.59	237.94
256.823	208.94
257.056	216.94
257.289	227.94
257.521	221.94
257.754	200.94
257.987	205.94
258.22	228.94
258.452	228.94
258.685	195.94
258.918	211.94
259.151	206.94
259.383	222.94
259.616	228.94
259.849	237.94
260.081	234.94
260.314	253.94
260.547	258.94
260.779	252.94
261.012	252.94
261.244	225.94
261.477	230.94
261.71	203.94
261.942	220.94
262.175	227.94
262.407	209.94
262.64	219.94
262.872	227.94
263.105	220.94
263.337	214.94
263.57	209.94
263.802	233.94
264.035	228.94
264.267	226.94
264.499	204.94
264.732	233.94
264.964	222.94
265.197	223.94
265.429	225.94
265.661	217.94
265.894	213.94
266.126	221.94
266.358	223.94
266.591	223.94
266.823	241.94
267.055	238.94
267.287	225.94
267.52	241.94
267.752	237.94
267.984	239.94
268.216	243.94
268.448	242.94
268.681	256.94
268.913	265.94
269.145	279.94
269.377	289.94
269.609	287.94
269.841	280.94
270.073	281.94
270.306	293.94
270.538	313.94
270.77	310.94
271.002	296.94
271.234	298.94
271.466	309.94
271.698	297.94
271.93	324.94
272.162	310.94
272.394	295.94
272.626	297.94
272.858	287.94
273.09	274.94
273.322	280.94
273.553	260.94
273.785	284.94
274.017	273.94
274.249	282.94
274.481	275.94
274.713	280.94
274.945	274.94
275.176	259.94
275.408	260.94
275.64	278.94
275.872	285.94
276.104	282.94
276.335	268.94
276.567	285.94
276.799	301.94
277.031	300.94
277.262	320.94
277.494	316.94
277.726	304.94
277.957	300.94
278.189	301.94
278.421	284.94
278.652	297.94
278.884	294.94
279.115	274.94
279.347	300.94
279.579	284.94
279.81	288.94
280.042	296.94
280.273	296.94
280.505	293.94
280.736	277.94
280.968	274.94
281.199	266.94
281.431	293.94
281.662	297.94
281.894	282.94
282.125	294.94
282.356	300.94
282.588	307.94
282.819	301.94
283.051	288.94
283.282	269.94
283.513	265.94
283.745	307.94
283.976	308.94
284.207	292.94
284.439	285.94
284.67	294.94
284.901	297.94
285.132	314.94
285.364	306.94
285.595	296.94
285.826	310.94
286.057	315.94
286.288	301.94
286.52	333.94
286.751	306.94
286.982	314.94
287.213	292.94
287.444	308.94
287.675	321.94
287.906	326.94
288.138	315.94
288.369	341.94
288.6	319.94
288.831	314.94
289.062	305.94
289.293	304.94
289.524	306.94
289.755	321.94
289.986	308.94
290.217	322.94
290.448	309.94
290.679	298.94
290.91	335.94
291.141	306.94
291.371	308.94
291.602	311.94
291.833	288.94
292.064	321.94
292.295	324.94
292.526	306.94
292.757	315.94
292.987	310.94
293.218	313.94
293.449	323.94
293.68	336.94
293.91	328.94
294.141	320.94
294.372	320.94
294.603	314.94
294.833	320.94
295.064	300.94
295.295	315.94
295.525	309.94
295.756	322.94
295.987	323.94
296.217	331.94
296.448	345.94
296.679	310.94
296.909	314.94
297.14	322.94
297.37	322.94
297.601	331.94
297.831	309.94
298.062	313.94
298.292	314.94
298.523	331.94
298.753	327.94
298.984	330.94
299.214	352.94
299.445	337.94
299.675	345.94
299.905	333.94
300.136	334.94
300.366	340.94
300.597	354.94
300.827	323.94
301.057	338.94
301.288	354.94
301.518	347.94
301.748	341.94
301.979	365.94
302.209	341.94
302.439	354.94
302.669	350.94
302.9	342.94
303.13	348.94
303.36	360.94
303.59	339.94
303.82	366.94
304.051	349.94
304.281	368.94
304.511	350.94
304.741	355.94
304.971	357.94
305.201	346.94
305.431	352.94
305.661	360.94
305.891	341.94
306.121	345.94
306.352	376.94
306.582	342.94
306.812	356.94
307.042	356.94
307.272	358.94
307.502	352.94
307.731	358.94
307.961	353.94
308.191	346.94
308.421	352.94
308.651	360.94
308.881	377.94
309.111	376.94
309.341	356.94
309.571	368.94
309.8	398.94
310.03	386.94
310.26	393.94
310.49	402.94
310.72	364.94
310.949	402.94
311.179	419.94
311.409	390.94
311.639	397.94
311.868	377.94
312.098	385.94
312.328	382.94
312.557	403.94
312.787	412.94
313.017	410.94
313.246	394.94
313.476	390.94
313.706	397.94
313.935	398.94
314.165	394.94
314.394	407.94
314.624	410.94
314.853	411.94
315.083	404.94
315.312	384.94
315.542	403.94
315.771	396.94
316.001	387.94
316.23	394.94
316.46	390.94
316.689	423.94
316.919	394.94
317.148	401.94
317.377	401.94
317.607	423.94
317.836	391.94
318.065	386.94
318.295	381.94
318.524	388.94
318.753	408.94
318.983	391.94
319.212	407.94
319.441	410.94
319.67	396.94
319.9	394.94
320.129	392.94
320.358	396.94
320.587	400.94
320.816	404.94
321.046	416.94
321.275	423.94
321.504	424.94
321.733	404.94
321.962	424.94
322.191	430.94
322.42	425.94
322.649	429.94
322.878	426.94
323.108	452.94
323.337	469.94
323.566	478.94
323.795	511.94
324.024	568.94
324.253	617.94
324.482	871.94
324.71	1295.94
324.939	1796.94
325.168	1555.94
325.397	810.94
325.626	618.94
325.855	533.94
326.084	505.94
326.313	488.94
326.542	500.94
326.77	522.94
326.999	602.94
327.228	801.94
327.457	1194.94
327.686	1361.94
327.914	928.94
328.143	650.94
328.372	581.94
328.6	534.94
328.829	533.94
329.058	553.94
329.287	554.94
329.515	500.94
329.744	503.94
329.972	498.94
330.201	514.94
330.43	519.94
330.658	532.94
330.887	564.94
331.115	546.94
331.344	493.94
331.572	478.94
331.801	486.94
332.03	498.94
332.258	488.94
332.486	473.94
332.715	466.94
332.943	477.94
333.172	478.94
333.4	467.94
333.629	514.94
333.857	518.94
334.085	517.94
334.314	512.94
334.542	531.94
334.771	542.94
334.999	517.94
335.227	493.94
335.455	477.94
335.684	474.94
335.912	476.94
336.14	458.94
336.369	466.94
336.597	462.94
336.825	450.94
337.053	472.94
337.281	443.94
337.51	451.94
337.738	470.94
337.966	458.94
338.194	470.94
338.422	440.94
338.65	469.94
338.878	450.94
339.106	443.94
339.334	453.94
339.562	448.94
339.79	440.94
340.018	450.94
340.246	458.94
340.474	445.94
340.702	443.94
340.93	428.94
341.158	428.94
341.386	439.94
341.614	446.94
341.842	440.94
342.07	455.94
342.298	442.94
342.526	437.94
342.754	434.94
342.981	419.94
343.209	433.94
343.437	428.94
343.665	437.94
343.893	466.94
344.12	466.94
344.348	474.94
344.576	484.94
344.804	478.94
345.031	453.94
345.259	465.94
345.487	407.94
345.714	425.94
345.942	421.94
346.17	449.94
346.397	445.94
346.625	418.94
346.853	414.94
347.08	432.94
347.308	424.94
347.535	430.94
347.763	421.94
347.99	438.94
348.218	427.94
348.445	432.94
348.673	410.94
348.9	426.94
349.128	423.94
349.355	402.94
349.583	404.94
349.81	398.94
350.037	417.94
350.265	403.94
350.492	410.94
350.72	401.94
350.947	413.94
351.174	409.94
351.402	407.94
351.629	412.94
351.856	391.94
352.083	410.94
352.311	416.94
352.538	414.94
352.765	406.94
352.992	423.94
353.22	418.94
353.447	419.94
353.674	390.94
353.901	402.94
354.128	408.94
354.355	399.94
354.583	381.94
354.81	417.94
355.037	386.94
355.264	379.94
355.491	369.94
355.718	368.94
355.945	408.94
356.172	392.94
356.399	378.94
356.626	392.94
356.853	380.94
357.08	390.94
357.307	394.94
357.534	393.94
357.761	386.94
357.988	388.94
358.215	394.94
358.441	385.94
358.668	409.94
358.895	417.94
359.122	390.94
359.349	402.94
359.576	395.94
359.802	428.94
360.029	433.94
360.256	440.94
360.483	412.94
360.709	403.94
360.936	389.94
361.163	417.94
361.39	411.94
361.616	397.94
361.843	420.94
362.07	426.94
362.296	395.94
362.523	414.94
362.749	399.94
362.976	374.94
363.203	381.94
363.429	382.94
363.656	398.94
363.882	398.94
364.109	390.94
364.335	397.94
364.562	378.94
364.788	385.94
365.015	396.94
365.241	397.94
365.468	405.94
365.694	386.94
365.92	385.94
366.147	377.94
366.373	388.94
366.599	395.94
366.826	390.94
367.052	391.94
367.278	397.94
367.505	375.94
367.731	387.94
367.957	388.94
368.184	407.94
368.41	403.94
368.636	411.94
368.862	398.94
369.089	388.94
369.315	365.94
369.541	381.94
369.767	391.94
369.993	388.94
370.219	384.94
370.445	386.94
370.672	408.94
370.898	371.94
371.124	418.94
371.35	395.94
371.576	412.94
371.802	392.94
372.028	380.94
372.254	387.94
372.48	412.94
372.706	396.94
372.932	395.94
373.158	401.94
373.384	397.94
373.61	392.94
373.835	406.94
374.061	388.94
374.287	416.94
374.513	402.94
374.739	404.94
374.965	395.94
375.191	406.94
375.416	417.94
375.642	386.94
375.868	412.94
376.094	390.94
376.319	407.94
376.545	388.94
376.771	399.94
376.997	382.94
377.222	403.94
377.448	394.94
377.674	384.94
377.899	388.94
378.125	389.94
378.35	377.94
378.576	401.94
378.802	388.94
379.027	370.94
379.253	389.94
379.478	388.94
379.704	388.94
379.929	392.94
380.155	410.94
380.38	395.94
380.606	374.94
380.831	384.94
381.057	378.94
381.282	396.94
381.507	401.94
381.733	404.94
381.958	403.94
382.184	376.94
382.409	398.94
382.634	405.94
382.86	393.94
383.085	413.94
383.31	406.94
383.535	390.94
383.761	382.94
383.986	405.94
384.211	394.94
384.436	415.94
384.662	404.94
384.887	409.94
385.112	406.94
385.337	427.94
385.562	426.94
385.787	427.94
386.013	451.94
386.238	423.94
386.463	446.94
386.688	427.94
386.913	402.94
387.138	426.94
387.363	430.94
387.588	441.94
387.813	435.94
388.038	429.94
388.263	439.94
388.488	428.94
388.713	428.94
388.938	413.94
389.163	415.94
389.387	434.94
389.612	435.94
389.837	432.94
390.062	432.94
390.287	412.94
390.512	414.94
390.736	421.94
390.961	436.94
391.186	425.94
391.411	442.94
391.636	448.94
391.86	457.94
392.085	445.94
392.31	426.94
392.534	441.94
392.759	440.94
392.984	425.94
393.208	440.94
393.433	423.94
393.658	422.94
393.882	414.94
394.107	429.94
394.331	411.94
394.556	421.94
394.78	422.94
395.005	450.94
395.229	442.94
395.454	421.94
395.678	433.94
395.903	456.94
396.127	467.94
396.352	458.94
396.576	448.94
396.801	451.94
397.025	436.94
397.249	450.94
397.474	458.94
397.698	441.94
397.922	477.94
398.147	479.94
398.371	472.94
398.595	485.94
398.82	478.94
399.044	501.94
399.268	535.94
399.492	568.94
399.717	588.94
399.941	599.94
400.165	602.94
400.389	605.94
400.613	574.94
400.837	523.94
401.062	491.94
401.286	501.94
401.51	480.94
401.734	471.94
401.958	473.94
402.182	475.94
402.406	501.94
402.63	493.94
402.854	501.94
403.078	494.94
403.302	483.94
403.526	509.94
403.75	516.94
403.974	510.94
404.198	504.94
404.422	502.94
404.645	516.94
404.869	522.94
405.093	551.94
405.317	542.94
405.541	593.94
405.765	556.94
405.988	544.94
406.212	516.94
406.436	540.94
406.66	573.94
406.883	550.94
407.107	559.94
407.331	626.94
407.555	645.94
407.778	677.94
408.002	601.94
408.226	555.94
408.449	555.94
408.673	548.94
408.896	538.94
409.12	600.94
409.344	611.94
409.567	541.94
409.791	516.94
410.014	538.94
410.238	513.94
410.461	502.94
410.685	499.94
410.908	506.94
411.132	542.94
411.355	578.94
411.578	549.94
411.802	512.94
412.025	479.94
412.249	506.94
412.472	535.94
412.695	536.94
412.919	533.94
413.142	484.94
413.365	486.94
413.589	488.94
413.812	471.94
414.035	477.94
414.258	479.94
414.482	477.94
414.705	461.94
414.928	479.94
415.151	495.94
415.374	473.94
415.597	471.94
415.821	450.94
416.044	464.94
416.267	467.94
416.49	466.94
416.713	465.94
416.936	461.94
417.159	472.94
417.382	466.94
417.605	471.94
417.828	482.94
418.051	484.94
418.274	481.94
418.497	474.94
418.72	481.94
418.943	459.94
419.166	469.94
419.389	535.94
419.611	498.94
419.834	493.94
420.057	513.94
420.28	488.94
420.503	475.94
420.726	498.94
420.948	499.94
421.171	504.94
421.394	579.94
421.617	500.94
421.839	494.94
422.062	484.94
422.285	484.94
422.507	529.94
422.73	613.94
422.953	577.94
423.175	513.94
423.398	486.94
423.621	501.94
423.843	536.94
424.066	514.94
424.288	516.94
424.511	535.94
424.733	566.94
424.956	635.94
425.178	633.94
425.401	605.94
425.623	621.94
425.846	549.94
426.068	492.94
426.291	513.94
426.513	510.94
426.735	536.94
426.958	569.94
427.18	614.94
427.402	713.94
427.625	804.94
427.847	652.94
428.069	588.94
428.292	557.94
428.514	501.94
428.736	500.94
428.958	476.94
429.181	472.94
429.403	469.94
429.625	476.94
429.847	495.94
430.069	558.94
430.292	571.94
430.514	504.94
430.736	467.94
430.958	438.94
431.18	437.94
431.402	448.94
431.624	444.94
431.846	433.94
432.068	448.94
432.29	458.94
432.512	432.94
432.734	453.94
432.956	436.94
433.178	466.94
433.4	464.94
433.622	466.94
433.844	443.94
434.066	421.94
434.287	451.94
434.509	457.94
434.731	463.94
434.953	453.94
435.175	468.94
435.397	517.94
435.618	534.94
435.84	548.94
436.062	635.94
436.284	684.94
436.505	563.94
436.727	496.94
436.949	481.94
437.17	455.94
437.392	475.94
437.614	474.94
437.835	498.94
438.057	570.94
438.278	653.94
438.5	671.94
438.721	738.94
438.943	700.94
439.165	554.94
439.386	517.94
439.608	488.94
439.829	489.94
440.05	537.94
440.272	558.94
440.493	537.94
440.715	498.94
440.936	468.94
441.158	458.94
441.379	483.94
441.6	472.94
441.822	489.94
442.043	546.94
442.264	615.94
442.486	646.94
442.707	553.94
442.928	526.94
443.149	545.94
443.371	547.94
443.592	557.94
443.813	627.94
444.034	700.94
444.255	620.94
444.476	538.94
444.698	532.94
444.919	526.94
445.14	650.94
445.361	580.94
445.582	540.94
445.803	613.94
446.024	680.94
446.245	668.94
446.466	605.94
446.687	529.94
446.908	533.94
447.129	480.94
447.35	484.94
447.571	481.94
447.792	458.94
448.013	453.94
448.234	486.94
448.455	519.94
448.675	617.94
448.896	709.94
449.117	624.94
449.338	562.94
449.559	652.94
449.779	765.94
450	593.94
450.221	508.94
450.442	461.94
450.662	453.94
450.883	459.94
451.104	465.94
451.324	471.94
451.545	442.94
451.766	402.94
451.986	412.94
452.207	413.94
452.428	420.94
452.648	411.94
452.869	418.94
453.089	427.94
453.31	410.94
453.53	412.94
453.751	397.94
453.971	427.94
454.192	413.94
454.412	394.94
454.633	419.94
454.853	394.94
455.073	408.94
455.294	433.94
455.514	489.94
455.734	491.94
455.955	416.94
456.175	401.94
456.395	401.94
456.616	385.94
456.836	392.94
457.056	388.94
457.276	384.94
457.497	388.94
457.717	388.94
457.937	409.94
458.157	406.94
458.377	404.94
458.598	427.94
458.818	473.94
459.038	516.94
459.258	540.94
459.478	467.94
459.698	454.94
459.918	438.94
460.138	465.94
460.358	468.94
460.578	453.94
460.798	469.94
461.018	452.94
461.238	461.94
461.458	466.94
461.678	430.94
461.898	472.94
462.118	454.94
462.338	472.94
462.558	489.94
462.777	499.94
462.997	489.94
463.217	503.94
463.437	545.94
463.657	523.94
463.876	472.94
464.096	487.94
464.316	485.94
464.536	521.94
464.755	510.94
464.975	498.94
465.195	505.94
465.414	542.94
465.634	471.94
465.854	448.94
466.073	444.94
466.293	451.94
466.512	428.94
466.732	419.94
466.951	419.94
467.171	432.94
467.391	441.94
467.61	438.94
467.829	426.94
468.049	454.94
468.268	426.94
468.488	422.94
468.707	413.94
468.927	422.94
469.146	415.94
469.365	425.94
469.585	412.94
469.804	413.94
470.023	429.94
470.243	445.94
470.462	414.94
470.681	424.94
470.901	446.94
471.12	460.94
471.339	411.94
471.558	438.94
471.777	440.94
471.997	424.94
472.216	437.94
472.435	424.94
472.654	455.94
472.873	429.94
473.092	407.94
473.311	429.94
473.53	426.94
473.749	445.94
473.968	452.94
474.187	553.94
474.406	562.94
474.625	480.94
474.844	436.94
475.063	432.94
475.282	430.94
475.501	418.94
475.72	437.94
475.939	430.94
476.158	434.94
476.377	448.94
476.596	445.94
476.814	434.94
477.033	460.94
477.252	457.94
477.471	449.94
477.69	459.94
477.908	464.94
478.127	470.94
478.346	462.94
478.564	484.94
478.783	476.94
479.002	470.94
479.22	482.94
479.439	491.94
479.658	489.94
479.876	494.94
480.095	548.94
480.313	538.94
480.532	532.94
480.751	517.94
480.969	499.94
481.188	537.94
481.406	564.94
481.624	547.94
481.843	526.94
482.061	493.94
482.28	513.94
482.498	496.94
482.717	494.94
482.935	506.94
483.153	489.94
483.372	485.94
483.59	481.94
483.808	504.94
484.027	487.94
484.245	499.94
484.463	482.94
484.681	480.94
484.9	495.94
485.118	493.94
485.336	504.94
485.554	488.94
485.772	504.94
485.99	494.94
486.209	478.94
486.427	500.94
486.645	521.94
486.863	528.94
487.081	494.94
487.299	507.94
487.517	540.94
487.735	521.94
487.953	509.94
488.171	525.94
488.389	516.94
488.607	532.94
488.825	526.94
489.043	514.94
489.261	535.94
489.479	499.94
489.696	546.94
489.914	530.94
490.132	524.94
490.35	545.94
490.568	528.94
490.786	551.94
491.003	546.94
491.221	576.94
491.439	589.94
491.657	564.94
491.874	595.94
492.092	581.94
492.31	605.94
492.527	588.94
492.745	601.94
492.963	589.94
493.18	600.94
493.398	621.94
493.615	606.94
493.833	603.94
494.05	620.94
494.268	570.94
494.485	592.94
494.703	601.94
494.92	596.94
495.138	611.94
495.355	600.94
495.573	634.94
495.79	598.94
496.008	603.94
496.225	616.94
496.442	614.94
496.66	617.94
496.877	621.94
497.094	627.94
497.312	631.94
497.529	627.94
497.746	658.94
497.963	674.94
498.181	673.94
498.398	685.94
498.615	714.94
498.832	701.94
499.049	722.94
499.267	749.94
499.484	781.94
499.701	819.94
499.918	861.94
500.135	868.94
500.352	918.94
500.569	946.94
500.786	966.94
501.003	931.94
501.22	894.94
501.437	853.94
501.654	826.94
501.871	818.94
502.088	764.94
