Data from 1977.PennyLincolnUp.Lamp.En5.5.200Scan.071719.P1_HRD10591_16-05-11-864.txt Node
Date: Thu Jul 18 16:05:11 EDT 2019
User: cochatt
Spectrometer: HR+D1059
Trigger mode: 1
Integration Time (sec): 1.000000E-1
Scans to average: 1
Electric dark correction enabled: true
Nonlinearity correction enabled: false
Boxcar width: 0
XAxis mode: Wavelengths
Number of Pixels in Spectrum: 2048
>>>>>Begin Spectral Data<<<<<
223.165	-5.94
223.4	-5.94
223.635	-5.94
223.869	-11.94
224.104	-13.94
224.338	-13.94
224.573	-14.94
224.808	-17.94
225.042	-12.94
225.277	-6.94
225.511	1.06
225.746	3.06
225.98	9.06
226.215	-1.94
226.449	23.06
226.683	35.06
226.918	6.06
227.152	23.06
227.387	26.06
227.621	19.06
227.856	54.06
228.09	31.06
228.324	52.06
228.559	54.06
228.793	54.06
229.027	82.06
229.262	95.06
229.496	101.06
229.73	107.06
229.964	121.06
230.199	119.06
230.433	106.06
230.667	105.06
230.901	108.06
231.136	109.06
231.37	97.06
231.604	102.06
231.838	102.06
232.072	101.06
232.306	94.06
232.541	124.06
232.775	92.06
233.009	103.06
233.243	116.06
233.477	94.06
233.711	115.06
233.945	114.06
234.179	93.06
234.413	111.06
234.647	109.06
234.881	109.06
235.115	110.06
235.349	114.06
235.583	94.06
235.817	120.06
236.051	114.06
236.285	123.06
236.519	116.06
236.753	120.06
236.987	126.06
237.221	157.06
237.455	171.06
237.689	154.06
237.922	126.06
238.156	124.06
238.39	124.06
238.624	120.06
238.858	109.06
239.091	103.06
239.325	119.06
239.559	125.06
239.793	111.06
240.027	98.06
240.26	127.06
240.494	126.06
240.728	140.06
240.961	139.06
241.195	142.06
241.429	137.06
241.662	125.06
241.896	126.06
242.13	112.06
242.363	121.06
242.597	126.06
242.83	139.06
243.064	137.06
243.298	135.06
243.531	129.06
243.765	133.06
243.998	119.06
244.232	134.06
244.465	126.06
244.699	139.06
244.932	123.06
245.166	143.06
245.399	132.06
245.633	137.06
245.866	126.06
246.099	132.06
246.333	140.06
246.566	129.06
246.8	137.06
247.033	140.06
247.266	142.06
247.5	140.06
247.733	157.06
247.966	159.06
248.2	154.06
248.433	158.06
248.666	167.06
248.899	178.06
249.133	172.06
249.366	181.06
249.599	183.06
249.832	176.06
250.066	186.06
250.299	151.06
250.532	164.06
250.765	176.06
250.998	178.06
251.231	206.06
251.465	175.06
251.698	190.06
251.931	167.06
252.164	168.06
252.397	188.06
252.63	169.06
252.863	184.06
253.096	212.06
253.329	202.06
253.562	198.06
253.795	182.06
254.028	185.06
254.261	193.06
254.494	191.06
254.727	212.06
254.96	215.06
255.193	206.06
255.426	194.06
255.659	194.06
255.892	180.06
256.124	209.06
256.357	185.06
256.59	179.06
256.823	180.06
257.056	195.06
257.289	202.06
257.521	187.06
257.754	191.06
257.987	186.06
258.22	193.06
258.452	187.06
258.685	186.06
258.918	177.06
259.151	198.06
259.383	206.06
259.616	206.06
259.849	196.06
260.081	201.06
260.314	228.06
260.547	207.06
260.779	212.06
261.012	186.06
261.244	215.06
261.477	193.06
261.71	220.06
261.942	208.06
262.175	196.06
262.407	193.06
262.64	165.06
262.872	193.06
263.105	186.06
263.337	188.06
263.57	191.06
263.802	203.06
264.035	198.06
264.267	188.06
264.499	205.06
264.732	194.06
264.964	200.06
265.197	205.06
265.429	208.06
265.661	194.06
265.894	194.06
266.126	212.06
266.358	218.06
266.591	207.06
266.823	217.06
267.055	202.06
267.287	219.06
267.52	221.06
267.752	212.06
267.984	206.06
268.216	223.06
268.448	229.06
268.681	225.06
268.913	236.06
269.145	227.06
269.377	246.06
269.609	249.06
269.841	249.06
270.073	249.06
270.306	255.06
270.538	259.06
270.77	281.06
271.002	271.06
271.234	255.06
271.466	235.06
271.698	278.06
271.93	274.06
272.162	272.06
272.394	255.06
272.626	274.06
272.858	261.06
273.09	248.06
273.322	249.06
273.553	257.06
273.785	236.06
274.017	250.06
274.249	246.06
274.481	247.06
274.713	258.06
274.945	263.06
275.176	252.06
275.408	262.06
275.64	245.06
275.872	235.06
276.104	244.06
276.335	255.06
276.567	257.06
276.799	266.06
277.031	263.06
277.262	269.06
277.494	283.06
277.726	277.06
277.957	266.06
278.189	270.06
278.421	263.06
278.652	268.06
278.884	245.06
279.115	249.06
279.347	251.06
279.579	259.06
279.81	277.06
280.042	248.06
280.273	274.06
280.505	262.06
280.736	262.06
280.968	258.06
281.199	249.06
281.431	251.06
281.662	266.06
281.894	259.06
282.125	262.06
282.356	271.06
282.588	281.06
282.819	275.06
283.051	273.06
283.282	263.06
283.513	278.06
283.745	275.06
283.976	269.06
284.207	297.06
284.439	275.06
284.67	279.06
284.901	260.06
285.132	274.06
285.364	268.06
285.595	264.06
285.826	266.06
286.057	262.06
286.288	281.06
286.52	276.06
286.751	293.06
286.982	288.06
287.213	284.06
287.444	277.06
287.675	282.06
287.906	300.06
288.138	277.06
288.369	289.06
288.6	297.06
288.831	299.06
289.062	277.06
289.293	279.06
289.524	270.06
289.755	316.06
289.986	276.06
290.217	295.06
290.448	297.06
290.679	278.06
290.91	281.06
291.141	293.06
291.371	281.06
291.602	273.06
291.833	293.06
292.064	300.06
292.295	287.06
292.526	279.06
292.757	280.06
292.987	298.06
293.218	305.06
293.449	291.06
293.68	299.06
293.91	284.06
294.141	309.06
294.372	276.06
294.603	291.06
294.833	270.06
295.064	293.06
295.295	287.06
295.525	299.06
295.756	287.06
295.987	312.06
296.217	303.06
296.448	309.06
296.679	291.06
296.909	292.06
297.14	287.06
297.37	307.06
297.601	298.06
297.831	309.06
298.062	297.06
298.292	302.06
298.523	322.06
298.753	298.06
298.984	309.06
299.214	321.06
299.445	304.06
299.675	315.06
299.905	297.06
300.136	315.06
300.366	297.06
300.597	305.06
300.827	313.06
301.057	310.06
301.288	318.06
301.518	327.06
301.748	325.06
301.979	302.06
302.209	326.06
302.439	316.06
302.669	310.06
302.9	315.06
303.13	336.06
303.36	336.06
303.59	329.06
303.82	327.06
304.051	317.06
304.281	316.06
304.511	324.06
304.741	315.06
304.971	317.06
305.201	312.06
305.431	351.06
305.661	323.06
305.891	306.06
306.121	312.06
306.352	303.06
306.582	330.06
306.812	317.06
307.042	338.06
307.272	315.06
307.502	317.06
307.731	334.06
307.961	326.06
308.191	317.06
308.421	335.06
308.651	322.06
308.881	338.06
309.111	339.06
309.341	326.06
309.571	349.06
309.8	336.06
310.03	347.06
310.26	351.06
310.49	344.06
310.72	355.06
310.949	347.06
311.179	346.06
311.409	324.06
311.639	327.06
311.868	340.06
312.098	349.06
312.328	357.06
312.557	359.06
312.787	359.06
313.017	389.06
313.246	364.06
313.476	350.06
313.706	347.06
313.935	353.06
314.165	363.06
314.394	342.06
314.624	372.06
314.853	373.06
315.083	353.06
315.312	352.06
315.542	352.06
315.771	349.06
316.001	367.06
316.23	350.06
316.46	365.06
316.689	360.06
316.919	353.06
317.148	359.06
317.377	370.06
317.607	368.06
317.836	361.06
318.065	340.06
318.295	337.06
318.524	338.06
318.753	347.06
318.983	354.06
319.212	373.06
319.441	374.06
319.67	351.06
319.9	359.06
320.129	376.06
320.358	366.06
320.587	354.06
320.816	364.06
321.046	367.06
321.275	372.06
321.504	384.06
321.733	367.06
321.962	363.06
322.191	391.06
322.42	382.06
322.649	382.06
322.878	377.06
323.108	405.06
323.337	421.06
323.566	417.06
323.795	455.06
324.024	449.06
324.253	534.06
324.482	669.06
324.71	939.06
324.939	1267.06
325.168	1119.06
325.397	629.06
325.626	485.06
325.855	426.06
326.084	414.06
326.313	421.06
326.542	431.06
326.77	452.06
326.999	519.06
327.228	622.06
327.457	858.06
327.686	981.06
327.914	682.06
328.143	493.06
328.372	473.06
328.6	440.06
328.829	433.06
329.058	429.06
329.287	459.06
329.515	431.06
329.744	431.06
329.972	419.06
330.201	399.06
330.43	431.06
330.658	462.06
330.887	452.06
331.115	468.06
331.344	423.06
331.572	420.06
331.801	453.06
332.03	420.06
332.258	422.06
332.486	411.06
332.715	403.06
332.943	414.06
333.172	419.06
333.4	405.06
333.629	441.06
333.857	450.06
334.085	446.06
334.314	451.06
334.542	441.06
334.771	454.06
334.999	427.06
335.227	429.06
335.455	426.06
335.684	433.06
335.912	411.06
336.14	419.06
336.369	412.06
336.597	419.06
336.825	416.06
337.053	435.06
337.281	424.06
337.51	417.06
337.738	425.06
337.966	411.06
338.194	417.06
338.422	417.06
338.65	424.06
338.878	419.06
339.106	435.06
339.334	404.06
339.562	389.06
339.79	393.06
340.018	415.06
340.246	403.06
340.474	396.06
340.702	407.06
340.93	423.06
341.158	378.06
341.386	397.06
341.614	379.06
341.842	382.06
342.07	378.06
342.298	390.06
342.526	397.06
342.754	385.06
342.981	383.06
343.209	383.06
343.437	394.06
343.665	392.06
343.893	397.06
344.12	420.06
344.348	418.06
344.576	413.06
344.804	409.06
345.031	416.06
345.259	405.06
345.487	411.06
345.714	398.06
345.942	387.06
346.17	410.06
346.397	391.06
346.625	379.06
346.853	387.06
347.08	369.06
347.308	384.06
347.535	382.06
347.763	377.06
347.99	375.06
348.218	390.06
348.445	381.06
348.673	394.06
348.9	379.06
349.128	395.06
349.355	359.06
349.583	366.06
349.81	363.06
350.037	360.06
350.265	380.06
350.492	373.06
350.72	363.06
350.947	375.06
351.174	382.06
351.402	375.06
351.629	372.06
351.856	365.06
352.083	389.06
352.311	374.06
352.538	379.06
352.765	388.06
352.992	371.06
353.22	371.06
353.447	375.06
353.674	386.06
353.901	362.06
354.128	369.06
354.355	360.06
354.583	373.06
354.81	377.06
355.037	334.06
355.264	369.06
355.491	362.06
355.718	351.06
355.945	364.06
356.172	375.06
356.399	353.06
356.626	341.06
356.853	352.06
357.08	356.06
357.307	366.06
357.534	346.06
357.761	354.06
357.988	365.06
358.215	374.06
358.441	341.06
358.668	364.06
358.895	364.06
359.122	364.06
359.349	365.06
359.576	376.06
359.802	360.06
360.029	381.06
360.256	382.06
360.483	380.06
360.709	358.06
360.936	343.06
361.163	378.06
361.39	349.06
361.616	366.06
361.843	350.06
362.07	374.06
362.296	371.06
362.523	365.06
362.749	362.06
362.976	348.06
363.203	356.06
363.429	352.06
363.656	346.06
363.882	361.06
364.109	356.06
364.335	355.06
364.562	355.06
364.788	348.06
365.015	364.06
365.241	349.06
365.468	368.06
365.694	337.06
365.92	353.06
366.147	359.06
366.373	377.06
366.599	359.06
366.826	351.06
367.052	352.06
367.278	361.06
367.505	354.06
367.731	379.06
367.957	362.06
368.184	355.06
368.41	389.06
368.636	357.06
368.862	342.06
369.089	366.06
369.315	353.06
369.541	356.06
369.767	350.06
369.993	349.06
370.219	372.06
370.445	373.06
370.672	349.06
370.898	373.06
371.124	357.06
371.35	369.06
371.576	365.06
371.802	352.06
372.028	379.06
372.254	347.06
372.48	385.06
372.706	385.06
372.932	367.06
373.158	369.06
373.384	383.06
373.61	364.06
373.835	351.06
374.061	363.06
374.287	356.06
374.513	343.06
374.739	374.06
374.965	377.06
375.191	365.06
375.416	378.06
375.642	373.06
375.868	364.06
376.094	369.06
376.319	365.06
376.545	355.06
376.771	357.06
376.997	389.06
377.222	361.06
377.448	372.06
377.674	369.06
377.899	352.06
378.125	345.06
378.35	374.06
378.576	363.06
378.802	369.06
379.027	369.06
379.253	347.06
379.478	361.06
379.704	362.06
379.929	378.06
380.155	366.06
380.38	346.06
380.606	362.06
380.831	349.06
381.057	359.06
381.282	356.06
381.507	374.06
381.733	349.06
381.958	350.06
382.184	358.06
382.409	370.06
382.634	394.06
382.86	355.06
383.085	384.06
383.31	393.06
383.535	387.06
383.761	380.06
383.986	381.06
384.211	387.06
384.436	390.06
384.662	379.06
384.887	395.06
385.112	407.06
385.337	406.06
385.562	392.06
385.787	398.06
386.013	406.06
386.238	394.06
386.463	405.06
386.688	406.06
386.913	387.06
387.138	402.06
387.363	397.06
387.588	405.06
387.813	392.06
388.038	398.06
388.263	403.06
388.488	392.06
388.713	413.06
388.938	387.06
389.163	397.06
389.387	393.06
389.612	392.06
389.837	392.06
390.062	397.06
390.287	397.06
390.512	401.06
390.736	383.06
390.961	394.06
391.186	406.06
391.411	392.06
391.636	392.06
391.86	402.06
392.085	402.06
392.31	394.06
392.534	419.06
392.759	403.06
392.984	416.06
393.208	420.06
393.433	391.06
393.658	403.06
393.882	432.06
394.107	399.06
394.331	378.06
394.556	377.06
394.78	389.06
395.005	413.06
395.229	398.06
395.454	399.06
395.678	429.06
395.903	428.06
396.127	440.06
396.352	431.06
396.576	423.06
396.801	404.06
397.025	437.06
397.249	408.06
397.474	424.06
397.698	437.06
397.922	446.06
398.147	454.06
398.371	437.06
398.595	441.06
398.82	441.06
399.044	462.06
399.268	481.06
399.492	506.06
399.717	556.06
399.941	539.06
400.165	552.06
400.389	551.06
400.613	517.06
400.837	478.06
401.062	461.06
401.286	459.06
401.51	453.06
401.734	454.06
401.958	472.06
402.182	454.06
402.406	459.06
402.63	451.06
402.854	458.06
403.078	463.06
403.302	473.06
403.526	443.06
403.75	447.06
403.974	463.06
404.198	476.06
404.422	439.06
404.645	472.06
404.869	486.06
405.093	490.06
405.317	498.06
405.541	529.06
405.765	498.06
405.988	489.06
406.212	474.06
406.436	489.06
406.66	503.06
406.883	506.06
407.107	508.06
407.331	527.06
407.555	600.06
407.778	601.06
408.002	556.06
408.226	535.06
408.449	504.06
408.673	517.06
408.896	519.06
409.12	555.06
409.344	527.06
409.567	471.06
409.791	489.06
410.014	470.06
410.238	470.06
410.461	463.06
410.685	456.06
410.908	475.06
411.132	479.06
411.355	521.06
411.578	511.06
411.802	457.06
412.025	443.06
412.249	449.06
412.472	457.06
412.695	494.06
412.919	489.06
413.142	459.06
413.365	453.06
413.589	461.06
413.812	453.06
414.035	429.06
414.258	421.06
414.482	422.06
414.705	429.06
414.928	439.06
415.151	453.06
415.374	451.06
415.597	414.06
415.821	415.06
416.044	439.06
416.267	428.06
416.49	418.06
416.713	423.06
416.936	433.06
417.159	433.06
417.382	418.06
417.605	430.06
417.828	443.06
418.051	434.06
418.274	431.06
418.497	437.06
418.72	411.06
418.943	411.06
419.166	434.06
419.389	468.06
419.611	466.06
419.834	472.06
420.057	456.06
420.28	439.06
420.503	450.06
420.726	427.06
420.948	465.06
421.171	456.06
421.394	511.06
421.617	443.06
421.839	456.06
422.062	454.06
422.285	452.06
422.507	500.06
422.73	540.06
422.953	515.06
423.175	463.06
423.398	449.06
423.621	458.06
423.843	471.06
424.066	467.06
424.288	468.06
424.511	479.06
424.733	513.06
424.956	575.06
425.178	545.06
425.401	556.06
425.623	547.06
425.846	485.06
426.068	453.06
426.291	445.06
426.513	461.06
426.735	446.06
426.958	478.06
427.18	550.06
427.402	619.06
427.625	666.06
427.847	566.06
428.069	537.06
428.292	486.06
428.514	425.06
428.736	446.06
428.958	424.06
429.181	433.06
429.403	437.06
429.625	435.06
429.847	449.06
430.069	495.06
430.292	483.06
430.514	437.06
430.736	426.06
430.958	417.06
431.18	419.06
431.402	405.06
431.624	403.06
431.846	407.06
432.068	396.06
432.29	422.06
432.512	411.06
432.734	398.06
432.956	416.06
433.178	421.06
433.4	421.06
433.622	408.06
433.844	423.06
434.066	413.06
434.287	411.06
434.509	409.06
434.731	452.06
434.953	440.06
435.175	454.06
435.397	451.06
435.618	452.06
435.84	477.06
436.062	537.06
436.284	600.06
436.505	485.06
436.727	453.06
436.949	408.06
437.17	417.06
437.392	403.06
437.614	436.06
437.835	470.06
438.057	495.06
438.278	579.06
438.5	585.06
438.721	637.06
438.943	611.06
439.165	497.06
439.386	447.06
439.608	454.06
439.829	457.06
440.05	480.06
440.272	479.06
440.493	455.06
440.715	452.06
440.936	455.06
441.158	439.06
441.379	423.06
441.6	440.06
441.822	445.06
442.043	471.06
442.264	543.06
442.486	576.06
442.707	499.06
442.928	457.06
443.149	479.06
443.371	491.06
443.592	486.06
443.813	562.06
444.034	612.06
444.255	526.06
444.476	467.06
444.698	481.06
444.919	472.06
445.14	573.06
445.361	506.06
445.582	481.06
445.803	520.06
446.024	581.06
446.245	596.06
446.466	546.06
446.687	478.06
446.908	447.06
447.129	423.06
447.35	419.06
447.571	396.06
447.792	430.06
448.013	407.06
448.234	419.06
448.455	452.06
448.675	527.06
448.896	597.06
449.117	523.06
449.338	525.06
449.559	537.06
449.779	638.06
450	535.06
450.221	443.06
450.442	430.06
450.662	403.06
450.883	418.06
451.104	405.06
451.324	414.06
451.545	377.06
451.766	389.06
451.986	358.06
452.207	349.06
452.428	377.06
452.648	401.06
452.869	386.06
453.089	400.06
453.31	389.06
453.53	379.06
453.751	381.06
453.971	379.06
454.192	373.06
454.412	353.06
454.633	369.06
454.853	365.06
455.073	369.06
455.294	375.06
455.514	423.06
455.734	409.06
455.955	365.06
456.175	371.06
456.395	363.06
456.616	357.06
456.836	358.06
457.056	364.06
457.276	358.06
457.497	353.06
457.717	362.06
457.937	360.06
458.157	382.06
458.377	371.06
458.598	385.06
458.818	420.06
459.038	440.06
459.258	471.06
459.478	415.06
459.698	411.06
459.918	417.06
460.138	397.06
460.358	412.06
460.578	418.06
460.798	437.06
461.018	427.06
461.238	428.06
461.458	417.06
461.678	415.06
461.898	452.06
462.118	424.06
462.338	439.06
462.558	443.06
462.777	430.06
462.997	452.06
463.217	469.06
463.437	488.06
463.657	462.06
463.876	461.06
464.096	441.06
464.316	454.06
464.536	459.06
464.755	448.06
464.975	444.06
465.195	447.06
465.414	470.06
465.634	447.06
465.854	408.06
466.073	417.06
466.293	397.06
466.512	408.06
466.732	405.06
466.951	393.06
467.171	395.06
467.391	372.06
467.61	390.06
467.829	394.06
468.049	395.06
468.268	385.06
468.488	365.06
468.707	358.06
468.927	399.06
469.146	384.06
469.365	391.06
469.585	381.06
469.804	399.06
470.023	392.06
470.243	399.06
470.462	408.06
470.681	420.06
470.901	394.06
471.12	389.06
471.339	394.06
471.558	386.06
471.777	376.06
471.997	385.06
472.216	386.06
472.435	415.06
472.654	406.06
472.873	379.06
473.092	403.06
473.311	378.06
473.53	380.06
473.749	394.06
473.968	405.06
474.187	469.06
474.406	479.06
474.625	415.06
474.844	398.06
475.063	389.06
475.282	409.06
475.501	385.06
475.72	394.06
475.939	394.06
476.158	398.06
476.377	399.06
476.596	401.06
476.814	395.06
477.033	408.06
477.252	425.06
477.471	415.06
477.69	433.06
477.908	419.06
478.127	428.06
478.346	426.06
478.564	445.06
478.783	459.06
479.002	427.06
479.22	435.06
479.439	467.06
479.658	475.06
479.876	467.06
480.095	471.06
480.313	480.06
480.532	472.06
480.751	458.06
480.969	456.06
481.188	493.06
481.406	505.06
481.624	469.06
481.843	441.06
482.061	450.06
482.28	457.06
482.498	460.06
482.717	438.06
482.935	449.06
483.153	449.06
483.372	437.06
483.59	441.06
483.808	449.06
484.027	450.06
484.245	440.06
484.463	446.06
484.681	459.06
484.9	449.06
485.118	475.06
485.336	453.06
485.554	463.06
485.772	480.06
485.99	456.06
486.209	440.06
486.427	458.06
486.645	467.06
486.863	491.06
487.081	450.06
487.299	463.06
487.517	460.06
487.735	457.06
487.953	473.06
488.171	486.06
488.389	482.06
488.607	479.06
488.825	470.06
489.043	485.06
489.261	467.06
489.479	489.06
489.696	467.06
489.914	461.06
490.132	486.06
490.35	472.06
490.568	509.06
490.786	505.06
491.003	492.06
491.221	476.06
491.439	510.06
491.657	513.06
491.874	526.06
492.092	517.06
492.31	522.06
492.527	542.06
492.745	531.06
492.963	516.06
493.18	538.06
493.398	528.06
493.615	537.06
493.833	520.06
494.05	525.06
494.268	547.06
494.485	528.06
494.703	521.06
494.92	538.06
495.138	543.06
495.355	550.06
495.573	544.06
495.79	533.06
496.008	549.06
496.225	531.06
496.442	563.06
496.66	552.06
496.877	549.06
497.094	547.06
497.312	571.06
497.529	562.06
497.746	564.06
497.963	604.06
498.181	605.06
498.398	621.06
498.615	638.06
498.832	635.06
499.049	655.06
499.267	686.06
499.484	717.06
499.701	775.06
499.918	779.06
500.135	824.06
500.352	876.06
500.569	892.06
500.786	891.06
501.003	859.06
501.22	823.06
501.437	823.06
501.654	770.06
501.871	744.06
502.088	697.06
