Data from 1977.PennyLincolnUp.Lamp.En5.5.200Scan.071719.P1_HRD10591_16-08-05-865.txt Node
Date: Thu Jul 18 16:08:05 EDT 2019
User: cochatt
Spectrometer: HR+D1059
Trigger mode: 1
Integration Time (sec): 1.000000E-1
Scans to average: 1
Electric dark correction enabled: true
Nonlinearity correction enabled: false
Boxcar width: 0
XAxis mode: Wavelengths
Number of Pixels in Spectrum: 2048
>>>>>Begin Spectral Data<<<<<
223.165	-16.31
223.4	-16.31
223.635	-16.31
223.869	-23.31
224.104	-7.31
224.338	-20.31
224.573	-11.31
224.808	-19.31
225.042	7.69
225.277	1.69
225.511	-11.31
225.746	3.69
225.98	7.69
226.215	10.69
226.449	13.69
226.683	10.69
226.918	23.69
227.152	29.69
227.387	20.69
227.621	32.69
227.856	49.69
228.09	52.69
228.324	51.69
228.559	61.69
228.793	65.69
229.027	90.69
229.262	108.69
229.496	104.69
229.73	128.69
229.964	137.69
230.199	124.69
230.433	124.69
230.667	116.69
230.901	109.69
231.136	112.69
231.37	115.69
231.604	108.69
231.838	109.69
232.072	123.69
232.306	115.69
232.541	119.69
232.775	108.69
233.009	104.69
233.243	110.69
233.477	90.69
233.711	129.69
233.945	103.69
234.179	126.69
234.413	128.69
234.647	113.69
234.881	102.69
235.115	117.69
235.349	131.69
235.583	131.69
235.817	124.69
236.051	128.69
236.285	112.69
236.519	131.69
236.753	143.69
236.987	131.69
237.221	168.69
237.455	208.69
237.689	176.69
237.922	147.69
238.156	138.69
238.39	123.69
238.624	126.69
238.858	132.69
239.091	141.69
239.325	131.69
239.559	133.69
239.793	129.69
240.027	117.69
240.26	132.69
240.494	150.69
240.728	158.69
240.961	152.69
241.195	152.69
241.429	147.69
241.662	152.69
241.896	153.69
242.13	121.69
242.363	130.69
242.597	126.69
242.83	135.69
243.064	145.69
243.298	148.69
243.531	140.69
243.765	140.69
243.998	145.69
244.232	132.69
244.465	155.69
244.699	147.69
244.932	145.69
245.166	157.69
245.399	144.69
245.633	159.69
245.866	159.69
246.099	135.69
246.333	160.69
246.566	159.69
246.8	153.69
247.033	159.69
247.266	169.69
247.5	176.69
247.733	162.69
247.966	154.69
248.2	175.69
248.433	180.69
248.666	174.69
248.899	179.69
249.133	195.69
249.366	202.69
249.599	194.69
249.832	193.69
250.066	209.69
250.299	169.69
250.532	197.69
250.765	204.69
250.998	220.69
251.231	226.69
251.465	198.69
251.698	209.69
251.931	189.69
252.164	209.69
252.397	196.69
252.63	209.69
252.863	197.69
253.096	209.69
253.329	207.69
253.562	215.69
253.795	204.69
254.028	209.69
254.261	202.69
254.494	223.69
254.727	252.69
254.96	279.69
255.193	267.69
255.426	243.69
255.659	238.69
255.892	219.69
256.124	224.69
256.357	228.69
256.59	218.69
256.823	219.69
257.056	219.69
257.289	204.69
257.521	215.69
257.754	213.69
257.987	203.69
258.22	217.69
258.452	216.69
258.685	216.69
258.918	213.69
259.151	207.69
259.383	211.69
259.616	223.69
259.849	228.69
260.081	228.69
260.314	265.69
260.547	274.69
260.779	259.69
261.012	216.69
261.244	235.69
261.477	236.69
261.71	231.69
261.942	250.69
262.175	227.69
262.407	231.69
262.64	222.69
262.872	220.69
263.105	218.69
263.337	239.69
263.57	209.69
263.802	219.69
264.035	234.69
264.267	244.69
264.499	217.69
264.732	234.69
264.964	214.69
265.197	224.69
265.429	236.69
265.661	227.69
265.894	220.69
266.126	243.69
266.358	223.69
266.591	221.69
266.823	236.69
267.055	225.69
267.287	245.69
267.52	245.69
267.752	237.69
267.984	233.69
268.216	247.69
268.448	244.69
268.681	247.69
268.913	253.69
269.145	255.69
269.377	275.69
269.609	277.69
269.841	286.69
270.073	276.69
270.306	293.69
270.538	333.69
270.77	321.69
271.002	318.69
271.234	297.69
271.466	288.69
271.698	311.69
271.93	303.69
272.162	328.69
272.394	330.69
272.626	308.69
272.858	311.69
273.09	291.69
273.322	294.69
273.553	291.69
273.785	280.69
274.017	288.69
274.249	259.69
274.481	261.69
274.713	277.69
274.945	295.69
275.176	269.69
275.408	282.69
275.64	268.69
275.872	277.69
276.104	271.69
276.335	275.69
276.567	270.69
276.799	297.69
277.031	318.69
277.262	328.69
277.494	333.69
277.726	328.69
277.957	311.69
278.189	299.69
278.421	300.69
278.652	286.69
278.884	292.69
279.115	283.69
279.347	259.69
279.579	275.69
279.81	278.69
280.042	273.69
280.273	275.69
280.505	288.69
280.736	287.69
280.968	278.69
281.199	281.69
281.431	287.69
281.662	263.69
281.894	279.69
282.125	290.69
282.356	301.69
282.588	334.69
282.819	322.69
283.051	299.69
283.282	286.69
283.513	285.69
283.745	299.69
283.976	309.69
284.207	311.69
284.439	302.69
284.67	298.69
284.901	319.69
285.132	291.69
285.364	294.69
285.595	299.69
285.826	300.69
286.057	292.69
286.288	300.69
286.52	317.69
286.751	292.69
286.982	322.69
287.213	320.69
287.444	329.69
287.675	304.69
287.906	321.69
288.138	325.69
288.369	335.69
288.6	333.69
288.831	337.69
289.062	314.69
289.293	328.69
289.524	319.69
289.755	329.69
289.986	299.69
290.217	310.69
290.448	302.69
290.679	324.69
290.91	309.69
291.141	320.69
291.371	309.69
291.602	323.69
291.833	301.69
292.064	319.69
292.295	317.69
292.526	310.69
292.757	320.69
292.987	316.69
293.218	312.69
293.449	309.69
293.68	317.69
293.91	335.69
294.141	316.69
294.372	318.69
294.603	307.69
294.833	313.69
295.064	301.69
295.295	326.69
295.525	343.69
295.756	328.69
295.987	314.69
296.217	355.69
296.448	347.69
296.679	320.69
296.909	334.69
297.14	329.69
297.37	344.69
297.601	342.69
297.831	324.69
298.062	319.69
298.292	342.69
298.523	340.69
298.753	333.69
298.984	327.69
299.214	336.69
299.445	343.69
299.675	328.69
299.905	337.69
300.136	347.69
300.366	331.69
300.597	329.69
300.827	338.69
301.057	347.69
301.288	357.69
301.518	365.69
301.748	362.69
301.979	353.69
302.209	356.69
302.439	350.69
302.669	344.69
302.9	347.69
303.13	347.69
303.36	353.69
303.59	356.69
303.82	365.69
304.051	341.69
304.281	360.69
304.511	357.69
304.741	352.69
304.971	369.69
305.201	347.69
305.431	353.69
305.661	366.69
305.891	377.69
306.121	336.69
306.352	359.69
306.582	349.69
306.812	350.69
307.042	347.69
307.272	352.69
307.502	357.69
307.731	349.69
307.961	367.69
308.191	366.69
308.421	357.69
308.651	327.69
308.881	361.69
309.111	368.69
309.341	367.69
309.571	378.69
309.8	389.69
310.03	395.69
310.26	392.69
310.49	400.69
310.72	390.69
310.949	400.69
311.179	389.69
311.409	393.69
311.639	393.69
311.868	391.69
312.098	404.69
312.328	396.69
312.557	421.69
312.787	421.69
313.017	432.69
313.246	409.69
313.476	392.69
313.706	397.69
313.935	410.69
314.165	404.69
314.394	414.69
314.624	442.69
314.853	413.69
315.083	385.69
315.312	394.69
315.542	393.69
315.771	386.69
316.001	381.69
316.23	394.69
316.46	388.69
316.689	414.69
316.919	407.69
317.148	405.69
317.377	406.69
317.607	388.69
317.836	398.69
318.065	416.69
318.295	398.69
318.524	377.69
318.753	389.69
318.983	405.69
319.212	381.69
319.441	408.69
319.67	411.69
319.9	403.69
320.129	397.69
320.358	405.69
320.587	408.69
320.816	421.69
321.046	399.69
321.275	415.69
321.504	405.69
321.733	425.69
321.962	425.69
322.191	435.69
322.42	455.69
322.649	458.69
322.878	455.69
323.108	439.69
323.337	488.69
323.566	477.69
323.795	513.69
324.024	581.69
324.253	643.69
324.482	902.69
324.71	1377.69
324.939	1878.69
325.168	1547.69
325.397	842.69
325.626	610.69
325.855	523.69
326.084	503.69
326.313	488.69
326.542	506.69
326.77	550.69
326.999	633.69
327.228	845.69
327.457	1219.69
327.686	1407.69
327.914	968.69
328.143	647.69
328.372	572.69
328.6	544.69
328.829	550.69
329.058	541.69
329.287	556.69
329.515	519.69
329.744	500.69
329.972	501.69
330.201	525.69
330.43	548.69
330.658	566.69
330.887	562.69
331.115	545.69
331.344	520.69
331.572	485.69
331.801	511.69
332.03	484.69
332.258	511.69
332.486	461.69
332.715	475.69
332.943	484.69
333.172	506.69
333.4	494.69
333.629	485.69
333.857	488.69
334.085	512.69
334.314	503.69
334.542	532.69
334.771	537.69
334.999	506.69
335.227	487.69
335.455	491.69
335.684	485.69
335.912	476.69
336.14	472.69
336.369	469.69
336.597	462.69
336.825	475.69
337.053	466.69
337.281	462.69
337.51	445.69
337.738	441.69
337.966	444.69
338.194	468.69
338.422	484.69
338.65	476.69
338.878	445.69
339.106	451.69
339.334	450.69
339.562	452.69
339.79	452.69
340.018	425.69
340.246	455.69
340.474	454.69
340.702	463.69
340.93	437.69
341.158	443.69
341.386	445.69
341.614	448.69
341.842	470.69
342.07	441.69
342.298	435.69
342.526	428.69
342.754	421.69
342.981	452.69
343.209	436.69
343.437	433.69
343.665	449.69
343.893	450.69
344.12	479.69
344.348	474.69
344.576	453.69
344.804	455.69
345.031	437.69
345.259	483.69
345.487	455.69
345.714	447.69
345.942	452.69
346.17	428.69
346.397	413.69
346.625	442.69
346.853	409.69
347.08	419.69
347.308	423.69
347.535	435.69
347.763	434.69
347.99	423.69
348.218	427.69
348.445	421.69
348.673	439.69
348.9	433.69
349.128	420.69
349.355	413.69
349.583	415.69
349.81	409.69
350.037	402.69
350.265	418.69
350.492	425.69
350.72	425.69
350.947	420.69
351.174	417.69
351.402	409.69
351.629	401.69
351.856	409.69
352.083	407.69
352.311	407.69
352.538	435.69
352.765	442.69
352.992	429.69
353.22	424.69
353.447	411.69
353.674	426.69
353.901	430.69
354.128	390.69
354.355	419.69
354.583	411.69
354.81	393.69
355.037	393.69
355.264	411.69
355.491	391.69
355.718	384.69
355.945	378.69
356.172	380.69
356.399	384.69
356.626	385.69
356.853	381.69
357.08	395.69
357.307	406.69
357.534	413.69
357.761	397.69
357.988	389.69
358.215	404.69
358.441	379.69
358.668	394.69
358.895	398.69
359.122	414.69
359.349	404.69
359.576	418.69
359.802	420.69
360.029	450.69
360.256	457.69
360.483	452.69
360.709	416.69
360.936	401.69
361.163	400.69
361.39	410.69
361.616	401.69
361.843	416.69
362.07	393.69
362.296	397.69
362.523	394.69
362.749	404.69
362.976	409.69
363.203	415.69
363.429	396.69
363.656	403.69
363.882	393.69
364.109	397.69
364.335	398.69
364.562	387.69
364.788	400.69
365.015	400.69
365.241	397.69
365.468	388.69
365.694	423.69
365.92	400.69
366.147	381.69
366.373	385.69
366.599	394.69
366.826	391.69
367.052	398.69
367.278	387.69
367.505	383.69
367.731	411.69
367.957	383.69
368.184	383.69
368.41	408.69
368.636	411.69
368.862	392.69
369.089	405.69
369.315	393.69
369.541	397.69
369.767	420.69
369.993	406.69
370.219	393.69
370.445	394.69
370.672	399.69
370.898	400.69
371.124	416.69
371.35	406.69
371.576	402.69
371.802	391.69
372.028	397.69
372.254	381.69
372.48	394.69
372.706	399.69
372.932	409.69
373.158	398.69
373.384	396.69
373.61	414.69
373.835	393.69
374.061	380.69
374.287	394.69
374.513	403.69
374.739	435.69
374.965	411.69
375.191	421.69
375.416	407.69
375.642	406.69
375.868	389.69
376.094	401.69
376.319	382.69
376.545	396.69
376.771	401.69
376.997	422.69
377.222	389.69
377.448	381.69
377.674	367.69
377.899	383.69
378.125	401.69
378.35	398.69
378.576	376.69
378.802	379.69
379.027	389.69
379.253	397.69
379.478	397.69
379.704	385.69
379.929	405.69
380.155	380.69
380.38	404.69
380.606	391.69
380.831	387.69
381.057	386.69
381.282	390.69
381.507	401.69
381.733	399.69
381.958	405.69
382.184	391.69
382.409	407.69
382.634	398.69
382.86	394.69
383.085	393.69
383.31	413.69
383.535	412.69
383.761	396.69
383.986	409.69
384.211	414.69
384.436	401.69
384.662	432.69
384.887	420.69
385.112	420.69
385.337	440.69
385.562	430.69
385.787	437.69
386.013	450.69
386.238	425.69
386.463	428.69
386.688	422.69
386.913	401.69
387.138	433.69
387.363	432.69
387.588	431.69
387.813	432.69
388.038	428.69
388.263	425.69
388.488	444.69
388.713	448.69
388.938	451.69
389.163	424.69
389.387	450.69
389.612	432.69
389.837	430.69
390.062	416.69
390.287	410.69
390.512	429.69
390.736	420.69
390.961	408.69
391.186	427.69
391.411	432.69
391.636	440.69
391.86	432.69
392.085	448.69
392.31	439.69
392.534	454.69
392.759	445.69
392.984	444.69
393.208	428.69
393.433	439.69
393.658	427.69
393.882	417.69
394.107	428.69
394.331	436.69
394.556	428.69
394.78	438.69
395.005	433.69
395.229	431.69
395.454	447.69
395.678	457.69
395.903	462.69
396.127	476.69
396.352	466.69
396.576	444.69
396.801	456.69
397.025	451.69
397.249	450.69
397.474	450.69
397.698	436.69
397.922	499.69
398.147	486.69
398.371	470.69
398.595	476.69
398.82	467.69
399.044	491.69
399.268	514.69
399.492	552.69
399.717	592.69
399.941	605.69
400.165	615.69
400.389	616.69
400.613	552.69
400.837	527.69
401.062	499.69
401.286	501.69
401.51	494.69
401.734	491.69
401.958	497.69
402.182	492.69
402.406	511.69
402.63	511.69
402.854	489.69
403.078	500.69
403.302	491.69
403.526	496.69
403.75	517.69
403.974	475.69
404.198	501.69
404.422	511.69
404.645	508.69
404.869	530.69
405.093	532.69
405.317	548.69
405.541	601.69
405.765	577.69
405.988	524.69
406.212	527.69
406.436	545.69
406.66	572.69
406.883	519.69
407.107	564.69
407.331	593.69
407.555	660.69
407.778	657.69
408.002	601.69
408.226	554.69
408.449	561.69
408.673	548.69
408.896	570.69
409.12	605.69
409.344	597.69
409.567	523.69
409.791	513.69
410.014	491.69
410.238	488.69
410.461	497.69
410.685	517.69
410.908	521.69
411.132	561.69
411.355	564.69
411.578	549.69
411.802	509.69
412.025	526.69
412.249	503.69
412.472	535.69
412.695	543.69
412.919	547.69
413.142	507.69
413.365	497.69
413.589	491.69
413.812	475.69
414.035	477.69
414.258	457.69
414.482	492.69
414.705	464.69
414.928	479.69
415.151	468.69
415.374	463.69
415.597	475.69
415.821	469.69
416.044	463.69
416.267	462.69
416.49	448.69
416.713	485.69
416.936	444.69
417.159	464.69
417.382	450.69
417.605	477.69
417.828	486.69
418.051	499.69
418.274	500.69
418.497	471.69
418.72	460.69
418.943	471.69
419.166	474.69
419.389	502.69
419.611	517.69
419.834	471.69
420.057	480.69
420.28	478.69
420.503	482.69
420.726	496.69
420.948	517.69
421.171	547.69
421.394	553.69
421.617	500.69
421.839	491.69
422.062	502.69
422.285	501.69
422.507	551.69
422.73	614.69
422.953	592.69
423.175	517.69
423.398	500.69
423.621	536.69
423.843	529.69
424.066	514.69
424.288	520.69
424.511	526.69
424.733	599.69
424.956	657.69
425.178	637.69
425.401	587.69
425.623	648.69
425.846	549.69
426.068	491.69
426.291	498.69
426.513	492.69
426.735	496.69
426.958	545.69
427.18	620.69
427.402	729.69
427.625	790.69
427.847	701.69
428.069	587.69
428.292	566.69
428.514	538.69
428.736	482.69
428.958	493.69
429.181	479.69
429.403	472.69
429.625	488.69
429.847	501.69
430.069	569.69
430.292	567.69
430.514	478.69
430.736	469.69
430.958	460.69
431.18	439.69
431.402	451.69
431.624	459.69
431.846	443.69
432.068	450.69
432.29	465.69
432.512	447.69
432.734	468.69
432.956	435.69
433.178	465.69
433.4	474.69
433.622	469.69
433.844	442.69
434.066	462.69
434.287	449.69
434.509	461.69
434.731	453.69
434.953	473.69
435.175	483.69
435.397	514.69
435.618	505.69
435.84	540.69
436.062	639.69
436.284	686.69
436.505	574.69
436.727	522.69
436.949	481.69
437.17	476.69
437.392	461.69
437.614	473.69
437.835	524.69
438.057	575.69
438.278	649.69
438.5	665.69
438.721	718.69
438.943	686.69
439.165	581.69
439.386	519.69
439.608	485.69
439.829	519.69
440.05	527.69
440.272	572.69
440.493	535.69
440.715	493.69
440.936	491.69
441.158	484.69
441.379	468.69
441.6	507.69
441.822	503.69
442.043	545.69
442.264	605.69
442.486	657.69
442.707	565.69
442.928	519.69
443.149	527.69
443.371	553.69
443.592	584.69
443.813	662.69
444.034	721.69
444.255	611.69
444.476	537.69
444.698	535.69
444.919	522.69
445.14	633.69
445.361	565.69
445.582	552.69
445.803	617.69
446.024	680.69
446.245	706.69
446.466	643.69
446.687	522.69
446.908	502.69
447.129	478.69
447.35	483.69
447.571	477.69
447.792	463.69
448.013	451.69
448.234	477.69
448.455	551.69
448.675	635.69
448.896	752.69
449.117	642.69
449.338	578.69
449.559	698.69
449.779	748.69
450	626.69
450.221	497.69
450.442	464.69
450.662	448.69
450.883	452.69
451.104	487.69
451.324	455.69
451.545	434.69
451.766	445.69
451.986	430.69
452.207	443.69
452.428	433.69
452.648	408.69
452.869	429.69
453.089	423.69
453.31	432.69
453.53	402.69
453.751	400.69
453.971	432.69
454.192	422.69
454.412	427.69
454.633	425.69
454.853	407.69
455.073	420.69
455.294	429.69
455.514	493.69
455.734	496.69
455.955	430.69
456.175	401.69
456.395	391.69
456.616	378.69
456.836	391.69
457.056	399.69
457.276	380.69
457.497	421.69
457.717	402.69
457.937	393.69
458.157	417.69
458.377	415.69
458.598	444.69
458.818	477.69
459.038	533.69
459.258	547.69
459.478	490.69
459.698	450.69
459.918	445.69
460.138	441.69
460.358	459.69
460.578	457.69
460.798	458.69
461.018	463.69
461.238	466.69
461.458	465.69
461.678	457.69
461.898	479.69
462.118	469.69
462.338	464.69
462.558	473.69
462.777	483.69
462.997	486.69
463.217	483.69
463.437	518.69
463.657	513.69
463.876	486.69
464.096	492.69
464.316	488.69
464.536	489.69
464.755	495.69
464.975	489.69
465.195	499.69
465.414	527.69
465.634	488.69
465.854	469.69
466.073	460.69
466.293	445.69
466.512	442.69
466.732	437.69
466.951	425.69
467.171	421.69
467.391	421.69
467.61	416.69
467.829	445.69
468.049	438.69
468.268	451.69
468.488	415.69
468.707	425.69
468.927	406.69
469.146	408.69
469.365	405.69
469.585	416.69
469.804	437.69
470.023	433.69
470.243	401.69
470.462	429.69
470.681	447.69
470.901	415.69
471.12	445.69
471.339	441.69
471.558	437.69
471.777	422.69
471.997	431.69
472.216	432.69
472.435	447.69
472.654	436.69
472.873	433.69
473.092	431.69
473.311	428.69
473.53	408.69
473.749	438.69
473.968	451.69
474.187	547.69
474.406	561.69
474.625	468.69
474.844	441.69
475.063	442.69
475.282	420.69
475.501	455.69
475.72	451.69
475.939	464.69
476.158	440.69
476.377	444.69
476.596	443.69
476.814	451.69
477.033	439.69
477.252	471.69
477.471	449.69
477.69	477.69
477.908	489.69
478.127	489.69
478.346	452.69
478.564	463.69
478.783	497.69
479.002	507.69
479.22	472.69
479.439	507.69
479.658	511.69
479.876	517.69
480.095	518.69
480.313	548.69
480.532	535.69
480.751	533.69
480.969	538.69
481.188	558.69
481.406	574.69
481.624	539.69
481.843	505.69
482.061	520.69
482.28	500.69
482.498	486.69
482.717	483.69
482.935	501.69
483.153	499.69
483.372	481.69
483.59	472.69
483.808	493.69
484.027	468.69
484.245	466.69
484.463	492.69
484.681	501.69
484.9	488.69
485.118	493.69
485.336	515.69
485.554	524.69
485.772	519.69
485.99	485.69
486.209	515.69
486.427	515.69
486.645	529.69
486.863	527.69
487.081	520.69
487.299	521.69
487.517	514.69
487.735	540.69
487.953	524.69
488.171	508.69
488.389	520.69
488.607	525.69
488.825	528.69
489.043	543.69
489.261	536.69
489.479	528.69
489.696	517.69
489.914	535.69
490.132	527.69
490.35	575.69
490.568	565.69
490.786	575.69
491.003	541.69
491.221	593.69
491.439	570.69
491.657	593.69
491.874	606.69
492.092	581.69
492.31	593.69
492.527	604.69
492.745	591.69
492.963	619.69
493.18	614.69
493.398	631.69
493.615	603.69
493.833	619.69
494.05	606.69
494.268	625.69
494.485	631.69
494.703	602.69
494.92	587.69
495.138	607.69
495.355	623.69
495.573	612.69
495.79	624.69
496.008	616.69
496.225	603.69
496.442	621.69
496.66	635.69
496.877	623.69
497.094	649.69
497.312	636.69
497.529	665.69
497.746	651.69
497.963	654.69
498.181	681.69
498.398	682.69
498.615	701.69
498.832	715.69
499.049	758.69
499.267	754.69
499.484	788.69
499.701	822.69
499.918	859.69
500.135	909.69
500.352	921.69
500.569	936.69
500.786	939.69
501.003	917.69
501.22	908.69
501.437	884.69
501.654	840.69
501.871	791.69
502.088	805.69
