Data from 1977.PennyLincolnUp.Lamp.En5.5.200Scan.071719.P1_HRD10591_16-07-45-864.txt Node
Date: Thu Jul 18 16:07:45 EDT 2019
User: cochatt
Spectrometer: HR+D1059
Trigger mode: 1
Integration Time (sec): 1.000000E-1
Scans to average: 1
Electric dark correction enabled: true
Nonlinearity correction enabled: false
Boxcar width: 0
XAxis mode: Wavelengths
Number of Pixels in Spectrum: 2048
>>>>>Begin Spectral Data<<<<<
223.165	-9.94
223.4	-9.94
223.635	-9.94
223.869	-6.94
224.104	-19.94
224.338	-7.94
224.573	-7.94
224.808	-8.94
225.042	0.06
225.277	-20.94
225.511	-14.94
225.746	10.06
225.98	12.06
226.215	-5.94
226.449	4.06
226.683	24.06
226.918	24.06
227.152	29.06
227.387	30.06
227.621	32.06
227.856	40.06
228.09	58.06
228.324	56.06
228.559	62.06
228.793	73.06
229.027	88.06
229.262	95.06
229.496	116.06
229.73	124.06
229.964	131.06
230.199	130.06
230.433	107.06
230.667	113.06
230.901	116.06
231.136	113.06
231.37	102.06
231.604	100.06
231.838	98.06
232.072	101.06
232.306	124.06
232.541	101.06
232.775	113.06
233.009	111.06
233.243	114.06
233.477	104.06
233.711	125.06
233.945	114.06
234.179	106.06
234.413	112.06
234.647	111.06
234.881	113.06
235.115	110.06
235.349	122.06
235.583	114.06
235.817	113.06
236.051	114.06
236.285	127.06
236.519	128.06
236.753	138.06
236.987	136.06
237.221	159.06
237.455	192.06
237.689	170.06
237.922	138.06
238.156	110.06
238.39	122.06
238.624	126.06
238.858	112.06
239.091	119.06
239.325	121.06
239.559	135.06
239.793	124.06
240.027	134.06
240.26	144.06
240.494	150.06
240.728	144.06
240.961	140.06
241.195	139.06
241.429	128.06
241.662	129.06
241.896	128.06
242.13	138.06
242.363	134.06
242.597	136.06
242.83	144.06
243.064	137.06
243.298	126.06
243.531	126.06
243.765	149.06
243.998	136.06
244.232	138.06
244.465	133.06
244.699	142.06
244.932	137.06
245.166	126.06
245.399	157.06
245.633	145.06
245.866	159.06
246.099	145.06
246.333	147.06
246.566	151.06
246.8	156.06
247.033	147.06
247.266	150.06
247.5	154.06
247.733	163.06
247.966	149.06
248.2	164.06
248.433	156.06
248.666	174.06
248.899	176.06
249.133	183.06
249.366	210.06
249.599	188.06
249.832	202.06
250.066	175.06
250.299	146.06
250.532	176.06
250.765	196.06
250.998	204.06
251.231	201.06
251.465	218.06
251.698	206.06
251.931	208.06
252.164	190.06
252.397	185.06
252.63	186.06
252.863	188.06
253.096	216.06
253.329	219.06
253.562	205.06
253.795	204.06
254.028	202.06
254.261	217.06
254.494	214.06
254.727	235.06
254.96	240.06
255.193	241.06
255.426	234.06
255.659	211.06
255.892	222.06
256.124	229.06
256.357	234.06
256.59	211.06
256.823	188.06
257.056	211.06
257.289	200.06
257.521	188.06
257.754	203.06
257.987	207.06
258.22	198.06
258.452	201.06
258.685	192.06
258.918	190.06
259.151	189.06
259.383	209.06
259.616	197.06
259.849	220.06
260.081	228.06
260.314	228.06
260.547	269.06
260.779	244.06
261.012	225.06
261.244	214.06
261.477	225.06
261.71	202.06
261.942	226.06
262.175	214.06
262.407	209.06
262.64	208.06
262.872	214.06
263.105	225.06
263.337	217.06
263.57	225.06
263.802	216.06
264.035	230.06
264.267	209.06
264.499	210.06
264.732	219.06
264.964	218.06
265.197	222.06
265.429	236.06
265.661	212.06
265.894	218.06
266.126	201.06
266.358	223.06
266.591	215.06
266.823	248.06
267.055	239.06
267.287	216.06
267.52	229.06
267.752	226.06
267.984	238.06
268.216	228.06
268.448	223.06
268.681	239.06
268.913	245.06
269.145	261.06
269.377	285.06
269.609	269.06
269.841	253.06
270.073	271.06
270.306	279.06
270.538	314.06
270.77	314.06
271.002	300.06
271.234	286.06
271.466	269.06
271.698	297.06
271.93	294.06
272.162	304.06
272.394	305.06
272.626	276.06
272.858	292.06
273.09	284.06
273.322	274.06
273.553	266.06
273.785	259.06
274.017	268.06
274.249	248.06
274.481	261.06
274.713	285.06
274.945	271.06
275.176	263.06
275.408	265.06
275.64	271.06
275.872	251.06
276.104	265.06
276.335	270.06
276.567	276.06
276.799	287.06
277.031	305.06
277.262	316.06
277.494	296.06
277.726	296.06
277.957	306.06
278.189	276.06
278.421	276.06
278.652	284.06
278.884	271.06
279.115	296.06
279.347	291.06
279.579	267.06
279.81	275.06
280.042	282.06
280.273	271.06
280.505	278.06
280.736	283.06
280.968	277.06
281.199	280.06
281.431	294.06
281.662	286.06
281.894	297.06
282.125	285.06
282.356	289.06
282.588	299.06
282.819	295.06
283.051	302.06
283.282	266.06
283.513	288.06
283.745	293.06
283.976	296.06
284.207	282.06
284.439	290.06
284.67	282.06
284.901	293.06
285.132	285.06
285.364	296.06
285.595	301.06
285.826	293.06
286.057	292.06
286.288	277.06
286.52	271.06
286.751	288.06
286.982	293.06
287.213	290.06
287.444	321.06
287.675	300.06
287.906	296.06
288.138	313.06
288.369	311.06
288.6	319.06
288.831	323.06
289.062	305.06
289.293	304.06
289.524	317.06
289.755	287.06
289.986	288.06
290.217	289.06
290.448	313.06
290.679	306.06
290.91	306.06
291.141	317.06
291.371	314.06
291.602	310.06
291.833	307.06
292.064	304.06
292.295	292.06
292.526	295.06
292.757	315.06
292.987	296.06
293.218	305.06
293.449	301.06
293.68	306.06
293.91	321.06
294.141	299.06
294.372	301.06
294.603	292.06
294.833	303.06
295.064	318.06
295.295	308.06
295.525	304.06
295.756	301.06
295.987	306.06
296.217	331.06
296.448	332.06
296.679	309.06
296.909	313.06
297.14	313.06
297.37	299.06
297.601	319.06
297.831	298.06
298.062	298.06
298.292	309.06
298.523	313.06
298.753	331.06
298.984	325.06
299.214	333.06
299.445	317.06
299.675	334.06
299.905	326.06
300.136	335.06
300.366	335.06
300.597	312.06
300.827	322.06
301.057	314.06
301.288	343.06
301.518	332.06
301.748	330.06
301.979	331.06
302.209	347.06
302.439	348.06
302.669	356.06
302.9	322.06
303.13	349.06
303.36	363.06
303.59	345.06
303.82	342.06
304.051	337.06
304.281	350.06
304.511	337.06
304.741	344.06
304.971	348.06
305.201	346.06
305.431	337.06
305.661	342.06
305.891	341.06
306.121	336.06
306.352	346.06
306.582	342.06
306.812	359.06
307.042	347.06
307.272	358.06
307.502	331.06
307.731	348.06
307.961	339.06
308.191	343.06
308.421	338.06
308.651	332.06
308.881	335.06
309.111	356.06
309.341	336.06
309.571	365.06
309.8	360.06
310.03	355.06
310.26	380.06
310.49	382.06
310.72	377.06
310.949	394.06
311.179	394.06
311.409	387.06
311.639	372.06
311.868	386.06
312.098	390.06
312.328	380.06
312.557	386.06
312.787	403.06
313.017	396.06
313.246	388.06
313.476	363.06
313.706	384.06
313.935	399.06
314.165	381.06
314.394	396.06
314.624	393.06
314.853	408.06
315.083	376.06
315.312	366.06
315.542	378.06
315.771	375.06
316.001	372.06
316.23	392.06
316.46	374.06
316.689	381.06
316.919	395.06
317.148	392.06
317.377	386.06
317.607	410.06
317.836	370.06
318.065	376.06
318.295	408.06
318.524	373.06
318.753	392.06
318.983	397.06
319.212	377.06
319.441	391.06
319.67	398.06
319.9	372.06
320.129	385.06
320.358	376.06
320.587	396.06
320.816	384.06
321.046	394.06
321.275	383.06
321.504	392.06
321.733	399.06
321.962	385.06
322.191	417.06
322.42	398.06
322.649	436.06
322.878	421.06
323.108	439.06
323.337	444.06
323.566	472.06
323.795	479.06
324.024	504.06
324.253	614.06
324.482	817.06
324.71	1224.06
324.939	1726.06
325.168	1470.06
325.397	795.06
325.626	580.06
325.855	505.06
326.084	491.06
326.313	475.06
326.542	469.06
326.77	504.06
326.999	586.06
327.228	766.06
327.457	1109.06
327.686	1312.06
327.914	888.06
328.143	593.06
328.372	527.06
328.6	522.06
328.829	516.06
329.058	532.06
329.287	516.06
329.515	493.06
329.744	475.06
329.972	469.06
330.201	488.06
330.43	531.06
330.658	518.06
330.887	557.06
331.115	544.06
331.344	491.06
331.572	479.06
331.801	488.06
332.03	479.06
332.258	475.06
332.486	468.06
332.715	474.06
332.943	460.06
333.172	458.06
333.4	457.06
333.629	482.06
333.857	501.06
334.085	497.06
334.314	496.06
334.542	498.06
334.771	510.06
334.999	475.06
335.227	480.06
335.455	470.06
335.684	478.06
335.912	458.06
336.14	451.06
336.369	452.06
336.597	449.06
336.825	476.06
337.053	464.06
337.281	445.06
337.51	465.06
337.738	451.06
337.966	448.06
338.194	438.06
338.422	462.06
338.65	421.06
338.878	440.06
339.106	410.06
339.334	431.06
339.562	431.06
339.79	423.06
340.018	434.06
340.246	428.06
340.474	430.06
340.702	445.06
340.93	446.06
341.158	416.06
341.386	444.06
341.614	420.06
341.842	412.06
342.07	420.06
342.298	427.06
342.526	426.06
342.754	410.06
342.981	435.06
343.209	411.06
343.437	428.06
343.665	429.06
343.893	464.06
344.12	448.06
344.348	445.06
344.576	448.06
344.804	445.06
345.031	454.06
345.259	428.06
345.487	432.06
345.714	421.06
345.942	408.06
346.17	399.06
346.397	414.06
346.625	434.06
346.853	418.06
347.08	401.06
347.308	415.06
347.535	403.06
347.763	418.06
347.99	408.06
348.218	428.06
348.445	408.06
348.673	408.06
348.9	391.06
349.128	404.06
349.355	385.06
349.583	400.06
349.81	410.06
350.037	377.06
350.265	415.06
350.492	400.06
350.72	401.06
350.947	388.06
351.174	397.06
351.402	407.06
351.629	402.06
351.856	394.06
352.083	392.06
352.311	393.06
352.538	409.06
352.765	418.06
352.992	402.06
353.22	400.06
353.447	401.06
353.674	410.06
353.901	380.06
354.128	386.06
354.355	388.06
354.583	394.06
354.81	376.06
355.037	376.06
355.264	376.06
355.491	381.06
355.718	387.06
355.945	384.06
356.172	393.06
356.399	383.06
356.626	417.06
356.853	380.06
357.08	377.06
357.307	374.06
357.534	381.06
357.761	372.06
357.988	385.06
358.215	389.06
358.441	383.06
358.668	374.06
358.895	386.06
359.122	373.06
359.349	392.06
359.576	382.06
359.802	410.06
360.029	414.06
360.256	420.06
360.483	423.06
360.709	395.06
360.936	392.06
361.163	404.06
361.39	416.06
361.616	414.06
361.843	381.06
362.07	396.06
362.296	393.06
362.523	382.06
362.749	381.06
362.976	396.06
363.203	382.06
363.429	382.06
363.656	386.06
363.882	382.06
364.109	383.06
364.335	384.06
364.562	382.06
364.788	376.06
365.015	393.06
365.241	370.06
365.468	384.06
365.694	380.06
365.92	380.06
366.147	374.06
366.373	371.06
366.599	391.06
366.826	359.06
367.052	383.06
367.278	383.06
367.505	360.06
367.731	362.06
367.957	393.06
368.184	384.06
368.41	374.06
368.636	387.06
368.862	395.06
369.089	384.06
369.315	380.06
369.541	361.06
369.767	386.06
369.993	372.06
370.219	383.06
370.445	372.06
370.672	374.06
370.898	372.06
371.124	397.06
371.35	373.06
371.576	388.06
371.802	399.06
372.028	374.06
372.254	389.06
372.48	382.06
372.706	380.06
372.932	399.06
373.158	388.06
373.384	383.06
373.61	381.06
373.835	376.06
374.061	372.06
374.287	382.06
374.513	379.06
374.739	383.06
374.965	384.06
375.191	385.06
375.416	401.06
375.642	413.06
375.868	360.06
376.094	377.06
376.319	388.06
376.545	365.06
376.771	378.06
376.997	392.06
377.222	375.06
377.448	362.06
377.674	375.06
377.899	362.06
378.125	372.06
378.35	387.06
378.576	359.06
378.802	377.06
379.027	387.06
379.253	368.06
379.478	396.06
379.704	396.06
379.929	373.06
380.155	391.06
380.38	369.06
380.606	388.06
380.831	378.06
381.057	375.06
381.282	367.06
381.507	373.06
381.733	382.06
381.958	384.06
382.184	393.06
382.409	381.06
382.634	377.06
382.86	389.06
383.085	373.06
383.31	390.06
383.535	391.06
383.761	394.06
383.986	401.06
384.211	377.06
384.436	392.06
384.662	394.06
384.887	401.06
385.112	417.06
385.337	414.06
385.562	395.06
385.787	410.06
386.013	424.06
386.238	414.06
386.463	416.06
386.688	414.06
386.913	396.06
387.138	402.06
387.363	434.06
387.588	406.06
387.813	412.06
388.038	419.06
388.263	400.06
388.488	416.06
388.713	408.06
388.938	416.06
389.163	412.06
389.387	430.06
389.612	410.06
389.837	421.06
390.062	402.06
390.287	392.06
390.512	407.06
390.736	408.06
390.961	410.06
391.186	424.06
391.411	414.06
391.636	424.06
391.86	436.06
392.085	448.06
392.31	439.06
392.534	459.06
392.759	419.06
392.984	424.06
393.208	412.06
393.433	404.06
393.658	409.06
393.882	403.06
394.107	416.06
394.331	414.06
394.556	413.06
394.78	429.06
395.005	432.06
395.229	406.06
395.454	417.06
395.678	444.06
395.903	467.06
396.127	433.06
396.352	431.06
396.576	405.06
396.801	428.06
397.025	429.06
397.249	423.06
397.474	463.06
397.698	452.06
397.922	438.06
398.147	465.06
398.371	463.06
398.595	456.06
398.82	477.06
399.044	506.06
399.268	522.06
399.492	530.06
399.717	579.06
399.941	577.06
400.165	574.06
400.389	609.06
400.613	528.06
400.837	489.06
401.062	476.06
401.286	472.06
401.51	472.06
401.734	473.06
401.958	490.06
402.182	479.06
402.406	460.06
402.63	488.06
402.854	478.06
403.078	471.06
403.302	503.06
403.526	470.06
403.75	479.06
403.974	490.06
404.198	478.06
404.422	502.06
404.645	491.06
404.869	490.06
405.093	522.06
405.317	551.06
405.541	580.06
405.765	535.06
405.988	498.06
406.212	524.06
406.436	525.06
406.66	514.06
406.883	512.06
407.107	548.06
407.331	564.06
407.555	610.06
407.778	632.06
408.002	588.06
408.226	552.06
408.449	551.06
408.673	537.06
408.896	547.06
409.12	588.06
409.344	566.06
409.567	494.06
409.791	465.06
410.014	476.06
410.238	487.06
410.461	501.06
410.685	484.06
410.908	500.06
411.132	522.06
411.355	566.06
411.578	516.06
411.802	492.06
412.025	486.06
412.249	472.06
412.472	524.06
412.695	519.06
412.919	527.06
413.142	496.06
413.365	478.06
413.589	473.06
413.812	448.06
414.035	476.06
414.258	438.06
414.482	458.06
414.705	443.06
414.928	462.06
415.151	442.06
415.374	446.06
415.597	447.06
415.821	442.06
416.044	446.06
416.267	449.06
416.49	439.06
416.713	460.06
416.936	421.06
417.159	446.06
417.382	459.06
417.605	450.06
417.828	465.06
418.051	481.06
418.274	465.06
418.497	445.06
418.72	446.06
418.943	467.06
419.166	476.06
419.389	485.06
419.611	516.06
419.834	500.06
420.057	472.06
420.28	466.06
420.503	477.06
420.726	455.06
420.948	467.06
421.171	503.06
421.394	536.06
421.617	494.06
421.839	433.06
422.062	457.06
422.285	478.06
422.507	523.06
422.73	580.06
422.953	548.06
423.175	492.06
423.398	502.06
423.621	502.06
423.843	508.06
424.066	515.06
424.288	494.06
424.511	523.06
424.733	539.06
424.956	616.06
425.178	605.06
425.401	608.06
425.623	603.06
425.846	534.06
426.068	500.06
426.291	504.06
426.513	490.06
426.735	479.06
426.958	521.06
427.18	580.06
427.402	707.06
427.625	762.06
427.847	646.06
428.069	560.06
428.292	520.06
428.514	482.06
428.736	463.06
428.958	468.06
429.181	456.06
429.403	446.06
429.625	460.06
429.847	481.06
430.069	548.06
430.292	544.06
430.514	477.06
430.736	440.06
430.958	456.06
431.18	440.06
431.402	418.06
431.624	430.06
431.846	423.06
432.068	420.06
432.29	430.06
432.512	403.06
432.734	430.06
432.956	448.06
433.178	441.06
433.4	455.06
433.622	444.06
433.844	430.06
434.066	433.06
434.287	439.06
434.509	443.06
434.731	470.06
434.953	453.06
435.175	464.06
435.397	481.06
435.618	493.06
435.84	531.06
436.062	580.06
436.284	644.06
436.505	540.06
436.727	486.06
436.949	466.06
437.17	447.06
437.392	451.06
437.614	474.06
437.835	482.06
438.057	537.06
438.278	634.06
438.5	623.06
438.721	702.06
438.943	688.06
439.165	539.06
439.386	486.06
439.608	498.06
439.829	497.06
440.05	495.06
440.272	530.06
440.493	504.06
440.715	480.06
440.936	472.06
441.158	448.06
441.379	457.06
441.6	489.06
441.822	504.06
442.043	516.06
442.264	583.06
442.486	607.06
442.707	525.06
442.928	489.06
443.149	516.06
443.371	520.06
443.592	544.06
443.813	615.06
444.034	671.06
444.255	581.06
444.476	510.06
444.698	481.06
444.919	494.06
445.14	613.06
445.361	561.06
445.582	533.06
445.803	584.06
446.024	646.06
446.245	642.06
446.466	599.06
446.687	528.06
446.908	483.06
447.129	471.06
447.35	468.06
447.571	446.06
447.792	449.06
448.013	432.06
448.234	470.06
448.455	495.06
448.675	606.06
448.896	681.06
449.117	594.06
449.338	524.06
449.559	629.06
449.779	709.06
450	575.06
450.221	483.06
450.442	469.06
450.662	441.06
450.883	437.06
451.104	434.06
451.324	419.06
451.545	408.06
451.766	398.06
451.986	396.06
452.207	390.06
452.428	378.06
452.648	398.06
452.869	386.06
453.089	385.06
453.31	423.06
453.53	392.06
453.751	408.06
453.971	407.06
454.192	398.06
454.412	400.06
454.633	399.06
454.853	382.06
455.073	394.06
455.294	428.06
455.514	463.06
455.734	465.06
455.955	393.06
456.175	378.06
456.395	375.06
456.616	354.06
456.836	375.06
457.056	369.06
457.276	382.06
457.497	367.06
457.717	374.06
457.937	378.06
458.157	395.06
458.377	380.06
458.598	402.06
458.818	447.06
459.038	501.06
459.258	502.06
459.478	468.06
459.698	424.06
459.918	455.06
460.138	428.06
460.358	437.06
460.578	434.06
460.798	432.06
461.018	447.06
461.238	449.06
461.458	430.06
461.678	441.06
461.898	456.06
462.118	443.06
462.338	453.06
462.558	469.06
462.777	486.06
462.997	481.06
463.217	498.06
463.437	497.06
463.657	469.06
463.876	479.06
464.096	466.06
464.316	466.06
464.536	461.06
464.755	470.06
464.975	451.06
465.195	472.06
465.414	494.06
465.634	484.06
465.854	434.06
466.073	421.06
466.293	423.06
466.512	420.06
466.732	415.06
466.951	402.06
467.171	404.06
467.391	429.06
467.61	412.06
467.829	414.06
468.049	397.06
468.268	404.06
468.488	414.06
468.707	409.06
468.927	381.06
469.146	383.06
469.365	396.06
469.585	387.06
469.804	406.06
470.023	408.06
470.243	412.06
470.462	414.06
470.681	422.06
470.901	425.06
471.12	418.06
471.339	410.06
471.558	417.06
471.777	412.06
471.997	412.06
472.216	400.06
472.435	422.06
472.654	413.06
472.873	415.06
473.092	414.06
473.311	417.06
473.53	392.06
473.749	401.06
473.968	452.06
474.187	526.06
474.406	561.06
474.625	438.06
474.844	414.06
475.063	401.06
475.282	396.06
475.501	410.06
475.72	433.06
475.939	424.06
476.158	443.06
476.377	436.06
476.596	419.06
476.814	425.06
477.033	428.06
477.252	424.06
477.471	432.06
477.69	434.06
477.908	428.06
478.127	441.06
478.346	476.06
478.564	452.06
478.783	454.06
479.002	465.06
479.22	476.06
479.439	478.06
479.658	487.06
479.876	483.06
480.095	505.06
480.313	528.06
480.532	542.06
480.751	524.06
480.969	500.06
481.188	549.06
481.406	551.06
481.624	506.06
481.843	482.06
482.061	492.06
482.28	485.06
482.498	465.06
482.717	481.06
482.935	480.06
483.153	504.06
483.372	461.06
483.59	468.06
483.808	470.06
484.027	473.06
484.245	452.06
484.463	472.06
484.681	475.06
484.9	482.06
485.118	496.06
485.336	470.06
485.554	502.06
485.772	486.06
485.99	504.06
486.209	497.06
486.427	499.06
486.645	502.06
486.863	519.06
487.081	495.06
487.299	502.06
487.517	489.06
487.735	505.06
487.953	509.06
488.171	522.06
488.389	514.06
488.607	494.06
488.825	498.06
489.043	501.06
489.261	525.06
489.479	508.06
489.696	503.06
489.914	514.06
490.132	528.06
490.35	516.06
490.568	545.06
490.786	520.06
491.003	541.06
491.221	528.06
491.439	546.06
491.657	555.06
491.874	572.06
492.092	577.06
492.31	580.06
492.527	574.06
492.745	570.06
492.963	561.06
493.18	567.06
493.398	580.06
493.615	589.06
493.833	607.06
494.05	570.06
494.268	574.06
494.485	586.06
494.703	582.06
494.92	585.06
495.138	594.06
495.355	590.06
495.573	599.06
495.79	608.06
496.008	609.06
496.225	589.06
496.442	583.06
496.66	600.06
496.877	572.06
497.094	586.06
497.312	595.06
497.529	607.06
497.746	638.06
497.963	618.06
498.181	671.06
498.398	648.06
498.615	675.06
498.832	688.06
499.049	708.06
499.267	720.06
499.484	760.06
499.701	774.06
499.918	776.06
500.135	876.06
500.352	902.06
500.569	921.06
500.786	900.06
501.003	916.06
501.22	891.06
501.437	836.06
501.654	786.06
501.871	791.06
502.088	764.06
