Data from 1977.PennyLincolnUp.Lamp.En5.5.200Scan.071719.P1_HRD10591_16-06-51-864.txt Node
Date: Thu Jul 18 16:06:51 EDT 2019
User: cochatt
Spectrometer: HR+D1059
Trigger mode: 1
Integration Time (sec): 1.000000E-1
Scans to average: 1
Electric dark correction enabled: true
Nonlinearity correction enabled: false
Boxcar width: 0
XAxis mode: Wavelengths
Number of Pixels in Spectrum: 2048
>>>>>Begin Spectral Data<<<<<
223.165	-11.12
223.4	-11.12
223.635	-11.12
223.869	-10.12
224.104	-8.12
224.338	-18.12
224.573	-12.12
224.808	-11.12
225.042	-23.12
225.277	-10.12
225.511	-10.12
225.746	-0.12
225.98	11.88
226.215	14.88
226.449	24.88
226.683	10.88
226.918	29.88
227.152	21.88
227.387	43.88
227.621	28.88
227.856	36.88
228.09	30.88
228.324	40.88
228.559	43.88
228.793	70.88
229.027	89.88
229.262	96.88
229.496	116.88
229.73	125.88
229.964	136.88
230.199	118.88
230.433	111.88
230.667	108.88
230.901	105.88
231.136	108.88
231.37	112.88
231.604	104.88
231.838	111.88
232.072	105.88
232.306	119.88
232.541	119.88
232.775	121.88
233.009	110.88
233.243	98.88
233.477	114.88
233.711	110.88
233.945	117.88
234.179	102.88
234.413	115.88
234.647	110.88
234.881	105.88
235.115	102.88
235.349	103.88
235.583	112.88
235.817	105.88
236.051	113.88
236.285	112.88
236.519	112.88
236.753	125.88
236.987	143.88
237.221	167.88
237.455	208.88
237.689	164.88
237.922	134.88
238.156	125.88
238.39	123.88
238.624	132.88
238.858	125.88
239.091	129.88
239.325	125.88
239.559	121.88
239.793	136.88
240.027	137.88
240.26	139.88
240.494	146.88
240.728	144.88
240.961	144.88
241.195	152.88
241.429	124.88
241.662	141.88
241.896	129.88
242.13	132.88
242.363	128.88
242.597	147.88
242.83	145.88
243.064	162.88
243.298	141.88
243.531	134.88
243.765	137.88
243.998	137.88
244.232	141.88
244.465	136.88
244.699	130.88
244.932	145.88
245.166	144.88
245.399	156.88
245.633	146.88
245.866	132.88
246.099	158.88
246.333	144.88
246.566	157.88
246.8	154.88
247.033	130.88
247.266	140.88
247.5	156.88
247.733	168.88
247.966	162.88
248.2	171.88
248.433	172.88
248.666	176.88
248.899	186.88
249.133	183.88
249.366	193.88
249.599	194.88
249.832	180.88
250.066	179.88
250.299	183.88
250.532	179.88
250.765	194.88
250.998	211.88
251.231	227.88
251.465	194.88
251.698	201.88
251.931	216.88
252.164	198.88
252.397	182.88
252.63	200.88
252.863	203.88
253.096	186.88
253.329	196.88
253.562	218.88
253.795	203.88
254.028	190.88
254.261	212.88
254.494	211.88
254.727	229.88
254.96	268.88
255.193	261.88
255.426	245.88
255.659	220.88
255.892	219.88
256.124	221.88
256.357	214.88
256.59	227.88
256.823	230.88
257.056	220.88
257.289	201.88
257.521	202.88
257.754	219.88
257.987	202.88
258.22	201.88
258.452	225.88
258.685	205.88
258.918	196.88
259.151	207.88
259.383	218.88
259.616	234.88
259.849	241.88
260.081	226.88
260.314	249.88
260.547	234.88
260.779	247.88
261.012	243.88
261.244	227.88
261.477	230.88
261.71	222.88
261.942	223.88
262.175	241.88
262.407	210.88
262.64	213.88
262.872	205.88
263.105	226.88
263.337	224.88
263.57	216.88
263.802	196.88
264.035	205.88
264.267	218.88
264.499	220.88
264.732	220.88
264.964	220.88
265.197	220.88
265.429	214.88
265.661	221.88
265.894	234.88
266.126	229.88
266.358	224.88
266.591	227.88
266.823	241.88
267.055	211.88
267.287	235.88
267.52	235.88
267.752	246.88
267.984	242.88
268.216	254.88
268.448	233.88
268.681	229.88
268.913	241.88
269.145	260.88
269.377	274.88
269.609	266.88
269.841	266.88
270.073	289.88
270.306	289.88
270.538	317.88
270.77	301.88
271.002	296.88
271.234	283.88
271.466	302.88
271.698	308.88
271.93	320.88
272.162	328.88
272.394	298.88
272.626	291.88
272.858	279.88
273.09	302.88
273.322	268.88
273.553	280.88
273.785	262.88
274.017	270.88
274.249	269.88
274.481	266.88
274.713	250.88
274.945	270.88
275.176	265.88
275.408	259.88
275.64	272.88
275.872	278.88
276.104	284.88
276.335	264.88
276.567	265.88
276.799	285.88
277.031	320.88
277.262	312.88
277.494	324.88
277.726	308.88
277.957	304.88
278.189	299.88
278.421	273.88
278.652	283.88
278.884	284.88
279.115	280.88
279.347	280.88
279.579	282.88
279.81	269.88
280.042	276.88
280.273	279.88
280.505	280.88
280.736	288.88
280.968	282.88
281.199	292.88
281.431	274.88
281.662	285.88
281.894	281.88
282.125	287.88
282.356	298.88
282.588	324.88
282.819	312.88
283.051	296.88
283.282	291.88
283.513	291.88
283.745	296.88
283.976	289.88
284.207	293.88
284.439	293.88
284.67	308.88
284.901	305.88
285.132	308.88
285.364	305.88
285.595	288.88
285.826	288.88
286.057	298.88
286.288	298.88
286.52	303.88
286.751	307.88
286.982	301.88
287.213	301.88
287.444	323.88
287.675	310.88
287.906	299.88
288.138	312.88
288.369	318.88
288.6	298.88
288.831	300.88
289.062	323.88
289.293	343.88
289.524	308.88
289.755	316.88
289.986	305.88
290.217	306.88
290.448	312.88
290.679	320.88
290.91	286.88
291.141	306.88
291.371	310.88
291.602	294.88
291.833	318.88
292.064	313.88
292.295	305.88
292.526	307.88
292.757	318.88
292.987	319.88
293.218	308.88
293.449	309.88
293.68	289.88
293.91	294.88
294.141	307.88
294.372	309.88
294.603	324.88
294.833	301.88
295.064	312.88
295.295	319.88
295.525	304.88
295.756	319.88
295.987	315.88
296.217	327.88
296.448	349.88
296.679	332.88
296.909	326.88
297.14	320.88
297.37	323.88
297.601	321.88
297.831	325.88
298.062	318.88
298.292	316.88
298.523	333.88
298.753	331.88
298.984	312.88
299.214	329.88
299.445	341.88
299.675	311.88
299.905	340.88
300.136	340.88
300.366	334.88
300.597	344.88
300.827	330.88
301.057	353.88
301.288	328.88
301.518	360.88
301.748	343.88
301.979	373.88
302.209	360.88
302.439	363.88
302.669	322.88
302.9	344.88
303.13	347.88
303.36	342.88
303.59	340.88
303.82	344.88
304.051	346.88
304.281	370.88
304.511	352.88
304.741	347.88
304.971	353.88
305.201	338.88
305.431	365.88
305.661	355.88
305.891	346.88
306.121	349.88
306.352	356.88
306.582	364.88
306.812	348.88
307.042	344.88
307.272	342.88
307.502	349.88
307.731	355.88
307.961	348.88
308.191	342.88
308.421	357.88
308.651	356.88
308.881	348.88
309.111	345.88
309.341	355.88
309.571	378.88
309.8	376.88
310.03	367.88
310.26	377.88
310.49	381.88
310.72	393.88
310.949	386.88
311.179	366.88
311.409	413.88
311.639	382.88
311.868	378.88
312.098	398.88
312.328	395.88
312.557	413.88
312.787	408.88
313.017	412.88
313.246	383.88
313.476	391.88
313.706	392.88
313.935	401.88
314.165	390.88
314.394	410.88
314.624	396.88
314.853	393.88
315.083	412.88
315.312	396.88
315.542	382.88
315.771	383.88
316.001	377.88
316.23	391.88
316.46	392.88
316.689	422.88
316.919	384.88
317.148	407.88
317.377	406.88
317.607	404.88
317.836	406.88
318.065	396.88
318.295	376.88
318.524	394.88
318.753	396.88
318.983	396.88
319.212	388.88
319.441	421.88
319.67	425.88
319.9	407.88
320.129	410.88
320.358	396.88
320.587	404.88
320.816	402.88
321.046	407.88
321.275	419.88
321.504	407.88
321.733	414.88
321.962	417.88
322.191	453.88
322.42	448.88
322.649	461.88
322.878	435.88
323.108	435.88
323.337	466.88
323.566	484.88
323.795	517.88
324.024	553.88
324.253	646.88
324.482	852.88
324.71	1289.88
324.939	1771.88
325.168	1512.88
325.397	820.88
325.626	591.88
325.855	530.88
326.084	506.88
326.313	487.88
326.542	480.88
326.77	534.88
326.999	599.88
327.228	802.88
327.457	1148.88
327.686	1322.88
327.914	915.88
328.143	632.88
328.372	582.88
328.6	554.88
328.829	533.88
329.058	526.88
329.287	549.88
329.515	532.88
329.744	489.88
329.972	485.88
330.201	509.88
330.43	544.88
330.658	532.88
330.887	563.88
331.115	551.88
331.344	519.88
331.572	480.88
331.801	494.88
332.03	490.88
332.258	486.88
332.486	464.88
332.715	481.88
332.943	498.88
333.172	469.88
333.4	481.88
333.629	487.88
333.857	485.88
334.085	523.88
334.314	510.88
334.542	501.88
334.771	525.88
334.999	510.88
335.227	514.88
335.455	492.88
335.684	480.88
335.912	464.88
336.14	484.88
336.369	455.88
336.597	488.88
336.825	487.88
337.053	452.88
337.281	472.88
337.51	484.88
337.738	462.88
337.966	448.88
338.194	466.88
338.422	441.88
338.65	445.88
338.878	442.88
339.106	457.88
339.334	457.88
339.562	436.88
339.79	423.88
340.018	438.88
340.246	444.88
340.474	450.88
340.702	457.88
340.93	442.88
341.158	448.88
341.386	430.88
341.614	430.88
341.842	433.88
342.07	419.88
342.298	425.88
342.526	438.88
342.754	424.88
342.981	426.88
343.209	426.88
343.437	445.88
343.665	445.88
343.893	471.88
344.12	475.88
344.348	466.88
344.576	462.88
344.804	461.88
345.031	453.88
345.259	462.88
345.487	437.88
345.714	436.88
345.942	433.88
346.17	412.88
346.397	436.88
346.625	427.88
346.853	448.88
347.08	432.88
347.308	430.88
347.535	418.88
347.763	435.88
347.99	424.88
348.218	423.88
348.445	437.88
348.673	428.88
348.9	419.88
349.128	405.88
349.355	414.88
349.583	434.88
349.81	390.88
350.037	387.88
350.265	384.88
350.492	407.88
350.72	418.88
350.947	409.88
351.174	412.88
351.402	414.88
351.629	402.88
351.856	409.88
352.083	432.88
352.311	434.88
352.538	396.88
352.765	415.88
352.992	411.88
353.22	399.88
353.447	414.88
353.674	415.88
353.901	393.88
354.128	403.88
354.355	404.88
354.583	395.88
354.81	401.88
355.037	417.88
355.264	385.88
355.491	388.88
355.718	379.88
355.945	401.88
356.172	402.88
356.399	389.88
356.626	385.88
356.853	384.88
357.08	377.88
357.307	405.88
357.534	371.88
357.761	385.88
357.988	390.88
358.215	380.88
358.441	387.88
358.668	395.88
358.895	402.88
359.122	396.88
359.349	419.88
359.576	419.88
359.802	435.88
360.029	449.88
360.256	452.88
360.483	428.88
360.709	420.88
360.936	409.88
361.163	397.88
361.39	418.88
361.616	427.88
361.843	394.88
362.07	399.88
362.296	420.88
362.523	428.88
362.749	409.88
362.976	406.88
363.203	386.88
363.429	414.88
363.656	395.88
363.882	398.88
364.109	397.88
364.335	404.88
364.562	421.88
364.788	433.88
365.015	400.88
365.241	380.88
365.468	404.88
365.694	410.88
365.92	368.88
366.147	391.88
366.373	390.88
366.599	390.88
366.826	391.88
367.052	366.88
367.278	383.88
367.505	393.88
367.731	396.88
367.957	389.88
368.184	404.88
368.41	382.88
368.636	394.88
368.862	416.88
369.089	411.88
369.315	404.88
369.541	383.88
369.767	373.88
369.993	364.88
370.219	378.88
370.445	398.88
370.672	391.88
370.898	400.88
371.124	398.88
371.35	384.88
371.576	397.88
371.802	397.88
372.028	393.88
372.254	406.88
372.48	396.88
372.706	390.88
372.932	397.88
373.158	392.88
373.384	390.88
373.61	417.88
373.835	382.88
374.061	391.88
374.287	402.88
374.513	407.88
374.739	418.88
374.965	422.88
375.191	407.88
375.416	406.88
375.642	392.88
375.868	394.88
376.094	401.88
376.319	408.88
376.545	409.88
376.771	402.88
376.997	393.88
377.222	397.88
377.448	395.88
377.674	376.88
377.899	359.88
378.125	364.88
378.35	393.88
378.576	418.88
378.802	382.88
379.027	387.88
379.253	384.88
379.478	379.88
379.704	397.88
379.929	392.88
380.155	389.88
380.38	406.88
380.606	397.88
380.831	388.88
381.057	396.88
381.282	391.88
381.507	387.88
381.733	396.88
381.958	391.88
382.184	416.88
382.409	394.88
382.634	388.88
382.86	409.88
383.085	396.88
383.31	429.88
383.535	400.88
383.761	413.88
383.986	402.88
384.211	405.88
384.436	412.88
384.662	417.88
384.887	436.88
385.112	425.88
385.337	429.88
385.562	433.88
385.787	413.88
386.013	426.88
386.238	426.88
386.463	433.88
386.688	428.88
386.913	438.88
387.138	432.88
387.363	430.88
387.588	417.88
387.813	419.88
388.038	411.88
388.263	432.88
388.488	427.88
388.713	444.88
388.938	428.88
389.163	413.88
389.387	424.88
389.612	434.88
389.837	413.88
390.062	419.88
390.287	424.88
390.512	409.88
390.736	414.88
390.961	438.88
391.186	448.88
391.411	421.88
391.636	448.88
391.86	450.88
392.085	453.88
392.31	452.88
392.534	443.88
392.759	462.88
392.984	450.88
393.208	415.88
393.433	421.88
393.658	445.88
393.882	408.88
394.107	437.88
394.331	441.88
394.556	411.88
394.78	419.88
395.005	415.88
395.229	429.88
395.454	445.88
395.678	454.88
395.903	437.88
396.127	476.88
396.352	472.88
396.576	439.88
396.801	439.88
397.025	441.88
397.249	440.88
397.474	445.88
397.698	465.88
397.922	464.88
398.147	469.88
398.371	484.88
398.595	464.88
398.82	489.88
399.044	494.88
399.268	521.88
399.492	544.88
399.717	584.88
399.941	617.88
400.165	618.88
400.389	616.88
400.613	563.88
400.837	544.88
401.062	503.88
401.286	491.88
401.51	475.88
401.734	498.88
401.958	492.88
402.182	484.88
402.406	522.88
402.63	506.88
402.854	503.88
403.078	496.88
403.302	512.88
403.526	502.88
403.75	514.88
403.974	510.88
404.198	509.88
404.422	529.88
404.645	536.88
404.869	521.88
405.093	558.88
405.317	572.88
405.541	605.88
405.765	556.88
405.988	526.88
406.212	550.88
406.436	539.88
406.66	556.88
406.883	557.88
407.107	569.88
407.331	584.88
407.555	660.88
407.778	652.88
408.002	626.88
408.226	536.88
408.449	546.88
408.673	570.88
408.896	591.88
409.12	613.88
409.344	563.88
409.567	542.88
409.791	522.88
410.014	502.88
410.238	506.88
410.461	496.88
410.685	498.88
410.908	513.88
411.132	529.88
411.355	568.88
411.578	541.88
411.802	504.88
412.025	504.88
412.249	495.88
412.472	540.88
412.695	575.88
412.919	553.88
413.142	493.88
413.365	509.88
413.589	502.88
413.812	492.88
414.035	484.88
414.258	465.88
414.482	472.88
414.705	484.88
414.928	465.88
415.151	462.88
415.374	474.88
415.597	460.88
415.821	477.88
416.044	453.88
416.267	476.88
416.49	489.88
416.713	458.88
416.936	473.88
417.159	471.88
417.382	463.88
417.605	465.88
417.828	474.88
418.051	478.88
418.274	463.88
418.497	464.88
418.72	472.88
418.943	449.88
419.166	476.88
419.389	506.88
419.611	506.88
419.834	484.88
420.057	512.88
420.28	487.88
420.503	501.88
420.726	468.88
420.948	473.88
421.171	502.88
421.394	546.88
421.617	505.88
421.839	482.88
422.062	493.88
422.285	487.88
422.507	538.88
422.73	622.88
422.953	581.88
423.175	533.88
423.398	501.88
423.621	506.88
423.843	546.88
424.066	541.88
424.288	530.88
424.511	530.88
424.733	589.88
424.956	637.88
425.178	594.88
425.401	615.88
425.623	629.88
425.846	570.88
426.068	497.88
426.291	508.88
426.513	514.88
426.735	518.88
426.958	557.88
427.18	628.88
427.402	752.88
427.625	787.88
427.847	683.88
428.069	591.88
428.292	524.88
428.514	534.88
428.736	477.88
428.958	481.88
429.181	471.88
429.403	464.88
429.625	492.88
429.847	500.88
430.069	564.88
430.292	547.88
430.514	498.88
430.736	447.88
430.958	466.88
431.18	432.88
431.402	453.88
431.624	455.88
431.846	438.88
432.068	438.88
432.29	453.88
432.512	442.88
432.734	461.88
432.956	464.88
433.178	467.88
433.4	460.88
433.622	453.88
433.844	459.88
434.066	448.88
434.287	458.88
434.509	457.88
434.731	468.88
434.953	460.88
435.175	470.88
435.397	496.88
435.618	502.88
435.84	545.88
436.062	638.88
436.284	649.88
436.505	578.88
436.727	494.88
436.949	498.88
437.17	480.88
437.392	470.88
437.614	453.88
437.835	506.88
438.057	585.88
438.278	655.88
438.5	662.88
438.721	706.88
438.943	690.88
439.165	541.88
439.386	502.88
439.608	477.88
439.829	503.88
440.05	538.88
440.272	568.88
440.493	524.88
440.715	486.88
440.936	482.88
441.158	461.88
441.379	470.88
441.6	479.88
441.822	489.88
442.043	532.88
442.264	607.88
442.486	660.88
442.707	558.88
442.928	512.88
443.149	524.88
443.371	541.88
443.592	584.88
443.813	638.88
444.034	693.88
444.255	586.88
444.476	523.88
444.698	502.88
444.919	515.88
445.14	626.88
445.361	582.88
445.582	540.88
445.803	597.88
446.024	675.88
446.245	668.88
446.466	631.88
446.687	540.88
446.908	477.88
447.129	464.88
447.35	466.88
447.571	468.88
447.792	449.88
448.013	459.88
448.234	481.88
448.455	526.88
448.675	619.88
448.896	709.88
449.117	602.88
449.338	568.88
449.559	650.88
449.779	760.88
450	589.88
450.221	506.88
450.442	472.88
450.662	464.88
450.883	458.88
451.104	460.88
451.324	443.88
451.545	448.88
451.766	402.88
451.986	420.88
452.207	420.88
452.428	423.88
452.648	398.88
452.869	413.88
453.089	433.88
453.31	413.88
453.53	424.88
453.751	420.88
453.971	421.88
454.192	424.88
454.412	422.88
454.633	398.88
454.853	384.88
455.073	398.88
455.294	406.88
455.514	473.88
455.734	465.88
455.955	403.88
456.175	401.88
456.395	416.88
456.616	386.88
456.836	406.88
457.056	408.88
457.276	386.88
457.497	403.88
457.717	391.88
457.937	393.88
458.157	402.88
458.377	405.88
458.598	414.88
458.818	484.88
459.038	518.88
459.258	563.88
459.478	460.88
459.698	457.88
459.918	469.88
460.138	443.88
460.358	442.88
460.578	439.88
460.798	467.88
461.018	487.88
461.238	475.88
461.458	454.88
461.678	469.88
461.898	460.88
462.118	469.88
462.338	486.88
462.558	472.88
462.777	468.88
462.997	513.88
463.217	509.88
463.437	502.88
463.657	522.88
463.876	511.88
464.096	496.88
464.316	472.88
464.536	489.88
464.755	485.88
464.975	489.88
465.195	499.88
465.414	553.88
465.634	495.88
465.854	468.88
466.073	436.88
466.293	455.88
466.512	422.88
466.732	415.88
466.951	417.88
467.171	418.88
467.391	421.88
467.61	430.88
467.829	429.88
468.049	435.88
468.268	436.88
468.488	428.88
468.707	427.88
468.927	399.88
469.146	392.88
469.365	397.88
469.585	432.88
469.804	414.88
470.023	436.88
470.243	427.88
470.462	432.88
470.681	430.88
470.901	422.88
471.12	435.88
471.339	420.88
471.558	418.88
471.777	419.88
471.997	435.88
472.216	438.88
472.435	453.88
472.654	410.88
472.873	429.88
473.092	429.88
473.311	421.88
473.53	434.88
473.749	416.88
473.968	461.88
474.187	564.88
474.406	564.88
474.625	478.88
474.844	437.88
475.063	420.88
475.282	416.88
475.501	420.88
475.72	440.88
475.939	428.88
476.158	435.88
476.377	442.88
476.596	436.88
476.814	460.88
477.033	464.88
477.252	450.88
477.471	442.88
477.69	453.88
477.908	434.88
478.127	445.88
478.346	460.88
478.564	460.88
478.783	497.88
479.002	493.88
479.22	466.88
479.439	508.88
479.658	510.88
479.876	498.88
480.095	520.88
480.313	556.88
480.532	534.88
480.751	522.88
480.969	524.88
481.188	557.88
481.406	575.88
481.624	502.88
481.843	499.88
482.061	492.88
482.28	475.88
482.498	504.88
482.717	503.88
482.935	468.88
483.153	470.88
483.372	480.88
483.59	473.88
483.808	485.88
484.027	477.88
484.245	504.88
484.463	473.88
484.681	500.88
484.9	507.88
485.118	508.88
485.336	491.88
485.554	518.88
485.772	508.88
485.99	510.88
486.209	525.88
486.427	516.88
486.645	514.88
486.863	536.88
487.081	543.88
487.299	518.88
487.517	514.88
487.735	516.88
487.953	514.88
488.171	517.88
488.389	507.88
488.607	496.88
488.825	519.88
489.043	529.88
489.261	537.88
489.479	564.88
489.696	556.88
489.914	522.88
490.132	538.88
490.35	525.88
490.568	550.88
490.786	547.88
491.003	551.88
491.221	556.88
491.439	561.88
491.657	570.88
491.874	579.88
492.092	552.88
492.31	586.88
492.527	585.88
492.745	591.88
492.963	581.88
493.18	577.88
493.398	597.88
493.615	601.88
493.833	604.88
494.05	616.88
494.268	587.88
494.485	596.88
494.703	593.88
494.92	596.88
495.138	606.88
495.355	591.88
495.573	600.88
495.79	616.88
496.008	629.88
496.225	635.88
496.442	617.88
496.66	624.88
496.877	602.88
497.094	613.88
497.312	621.88
497.529	645.88
497.746	638.88
497.963	639.88
498.181	663.88
498.398	693.88
498.615	691.88
498.832	707.88
499.049	730.88
499.267	745.88
499.484	796.88
499.701	805.88
499.918	829.88
500.135	885.88
500.352	964.88
500.569	966.88
500.786	970.88
501.003	938.88
501.22	891.88
501.437	886.88
501.654	835.88
501.871	816.88
