Data from 1977.PennyLincolnUp.Lamp.En5.5.200Scan.071719.P1_HRD10591_16-06-06-863.txt Node
Date: Thu Jul 18 16:06:06 EDT 2019
User: cochatt
Spectrometer: HR+D1059
Trigger mode: 1
Integration Time (sec): 1.000000E-1
Scans to average: 1
Electric dark correction enabled: true
Nonlinearity correction enabled: false
Boxcar width: 0
XAxis mode: Wavelengths
Number of Pixels in Spectrum: 2048
>>>>>Begin Spectral Data<<<<<
223.165	-4.94
223.4	-4.94
223.635	-4.94
223.869	-20.94
224.104	-13.94
224.338	-16.94
224.573	-23.94
224.808	-22.94
225.042	-15.94
225.277	12.06
225.511	6.06
225.746	-4.94
225.98	9.06
226.215	4.06
226.449	18.06
226.683	24.06
226.918	23.06
227.152	28.06
227.387	29.06
227.621	47.06
227.856	51.06
228.09	44.06
228.324	43.06
228.559	53.06
228.793	75.06
229.027	93.06
229.262	105.06
229.496	105.06
229.73	114.06
229.964	140.06
230.199	119.06
230.433	112.06
230.667	93.06
230.901	112.06
231.136	127.06
231.37	109.06
231.604	92.06
231.838	122.06
232.072	118.06
232.306	112.06
232.541	116.06
232.775	120.06
233.009	119.06
233.243	123.06
233.477	120.06
233.711	125.06
233.945	126.06
234.179	111.06
234.413	118.06
234.647	108.06
234.881	121.06
235.115	116.06
235.349	117.06
235.583	119.06
235.817	118.06
236.051	126.06
236.285	125.06
236.519	115.06
236.753	122.06
236.987	136.06
237.221	160.06
237.455	203.06
237.689	170.06
237.922	147.06
238.156	141.06
238.39	138.06
238.624	140.06
238.858	132.06
239.091	123.06
239.325	120.06
239.559	125.06
239.793	131.06
240.027	127.06
240.26	138.06
240.494	142.06
240.728	147.06
240.961	138.06
241.195	130.06
241.429	138.06
241.662	118.06
241.896	116.06
242.13	137.06
242.363	133.06
242.597	123.06
242.83	132.06
243.064	134.06
243.298	151.06
243.531	134.06
243.765	133.06
243.998	141.06
244.232	149.06
244.465	147.06
244.699	158.06
244.932	139.06
245.166	148.06
245.399	160.06
245.633	157.06
245.866	144.06
246.099	141.06
246.333	155.06
246.566	144.06
246.8	156.06
247.033	155.06
247.266	144.06
247.5	166.06
247.733	168.06
247.966	162.06
248.2	165.06
248.433	158.06
248.666	166.06
248.899	188.06
249.133	188.06
249.366	203.06
249.599	184.06
249.832	170.06
250.066	188.06
250.299	180.06
250.532	188.06
250.765	187.06
250.998	189.06
251.231	213.06
251.465	206.06
251.698	205.06
251.931	205.06
252.164	205.06
252.397	172.06
252.63	178.06
252.863	199.06
253.096	210.06
253.329	221.06
253.562	213.06
253.795	224.06
254.028	210.06
254.261	216.06
254.494	232.06
254.727	231.06
254.96	245.06
255.193	253.06
255.426	231.06
255.659	214.06
255.892	205.06
256.124	228.06
256.357	232.06
256.59	202.06
256.823	208.06
257.056	228.06
257.289	212.06
257.521	203.06
257.754	227.06
257.987	225.06
258.22	222.06
258.452	228.06
258.685	207.06
258.918	190.06
259.151	196.06
259.383	213.06
259.616	227.06
259.849	222.06
260.081	225.06
260.314	258.06
260.547	232.06
260.779	242.06
261.012	242.06
261.244	215.06
261.477	229.06
261.71	224.06
261.942	227.06
262.175	227.06
262.407	226.06
262.64	210.06
262.872	222.06
263.105	213.06
263.337	225.06
263.57	225.06
263.802	227.06
264.035	224.06
264.267	206.06
264.499	210.06
264.732	224.06
264.964	213.06
265.197	221.06
265.429	220.06
265.661	211.06
265.894	206.06
266.126	221.06
266.358	224.06
266.591	215.06
266.823	238.06
267.055	231.06
267.287	233.06
267.52	235.06
267.752	231.06
267.984	233.06
268.216	229.06
268.448	241.06
268.681	254.06
268.913	243.06
269.145	253.06
269.377	271.06
269.609	268.06
269.841	279.06
270.073	273.06
270.306	280.06
270.538	306.06
270.77	288.06
271.002	309.06
271.234	290.06
271.466	283.06
271.698	310.06
271.93	294.06
272.162	284.06
272.394	325.06
272.626	310.06
272.858	299.06
273.09	284.06
273.322	277.06
273.553	264.06
273.785	268.06
274.017	250.06
274.249	258.06
274.481	272.06
274.713	282.06
274.945	275.06
275.176	278.06
275.408	263.06
275.64	268.06
275.872	270.06
276.104	281.06
276.335	282.06
276.567	268.06
276.799	300.06
277.031	296.06
277.262	308.06
277.494	309.06
277.726	306.06
277.957	300.06
278.189	276.06
278.421	290.06
278.652	294.06
278.884	275.06
279.115	275.06
279.347	288.06
279.579	283.06
279.81	308.06
280.042	295.06
280.273	293.06
280.505	302.06
280.736	285.06
280.968	281.06
281.199	293.06
281.431	282.06
281.662	290.06
281.894	286.06
282.125	290.06
282.356	297.06
282.588	313.06
282.819	301.06
283.051	281.06
283.282	312.06
283.513	295.06
283.745	301.06
283.976	302.06
284.207	295.06
284.439	281.06
284.67	299.06
284.901	309.06
285.132	286.06
285.364	295.06
285.595	302.06
285.826	303.06
286.057	316.06
286.288	291.06
286.52	298.06
286.751	303.06
286.982	299.06
287.213	298.06
287.444	299.06
287.675	325.06
287.906	305.06
288.138	321.06
288.369	333.06
288.6	307.06
288.831	324.06
289.062	305.06
289.293	304.06
289.524	308.06
289.755	307.06
289.986	312.06
290.217	326.06
290.448	304.06
290.679	312.06
290.91	308.06
291.141	310.06
291.371	306.06
291.602	298.06
291.833	325.06
292.064	308.06
292.295	311.06
292.526	327.06
292.757	324.06
292.987	325.06
293.218	303.06
293.449	329.06
293.68	318.06
293.91	303.06
294.141	327.06
294.372	319.06
294.603	325.06
294.833	320.06
295.064	322.06
295.295	328.06
295.525	318.06
295.756	331.06
295.987	316.06
296.217	342.06
296.448	334.06
296.679	327.06
296.909	322.06
297.14	306.06
297.37	314.06
297.601	310.06
297.831	322.06
298.062	336.06
298.292	328.06
298.523	327.06
298.753	330.06
298.984	300.06
299.214	335.06
299.445	332.06
299.675	342.06
299.905	332.06
300.136	331.06
300.366	352.06
300.597	346.06
300.827	339.06
301.057	324.06
301.288	373.06
301.518	329.06
301.748	359.06
301.979	344.06
302.209	348.06
302.439	347.06
302.669	356.06
302.9	336.06
303.13	361.06
303.36	360.06
303.59	344.06
303.82	374.06
304.051	350.06
304.281	349.06
304.511	349.06
304.741	347.06
304.971	343.06
305.201	355.06
305.431	351.06
305.661	335.06
305.891	363.06
306.121	343.06
306.352	355.06
306.582	372.06
306.812	351.06
307.042	366.06
307.272	336.06
307.502	358.06
307.731	370.06
307.961	347.06
308.191	359.06
308.421	349.06
308.651	360.06
308.881	354.06
309.111	373.06
309.341	362.06
309.571	359.06
309.8	364.06
310.03	391.06
310.26	382.06
310.49	395.06
310.72	394.06
310.949	397.06
311.179	403.06
311.409	388.06
311.639	403.06
311.868	381.06
312.098	395.06
312.328	384.06
312.557	410.06
312.787	387.06
313.017	411.06
313.246	395.06
313.476	396.06
313.706	389.06
313.935	394.06
314.165	396.06
314.394	425.06
314.624	399.06
314.853	380.06
315.083	382.06
315.312	396.06
315.542	386.06
315.771	384.06
316.001	393.06
316.23	388.06
316.46	387.06
316.689	382.06
316.919	395.06
317.148	404.06
317.377	395.06
317.607	388.06
317.836	413.06
318.065	404.06
318.295	397.06
318.524	399.06
318.753	391.06
318.983	404.06
319.212	392.06
319.441	396.06
319.67	407.06
319.9	407.06
320.129	392.06
320.358	411.06
320.587	418.06
320.816	419.06
321.046	420.06
321.275	395.06
321.504	422.06
321.733	419.06
321.962	415.06
322.191	418.06
322.42	422.06
322.649	434.06
322.878	428.06
323.108	458.06
323.337	454.06
323.566	485.06
323.795	493.06
324.024	545.06
324.253	587.06
324.482	824.06
324.71	1205.06
324.939	1643.06
325.168	1424.06
325.397	769.06
325.626	574.06
325.855	532.06
326.084	501.06
326.313	478.06
326.542	473.06
326.77	526.06
326.999	584.06
327.228	774.06
327.457	1095.06
327.686	1248.06
327.914	867.06
328.143	635.06
328.372	554.06
328.6	553.06
328.829	506.06
329.058	513.06
329.287	532.06
329.515	512.06
329.744	475.06
329.972	476.06
330.201	487.06
330.43	520.06
330.658	541.06
330.887	564.06
331.115	506.06
331.344	486.06
331.572	483.06
331.801	472.06
332.03	480.06
332.258	480.06
332.486	448.06
332.715	466.06
332.943	468.06
333.172	455.06
333.4	490.06
333.629	512.06
333.857	510.06
334.085	504.06
334.314	530.06
334.542	516.06
334.771	507.06
334.999	515.06
335.227	481.06
335.455	489.06
335.684	470.06
335.912	462.06
336.14	481.06
336.369	455.06
336.597	471.06
336.825	486.06
337.053	465.06
337.281	458.06
337.51	447.06
337.738	461.06
337.966	460.06
338.194	469.06
338.422	446.06
338.65	464.06
338.878	459.06
339.106	471.06
339.334	467.06
339.562	433.06
339.79	418.06
340.018	453.06
340.246	444.06
340.474	428.06
340.702	424.06
340.93	447.06
341.158	440.06
341.386	455.06
341.614	429.06
341.842	424.06
342.07	426.06
342.298	440.06
342.526	412.06
342.754	406.06
342.981	430.06
343.209	447.06
343.437	434.06
343.665	455.06
343.893	465.06
344.12	462.06
344.348	473.06
344.576	472.06
344.804	450.06
345.031	436.06
345.259	446.06
345.487	448.06
345.714	435.06
345.942	431.06
346.17	423.06
346.397	414.06
346.625	431.06
346.853	423.06
347.08	403.06
347.308	426.06
347.535	436.06
347.763	427.06
347.99	430.06
348.218	417.06
348.445	434.06
348.673	419.06
348.9	407.06
349.128	414.06
349.355	413.06
349.583	416.06
349.81	406.06
350.037	398.06
350.265	406.06
350.492	416.06
350.72	398.06
350.947	400.06
351.174	410.06
351.402	417.06
351.629	422.06
351.856	393.06
352.083	404.06
352.311	420.06
352.538	431.06
352.765	421.06
352.992	421.06
353.22	407.06
353.447	408.06
353.674	419.06
353.901	420.06
354.128	384.06
354.355	408.06
354.583	401.06
354.81	390.06
355.037	389.06
355.264	386.06
355.491	379.06
355.718	379.06
355.945	378.06
356.172	397.06
356.399	394.06
356.626	393.06
356.853	381.06
357.08	407.06
357.307	379.06
357.534	400.06
357.761	399.06
357.988	385.06
358.215	387.06
358.441	392.06
358.668	394.06
358.895	382.06
359.122	388.06
359.349	408.06
359.576	419.06
359.802	406.06
360.029	431.06
360.256	431.06
360.483	414.06
360.709	401.06
360.936	411.06
361.163	407.06
361.39	403.06
361.616	422.06
361.843	407.06
362.07	421.06
362.296	415.06
362.523	397.06
362.749	411.06
362.976	406.06
363.203	390.06
363.429	404.06
363.656	387.06
363.882	386.06
364.109	405.06
364.335	395.06
364.562	398.06
364.788	365.06
365.015	402.06
365.241	396.06
365.468	391.06
365.694	388.06
365.92	384.06
366.147	399.06
366.373	380.06
366.599	386.06
366.826	400.06
367.052	380.06
367.278	367.06
367.505	396.06
367.731	383.06
367.957	403.06
368.184	392.06
368.41	422.06
368.636	404.06
368.862	408.06
369.089	384.06
369.315	387.06
369.541	396.06
369.767	387.06
369.993	386.06
370.219	398.06
370.445	402.06
370.672	386.06
370.898	382.06
371.124	413.06
371.35	398.06
371.576	397.06
371.802	390.06
372.028	387.06
372.254	404.06
372.48	415.06
372.706	400.06
372.932	394.06
373.158	395.06
373.384	399.06
373.61	387.06
373.835	406.06
374.061	373.06
374.287	391.06
374.513	409.06
374.739	388.06
374.965	410.06
375.191	404.06
375.416	407.06
375.642	400.06
375.868	398.06
376.094	389.06
376.319	391.06
376.545	406.06
376.771	388.06
376.997	385.06
377.222	375.06
377.448	399.06
377.674	379.06
377.899	389.06
378.125	376.06
378.35	394.06
378.576	396.06
378.802	407.06
379.027	392.06
379.253	377.06
379.478	386.06
379.704	368.06
379.929	370.06
380.155	400.06
380.38	393.06
380.606	398.06
380.831	408.06
381.057	384.06
381.282	377.06
381.507	384.06
381.733	394.06
381.958	381.06
382.184	402.06
382.409	378.06
382.634	410.06
382.86	388.06
383.085	395.06
383.31	414.06
383.535	397.06
383.761	402.06
383.986	406.06
384.211	399.06
384.436	412.06
384.662	407.06
384.887	419.06
385.112	429.06
385.337	444.06
385.562	422.06
385.787	427.06
386.013	441.06
386.238	439.06
386.463	412.06
386.688	436.06
386.913	421.06
387.138	427.06
387.363	415.06
387.588	431.06
387.813	423.06
388.038	429.06
388.263	407.06
388.488	412.06
388.713	445.06
388.938	435.06
389.163	415.06
389.387	428.06
389.612	446.06
389.837	412.06
390.062	429.06
390.287	431.06
390.512	417.06
390.736	442.06
390.961	431.06
391.186	428.06
391.411	427.06
391.636	418.06
391.86	439.06
392.085	444.06
392.31	453.06
392.534	415.06
392.759	436.06
392.984	438.06
393.208	437.06
393.433	430.06
393.658	439.06
393.882	430.06
394.107	433.06
394.331	422.06
394.556	438.06
394.78	468.06
395.005	457.06
395.229	440.06
395.454	442.06
395.678	443.06
395.903	461.06
396.127	482.06
396.352	453.06
396.576	438.06
396.801	444.06
397.025	476.06
397.249	451.06
397.474	449.06
397.698	480.06
397.922	483.06
398.147	475.06
398.371	466.06
398.595	476.06
398.82	478.06
399.044	505.06
399.268	508.06
399.492	562.06
399.717	596.06
399.941	597.06
400.165	604.06
400.389	606.06
400.613	542.06
400.837	504.06
401.062	512.06
401.286	499.06
401.51	485.06
401.734	489.06
401.958	490.06
402.182	502.06
402.406	489.06
402.63	507.06
402.854	485.06
403.078	491.06
403.302	495.06
403.526	519.06
403.75	499.06
403.974	509.06
404.198	504.06
404.422	511.06
404.645	523.06
404.869	501.06
405.093	531.06
405.317	568.06
405.541	572.06
405.765	556.06
405.988	538.06
406.212	523.06
406.436	532.06
406.66	542.06
406.883	555.06
407.107	558.06
407.331	598.06
407.555	648.06
407.778	664.06
408.002	578.06
408.226	574.06
408.449	557.06
408.673	532.06
408.896	565.06
409.12	599.06
409.344	575.06
409.567	523.06
409.791	518.06
410.014	502.06
410.238	492.06
410.461	510.06
410.685	524.06
410.908	535.06
411.132	544.06
411.355	546.06
411.578	542.06
411.802	511.06
412.025	503.06
412.249	493.06
412.472	548.06
412.695	532.06
412.919	536.06
413.142	504.06
413.365	482.06
413.589	503.06
413.812	485.06
414.035	470.06
414.258	476.06
414.482	482.06
414.705	469.06
414.928	475.06
415.151	488.06
415.374	476.06
415.597	449.06
415.821	472.06
416.044	464.06
416.267	476.06
416.49	482.06
416.713	436.06
416.936	476.06
417.159	447.06
417.382	471.06
417.605	470.06
417.828	479.06
418.051	504.06
418.274	500.06
418.497	471.06
418.72	470.06
418.943	481.06
419.166	495.06
419.389	515.06
419.611	514.06
419.834	508.06
420.057	490.06
420.28	495.06
420.503	489.06
420.726	503.06
420.948	507.06
421.171	521.06
421.394	575.06
421.617	488.06
421.839	492.06
422.062	487.06
422.285	490.06
422.507	548.06
422.73	604.06
422.953	581.06
423.175	536.06
423.398	533.06
423.621	512.06
423.843	531.06
424.066	520.06
424.288	523.06
424.511	512.06
424.733	588.06
424.956	614.06
425.178	612.06
425.401	589.06
425.623	637.06
425.846	530.06
426.068	493.06
426.291	504.06
426.513	497.06
426.735	516.06
426.958	542.06
427.18	633.06
427.402	702.06
427.625	762.06
427.847	665.06
428.069	581.06
428.292	527.06
428.514	475.06
428.736	491.06
428.958	494.06
429.181	474.06
429.403	475.06
429.625	474.06
429.847	512.06
430.069	559.06
430.292	534.06
430.514	472.06
430.736	477.06
430.958	472.06
431.18	461.06
431.402	449.06
431.624	426.06
431.846	451.06
432.068	448.06
432.29	439.06
432.512	444.06
432.734	438.06
432.956	434.06
433.178	468.06
433.4	458.06
433.622	457.06
433.844	435.06
434.066	437.06
434.287	460.06
434.509	446.06
434.731	484.06
434.953	471.06
435.175	468.06
435.397	491.06
435.618	501.06
435.84	524.06
436.062	602.06
436.284	679.06
436.505	553.06
436.727	515.06
436.949	474.06
437.17	475.06
437.392	465.06
437.614	478.06
437.835	491.06
438.057	564.06
438.278	655.06
438.5	666.06
438.721	713.06
438.943	695.06
439.165	551.06
439.386	523.06
439.608	516.06
439.829	505.06
440.05	511.06
440.272	551.06
440.493	522.06
440.715	496.06
440.936	483.06
441.158	477.06
441.379	470.06
441.6	493.06
441.822	483.06
442.043	526.06
442.264	603.06
442.486	660.06
442.707	540.06
442.928	511.06
443.149	503.06
443.371	536.06
443.592	540.06
443.813	658.06
444.034	700.06
444.255	594.06
444.476	524.06
444.698	526.06
444.919	495.06
445.14	644.06
445.361	584.06
445.582	546.06
445.803	580.06
446.024	657.06
446.245	650.06
446.466	592.06
446.687	518.06
446.908	483.06
447.129	474.06
447.35	465.06
447.571	458.06
447.792	452.06
448.013	458.06
448.234	453.06
448.455	510.06
448.675	592.06
448.896	695.06
449.117	564.06
449.338	570.06
449.559	658.06
449.779	732.06
450	605.06
450.221	492.06
450.442	455.06
450.662	458.06
450.883	448.06
451.104	452.06
451.324	461.06
451.545	437.06
451.766	416.06
451.986	412.06
452.207	423.06
452.428	391.06
452.648	397.06
452.869	406.06
453.089	433.06
453.31	428.06
453.53	392.06
453.751	396.06
453.971	412.06
454.192	414.06
454.412	405.06
454.633	402.06
454.853	412.06
455.073	407.06
455.294	434.06
455.514	458.06
455.734	460.06
455.955	411.06
456.175	394.06
456.395	379.06
456.616	371.06
456.836	379.06
457.056	397.06
457.276	375.06
457.497	392.06
457.717	398.06
457.937	394.06
458.157	406.06
458.377	397.06
458.598	431.06
458.818	489.06
459.038	511.06
459.258	525.06
459.478	472.06
459.698	458.06
459.918	451.06
460.138	433.06
460.358	455.06
460.578	455.06
460.798	458.06
461.018	474.06
461.238	463.06
461.458	452.06
461.678	457.06
461.898	464.06
462.118	459.06
462.338	476.06
462.558	460.06
462.777	465.06
462.997	493.06
463.217	533.06
463.437	539.06
463.657	503.06
463.876	490.06
464.096	516.06
464.316	504.06
464.536	499.06
464.755	487.06
464.975	475.06
465.195	509.06
465.414	548.06
465.634	488.06
465.854	477.06
466.073	452.06
466.293	446.06
466.512	442.06
466.732	433.06
466.951	425.06
467.171	429.06
467.391	439.06
467.61	427.06
467.829	423.06
468.049	422.06
468.268	416.06
468.488	416.06
468.707	400.06
468.927	425.06
469.146	410.06
469.365	435.06
469.585	420.06
469.804	431.06
470.023	428.06
470.243	434.06
470.462	422.06
470.681	436.06
470.901	434.06
471.12	427.06
471.339	424.06
471.558	440.06
471.777	421.06
471.997	433.06
472.216	440.06
472.435	436.06
472.654	432.06
472.873	445.06
473.092	409.06
473.311	417.06
473.53	434.06
473.749	426.06
473.968	476.06
474.187	516.06
474.406	536.06
474.625	458.06
474.844	434.06
475.063	404.06
475.282	419.06
475.501	419.06
475.72	427.06
475.939	439.06
476.158	434.06
476.377	439.06
476.596	438.06
476.814	435.06
477.033	422.06
477.252	434.06
477.471	436.06
477.69	459.06
477.908	446.06
478.127	468.06
478.346	471.06
478.564	472.06
478.783	477.06
479.002	483.06
479.22	501.06
479.439	503.06
479.658	521.06
479.876	494.06
480.095	513.06
480.313	543.06
480.532	543.06
480.751	514.06
480.969	522.06
481.188	549.06
481.406	559.06
481.624	536.06
481.843	490.06
482.061	496.06
482.28	494.06
482.498	480.06
482.717	498.06
482.935	471.06
483.153	496.06
483.372	478.06
483.59	492.06
483.808	482.06
484.027	478.06
484.245	499.06
484.463	516.06
484.681	512.06
484.9	468.06
485.118	502.06
485.336	502.06
485.554	506.06
485.772	507.06
485.99	504.06
486.209	490.06
486.427	520.06
486.645	530.06
486.863	517.06
487.081	506.06
487.299	502.06
487.517	507.06
487.735	514.06
487.953	517.06
488.171	512.06
488.389	533.06
488.607	500.06
488.825	489.06
489.043	530.06
489.261	501.06
489.479	529.06
489.696	516.06
489.914	535.06
490.132	531.06
490.35	535.06
490.568	545.06
490.786	519.06
491.003	556.06
491.221	546.06
491.439	578.06
491.657	563.06
491.874	593.06
492.092	586.06
492.31	569.06
492.527	582.06
492.745	583.06
492.963	587.06
493.18	595.06
493.398	576.06
493.615	614.06
493.833	607.06
494.05	584.06
494.268	598.06
494.485	586.06
494.703	626.06
494.92	586.06
495.138	594.06
495.355	607.06
495.573	605.06
495.79	601.06
496.008	597.06
496.225	613.06
496.442	602.06
496.66	616.06
496.877	592.06
497.094	629.06
497.312	616.06
497.529	644.06
497.746	647.06
497.963	662.06
498.181	690.06
498.398	678.06
498.615	695.06
498.832	712.06
499.049	727.06
499.267	723.06
499.484	769.06
499.701	806.06
499.918	838.06
500.135	898.06
500.352	954.06
500.569	967.06
500.786	974.06
501.003	924.06
501.22	893.06
501.437	851.06
501.654	819.06
501.871	827.06
502.088	765.06
