Data from 1977.PennyLincolnUp.Lamp.En5.5.200Scan.071719.P1_HRD10591_16-05-20-864.txt Node
Date: Thu Jul 18 16:05:20 EDT 2019
User: cochatt
Spectrometer: HR+D1059
Trigger mode: 1
Integration Time (sec): 1.000000E-1
Scans to average: 1
Electric dark correction enabled: true
Nonlinearity correction enabled: false
Boxcar width: 0
XAxis mode: Wavelengths
Number of Pixels in Spectrum: 2048
>>>>>Begin Spectral Data<<<<<
223.165	-15.31
223.4	-15.31
223.635	-15.31
223.869	-5.31
224.104	-21.31
224.338	-11.31
224.573	-11.31
224.808	-25.31
225.042	1.69
225.277	-9.31
225.511	-18.31
225.746	7.69
225.98	-3.31
226.215	11.69
226.449	12.69
226.683	22.69
226.918	36.69
227.152	27.69
227.387	30.69
227.621	30.69
227.856	35.69
228.09	38.69
228.324	38.69
228.559	53.69
228.793	55.69
229.027	77.69
229.262	101.69
229.496	108.69
229.73	123.69
229.964	130.69
230.199	114.69
230.433	105.69
230.667	91.69
230.901	104.69
231.136	119.69
231.37	107.69
231.604	106.69
231.838	88.69
232.072	100.69
232.306	124.69
232.541	102.69
232.775	108.69
233.009	122.69
233.243	110.69
233.477	117.69
233.711	118.69
233.945	102.69
234.179	120.69
234.413	125.69
234.647	125.69
234.881	113.69
235.115	122.69
235.349	108.69
235.583	117.69
235.817	105.69
236.051	123.69
236.285	124.69
236.519	131.69
236.753	119.69
236.987	149.69
237.221	173.69
237.455	176.69
237.689	169.69
237.922	128.69
238.156	136.69
238.39	126.69
238.624	125.69
238.858	125.69
239.091	118.69
239.325	128.69
239.559	125.69
239.793	134.69
240.027	137.69
240.26	133.69
240.494	145.69
240.728	127.69
240.961	119.69
241.195	132.69
241.429	150.69
241.662	131.69
241.896	129.69
242.13	126.69
242.363	122.69
242.597	124.69
242.83	138.69
243.064	136.69
243.298	147.69
243.531	141.69
243.765	141.69
243.998	149.69
244.232	132.69
244.465	129.69
244.699	152.69
244.932	136.69
245.166	131.69
245.399	144.69
245.633	137.69
245.866	150.69
246.099	138.69
246.333	134.69
246.566	156.69
246.8	158.69
247.033	144.69
247.266	140.69
247.5	164.69
247.733	160.69
247.966	158.69
248.2	154.69
248.433	161.69
248.666	147.69
248.899	175.69
249.133	189.69
249.366	192.69
249.599	174.69
249.832	172.69
250.066	171.69
250.299	177.69
250.532	199.69
250.765	196.69
250.998	197.69
251.231	186.69
251.465	206.69
251.698	185.69
251.931	204.69
252.164	182.69
252.397	171.69
252.63	197.69
252.863	184.69
253.096	193.69
253.329	211.69
253.562	198.69
253.795	202.69
254.028	189.69
254.261	199.69
254.494	217.69
254.727	221.69
254.96	241.69
255.193	245.69
255.426	219.69
255.659	205.69
255.892	221.69
256.124	214.69
256.357	212.69
256.59	208.69
256.823	198.69
257.056	213.69
257.289	204.69
257.521	206.69
257.754	205.69
257.987	197.69
258.22	195.69
258.452	200.69
258.685	214.69
258.918	216.69
259.151	197.69
259.383	207.69
259.616	214.69
259.849	220.69
260.081	214.69
260.314	234.69
260.547	230.69
260.779	226.69
261.012	214.69
261.244	218.69
261.477	201.69
261.71	215.69
261.942	200.69
262.175	213.69
262.407	206.69
262.64	206.69
262.872	200.69
263.105	208.69
263.337	221.69
263.57	206.69
263.802	193.69
264.035	213.69
264.267	209.69
264.499	213.69
264.732	219.69
264.964	217.69
265.197	217.69
265.429	234.69
265.661	218.69
265.894	200.69
266.126	217.69
266.358	210.69
266.591	211.69
266.823	229.69
267.055	217.69
267.287	229.69
267.52	221.69
267.752	217.69
267.984	226.69
268.216	236.69
268.448	212.69
268.681	239.69
268.913	242.69
269.145	252.69
269.377	264.69
269.609	257.69
269.841	254.69
270.073	261.69
270.306	280.69
270.538	288.69
270.77	294.69
271.002	288.69
271.234	280.69
271.466	270.69
271.698	281.69
271.93	288.69
272.162	292.69
272.394	297.69
272.626	270.69
272.858	264.69
273.09	268.69
273.322	260.69
273.553	265.69
273.785	262.69
274.017	267.69
274.249	268.69
274.481	252.69
274.713	256.69
274.945	246.69
275.176	262.69
275.408	277.69
275.64	260.69
275.872	273.69
276.104	269.69
276.335	262.69
276.567	271.69
276.799	280.69
277.031	299.69
277.262	301.69
277.494	316.69
277.726	294.69
277.957	278.69
278.189	283.69
278.421	282.69
278.652	281.69
278.884	288.69
279.115	276.69
279.347	278.69
279.579	280.69
279.81	273.69
280.042	272.69
280.273	265.69
280.505	277.69
280.736	268.69
280.968	280.69
281.199	281.69
281.431	287.69
281.662	275.69
281.894	284.69
282.125	267.69
282.356	292.69
282.588	304.69
282.819	302.69
283.051	290.69
283.282	286.69
283.513	290.69
283.745	269.69
283.976	274.69
284.207	271.69
284.439	273.69
284.67	279.69
284.901	268.69
285.132	289.69
285.364	288.69
285.595	290.69
285.826	310.69
286.057	309.69
286.288	277.69
286.52	292.69
286.751	287.69
286.982	293.69
287.213	288.69
287.444	291.69
287.675	299.69
287.906	303.69
288.138	300.69
288.369	326.69
288.6	304.69
288.831	306.69
289.062	308.69
289.293	321.69
289.524	302.69
289.755	300.69
289.986	308.69
290.217	297.69
290.448	282.69
290.679	318.69
290.91	302.69
291.141	299.69
291.371	299.69
291.602	284.69
291.833	287.69
292.064	306.69
292.295	328.69
292.526	320.69
292.757	299.69
292.987	316.69
293.218	328.69
293.449	301.69
293.68	298.69
293.91	301.69
294.141	312.69
294.372	303.69
294.603	297.69
294.833	326.69
295.064	315.69
295.295	323.69
295.525	309.69
295.756	320.69
295.987	325.69
296.217	322.69
296.448	329.69
296.679	325.69
296.909	331.69
297.14	328.69
297.37	308.69
297.601	324.69
297.831	312.69
298.062	300.69
298.292	329.69
298.523	332.69
298.753	326.69
298.984	313.69
299.214	320.69
299.445	322.69
299.675	332.69
299.905	305.69
300.136	308.69
300.366	317.69
300.597	309.69
300.827	328.69
301.057	340.69
301.288	328.69
301.518	333.69
301.748	339.69
301.979	328.69
302.209	359.69
302.439	333.69
302.669	342.69
302.9	335.69
303.13	332.69
303.36	336.69
303.59	351.69
303.82	357.69
304.051	347.69
304.281	351.69
304.511	342.69
304.741	335.69
304.971	333.69
305.201	338.69
305.431	351.69
305.661	336.69
305.891	346.69
306.121	333.69
306.352	346.69
306.582	355.69
306.812	359.69
307.042	341.69
307.272	343.69
307.502	344.69
307.731	344.69
307.961	342.69
308.191	343.69
308.421	334.69
308.651	362.69
308.881	353.69
309.111	333.69
309.341	343.69
309.571	340.69
309.8	362.69
310.03	345.69
310.26	359.69
310.49	362.69
310.72	354.69
310.949	380.69
311.179	380.69
311.409	377.69
311.639	361.69
311.868	378.69
312.098	365.69
312.328	362.69
312.557	394.69
312.787	367.69
313.017	384.69
313.246	383.69
313.476	350.69
313.706	369.69
313.935	383.69
314.165	366.69
314.394	386.69
314.624	401.69
314.853	379.69
315.083	373.69
315.312	389.69
315.542	381.69
315.771	389.69
316.001	388.69
316.23	378.69
316.46	363.69
316.689	378.69
316.919	378.69
317.148	369.69
317.377	393.69
317.607	382.69
317.836	380.69
318.065	397.69
318.295	369.69
318.524	376.69
318.753	369.69
318.983	379.69
319.212	361.69
319.441	372.69
319.67	404.69
319.9	387.69
320.129	400.69
320.358	394.69
320.587	372.69
320.816	377.69
321.046	399.69
321.275	381.69
321.504	393.69
321.733	386.69
321.962	391.69
322.191	410.69
322.42	411.69
322.649	397.69
322.878	399.69
323.108	415.69
323.337	431.69
323.566	442.69
323.795	459.69
324.024	500.69
324.253	537.69
324.482	748.69
324.71	1062.69
324.939	1428.69
325.168	1218.69
325.397	679.69
325.626	520.69
325.855	472.69
326.084	460.69
326.313	447.69
326.542	432.69
326.77	484.69
326.999	540.69
327.228	672.69
327.457	950.69
327.686	1069.69
327.914	743.69
328.143	534.69
328.372	514.69
328.6	477.69
328.829	487.69
329.058	503.69
329.287	489.69
329.515	502.69
329.744	453.69
329.972	443.69
330.201	453.69
330.43	479.69
330.658	494.69
330.887	510.69
331.115	489.69
331.344	467.69
331.572	457.69
331.801	473.69
332.03	447.69
332.258	444.69
332.486	457.69
332.715	435.69
332.943	440.69
333.172	442.69
333.4	439.69
333.629	465.69
333.857	472.69
334.085	471.69
334.314	478.69
334.542	473.69
334.771	488.69
334.999	470.69
335.227	470.69
335.455	461.69
335.684	483.69
335.912	454.69
336.14	458.69
336.369	432.69
336.597	452.69
336.825	466.69
337.053	439.69
337.281	437.69
337.51	422.69
337.738	448.69
337.966	455.69
338.194	438.69
338.422	437.69
338.65	420.69
338.878	430.69
339.106	409.69
339.334	446.69
339.562	423.69
339.79	433.69
340.018	429.69
340.246	437.69
340.474	431.69
340.702	438.69
340.93	408.69
341.158	421.69
341.386	423.69
341.614	420.69
341.842	416.69
342.07	426.69
342.298	411.69
342.526	419.69
342.754	413.69
342.981	415.69
343.209	410.69
343.437	436.69
343.665	442.69
343.893	442.69
344.12	462.69
344.348	456.69
344.576	421.69
344.804	447.69
345.031	434.69
345.259	434.69
345.487	425.69
345.714	424.69
345.942	409.69
346.17	417.69
346.397	398.69
346.625	396.69
346.853	418.69
347.08	404.69
347.308	413.69
347.535	406.69
347.763	406.69
347.99	396.69
348.218	414.69
348.445	407.69
348.673	396.69
348.9	395.69
349.128	378.69
349.355	393.69
349.583	407.69
349.81	394.69
350.037	390.69
350.265	401.69
350.492	377.69
350.72	371.69
350.947	403.69
351.174	391.69
351.402	414.69
351.629	402.69
351.856	397.69
352.083	399.69
352.311	399.69
352.538	401.69
352.765	400.69
352.992	407.69
353.22	374.69
353.447	361.69
353.674	376.69
353.901	360.69
354.128	374.69
354.355	378.69
354.583	395.69
354.81	378.69
355.037	383.69
355.264	389.69
355.491	365.69
355.718	381.69
355.945	378.69
356.172	382.69
356.399	374.69
356.626	383.69
356.853	390.69
357.08	365.69
357.307	367.69
357.534	370.69
357.761	356.69
357.988	374.69
358.215	377.69
358.441	388.69
358.668	374.69
358.895	377.69
359.122	376.69
359.349	388.69
359.576	378.69
359.802	398.69
360.029	414.69
360.256	401.69
360.483	401.69
360.709	388.69
360.936	394.69
361.163	391.69
361.39	386.69
361.616	389.69
361.843	392.69
362.07	377.69
362.296	384.69
362.523	399.69
362.749	369.69
362.976	385.69
363.203	380.69
363.429	377.69
363.656	380.69
363.882	366.69
364.109	382.69
364.335	378.69
364.562	382.69
364.788	393.69
365.015	397.69
365.241	405.69
365.468	388.69
365.694	372.69
365.92	399.69
366.147	378.69
366.373	386.69
366.599	381.69
366.826	369.69
367.052	376.69
367.278	397.69
367.505	377.69
367.731	382.69
367.957	388.69
368.184	382.69
368.41	410.69
368.636	387.69
368.862	384.69
369.089	374.69
369.315	386.69
369.541	383.69
369.767	384.69
369.993	410.69
370.219	373.69
370.445	384.69
370.672	389.69
370.898	377.69
371.124	370.69
371.35	396.69
371.576	390.69
371.802	401.69
372.028	370.69
372.254	374.69
372.48	381.69
372.706	383.69
372.932	387.69
373.158	396.69
373.384	389.69
373.61	394.69
373.835	400.69
374.061	390.69
374.287	398.69
374.513	369.69
374.739	361.69
374.965	399.69
375.191	398.69
375.416	399.69
375.642	415.69
375.868	410.69
376.094	374.69
376.319	383.69
376.545	386.69
376.771	403.69
376.997	379.69
377.222	363.69
377.448	376.69
377.674	366.69
377.899	378.69
378.125	374.69
378.35	369.69
378.576	368.69
378.802	378.69
379.027	381.69
379.253	385.69
379.478	378.69
379.704	377.69
379.929	358.69
380.155	392.69
380.38	371.69
380.606	369.69
380.831	365.69
381.057	372.69
381.282	381.69
381.507	385.69
381.733	394.69
381.958	402.69
382.184	377.69
382.409	386.69
382.634	382.69
382.86	389.69
383.085	385.69
383.31	395.69
383.535	394.69
383.761	382.69
383.986	403.69
384.211	422.69
384.436	390.69
384.662	381.69
384.887	402.69
385.112	411.69
385.337	442.69
385.562	433.69
385.787	422.69
386.013	423.69
386.238	412.69
386.463	417.69
386.688	432.69
386.913	408.69
387.138	405.69
387.363	431.69
387.588	424.69
387.813	428.69
388.038	409.69
388.263	421.69
388.488	427.69
388.713	404.69
388.938	413.69
389.163	430.69
389.387	402.69
389.612	398.69
389.837	410.69
390.062	416.69
390.287	404.69
390.512	409.69
390.736	412.69
390.961	422.69
391.186	433.69
391.411	419.69
391.636	424.69
391.86	431.69
392.085	436.69
392.31	436.69
392.534	415.69
392.759	442.69
392.984	432.69
393.208	433.69
393.433	409.69
393.658	412.69
393.882	418.69
394.107	407.69
394.331	412.69
394.556	438.69
394.78	422.69
395.005	443.69
395.229	428.69
395.454	437.69
395.678	466.69
395.903	461.69
396.127	463.69
396.352	434.69
396.576	420.69
396.801	405.69
397.025	440.69
397.249	437.69
397.474	437.69
397.698	442.69
397.922	454.69
398.147	460.69
398.371	460.69
398.595	471.69
398.82	472.69
399.044	514.69
399.268	501.69
399.492	547.69
399.717	558.69
399.941	574.69
400.165	591.69
400.389	586.69
400.613	539.69
400.837	482.69
401.062	497.69
401.286	488.69
401.51	481.69
401.734	490.69
401.958	464.69
402.182	456.69
402.406	472.69
402.63	491.69
402.854	481.69
403.078	475.69
403.302	495.69
403.526	489.69
403.75	496.69
403.974	531.69
404.198	499.69
404.422	502.69
404.645	499.69
404.869	497.69
405.093	514.69
405.317	542.69
405.541	567.69
405.765	524.69
405.988	512.69
406.212	503.69
406.436	525.69
406.66	525.69
406.883	518.69
407.107	545.69
407.331	572.69
407.555	616.69
407.778	609.69
408.002	588.69
408.226	574.69
408.449	533.69
408.673	506.69
408.896	533.69
409.12	580.69
409.344	555.69
409.567	509.69
409.791	486.69
410.014	480.69
410.238	489.69
410.461	498.69
410.685	502.69
410.908	495.69
411.132	526.69
411.355	546.69
411.578	527.69
411.802	497.69
412.025	475.69
412.249	475.69
412.472	508.69
412.695	522.69
412.919	508.69
413.142	490.69
413.365	496.69
413.589	469.69
413.812	450.69
414.035	472.69
414.258	472.69
414.482	470.69
414.705	481.69
414.928	450.69
415.151	452.69
415.374	466.69
415.597	467.69
415.821	446.69
416.044	441.69
416.267	457.69
416.49	433.69
416.713	434.69
416.936	446.69
417.159	440.69
417.382	450.69
417.605	429.69
417.828	456.69
418.051	488.69
418.274	473.69
418.497	461.69
418.72	446.69
418.943	460.69
419.166	483.69
419.389	495.69
419.611	490.69
419.834	480.69
420.057	466.69
420.28	467.69
420.503	448.69
420.726	473.69
420.948	465.69
421.171	517.69
421.394	516.69
421.617	497.69
421.839	468.69
422.062	478.69
422.285	485.69
422.507	527.69
422.73	564.69
422.953	541.69
423.175	507.69
423.398	476.69
423.621	466.69
423.843	486.69
424.066	502.69
424.288	464.69
424.511	493.69
424.733	543.69
424.956	596.69
425.178	590.69
425.401	551.69
425.623	572.69
425.846	504.69
426.068	471.69
426.291	460.69
426.513	491.69
426.735	470.69
426.958	509.69
427.18	565.69
427.402	671.69
427.625	732.69
427.847	605.69
428.069	552.69
428.292	498.69
428.514	472.69
428.736	451.69
428.958	488.69
429.181	438.69
429.403	437.69
429.625	433.69
429.847	493.69
430.069	527.69
430.292	496.69
430.514	460.69
430.736	455.69
430.958	450.69
431.18	436.69
431.402	426.69
431.624	412.69
431.846	409.69
432.068	416.69
432.29	439.69
432.512	417.69
432.734	430.69
432.956	426.69
433.178	452.69
433.4	437.69
433.622	435.69
433.844	423.69
434.066	430.69
434.287	432.69
434.509	448.69
434.731	428.69
434.953	456.69
435.175	466.69
435.397	489.69
435.618	486.69
435.84	505.69
436.062	559.69
436.284	598.69
436.505	509.69
436.727	481.69
436.949	460.69
437.17	446.69
437.392	448.69
437.614	449.69
437.835	458.69
438.057	541.69
438.278	618.69
438.5	599.69
438.721	681.69
438.943	637.69
439.165	504.69
439.386	508.69
439.608	473.69
439.829	453.69
440.05	478.69
440.272	524.69
440.493	501.69
440.715	458.69
440.936	452.69
441.158	472.69
441.379	445.69
441.6	464.69
441.822	472.69
442.043	492.69
442.264	553.69
442.486	590.69
442.707	523.69
442.928	481.69
443.149	486.69
443.371	491.69
443.592	561.69
443.813	597.69
444.034	628.69
444.255	538.69
444.476	510.69
444.698	473.69
444.919	519.69
445.14	590.69
445.361	549.69
445.582	522.69
445.803	543.69
446.024	629.69
446.245	624.69
446.466	555.69
446.687	476.69
446.908	459.69
447.129	449.69
447.35	452.69
447.571	445.69
447.792	423.69
448.013	438.69
448.234	447.69
448.455	476.69
448.675	572.69
448.896	662.69
449.117	565.69
449.338	526.69
449.559	623.69
449.779	674.69
450	558.69
450.221	463.69
450.442	425.69
450.662	433.69
450.883	429.69
451.104	431.69
451.324	419.69
451.545	405.69
451.766	404.69
451.986	393.69
452.207	377.69
452.428	382.69
452.648	401.69
452.869	386.69
453.089	392.69
453.31	415.69
453.53	392.69
453.751	398.69
453.971	401.69
454.192	405.69
454.412	400.69
454.633	381.69
454.853	367.69
455.073	384.69
455.294	410.69
455.514	436.69
455.734	428.69
455.955	412.69
456.175	384.69
456.395	375.69
456.616	369.69
456.836	382.69
457.056	380.69
457.276	376.69
457.497	379.69
457.717	388.69
457.937	357.69
458.157	392.69
458.377	382.69
458.598	386.69
458.818	433.69
459.038	482.69
459.258	490.69
459.478	445.69
459.698	436.69
459.918	464.69
460.138	429.69
460.358	442.69
460.578	454.69
460.798	455.69
461.018	458.69
461.238	458.69
461.458	439.69
461.678	445.69
461.898	452.69
462.118	466.69
462.338	467.69
462.558	456.69
462.777	498.69
462.997	493.69
463.217	522.69
463.437	502.69
463.657	477.69
463.876	479.69
464.096	470.69
464.316	477.69
464.536	485.69
464.755	493.69
464.975	464.69
465.195	504.69
465.414	477.69
465.634	454.69
465.854	428.69
466.073	440.69
466.293	417.69
466.512	417.69
466.732	401.69
466.951	414.69
467.171	432.69
467.391	425.69
467.61	422.69
467.829	429.69
468.049	385.69
468.268	408.69
468.488	412.69
468.707	384.69
468.927	401.69
469.146	396.69
469.365	396.69
469.585	391.69
469.804	400.69
470.023	404.69
470.243	418.69
470.462	402.69
470.681	412.69
470.901	419.69
471.12	406.69
471.339	424.69
471.558	409.69
471.777	411.69
471.997	426.69
472.216	386.69
472.435	416.69
472.654	410.69
472.873	415.69
473.092	389.69
473.311	397.69
473.53	398.69
473.749	426.69
473.968	450.69
474.187	508.69
474.406	505.69
474.625	440.69
474.844	433.69
475.063	410.69
475.282	401.69
475.501	392.69
475.72	432.69
475.939	411.69
476.158	400.69
476.377	431.69
476.596	435.69
476.814	406.69
477.033	432.69
477.252	425.69
477.471	450.69
477.69	438.69
477.908	451.69
478.127	447.69
478.346	466.69
478.564	444.69
478.783	455.69
479.002	473.69
479.22	467.69
479.439	480.69
479.658	481.69
479.876	508.69
480.095	496.69
480.313	527.69
480.532	493.69
480.751	494.69
480.969	493.69
481.188	538.69
481.406	520.69
481.624	503.69
481.843	461.69
482.061	470.69
482.28	453.69
482.498	469.69
482.717	449.69
482.935	444.69
483.153	479.69
483.372	461.69
483.59	486.69
483.808	464.69
484.027	494.69
484.245	471.69
484.463	472.69
484.681	475.69
484.9	486.69
485.118	460.69
485.336	476.69
485.554	500.69
485.772	474.69
485.99	473.69
486.209	486.69
486.427	480.69
486.645	497.69
486.863	504.69
487.081	494.69
487.299	482.69
487.517	480.69
487.735	488.69
487.953	498.69
488.171	492.69
488.389	504.69
488.607	508.69
488.825	520.69
489.043	506.69
489.261	492.69
489.479	512.69
489.696	525.69
489.914	498.69
490.132	503.69
490.35	527.69
490.568	498.69
490.786	510.69
491.003	535.69
491.221	557.69
491.439	535.69
491.657	508.69
491.874	552.69
492.092	568.69
492.31	543.69
492.527	578.69
492.745	544.69
492.963	537.69
493.18	559.69
493.398	574.69
493.615	588.69
493.833	580.69
494.05	578.69
494.268	564.69
494.485	580.69
494.703	551.69
494.92	566.69
495.138	544.69
495.355	582.69
495.573	564.69
495.79	593.69
496.008	566.69
496.225	562.69
496.442	582.69
496.66	557.69
496.877	569.69
497.094	603.69
497.312	586.69
497.529	601.69
497.746	613.69
497.963	634.69
498.181	644.69
498.398	663.69
498.615	654.69
498.832	683.69
499.049	689.69
499.267	734.69
499.484	714.69
499.701	784.69
499.918	817.69
500.135	853.69
500.352	910.69
500.569	934.69
500.786	919.69
501.003	898.69
501.22	889.69
501.437	868.69
501.654	814.69
501.871	771.69
502.088	737.69
