Data from 1977.PennyLincolnUp.Lamp.En5.5.200Scan.071719.P1_HRD10591_16-05-14-864.txt Node
Date: Thu Jul 18 16:05:14 EDT 2019
User: cochatt
Spectrometer: HR+D1059
Trigger mode: 1
Integration Time (sec): 1.000000E-1
Scans to average: 1
Electric dark correction enabled: true
Nonlinearity correction enabled: false
Boxcar width: 0
XAxis mode: Wavelengths
Number of Pixels in Spectrum: 2048
>>>>>Begin Spectral Data<<<<<
223.165	-13.25
223.4	-13.25
223.635	-13.25
223.869	-12.25
224.104	-19.25
224.338	-14.25
224.573	-17.25
224.808	-20.25
225.042	-3.25
225.277	-12.25
225.511	6.75
225.746	8.75
225.98	-4.25
226.215	20.75
226.449	7.75
226.683	22.75
226.918	22.75
227.152	26.75
227.387	29.75
227.621	30.75
227.856	41.75
228.09	41.75
228.324	51.75
228.559	42.75
228.793	71.75
229.027	84.75
229.262	76.75
229.496	112.75
229.73	117.75
229.964	107.75
230.199	98.75
230.433	103.75
230.667	110.75
230.901	98.75
231.136	97.75
231.37	99.75
231.604	95.75
231.838	103.75
232.072	99.75
232.306	118.75
232.541	115.75
232.775	103.75
233.009	113.75
233.243	94.75
233.477	94.75
233.711	102.75
233.945	103.75
234.179	119.75
234.413	96.75
234.647	97.75
234.881	108.75
235.115	118.75
235.349	104.75
235.583	116.75
235.817	118.75
236.051	101.75
236.285	118.75
236.519	114.75
236.753	120.75
236.987	128.75
237.221	148.75
237.455	150.75
237.689	147.75
237.922	120.75
238.156	126.75
238.39	108.75
238.624	116.75
238.858	107.75
239.091	134.75
239.325	110.75
239.559	115.75
239.793	122.75
240.027	127.75
240.26	131.75
240.494	127.75
240.728	135.75
240.961	141.75
241.195	145.75
241.429	121.75
241.662	121.75
241.896	151.75
242.13	128.75
242.363	137.75
242.597	124.75
242.83	141.75
243.064	130.75
243.298	127.75
243.531	142.75
243.765	129.75
243.998	126.75
244.232	127.75
244.465	128.75
244.699	135.75
244.932	137.75
245.166	120.75
245.399	120.75
245.633	131.75
245.866	122.75
246.099	150.75
246.333	136.75
246.566	132.75
246.8	139.75
247.033	140.75
247.266	132.75
247.5	146.75
247.733	162.75
247.966	164.75
248.2	155.75
248.433	146.75
248.666	156.75
248.899	153.75
249.133	154.75
249.366	197.75
249.599	171.75
249.832	165.75
250.066	177.75
250.299	168.75
250.532	182.75
250.765	182.75
250.998	197.75
251.231	197.75
251.465	176.75
251.698	178.75
251.931	174.75
252.164	185.75
252.397	180.75
252.63	177.75
252.863	190.75
253.096	186.75
253.329	212.75
253.562	216.75
253.795	195.75
254.028	185.75
254.261	182.75
254.494	200.75
254.727	227.75
254.96	226.75
255.193	230.75
255.426	219.75
255.659	196.75
255.892	203.75
256.124	205.75
256.357	201.75
256.59	194.75
256.823	194.75
257.056	188.75
257.289	191.75
257.521	182.75
257.754	183.75
257.987	199.75
258.22	197.75
258.452	191.75
258.685	182.75
258.918	187.75
259.151	191.75
259.383	194.75
259.616	206.75
259.849	202.75
260.081	215.75
260.314	211.75
260.547	241.75
260.779	222.75
261.012	210.75
261.244	215.75
261.477	202.75
261.71	194.75
261.942	202.75
262.175	205.75
262.407	220.75
262.64	207.75
262.872	207.75
263.105	197.75
263.337	203.75
263.57	206.75
263.802	188.75
264.035	208.75
264.267	213.75
264.499	200.75
264.732	207.75
264.964	211.75
265.197	210.75
265.429	212.75
265.661	210.75
265.894	203.75
266.126	210.75
266.358	193.75
266.591	211.75
266.823	223.75
267.055	204.75
267.287	221.75
267.52	208.75
267.752	232.75
267.984	214.75
268.216	211.75
268.448	227.75
268.681	239.75
268.913	226.75
269.145	252.75
269.377	230.75
269.609	257.75
269.841	237.75
270.073	238.75
270.306	280.75
270.538	277.75
270.77	268.75
271.002	276.75
271.234	257.75
271.466	248.75
271.698	261.75
271.93	279.75
272.162	283.75
272.394	281.75
272.626	266.75
272.858	275.75
273.09	266.75
273.322	255.75
273.553	259.75
273.785	243.75
274.017	246.75
274.249	244.75
274.481	243.75
274.713	266.75
274.945	239.75
275.176	242.75
275.408	245.75
275.64	258.75
275.872	234.75
276.104	260.75
276.335	254.75
276.567	264.75
276.799	254.75
277.031	272.75
277.262	266.75
277.494	284.75
277.726	273.75
277.957	264.75
278.189	267.75
278.421	259.75
278.652	267.75
278.884	261.75
279.115	258.75
279.347	256.75
279.579	238.75
279.81	248.75
280.042	260.75
280.273	274.75
280.505	266.75
280.736	265.75
280.968	248.75
281.199	276.75
281.431	256.75
281.662	276.75
281.894	265.75
282.125	268.75
282.356	261.75
282.588	272.75
282.819	270.75
283.051	279.75
283.282	264.75
283.513	268.75
283.745	290.75
283.976	274.75
284.207	280.75
284.439	267.75
284.67	263.75
284.901	294.75
285.132	266.75
285.364	279.75
285.595	288.75
285.826	269.75
286.057	265.75
286.288	268.75
286.52	290.75
286.751	274.75
286.982	259.75
287.213	281.75
287.444	274.75
287.675	282.75
287.906	279.75
288.138	288.75
288.369	282.75
288.6	297.75
288.831	274.75
289.062	281.75
289.293	274.75
289.524	318.75
289.755	286.75
289.986	281.75
290.217	274.75
290.448	275.75
290.679	274.75
290.91	292.75
291.141	299.75
291.371	274.75
291.602	294.75
291.833	290.75
292.064	285.75
292.295	309.75
292.526	268.75
292.757	308.75
292.987	286.75
293.218	287.75
293.449	281.75
293.68	271.75
293.91	278.75
294.141	294.75
294.372	308.75
294.603	306.75
294.833	275.75
295.064	296.75
295.295	288.75
295.525	272.75
295.756	282.75
295.987	282.75
296.217	297.75
296.448	306.75
296.679	281.75
296.909	300.75
297.14	298.75
297.37	288.75
297.601	295.75
297.831	288.75
298.062	291.75
298.292	331.75
298.523	291.75
298.753	305.75
298.984	321.75
299.214	302.75
299.445	306.75
299.675	318.75
299.905	328.75
300.136	315.75
300.366	312.75
300.597	310.75
300.827	307.75
301.057	313.75
301.288	326.75
301.518	318.75
301.748	315.75
301.979	336.75
302.209	322.75
302.439	324.75
302.669	324.75
302.9	326.75
303.13	320.75
303.36	324.75
303.59	330.75
303.82	323.75
304.051	335.75
304.281	331.75
304.511	314.75
304.741	327.75
304.971	308.75
305.201	329.75
305.431	322.75
305.661	353.75
305.891	315.75
306.121	318.75
306.352	323.75
306.582	324.75
306.812	323.75
307.042	326.75
307.272	331.75
307.502	324.75
307.731	318.75
307.961	328.75
308.191	329.75
308.421	326.75
308.651	303.75
308.881	331.75
309.111	335.75
309.341	344.75
309.571	365.75
309.8	332.75
310.03	358.75
310.26	350.75
310.49	356.75
310.72	346.75
310.949	389.75
311.179	363.75
311.409	354.75
311.639	350.75
311.868	353.75
312.098	375.75
312.328	379.75
312.557	366.75
312.787	366.75
313.017	371.75
313.246	377.75
313.476	356.75
313.706	356.75
313.935	348.75
314.165	355.75
314.394	356.75
314.624	369.75
314.853	362.75
315.083	358.75
315.312	358.75
315.542	376.75
315.771	359.75
316.001	360.75
316.23	365.75
316.46	342.75
316.689	369.75
316.919	376.75
317.148	374.75
317.377	360.75
317.607	372.75
317.836	356.75
318.065	364.75
318.295	382.75
318.524	371.75
318.753	354.75
318.983	365.75
319.212	368.75
319.441	357.75
319.67	356.75
319.9	348.75
320.129	360.75
320.358	363.75
320.587	360.75
320.816	371.75
321.046	372.75
321.275	359.75
321.504	387.75
321.733	365.75
321.962	395.75
322.191	396.75
322.42	376.75
322.649	411.75
322.878	374.75
323.108	391.75
323.337	405.75
323.566	418.75
323.795	443.75
324.024	476.75
324.253	536.75
324.482	673.75
324.71	985.75
324.939	1318.75
325.168	1128.75
325.397	639.75
325.626	488.75
325.855	440.75
326.084	437.75
326.313	446.75
326.542	430.75
326.77	446.75
326.999	511.75
327.228	649.75
327.457	876.75
327.686	1010.75
327.914	706.75
328.143	526.75
328.372	458.75
328.6	456.75
328.829	452.75
329.058	459.75
329.287	470.75
329.515	447.75
329.744	428.75
329.972	422.75
330.201	466.75
330.43	458.75
330.658	462.75
330.887	472.75
331.115	473.75
331.344	454.75
331.572	418.75
331.801	440.75
332.03	438.75
332.258	418.75
332.486	396.75
332.715	406.75
332.943	426.75
333.172	440.75
333.4	452.75
333.629	435.75
333.857	452.75
334.085	468.75
334.314	456.75
334.542	472.75
334.771	490.75
334.999	453.75
335.227	453.75
335.455	454.75
335.684	441.75
335.912	448.75
336.14	435.75
336.369	440.75
336.597	416.75
336.825	445.75
337.053	412.75
337.281	426.75
337.51	395.75
337.738	426.75
337.966	420.75
338.194	422.75
338.422	424.75
338.65	422.75
338.878	393.75
339.106	405.75
339.334	400.75
339.562	395.75
339.79	400.75
340.018	403.75
340.246	394.75
340.474	417.75
340.702	401.75
340.93	396.75
341.158	408.75
341.386	416.75
341.614	405.75
341.842	406.75
342.07	413.75
342.298	415.75
342.526	403.75
342.754	409.75
342.981	400.75
343.209	395.75
343.437	394.75
343.665	420.75
343.893	420.75
344.12	443.75
344.348	408.75
344.576	451.75
344.804	436.75
345.031	406.75
345.259	411.75
345.487	393.75
345.714	402.75
345.942	424.75
346.17	401.75
346.397	397.75
346.625	378.75
346.853	393.75
347.08	372.75
347.308	404.75
347.535	393.75
347.763	386.75
347.99	375.75
348.218	377.75
348.445	364.75
348.673	384.75
348.9	393.75
349.128	378.75
349.355	394.75
349.583	390.75
349.81	364.75
350.037	373.75
350.265	374.75
350.492	373.75
350.72	388.75
350.947	374.75
351.174	378.75
351.402	390.75
351.629	377.75
351.856	390.75
352.083	365.75
352.311	385.75
352.538	376.75
352.765	394.75
352.992	366.75
353.22	363.75
353.447	380.75
353.674	372.75
353.901	372.75
354.128	369.75
354.355	364.75
354.583	380.75
354.81	355.75
355.037	371.75
355.264	355.75
355.491	361.75
355.718	380.75
355.945	375.75
356.172	363.75
356.399	353.75
356.626	346.75
356.853	346.75
357.08	372.75
357.307	376.75
357.534	354.75
357.761	363.75
357.988	348.75
358.215	361.75
358.441	354.75
358.668	379.75
358.895	355.75
359.122	373.75
359.349	386.75
359.576	361.75
359.802	386.75
360.029	395.75
360.256	392.75
360.483	376.75
360.709	364.75
360.936	372.75
361.163	377.75
361.39	376.75
361.616	362.75
361.843	374.75
362.07	378.75
362.296	382.75
362.523	381.75
362.749	379.75
362.976	376.75
363.203	375.75
363.429	372.75
363.656	379.75
363.882	374.75
364.109	363.75
364.335	374.75
364.562	368.75
364.788	373.75
365.015	360.75
365.241	361.75
365.468	351.75
365.694	375.75
365.92	372.75
366.147	362.75
366.373	363.75
366.599	365.75
366.826	357.75
367.052	356.75
367.278	364.75
367.505	359.75
367.731	372.75
367.957	359.75
368.184	374.75
368.41	364.75
368.636	362.75
368.862	364.75
369.089	379.75
369.315	363.75
369.541	356.75
369.767	371.75
369.993	354.75
370.219	359.75
370.445	368.75
370.672	362.75
370.898	357.75
371.124	348.75
371.35	382.75
371.576	347.75
371.802	374.75
372.028	366.75
372.254	375.75
372.48	360.75
372.706	360.75
372.932	360.75
373.158	367.75
373.384	364.75
373.61	378.75
373.835	364.75
374.061	362.75
374.287	351.75
374.513	366.75
374.739	374.75
374.965	391.75
375.191	386.75
375.416	388.75
375.642	374.75
375.868	380.75
376.094	366.75
376.319	375.75
376.545	357.75
376.771	364.75
376.997	363.75
377.222	361.75
377.448	373.75
377.674	372.75
377.899	355.75
378.125	362.75
378.35	372.75
378.576	357.75
378.802	356.75
379.027	356.75
379.253	351.75
379.478	386.75
379.704	350.75
379.929	370.75
380.155	354.75
380.38	364.75
380.606	382.75
380.831	368.75
381.057	359.75
381.282	358.75
381.507	375.75
381.733	366.75
381.958	370.75
382.184	369.75
382.409	387.75
382.634	379.75
382.86	368.75
383.085	355.75
383.31	378.75
383.535	372.75
383.761	376.75
383.986	385.75
384.211	402.75
384.436	374.75
384.662	396.75
384.887	398.75
385.112	402.75
385.337	411.75
385.562	389.75
385.787	407.75
386.013	448.75
386.238	402.75
386.463	424.75
386.688	407.75
386.913	401.75
387.138	390.75
387.363	403.75
387.588	400.75
387.813	407.75
388.038	378.75
388.263	404.75
388.488	399.75
388.713	392.75
388.938	396.75
389.163	392.75
389.387	391.75
389.612	391.75
389.837	396.75
390.062	381.75
390.287	392.75
390.512	404.75
390.736	392.75
390.961	397.75
391.186	387.75
391.411	411.75
391.636	416.75
391.86	434.75
392.085	424.75
392.31	420.75
392.534	415.75
392.759	419.75
392.984	422.75
393.208	410.75
393.433	426.75
393.658	430.75
393.882	409.75
394.107	407.75
394.331	406.75
394.556	390.75
394.78	421.75
395.005	418.75
395.229	409.75
395.454	406.75
395.678	422.75
395.903	402.75
396.127	443.75
396.352	412.75
396.576	434.75
396.801	417.75
397.025	394.75
397.249	407.75
397.474	438.75
397.698	440.75
397.922	430.75
398.147	429.75
398.371	450.75
398.595	438.75
398.82	436.75
399.044	472.75
399.268	486.75
399.492	535.75
399.717	564.75
399.941	574.75
400.165	580.75
400.389	574.75
400.613	513.75
400.837	495.75
401.062	472.75
401.286	480.75
401.51	468.75
401.734	454.75
401.958	448.75
402.182	459.75
402.406	447.75
402.63	468.75
402.854	469.75
403.078	458.75
403.302	469.75
403.526	475.75
403.75	475.75
403.974	481.75
404.198	457.75
404.422	481.75
404.645	468.75
404.869	469.75
405.093	506.75
405.317	529.75
405.541	550.75
405.765	502.75
405.988	470.75
406.212	505.75
406.436	498.75
406.66	518.75
406.883	497.75
407.107	514.75
407.331	534.75
407.555	575.75
407.778	608.75
408.002	565.75
408.226	507.75
408.449	520.75
408.673	515.75
408.896	543.75
409.12	550.75
409.344	543.75
409.567	482.75
409.791	480.75
410.014	473.75
410.238	456.75
410.461	459.75
410.685	475.75
410.908	492.75
411.132	492.75
411.355	512.75
411.578	486.75
411.802	473.75
412.025	446.75
412.249	483.75
412.472	478.75
412.695	484.75
412.919	480.75
413.142	470.75
413.365	442.75
413.589	444.75
413.812	437.75
414.035	435.75
414.258	462.75
414.482	450.75
414.705	447.75
414.928	459.75
415.151	436.75
415.374	440.75
415.597	450.75
415.821	436.75
416.044	432.75
416.267	433.75
416.49	428.75
416.713	444.75
416.936	449.75
417.159	436.75
417.382	451.75
417.605	454.75
417.828	433.75
418.051	471.75
418.274	448.75
418.497	442.75
418.72	441.75
418.943	420.75
419.166	454.75
419.389	450.75
419.611	483.75
419.834	458.75
420.057	454.75
420.28	463.75
420.503	454.75
420.726	439.75
420.948	457.75
421.171	507.75
421.394	494.75
421.617	438.75
421.839	440.75
422.062	458.75
422.285	451.75
422.507	502.75
422.73	542.75
422.953	523.75
423.175	479.75
423.398	455.75
423.621	474.75
423.843	476.75
424.066	490.75
424.288	485.75
424.511	471.75
424.733	528.75
424.956	574.75
425.178	546.75
425.401	527.75
425.623	574.75
425.846	498.75
426.068	450.75
426.291	464.75
426.513	484.75
426.735	475.75
426.958	515.75
427.18	550.75
427.402	635.75
427.625	680.75
427.847	584.75
428.069	520.75
428.292	473.75
428.514	422.75
428.736	448.75
428.958	423.75
429.181	417.75
429.403	396.75
429.625	442.75
429.847	463.75
430.069	502.75
430.292	507.75
430.514	449.75
430.736	428.75
430.958	426.75
431.18	435.75
431.402	426.75
431.624	432.75
431.846	410.75
432.068	414.75
432.29	403.75
432.512	416.75
432.734	424.75
432.956	422.75
433.178	430.75
433.4	407.75
433.622	392.75
433.844	418.75
434.066	415.75
434.287	413.75
434.509	422.75
434.731	431.75
434.953	444.75
435.175	435.75
435.397	468.75
435.618	448.75
435.84	482.75
436.062	579.75
436.284	600.75
436.505	503.75
436.727	460.75
436.949	430.75
437.17	424.75
437.392	418.75
437.614	430.75
437.835	446.75
438.057	513.75
438.278	578.75
438.5	600.75
438.721	640.75
438.943	640.75
439.165	491.75
439.386	435.75
439.608	458.75
439.829	446.75
440.05	454.75
440.272	503.75
440.493	478.75
440.715	442.75
440.936	429.75
441.158	423.75
441.379	426.75
441.6	445.75
441.822	466.75
442.043	471.75
442.264	526.75
442.486	572.75
442.707	487.75
442.928	483.75
443.149	466.75
443.371	477.75
443.592	484.75
443.813	583.75
444.034	618.75
444.255	517.75
444.476	470.75
444.698	463.75
444.919	471.75
445.14	561.75
445.361	528.75
445.582	496.75
445.803	538.75
446.024	577.75
446.245	587.75
446.466	548.75
446.687	471.75
446.908	425.75
447.129	423.75
447.35	415.75
447.571	427.75
447.792	430.75
448.013	419.75
448.234	412.75
448.455	457.75
448.675	532.75
448.896	611.75
449.117	514.75
449.338	516.75
449.559	608.75
449.779	663.75
450	522.75
450.221	451.75
450.442	424.75
450.662	400.75
450.883	409.75
451.104	411.75
451.324	415.75
451.545	383.75
451.766	378.75
451.986	380.75
452.207	379.75
452.428	378.75
452.648	378.75
452.869	379.75
453.089	373.75
453.31	405.75
453.53	363.75
453.751	382.75
453.971	378.75
454.192	389.75
454.412	376.75
454.633	366.75
454.853	362.75
455.073	392.75
455.294	397.75
455.514	446.75
455.734	411.75
455.955	378.75
456.175	370.75
456.395	345.75
456.616	340.75
456.836	378.75
457.056	371.75
457.276	356.75
457.497	352.75
457.717	346.75
457.937	368.75
458.157	374.75
458.377	367.75
458.598	361.75
458.818	404.75
459.038	458.75
459.258	461.75
459.478	429.75
459.698	408.75
459.918	402.75
460.138	407.75
460.358	413.75
460.578	400.75
460.798	424.75
461.018	437.75
461.238	425.75
461.458	431.75
461.678	393.75
461.898	448.75
462.118	433.75
462.338	448.75
462.558	457.75
462.777	457.75
462.997	474.75
463.217	499.75
463.437	489.75
463.657	489.75
463.876	476.75
464.096	471.75
464.316	453.75
464.536	462.75
464.755	459.75
464.975	456.75
465.195	451.75
465.414	456.75
465.634	434.75
465.854	432.75
466.073	390.75
466.293	404.75
466.512	396.75
466.732	416.75
466.951	383.75
467.171	385.75
467.391	403.75
467.61	402.75
467.829	405.75
468.049	390.75
468.268	393.75
468.488	390.75
468.707	384.75
468.927	375.75
469.146	402.75
469.365	383.75
469.585	378.75
469.804	387.75
470.023	385.75
470.243	372.75
470.462	390.75
470.681	414.75
470.901	387.75
471.12	393.75
471.339	391.75
471.558	403.75
471.777	402.75
471.997	384.75
472.216	408.75
472.435	395.75
472.654	408.75
472.873	370.75
473.092	384.75
473.311	387.75
473.53	384.75
473.749	404.75
473.968	409.75
474.187	480.75
474.406	514.75
474.625	430.75
474.844	428.75
475.063	383.75
475.282	385.75
475.501	389.75
475.72	415.75
475.939	389.75
476.158	399.75
476.377	430.75
476.596	386.75
476.814	404.75
477.033	439.75
477.252	413.75
477.471	416.75
477.69	424.75
477.908	417.75
478.127	447.75
478.346	442.75
478.564	441.75
478.783	446.75
479.002	443.75
479.22	434.75
479.439	455.75
479.658	442.75
479.876	480.75
480.095	481.75
480.313	490.75
480.532	490.75
480.751	481.75
480.969	472.75
481.188	474.75
481.406	474.75
481.624	490.75
481.843	488.75
482.061	478.75
482.28	432.75
482.498	435.75
482.717	444.75
482.935	442.75
483.153	433.75
483.372	430.75
483.59	448.75
483.808	438.75
484.027	441.75
484.245	443.75
484.463	450.75
484.681	473.75
484.9	462.75
485.118	466.75
485.336	452.75
485.554	476.75
485.772	481.75
485.99	448.75
486.209	464.75
486.427	478.75
486.645	465.75
486.863	457.75
487.081	466.75
487.299	454.75
487.517	466.75
487.735	485.75
487.953	470.75
488.171	492.75
488.389	455.75
488.607	482.75
488.825	472.75
489.043	490.75
489.261	472.75
489.479	492.75
489.696	505.75
489.914	472.75
490.132	487.75
490.35	499.75
490.568	506.75
490.786	517.75
491.003	497.75
491.221	494.75
491.439	496.75
491.657	492.75
491.874	517.75
492.092	539.75
492.31	522.75
492.527	530.75
492.745	513.75
492.963	534.75
493.18	552.75
493.398	530.75
493.615	530.75
493.833	533.75
494.05	538.75
494.268	536.75
494.485	545.75
494.703	514.75
494.92	528.75
495.138	544.75
495.355	537.75
495.573	548.75
495.79	550.75
496.008	529.75
496.225	528.75
496.442	559.75
496.66	554.75
496.877	564.75
497.094	584.75
497.312	551.75
497.529	580.75
497.746	604.75
497.963	584.75
498.181	619.75
498.398	632.75
498.615	644.75
498.832	664.75
499.049	686.75
499.267	690.75
499.484	721.75
499.701	769.75
499.918	798.75
500.135	819.75
500.352	890.75
500.569	896.75
500.786	906.75
501.003	882.75
501.22	842.75
501.437	808.75
501.654	766.75
501.871	752.75
502.088	722.75
