Data from 1977.PennyLincolnUp.Lamp.En5.5.200Scan.071719.P1_HRD10591_16-06-26-864.txt Node
Date: Thu Jul 18 16:06:26 EDT 2019
User: cochatt
Spectrometer: HR+D1059
Trigger mode: 1
Integration Time (sec): 1.000000E-1
Scans to average: 1
Electric dark correction enabled: true
Nonlinearity correction enabled: false
Boxcar width: 0
XAxis mode: Wavelengths
Number of Pixels in Spectrum: 2048
>>>>>Begin Spectral Data<<<<<
223.165	-27.38
223.4	-27.38
223.635	-27.38
223.869	-2.38
224.104	-20.38
224.338	-11.38
224.573	-23.38
224.808	-12.38
225.042	-6.38
225.277	-13.38
225.511	-1.38
225.746	19.62
225.98	12.62
226.215	14.62
226.449	4.62
226.683	13.62
226.918	22.62
227.152	30.62
227.387	30.62
227.621	40.62
227.856	24.62
228.09	47.62
228.324	45.62
228.559	52.62
228.793	58.62
229.027	92.62
229.262	92.62
229.496	107.62
229.73	127.62
229.964	137.62
230.199	122.62
230.433	102.62
230.667	109.62
230.901	107.62
231.136	110.62
231.37	108.62
231.604	115.62
231.838	113.62
232.072	101.62
232.306	109.62
232.541	113.62
232.775	128.62
233.009	115.62
233.243	132.62
233.477	121.62
233.711	120.62
233.945	118.62
234.179	111.62
234.413	109.62
234.647	121.62
234.881	113.62
235.115	122.62
235.349	108.62
235.583	129.62
235.817	110.62
236.051	127.62
236.285	123.62
236.519	117.62
236.753	115.62
236.987	131.62
237.221	162.62
237.455	207.62
237.689	168.62
237.922	148.62
238.156	124.62
238.39	115.62
238.624	113.62
238.858	140.62
239.091	130.62
239.325	121.62
239.559	128.62
239.793	144.62
240.027	139.62
240.26	138.62
240.494	149.62
240.728	145.62
240.961	131.62
241.195	141.62
241.429	141.62
241.662	137.62
241.896	137.62
242.13	130.62
242.363	124.62
242.597	141.62
242.83	137.62
243.064	145.62
243.298	129.62
243.531	136.62
243.765	136.62
243.998	150.62
244.232	157.62
244.465	144.62
244.699	133.62
244.932	139.62
245.166	143.62
245.399	139.62
245.633	148.62
245.866	148.62
246.099	141.62
246.333	143.62
246.566	162.62
246.8	156.62
247.033	157.62
247.266	150.62
247.5	157.62
247.733	149.62
247.966	171.62
248.2	182.62
248.433	185.62
248.666	172.62
248.899	193.62
249.133	185.62
249.366	202.62
249.599	197.62
249.832	192.62
250.066	193.62
250.299	165.62
250.532	189.62
250.765	193.62
250.998	217.62
251.231	207.62
251.465	203.62
251.698	202.62
251.931	210.62
252.164	183.62
252.397	187.62
252.63	196.62
252.863	201.62
253.096	202.62
253.329	210.62
253.562	220.62
253.795	197.62
254.028	218.62
254.261	205.62
254.494	223.62
254.727	248.62
254.96	239.62
255.193	259.62
255.426	254.62
255.659	220.62
255.892	228.62
256.124	228.62
256.357	213.62
256.59	221.62
256.823	224.62
257.056	200.62
257.289	203.62
257.521	201.62
257.754	210.62
257.987	221.62
258.22	207.62
258.452	207.62
258.685	215.62
258.918	196.62
259.151	202.62
259.383	222.62
259.616	232.62
259.849	219.62
260.081	235.62
260.314	241.62
260.547	250.62
260.779	257.62
261.012	232.62
261.244	221.62
261.477	235.62
261.71	237.62
261.942	233.62
262.175	223.62
262.407	212.62
262.64	213.62
262.872	221.62
263.105	216.62
263.337	217.62
263.57	215.62
263.802	210.62
264.035	225.62
264.267	212.62
264.499	217.62
264.732	224.62
264.964	227.62
265.197	227.62
265.429	237.62
265.661	209.62
265.894	228.62
266.126	228.62
266.358	229.62
266.591	238.62
266.823	209.62
267.055	244.62
267.287	246.62
267.52	223.62
267.752	239.62
267.984	235.62
268.216	242.62
268.448	238.62
268.681	235.62
268.913	252.62
269.145	257.62
269.377	294.62
269.609	291.62
269.841	262.62
270.073	284.62
270.306	290.62
270.538	305.62
270.77	321.62
271.002	313.62
271.234	308.62
271.466	318.62
271.698	305.62
271.93	321.62
272.162	315.62
272.394	315.62
272.626	296.62
272.858	284.62
273.09	272.62
273.322	266.62
273.553	286.62
273.785	272.62
274.017	279.62
274.249	269.62
274.481	278.62
274.713	253.62
274.945	291.62
275.176	294.62
275.408	289.62
275.64	290.62
275.872	272.62
276.104	281.62
276.335	274.62
276.567	271.62
276.799	286.62
277.031	315.62
277.262	321.62
277.494	331.62
277.726	310.62
277.957	325.62
278.189	288.62
278.421	274.62
278.652	281.62
278.884	310.62
279.115	285.62
279.347	280.62
279.579	288.62
279.81	314.62
280.042	288.62
280.273	295.62
280.505	279.62
280.736	283.62
280.968	282.62
281.199	285.62
281.431	294.62
281.662	285.62
281.894	281.62
282.125	277.62
282.356	291.62
282.588	307.62
282.819	313.62
283.051	296.62
283.282	275.62
283.513	307.62
283.745	286.62
283.976	285.62
284.207	308.62
284.439	311.62
284.67	302.62
284.901	297.62
285.132	304.62
285.364	315.62
285.595	309.62
285.826	306.62
286.057	296.62
286.288	305.62
286.52	321.62
286.751	295.62
286.982	292.62
287.213	309.62
287.444	300.62
287.675	297.62
287.906	321.62
288.138	307.62
288.369	327.62
288.6	326.62
288.831	337.62
289.062	332.62
289.293	336.62
289.524	332.62
289.755	317.62
289.986	323.62
290.217	313.62
290.448	318.62
290.679	333.62
290.91	319.62
291.141	302.62
291.371	323.62
291.602	317.62
291.833	325.62
292.064	320.62
292.295	313.62
292.526	335.62
292.757	300.62
292.987	316.62
293.218	313.62
293.449	311.62
293.68	322.62
293.91	318.62
294.141	311.62
294.372	318.62
294.603	316.62
294.833	325.62
295.064	334.62
295.295	323.62
295.525	317.62
295.756	310.62
295.987	330.62
296.217	335.62
296.448	344.62
296.679	335.62
296.909	344.62
297.14	309.62
297.37	342.62
297.601	329.62
297.831	325.62
298.062	321.62
298.292	325.62
298.523	330.62
298.753	346.62
298.984	332.62
299.214	316.62
299.445	327.62
299.675	319.62
299.905	330.62
300.136	328.62
300.366	330.62
300.597	350.62
300.827	347.62
301.057	350.62
301.288	360.62
301.518	341.62
301.748	345.62
301.979	346.62
302.209	344.62
302.439	362.62
302.669	356.62
302.9	359.62
303.13	354.62
303.36	369.62
303.59	354.62
303.82	357.62
304.051	364.62
304.281	347.62
304.511	374.62
304.741	338.62
304.971	343.62
305.201	340.62
305.431	361.62
305.661	350.62
305.891	347.62
306.121	358.62
306.352	345.62
306.582	350.62
306.812	349.62
307.042	361.62
307.272	347.62
307.502	338.62
307.731	379.62
307.961	374.62
308.191	338.62
308.421	369.62
308.651	355.62
308.881	377.62
309.111	356.62
309.341	357.62
309.571	366.62
309.8	387.62
310.03	384.62
310.26	382.62
310.49	380.62
310.72	388.62
310.949	406.62
311.179	419.62
311.409	403.62
311.639	386.62
311.868	387.62
312.098	392.62
312.328	407.62
312.557	398.62
312.787	414.62
313.017	417.62
313.246	402.62
313.476	416.62
313.706	402.62
313.935	397.62
314.165	407.62
314.394	403.62
314.624	392.62
314.853	402.62
315.083	397.62
315.312	405.62
315.542	383.62
315.771	397.62
316.001	383.62
316.23	404.62
316.46	389.62
316.689	388.62
316.919	395.62
317.148	415.62
317.377	423.62
317.607	400.62
317.836	390.62
318.065	389.62
318.295	394.62
318.524	390.62
318.753	381.62
318.983	396.62
319.212	418.62
319.441	405.62
319.67	418.62
319.9	404.62
320.129	411.62
320.358	410.62
320.587	409.62
320.816	421.62
321.046	421.62
321.275	412.62
321.504	420.62
321.733	412.62
321.962	427.62
322.191	426.62
322.42	463.62
322.649	446.62
322.878	473.62
323.108	447.62
323.337	474.62
323.566	469.62
323.795	506.62
324.024	554.62
324.253	637.62
324.482	876.62
324.71	1286.62
324.939	1806.62
325.168	1505.62
325.397	809.62
325.626	599.62
325.855	492.62
326.084	495.62
326.313	483.62
326.542	500.62
326.77	550.62
326.999	623.62
327.228	790.62
327.457	1148.62
327.686	1313.62
327.914	887.62
328.143	623.62
328.372	565.62
328.6	564.62
328.829	531.62
329.058	521.62
329.287	546.62
329.515	516.62
329.744	491.62
329.972	482.62
330.201	495.62
330.43	528.62
330.658	551.62
330.887	545.62
331.115	564.62
331.344	525.62
331.572	501.62
331.801	482.62
332.03	498.62
332.258	506.62
332.486	476.62
332.715	463.62
332.943	482.62
333.172	492.62
333.4	497.62
333.629	478.62
333.857	522.62
334.085	512.62
334.314	528.62
334.542	542.62
334.771	533.62
334.999	494.62
335.227	491.62
335.455	494.62
335.684	483.62
335.912	492.62
336.14	469.62
336.369	457.62
336.597	477.62
336.825	466.62
337.053	452.62
337.281	457.62
337.51	464.62
337.738	493.62
337.966	476.62
338.194	437.62
338.422	459.62
338.65	455.62
338.878	453.62
339.106	454.62
339.334	457.62
339.562	446.62
339.79	461.62
340.018	444.62
340.246	426.62
340.474	424.62
340.702	443.62
340.93	452.62
341.158	445.62
341.386	436.62
341.614	455.62
341.842	444.62
342.07	409.62
342.298	445.62
342.526	411.62
342.754	424.62
342.981	437.62
343.209	447.62
343.437	441.62
343.665	455.62
343.893	467.62
344.12	506.62
344.348	457.62
344.576	455.62
344.804	460.62
345.031	453.62
345.259	448.62
345.487	462.62
345.714	413.62
345.942	428.62
346.17	427.62
346.397	429.62
346.625	442.62
346.853	443.62
347.08	425.62
347.308	431.62
347.535	430.62
347.763	430.62
347.99	439.62
348.218	427.62
348.445	461.62
348.673	420.62
348.9	424.62
349.128	435.62
349.355	418.62
349.583	421.62
349.81	405.62
350.037	402.62
350.265	427.62
350.492	399.62
350.72	387.62
350.947	420.62
351.174	416.62
351.402	419.62
351.629	419.62
351.856	405.62
352.083	415.62
352.311	435.62
352.538	422.62
352.765	437.62
352.992	415.62
353.22	407.62
353.447	411.62
353.674	402.62
353.901	409.62
354.128	393.62
354.355	400.62
354.583	398.62
354.81	386.62
355.037	419.62
355.264	404.62
355.491	414.62
355.718	399.62
355.945	393.62
356.172	385.62
356.399	399.62
356.626	377.62
356.853	389.62
357.08	391.62
357.307	394.62
357.534	376.62
357.761	400.62
357.988	422.62
358.215	401.62
358.441	395.62
358.668	381.62
358.895	383.62
359.122	399.62
359.349	408.62
359.576	390.62
359.802	423.62
360.029	462.62
360.256	449.62
360.483	427.62
360.709	407.62
360.936	415.62
361.163	407.62
361.39	403.62
361.616	428.62
361.843	405.62
362.07	407.62
362.296	403.62
362.523	397.62
362.749	418.62
362.976	401.62
363.203	389.62
363.429	405.62
363.656	391.62
363.882	404.62
364.109	391.62
364.335	388.62
364.562	403.62
364.788	397.62
365.015	425.62
365.241	398.62
365.468	435.62
365.694	412.62
365.92	393.62
366.147	393.62
366.373	389.62
366.599	375.62
366.826	403.62
367.052	385.62
367.278	393.62
367.505	405.62
367.731	425.62
367.957	387.62
368.184	423.62
368.41	423.62
368.636	434.62
368.862	409.62
369.089	403.62
369.315	405.62
369.541	412.62
369.767	386.62
369.993	393.62
370.219	387.62
370.445	384.62
370.672	390.62
370.898	394.62
371.124	408.62
371.35	402.62
371.576	388.62
371.802	403.62
372.028	408.62
372.254	395.62
372.48	395.62
372.706	383.62
372.932	389.62
373.158	407.62
373.384	382.62
373.61	413.62
373.835	395.62
374.061	417.62
374.287	398.62
374.513	404.62
374.739	405.62
374.965	428.62
375.191	419.62
375.416	429.62
375.642	405.62
375.868	411.62
376.094	413.62
376.319	398.62
376.545	381.62
376.771	383.62
376.997	390.62
377.222	397.62
377.448	381.62
377.674	410.62
377.899	382.62
378.125	391.62
378.35	396.62
378.576	381.62
378.802	376.62
379.027	377.62
379.253	402.62
379.478	393.62
379.704	385.62
379.929	394.62
380.155	398.62
380.38	387.62
380.606	395.62
380.831	402.62
381.057	378.62
381.282	389.62
381.507	397.62
381.733	390.62
381.958	395.62
382.184	397.62
382.409	395.62
382.634	402.62
382.86	411.62
383.085	382.62
383.31	407.62
383.535	418.62
383.761	427.62
383.986	407.62
384.211	396.62
384.436	437.62
384.662	429.62
384.887	431.62
385.112	428.62
385.337	409.62
385.562	428.62
385.787	412.62
386.013	426.62
386.238	421.62
386.463	441.62
386.688	445.62
386.913	437.62
387.138	439.62
387.363	434.62
387.588	432.62
387.813	443.62
388.038	458.62
388.263	419.62
388.488	437.62
388.713	424.62
388.938	425.62
389.163	424.62
389.387	440.62
389.612	430.62
389.837	434.62
390.062	439.62
390.287	446.62
390.512	443.62
390.736	430.62
390.961	426.62
391.186	427.62
391.411	439.62
391.636	441.62
391.86	438.62
392.085	450.62
392.31	434.62
392.534	438.62
392.759	442.62
392.984	448.62
393.208	449.62
393.433	436.62
393.658	447.62
393.882	430.62
394.107	436.62
394.331	425.62
394.556	423.62
394.78	428.62
395.005	434.62
395.229	429.62
395.454	447.62
395.678	446.62
395.903	451.62
396.127	488.62
396.352	486.62
396.576	443.62
396.801	441.62
397.025	447.62
397.249	446.62
397.474	429.62
397.698	468.62
397.922	456.62
398.147	500.62
398.371	506.62
398.595	487.62
398.82	473.62
399.044	485.62
399.268	533.62
399.492	537.62
399.717	629.62
399.941	645.62
400.165	639.62
400.389	626.62
400.613	557.62
400.837	543.62
401.062	500.62
401.286	500.62
401.51	489.62
401.734	490.62
401.958	496.62
402.182	506.62
402.406	507.62
402.63	499.62
402.854	487.62
403.078	522.62
403.302	511.62
403.526	499.62
403.75	501.62
403.974	498.62
404.198	511.62
404.422	515.62
404.645	505.62
404.869	501.62
405.093	549.62
405.317	555.62
405.541	609.62
405.765	578.62
405.988	543.62
406.212	544.62
406.436	558.62
406.66	565.62
406.883	564.62
407.107	554.62
407.331	609.62
407.555	653.62
407.778	668.62
408.002	602.62
408.226	555.62
408.449	591.62
408.673	561.62
408.896	582.62
409.12	622.62
409.344	579.62
409.567	532.62
409.791	520.62
410.014	525.62
410.238	503.62
410.461	498.62
410.685	519.62
410.908	536.62
411.132	542.62
411.355	555.62
411.578	543.62
411.802	498.62
412.025	502.62
412.249	516.62
412.472	509.62
412.695	532.62
412.919	524.62
413.142	494.62
413.365	493.62
413.589	469.62
413.812	486.62
414.035	499.62
414.258	478.62
414.482	467.62
414.705	504.62
414.928	484.62
415.151	473.62
415.374	477.62
415.597	475.62
415.821	458.62
416.044	488.62
416.267	472.62
416.49	486.62
416.713	444.62
416.936	450.62
417.159	482.62
417.382	460.62
417.605	468.62
417.828	498.62
418.051	490.62
418.274	483.62
418.497	476.62
418.72	491.62
418.943	477.62
419.166	484.62
419.389	522.62
419.611	499.62
419.834	497.62
420.057	501.62
420.28	497.62
420.503	485.62
420.726	495.62
420.948	490.62
421.171	563.62
421.394	558.62
421.617	521.62
421.839	510.62
422.062	483.62
422.285	490.62
422.507	546.62
422.73	626.62
422.953	581.62
423.175	519.62
423.398	493.62
423.621	509.62
423.843	518.62
424.066	524.62
424.288	521.62
424.511	526.62
424.733	595.62
424.956	641.62
425.178	597.62
425.401	626.62
425.623	656.62
425.846	564.62
426.068	509.62
426.291	503.62
426.513	515.62
426.735	541.62
426.958	548.62
427.18	641.62
427.402	732.62
427.625	784.62
427.847	661.62
428.069	602.62
428.292	525.62
428.514	501.62
428.736	498.62
428.958	481.62
429.181	451.62
429.403	492.62
429.625	490.62
429.847	493.62
430.069	546.62
430.292	562.62
430.514	485.62
430.736	469.62
430.958	479.62
431.18	462.62
431.402	433.62
431.624	447.62
431.846	437.62
432.068	463.62
432.29	437.62
432.512	451.62
432.734	452.62
432.956	455.62
433.178	471.62
433.4	451.62
433.622	466.62
433.844	443.62
434.066	465.62
434.287	489.62
434.509	460.62
434.731	470.62
434.953	476.62
435.175	474.62
435.397	493.62
435.618	521.62
435.84	545.62
436.062	625.62
436.284	653.62
436.505	548.62
436.727	513.62
436.949	471.62
437.17	465.62
437.392	479.62
437.614	449.62
437.835	497.62
438.057	588.62
438.278	661.62
438.5	673.62
438.721	767.62
438.943	702.62
439.165	567.62
439.386	517.62
439.608	519.62
439.829	502.62
440.05	519.62
440.272	565.62
440.493	545.62
440.715	505.62
440.936	481.62
441.158	487.62
441.379	487.62
441.6	469.62
441.822	508.62
442.043	525.62
442.264	604.62
442.486	646.62
442.707	568.62
442.928	532.62
443.149	539.62
443.371	540.62
443.592	590.62
443.813	660.62
444.034	699.62
444.255	573.62
444.476	535.62
444.698	530.62
444.919	504.62
445.14	598.62
445.361	566.62
445.582	525.62
445.803	598.62
446.024	645.62
446.245	672.62
446.466	621.62
446.687	533.62
446.908	534.62
447.129	494.62
447.35	478.62
447.571	479.62
447.792	463.62
448.013	484.62
448.234	483.62
448.455	524.62
448.675	623.62
448.896	681.62
449.117	589.62
449.338	594.62
449.559	667.62
449.779	740.62
450	605.62
450.221	503.62
450.442	466.62
450.662	467.62
450.883	461.62
451.104	471.62
451.324	454.62
451.545	442.62
451.766	424.62
451.986	419.62
452.207	405.62
452.428	417.62
452.648	403.62
452.869	418.62
453.089	428.62
453.31	430.62
453.53	416.62
453.751	403.62
453.971	442.62
454.192	433.62
454.412	415.62
454.633	411.62
454.853	399.62
455.073	408.62
455.294	442.62
455.514	490.62
455.734	474.62
455.955	419.62
456.175	407.62
456.395	405.62
456.616	399.62
456.836	386.62
457.056	392.62
457.276	396.62
457.497	405.62
457.717	390.62
457.937	405.62
458.157	414.62
458.377	407.62
458.598	442.62
458.818	475.62
459.038	507.62
459.258	549.62
459.478	489.62
459.698	458.62
459.918	447.62
460.138	456.62
460.358	439.62
460.578	439.62
460.798	475.62
461.018	463.62
461.238	482.62
461.458	457.62
461.678	450.62
461.898	483.62
462.118	473.62
462.338	464.62
462.558	473.62
462.777	484.62
462.997	515.62
463.217	535.62
463.437	541.62
463.657	519.62
463.876	509.62
464.096	515.62
464.316	514.62
464.536	491.62
464.755	488.62
464.975	511.62
465.195	521.62
465.414	535.62
465.634	488.62
465.854	457.62
466.073	467.62
466.293	444.62
466.512	435.62
466.732	427.62
466.951	433.62
467.171	435.62
467.391	436.62
467.61	427.62
467.829	457.62
468.049	425.62
468.268	431.62
468.488	422.62
468.707	414.62
468.927	421.62
469.146	415.62
469.365	415.62
469.585	393.62
469.804	412.62
470.023	423.62
470.243	437.62
470.462	430.62
470.681	429.62
470.901	449.62
471.12	430.62
471.339	431.62
471.558	423.62
471.777	421.62
471.997	418.62
472.216	444.62
472.435	441.62
472.654	437.62
472.873	409.62
473.092	425.62
473.311	443.62
473.53	407.62
473.749	425.62
473.968	447.62
474.187	547.62
474.406	553.62
474.625	482.62
474.844	437.62
475.063	429.62
475.282	445.62
475.501	422.62
475.72	431.62
475.939	459.62
476.158	444.62
476.377	441.62
476.596	449.62
476.814	462.62
477.033	461.62
477.252	456.62
477.471	450.62
477.69	465.62
477.908	459.62
478.127	481.62
478.346	464.62
478.564	462.62
478.783	473.62
479.002	477.62
479.22	495.62
479.439	494.62
479.658	519.62
479.876	509.62
480.095	527.62
480.313	561.62
480.532	527.62
480.751	514.62
480.969	516.62
481.188	563.62
481.406	579.62
481.624	521.62
481.843	511.62
482.061	490.62
482.28	511.62
482.498	473.62
482.717	490.62
482.935	478.62
483.153	505.62
483.372	486.62
483.59	481.62
483.808	500.62
484.027	493.62
484.245	500.62
484.463	493.62
484.681	521.62
484.9	534.62
485.118	521.62
485.336	506.62
485.554	488.62
485.772	512.62
485.99	535.62
486.209	517.62
486.427	515.62
486.645	527.62
486.863	532.62
487.081	549.62
487.299	539.62
487.517	508.62
487.735	510.62
487.953	517.62
488.171	538.62
488.389	521.62
488.607	515.62
488.825	524.62
489.043	517.62
489.261	534.62
489.479	527.62
489.696	533.62
489.914	531.62
490.132	504.62
490.35	535.62
490.568	543.62
490.786	546.62
491.003	555.62
491.221	539.62
491.439	574.62
491.657	575.62
491.874	581.62
492.092	580.62
492.31	591.62
492.527	587.62
492.745	594.62
492.963	587.62
493.18	601.62
493.398	608.62
493.615	621.62
493.833	635.62
494.05	620.62
494.268	604.62
494.485	615.62
494.703	589.62
494.92	590.62
495.138	581.62
495.355	607.62
495.573	617.62
495.79	620.62
496.008	611.62
496.225	635.62
496.442	618.62
496.66	607.62
496.877	607.62
497.094	636.62
497.312	619.62
497.529	651.62
497.746	646.62
497.963	681.62
498.181	684.62
498.398	671.62
498.615	712.62
498.832	710.62
499.049	723.62
499.267	759.62
499.484	800.62
499.701	844.62
499.918	870.62
500.135	925.62
500.352	981.62
500.569	981.62
500.786	970.62
501.003	942.62
501.22	937.62
501.437	883.62
501.654	840.62
501.871	813.62
