Data from 1977.PennyLincolnUp.Lamp.En5.5.200Scan.071719.P1_HRD10591_16-05-57-864.txt Node
Date: Thu Jul 18 16:05:57 EDT 2019
User: cochatt
Spectrometer: HR+D1059
Trigger mode: 1
Integration Time (sec): 1.000000E-1
Scans to average: 1
Electric dark correction enabled: true
Nonlinearity correction enabled: false
Boxcar width: 0
XAxis mode: Wavelengths
Number of Pixels in Spectrum: 2048
>>>>>Begin Spectral Data<<<<<
223.165	-14.88
223.4	-14.88
223.635	-14.88
223.869	-14.88
224.104	-14.88
224.338	-10.88
224.573	-26.88
224.808	-10.88
225.042	-11.88
225.277	1.12
225.511	-8.88
225.746	-2.88
225.98	4.12
226.215	20.12
226.449	15.12
226.683	22.12
226.918	21.12
227.152	33.12
227.387	39.12
227.621	35.12
227.856	45.12
228.09	55.12
228.324	48.12
228.559	54.12
228.793	73.12
229.027	89.12
229.262	94.12
229.496	106.12
229.73	116.12
229.964	124.12
230.199	121.12
230.433	106.12
230.667	99.12
230.901	107.12
231.136	96.12
231.37	101.12
231.604	108.12
231.838	103.12
232.072	115.12
232.306	122.12
232.541	104.12
232.775	99.12
233.009	110.12
233.243	109.12
233.477	113.12
233.711	114.12
233.945	123.12
234.179	120.12
234.413	102.12
234.647	115.12
234.881	106.12
235.115	107.12
235.349	112.12
235.583	107.12
235.817	102.12
236.051	124.12
236.285	120.12
236.519	113.12
236.753	130.12
236.987	127.12
237.221	160.12
237.455	194.12
237.689	159.12
237.922	130.12
238.156	127.12
238.39	122.12
238.624	115.12
238.858	125.12
239.091	125.12
239.325	120.12
239.559	119.12
239.793	118.12
240.027	122.12
240.26	129.12
240.494	143.12
240.728	147.12
240.961	142.12
241.195	132.12
241.429	142.12
241.662	131.12
241.896	120.12
242.13	132.12
242.363	140.12
242.597	132.12
242.83	129.12
243.064	120.12
243.298	136.12
243.531	132.12
243.765	130.12
243.998	138.12
244.232	145.12
244.465	125.12
244.699	139.12
244.932	150.12
245.166	142.12
245.399	140.12
245.633	147.12
245.866	134.12
246.099	132.12
246.333	146.12
246.566	152.12
246.8	135.12
247.033	129.12
247.266	131.12
247.5	154.12
247.733	154.12
247.966	173.12
248.2	154.12
248.433	149.12
248.666	147.12
248.899	183.12
249.133	179.12
249.366	186.12
249.599	190.12
249.832	164.12
250.066	167.12
250.299	185.12
250.532	177.12
250.765	189.12
250.998	194.12
251.231	210.12
251.465	186.12
251.698	198.12
251.931	197.12
252.164	185.12
252.397	178.12
252.63	191.12
252.863	189.12
253.096	185.12
253.329	212.12
253.562	192.12
253.795	186.12
254.028	183.12
254.261	200.12
254.494	202.12
254.727	232.12
254.96	253.12
255.193	231.12
255.426	209.12
255.659	213.12
255.892	214.12
256.124	221.12
256.357	210.12
256.59	203.12
256.823	208.12
257.056	201.12
257.289	222.12
257.521	197.12
257.754	204.12
257.987	217.12
258.22	201.12
258.452	200.12
258.685	207.12
258.918	207.12
259.151	191.12
259.383	219.12
259.616	198.12
259.849	214.12
260.081	232.12
260.314	234.12
260.547	250.12
260.779	231.12
261.012	230.12
261.244	205.12
261.477	214.12
261.71	215.12
261.942	217.12
262.175	234.12
262.407	229.12
262.64	216.12
262.872	217.12
263.105	214.12
263.337	216.12
263.57	211.12
263.802	216.12
264.035	214.12
264.267	201.12
264.499	209.12
264.732	210.12
264.964	227.12
265.197	214.12
265.429	224.12
265.661	224.12
265.894	214.12
266.126	217.12
266.358	224.12
266.591	218.12
266.823	219.12
267.055	218.12
267.287	231.12
267.52	217.12
267.752	211.12
267.984	235.12
268.216	220.12
268.448	229.12
268.681	253.12
268.913	221.12
269.145	239.12
269.377	264.12
269.609	261.12
269.841	275.12
270.073	278.12
270.306	288.12
270.538	299.12
270.77	305.12
271.002	286.12
271.234	285.12
271.466	286.12
271.698	293.12
271.93	285.12
272.162	299.12
272.394	302.12
272.626	293.12
272.858	271.12
273.09	256.12
273.322	273.12
273.553	252.12
273.785	280.12
274.017	262.12
274.249	257.12
274.481	259.12
274.713	262.12
274.945	270.12
275.176	258.12
275.408	249.12
275.64	257.12
275.872	262.12
276.104	277.12
276.335	276.12
276.567	280.12
276.799	276.12
277.031	285.12
277.262	310.12
277.494	303.12
277.726	298.12
277.957	289.12
278.189	295.12
278.421	262.12
278.652	254.12
278.884	272.12
279.115	275.12
279.347	279.12
279.579	271.12
279.81	248.12
280.042	265.12
280.273	279.12
280.505	244.12
280.736	268.12
280.968	282.12
281.199	269.12
281.431	272.12
281.662	262.12
281.894	263.12
282.125	295.12
282.356	291.12
282.588	295.12
282.819	318.12
283.051	279.12
283.282	275.12
283.513	267.12
283.745	288.12
283.976	305.12
284.207	293.12
284.439	288.12
284.67	289.12
284.901	291.12
285.132	289.12
285.364	275.12
285.595	312.12
285.826	299.12
286.057	292.12
286.288	291.12
286.52	292.12
286.751	284.12
286.982	295.12
287.213	290.12
287.444	296.12
287.675	295.12
287.906	305.12
288.138	310.12
288.369	338.12
288.6	320.12
288.831	311.12
289.062	296.12
289.293	309.12
289.524	296.12
289.755	311.12
289.986	302.12
290.217	311.12
290.448	306.12
290.679	299.12
290.91	309.12
291.141	311.12
291.371	285.12
291.602	313.12
291.833	289.12
292.064	298.12
292.295	303.12
292.526	324.12
292.757	306.12
292.987	317.12
293.218	303.12
293.449	305.12
293.68	301.12
293.91	311.12
294.141	306.12
294.372	312.12
294.603	319.12
294.833	313.12
295.064	310.12
295.295	314.12
295.525	313.12
295.756	313.12
295.987	330.12
296.217	322.12
296.448	337.12
296.679	325.12
296.909	307.12
297.14	320.12
297.37	326.12
297.601	306.12
297.831	317.12
298.062	301.12
298.292	317.12
298.523	340.12
298.753	325.12
298.984	314.12
299.214	340.12
299.445	315.12
299.675	329.12
299.905	341.12
300.136	338.12
300.366	330.12
300.597	333.12
300.827	341.12
301.057	328.12
301.288	359.12
301.518	347.12
301.748	336.12
301.979	344.12
302.209	335.12
302.439	345.12
302.669	345.12
302.9	333.12
303.13	355.12
303.36	366.12
303.59	358.12
303.82	335.12
304.051	362.12
304.281	363.12
304.511	342.12
304.741	329.12
304.971	328.12
305.201	331.12
305.431	328.12
305.661	357.12
305.891	337.12
306.121	356.12
306.352	342.12
306.582	350.12
306.812	339.12
307.042	351.12
307.272	330.12
307.502	344.12
307.731	349.12
307.961	326.12
308.191	345.12
308.421	377.12
308.651	359.12
308.881	342.12
309.111	349.12
309.341	360.12
309.571	353.12
309.8	373.12
310.03	368.12
310.26	391.12
310.49	369.12
310.72	369.12
310.949	386.12
311.179	403.12
311.409	386.12
311.639	385.12
311.868	373.12
312.098	388.12
312.328	406.12
312.557	401.12
312.787	398.12
313.017	381.12
313.246	409.12
313.476	372.12
313.706	369.12
313.935	386.12
314.165	385.12
314.394	413.12
314.624	404.12
314.853	376.12
315.083	382.12
315.312	386.12
315.542	372.12
315.771	401.12
316.001	376.12
316.23	396.12
316.46	397.12
316.689	370.12
316.919	383.12
317.148	398.12
317.377	404.12
317.607	391.12
317.836	367.12
318.065	369.12
318.295	370.12
318.524	388.12
318.753	375.12
318.983	377.12
319.212	374.12
319.441	394.12
319.67	382.12
319.9	390.12
320.129	376.12
320.358	386.12
320.587	383.12
320.816	417.12
321.046	391.12
321.275	418.12
321.504	402.12
321.733	393.12
321.962	398.12
322.191	409.12
322.42	421.12
322.649	435.12
322.878	423.12
323.108	424.12
323.337	435.12
323.566	464.12
323.795	472.12
324.024	525.12
324.253	593.12
324.482	782.12
324.71	1146.12
324.939	1585.12
325.168	1349.12
325.397	726.12
325.626	560.12
325.855	484.12
326.084	503.12
326.313	472.12
326.542	460.12
326.77	506.12
326.999	552.12
327.228	723.12
327.457	1027.12
327.686	1194.12
327.914	834.12
328.143	603.12
328.372	540.12
328.6	526.12
328.829	513.12
329.058	513.12
329.287	501.12
329.515	491.12
329.744	481.12
329.972	467.12
330.201	490.12
330.43	514.12
330.658	517.12
330.887	529.12
331.115	511.12
331.344	486.12
331.572	474.12
331.801	470.12
332.03	485.12
332.258	467.12
332.486	466.12
332.715	456.12
332.943	459.12
333.172	474.12
333.4	473.12
333.629	482.12
333.857	506.12
334.085	487.12
334.314	514.12
334.542	499.12
334.771	507.12
334.999	487.12
335.227	484.12
335.455	469.12
335.684	469.12
335.912	462.12
336.14	416.12
336.369	448.12
336.597	454.12
336.825	454.12
337.053	455.12
337.281	449.12
337.51	469.12
337.738	449.12
337.966	442.12
338.194	448.12
338.422	448.12
338.65	426.12
338.878	445.12
339.106	418.12
339.334	437.12
339.562	447.12
339.79	434.12
340.018	418.12
340.246	436.12
340.474	457.12
340.702	422.12
340.93	417.12
341.158	413.12
341.386	432.12
341.614	440.12
341.842	433.12
342.07	435.12
342.298	421.12
342.526	411.12
342.754	422.12
342.981	430.12
343.209	405.12
343.437	442.12
343.665	430.12
343.893	444.12
344.12	432.12
344.348	433.12
344.576	449.12
344.804	460.12
345.031	438.12
345.259	447.12
345.487	420.12
345.714	419.12
345.942	424.12
346.17	404.12
346.397	405.12
346.625	414.12
346.853	422.12
347.08	402.12
347.308	409.12
347.535	419.12
347.763	416.12
347.99	440.12
348.218	415.12
348.445	415.12
348.673	403.12
348.9	410.12
349.128	413.12
349.355	380.12
349.583	387.12
349.81	385.12
350.037	401.12
350.265	398.12
350.492	409.12
350.72	401.12
350.947	402.12
351.174	391.12
351.402	422.12
351.629	404.12
351.856	410.12
352.083	405.12
352.311	415.12
352.538	415.12
352.765	405.12
352.992	411.12
353.22	396.12
353.447	380.12
353.674	386.12
353.901	399.12
354.128	383.12
354.355	375.12
354.583	382.12
354.81	379.12
355.037	392.12
355.264	383.12
355.491	378.12
355.718	404.12
355.945	381.12
356.172	385.12
356.399	368.12
356.626	388.12
356.853	389.12
357.08	365.12
357.307	368.12
357.534	379.12
357.761	391.12
357.988	389.12
358.215	391.12
358.441	389.12
358.668	393.12
358.895	383.12
359.122	391.12
359.349	379.12
359.576	407.12
359.802	398.12
360.029	425.12
360.256	413.12
360.483	414.12
360.709	411.12
360.936	413.12
361.163	378.12
361.39	397.12
361.616	394.12
361.843	398.12
362.07	416.12
362.296	400.12
362.523	403.12
362.749	407.12
362.976	412.12
363.203	373.12
363.429	377.12
363.656	400.12
363.882	375.12
364.109	374.12
364.335	384.12
364.562	401.12
364.788	396.12
365.015	397.12
365.241	391.12
365.468	398.12
365.694	382.12
365.92	391.12
366.147	390.12
366.373	393.12
366.599	389.12
366.826	381.12
367.052	373.12
367.278	400.12
367.505	383.12
367.731	406.12
367.957	387.12
368.184	378.12
368.41	377.12
368.636	403.12
368.862	398.12
369.089	382.12
369.315	367.12
369.541	371.12
369.767	393.12
369.993	395.12
370.219	387.12
370.445	396.12
370.672	387.12
370.898	381.12
371.124	375.12
371.35	399.12
371.576	406.12
371.802	398.12
372.028	395.12
372.254	390.12
372.48	401.12
372.706	396.12
372.932	375.12
373.158	417.12
373.384	391.12
373.61	388.12
373.835	389.12
374.061	384.12
374.287	401.12
374.513	378.12
374.739	423.12
374.965	403.12
375.191	390.12
375.416	401.12
375.642	393.12
375.868	380.12
376.094	383.12
376.319	385.12
376.545	402.12
376.771	396.12
376.997	398.12
377.222	376.12
377.448	357.12
377.674	392.12
377.899	365.12
378.125	376.12
378.35	388.12
378.576	367.12
378.802	377.12
379.027	398.12
379.253	394.12
379.478	372.12
379.704	391.12
379.929	388.12
380.155	359.12
380.38	383.12
380.606	375.12
380.831	370.12
381.057	385.12
381.282	394.12
381.507	370.12
381.733	382.12
381.958	390.12
382.184	387.12
382.409	389.12
382.634	372.12
382.86	395.12
383.085	385.12
383.31	405.12
383.535	409.12
383.761	418.12
383.986	387.12
384.211	423.12
384.436	422.12
384.662	398.12
384.887	412.12
385.112	403.12
385.337	405.12
385.562	415.12
385.787	418.12
386.013	439.12
386.238	426.12
386.463	443.12
386.688	430.12
386.913	430.12
387.138	423.12
387.363	439.12
387.588	432.12
387.813	419.12
388.038	406.12
388.263	416.12
388.488	419.12
388.713	409.12
388.938	403.12
389.163	426.12
389.387	438.12
389.612	408.12
389.837	433.12
390.062	417.12
390.287	404.12
390.512	432.12
390.736	432.12
390.961	409.12
391.186	435.12
391.411	423.12
391.636	424.12
391.86	431.12
392.085	451.12
392.31	444.12
392.534	449.12
392.759	450.12
392.984	400.12
393.208	426.12
393.433	448.12
393.658	426.12
393.882	433.12
394.107	421.12
394.331	422.12
394.556	440.12
394.78	425.12
395.005	439.12
395.229	442.12
395.454	441.12
395.678	461.12
395.903	450.12
396.127	454.12
396.352	469.12
396.576	446.12
396.801	427.12
397.025	435.12
397.249	438.12
397.474	457.12
397.698	446.12
397.922	454.12
398.147	462.12
398.371	501.12
398.595	459.12
398.82	463.12
399.044	491.12
399.268	521.12
399.492	554.12
399.717	602.12
399.941	598.12
400.165	586.12
400.389	601.12
400.613	549.12
400.837	534.12
401.062	498.12
401.286	502.12
401.51	521.12
401.734	479.12
401.958	475.12
402.182	476.12
402.406	478.12
402.63	483.12
402.854	498.12
403.078	496.12
403.302	486.12
403.526	493.12
403.75	505.12
403.974	510.12
404.198	518.12
404.422	510.12
404.645	506.12
404.869	509.12
405.093	549.12
405.317	554.12
405.541	559.12
405.765	534.12
405.988	478.12
406.212	493.12
406.436	538.12
406.66	545.12
406.883	520.12
407.107	554.12
407.331	587.12
407.555	629.12
407.778	627.12
408.002	584.12
408.226	567.12
408.449	552.12
408.673	551.12
408.896	568.12
409.12	579.12
409.344	590.12
409.567	479.12
409.791	490.12
410.014	512.12
410.238	474.12
410.461	509.12
410.685	495.12
410.908	514.12
411.132	542.12
411.355	538.12
411.578	529.12
411.802	492.12
412.025	478.12
412.249	490.12
412.472	513.12
412.695	542.12
412.919	521.12
413.142	530.12
413.365	467.12
413.589	474.12
413.812	489.12
414.035	481.12
414.258	464.12
414.482	472.12
414.705	483.12
414.928	466.12
415.151	455.12
415.374	470.12
415.597	462.12
415.821	446.12
416.044	459.12
416.267	467.12
416.49	474.12
416.713	461.12
416.936	455.12
417.159	451.12
417.382	470.12
417.605	467.12
417.828	468.12
418.051	476.12
418.274	462.12
418.497	475.12
418.72	474.12
418.943	462.12
419.166	477.12
419.389	502.12
419.611	517.12
419.834	498.12
420.057	465.12
420.28	465.12
420.503	475.12
420.726	484.12
420.948	489.12
421.171	515.12
421.394	523.12
421.617	496.12
421.839	474.12
422.062	472.12
422.285	470.12
422.507	512.12
422.73	581.12
422.953	554.12
423.175	529.12
423.398	516.12
423.621	488.12
423.843	486.12
424.066	535.12
424.288	522.12
424.511	500.12
424.733	560.12
424.956	630.12
425.178	605.12
425.401	582.12
425.623	603.12
425.846	546.12
426.068	494.12
426.291	459.12
426.513	487.12
426.735	485.12
426.958	531.12
427.18	587.12
427.402	710.12
427.625	762.12
427.847	656.12
428.069	565.12
428.292	517.12
428.514	499.12
428.736	463.12
428.958	465.12
429.181	451.12
429.403	446.12
429.625	478.12
429.847	476.12
430.069	524.12
430.292	535.12
430.514	474.12
430.736	455.12
430.958	459.12
431.18	442.12
431.402	425.12
431.624	434.12
431.846	441.12
432.068	448.12
432.29	435.12
432.512	436.12
432.734	431.12
432.956	425.12
433.178	450.12
433.4	432.12
433.622	442.12
433.844	429.12
434.066	427.12
434.287	438.12
434.509	432.12
434.731	465.12
434.953	476.12
435.175	474.12
435.397	491.12
435.618	502.12
435.84	526.12
436.062	603.12
436.284	642.12
436.505	559.12
436.727	482.12
436.949	464.12
437.17	450.12
437.392	461.12
437.614	482.12
437.835	493.12
438.057	557.12
438.278	632.12
438.5	633.12
438.721	687.12
438.943	653.12
439.165	563.12
439.386	502.12
439.608	469.12
439.829	501.12
440.05	518.12
440.272	532.12
440.493	482.12
440.715	472.12
440.936	465.12
441.158	471.12
441.379	462.12
441.6	490.12
441.822	488.12
442.043	536.12
442.264	593.12
442.486	607.12
442.707	533.12
442.928	497.12
443.149	507.12
443.371	514.12
443.592	553.12
443.813	609.12
444.034	678.12
444.255	586.12
444.476	536.12
444.698	522.12
444.919	530.12
445.14	608.12
445.361	561.12
445.582	514.12
445.803	566.12
446.024	632.12
446.245	663.12
446.466	606.12
446.687	526.12
446.908	486.12
447.129	465.12
447.35	476.12
447.571	454.12
447.792	419.12
448.013	458.12
448.234	448.12
448.455	473.12
448.675	581.12
448.896	665.12
449.117	587.12
449.338	554.12
449.559	632.12
449.779	726.12
450	574.12
450.221	491.12
450.442	445.12
450.662	443.12
450.883	424.12
451.104	441.12
451.324	431.12
451.545	421.12
451.766	438.12
451.986	403.12
452.207	391.12
452.428	401.12
452.648	399.12
452.869	406.12
453.089	405.12
453.31	425.12
453.53	395.12
453.751	410.12
453.971	397.12
454.192	419.12
454.412	404.12
454.633	401.12
454.853	391.12
455.073	390.12
455.294	422.12
455.514	460.12
455.734	442.12
455.955	418.12
456.175	404.12
456.395	377.12
456.616	396.12
456.836	384.12
457.056	391.12
457.276	386.12
457.497	393.12
457.717	383.12
457.937	381.12
458.157	391.12
458.377	408.12
458.598	426.12
458.818	459.12
459.038	500.12
459.258	501.12
459.478	442.12
459.698	430.12
459.918	448.12
460.138	439.12
460.358	436.12
460.578	456.12
460.798	466.12
461.018	449.12
461.238	464.12
461.458	455.12
461.678	444.12
461.898	478.12
462.118	466.12
462.338	462.12
462.558	472.12
462.777	478.12
462.997	495.12
463.217	490.12
463.437	517.12
463.657	500.12
463.876	487.12
464.096	495.12
464.316	487.12
464.536	502.12
464.755	485.12
464.975	477.12
465.195	479.12
465.414	500.12
465.634	462.12
465.854	453.12
466.073	447.12
466.293	431.12
466.512	438.12
466.732	401.12
466.951	412.12
467.171	400.12
467.391	432.12
467.61	419.12
467.829	424.12
468.049	427.12
468.268	420.12
468.488	426.12
468.707	415.12
468.927	403.12
469.146	399.12
469.365	407.12
469.585	390.12
469.804	423.12
470.023	425.12
470.243	403.12
470.462	427.12
470.681	414.12
470.901	429.12
471.12	408.12
471.339	408.12
471.558	429.12
471.777	422.12
471.997	387.12
472.216	421.12
472.435	429.12
472.654	423.12
472.873	415.12
473.092	436.12
473.311	405.12
473.53	422.12
473.749	420.12
473.968	461.12
474.187	511.12
474.406	548.12
474.625	453.12
474.844	440.12
475.063	415.12
475.282	420.12
475.501	461.12
475.72	429.12
475.939	433.12
476.158	431.12
476.377	429.12
476.596	440.12
476.814	441.12
477.033	435.12
477.252	439.12
477.471	445.12
477.69	435.12
477.908	438.12
478.127	471.12
478.346	462.12
478.564	463.12
478.783	461.12
479.002	488.12
479.22	471.12
479.439	493.12
479.658	473.12
479.876	521.12
480.095	494.12
480.313	522.12
480.532	527.12
480.751	527.12
480.969	511.12
481.188	549.12
481.406	552.12
481.624	521.12
481.843	484.12
482.061	482.12
482.28	482.12
482.498	484.12
482.717	476.12
482.935	485.12
483.153	466.12
483.372	458.12
483.59	464.12
483.808	487.12
484.027	478.12
484.245	487.12
484.463	487.12
484.681	501.12
484.9	497.12
485.118	496.12
485.336	511.12
485.554	491.12
485.772	480.12
485.99	498.12
486.209	501.12
486.427	507.12
486.645	516.12
486.863	499.12
487.081	510.12
487.299	514.12
487.517	510.12
487.735	529.12
487.953	503.12
488.171	498.12
488.389	491.12
488.607	507.12
488.825	529.12
489.043	504.12
489.261	522.12
489.479	522.12
489.696	531.12
489.914	493.12
490.132	502.12
490.35	518.12
490.568	528.12
490.786	544.12
491.003	534.12
491.221	541.12
491.439	562.12
491.657	567.12
491.874	553.12
492.092	577.12
492.31	553.12
492.527	593.12
492.745	575.12
492.963	576.12
493.18	590.12
493.398	593.12
493.615	578.12
493.833	577.12
494.05	596.12
494.268	564.12
494.485	585.12
494.703	586.12
494.92	587.12
495.138	593.12
495.355	578.12
495.573	599.12
495.79	595.12
496.008	599.12
496.225	599.12
496.442	587.12
496.66	613.12
496.877	583.12
497.094	613.12
497.312	621.12
497.529	627.12
497.746	613.12
497.963	647.12
498.181	652.12
498.398	663.12
498.615	672.12
498.832	715.12
499.049	710.12
499.267	743.12
499.484	766.12
499.701	820.12
499.918	874.12
500.135	904.12
500.352	953.12
500.569	948.12
500.786	944.12
501.003	925.12
501.22	928.12
501.437	837.12
501.654	825.12
501.871	814.12
502.088	786.12
