Data from 1977.PennyLincolnUp.Lamp.En5.5.200Scan.071719.P1_HRD10591_16-07-06-864.txt Node
Date: Thu Jul 18 16:07:06 EDT 2019
User: cochatt
Spectrometer: HR+D1059
Trigger mode: 1
Integration Time (sec): 1.000000E-1
Scans to average: 1
Electric dark correction enabled: true
Nonlinearity correction enabled: false
Boxcar width: 0
XAxis mode: Wavelengths
Number of Pixels in Spectrum: 2048
>>>>>Begin Spectral Data<<<<<
223.165	-23.88
223.4	-23.88
223.635	-23.88
223.869	-24.88
224.104	-14.88
224.338	9.12
224.573	-25.88
224.808	-19.88
225.042	-16.88
225.277	10.12
225.511	-3.88
225.746	6.12
225.98	-5.88
226.215	15.12
226.449	18.12
226.683	24.12
226.918	20.12
227.152	33.12
227.387	31.12
227.621	45.12
227.856	44.12
228.09	40.12
228.324	56.12
228.559	60.12
228.793	53.12
229.027	80.12
229.262	104.12
229.496	112.12
229.73	124.12
229.964	124.12
230.199	111.12
230.433	116.12
230.667	122.12
230.901	120.12
231.136	103.12
231.37	99.12
231.604	127.12
231.838	102.12
232.072	110.12
232.306	132.12
232.541	102.12
232.775	101.12
233.009	106.12
233.243	119.12
233.477	107.12
233.711	115.12
233.945	117.12
234.179	116.12
234.413	116.12
234.647	119.12
234.881	119.12
235.115	114.12
235.349	107.12
235.583	117.12
235.817	110.12
236.051	120.12
236.285	123.12
236.519	125.12
236.753	124.12
236.987	126.12
237.221	173.12
237.455	200.12
237.689	154.12
237.922	128.12
238.156	128.12
238.39	119.12
238.624	123.12
238.858	130.12
239.091	117.12
239.325	117.12
239.559	113.12
239.793	125.12
240.027	137.12
240.26	146.12
240.494	146.12
240.728	152.12
240.961	145.12
241.195	125.12
241.429	134.12
241.662	152.12
241.896	134.12
242.13	122.12
242.363	126.12
242.597	134.12
242.83	139.12
243.064	148.12
243.298	136.12
243.531	116.12
243.765	138.12
243.998	128.12
244.232	130.12
244.465	149.12
244.699	154.12
244.932	125.12
245.166	144.12
245.399	132.12
245.633	157.12
245.866	125.12
246.099	142.12
246.333	158.12
246.566	147.12
246.8	133.12
247.033	171.12
247.266	148.12
247.5	159.12
247.733	166.12
247.966	156.12
248.2	166.12
248.433	169.12
248.666	169.12
248.899	189.12
249.133	184.12
249.366	186.12
249.599	174.12
249.832	160.12
250.066	180.12
250.299	168.12
250.532	189.12
250.765	189.12
250.998	218.12
251.231	211.12
251.465	223.12
251.698	210.12
251.931	176.12
252.164	196.12
252.397	189.12
252.63	186.12
252.863	197.12
253.096	201.12
253.329	214.12
253.562	207.12
253.795	219.12
254.028	214.12
254.261	207.12
254.494	220.12
254.727	268.12
254.96	257.12
255.193	253.12
255.426	230.12
255.659	219.12
255.892	219.12
256.124	224.12
256.357	207.12
256.59	217.12
256.823	228.12
257.056	225.12
257.289	216.12
257.521	213.12
257.754	212.12
257.987	223.12
258.22	196.12
258.452	204.12
258.685	204.12
258.918	202.12
259.151	215.12
259.383	225.12
259.616	202.12
259.849	217.12
260.081	242.12
260.314	240.12
260.547	251.12
260.779	225.12
261.012	222.12
261.244	222.12
261.477	229.12
261.71	209.12
261.942	214.12
262.175	230.12
262.407	231.12
262.64	216.12
262.872	210.12
263.105	219.12
263.337	221.12
263.57	214.12
263.802	215.12
264.035	224.12
264.267	218.12
264.499	215.12
264.732	218.12
264.964	218.12
265.197	210.12
265.429	217.12
265.661	211.12
265.894	220.12
266.126	232.12
266.358	214.12
266.591	226.12
266.823	228.12
267.055	228.12
267.287	216.12
267.52	224.12
267.752	241.12
267.984	213.12
268.216	231.12
268.448	237.12
268.681	245.12
268.913	252.12
269.145	265.12
269.377	246.12
269.609	266.12
269.841	275.12
270.073	262.12
270.306	275.12
270.538	309.12
270.77	311.12
271.002	308.12
271.234	282.12
271.466	308.12
271.698	312.12
271.93	305.12
272.162	324.12
272.394	306.12
272.626	301.12
272.858	293.12
273.09	306.12
273.322	282.12
273.553	272.12
273.785	270.12
274.017	281.12
274.249	284.12
274.481	268.12
274.713	265.12
274.945	274.12
275.176	274.12
275.408	285.12
275.64	260.12
275.872	272.12
276.104	281.12
276.335	284.12
276.567	279.12
276.799	302.12
277.031	295.12
277.262	322.12
277.494	313.12
277.726	305.12
277.957	308.12
278.189	274.12
278.421	296.12
278.652	267.12
278.884	281.12
279.115	260.12
279.347	279.12
279.579	259.12
279.81	272.12
280.042	274.12
280.273	267.12
280.505	285.12
280.736	283.12
280.968	271.12
281.199	265.12
281.431	294.12
281.662	274.12
281.894	284.12
282.125	299.12
282.356	298.12
282.588	310.12
282.819	296.12
283.051	304.12
283.282	292.12
283.513	285.12
283.745	301.12
283.976	290.12
284.207	290.12
284.439	304.12
284.67	281.12
284.901	288.12
285.132	272.12
285.364	301.12
285.595	294.12
285.826	307.12
286.057	306.12
286.288	290.12
286.52	311.12
286.751	313.12
286.982	300.12
287.213	297.12
287.444	288.12
287.675	305.12
287.906	307.12
288.138	320.12
288.369	304.12
288.6	303.12
288.831	306.12
289.062	304.12
289.293	313.12
289.524	315.12
289.755	331.12
289.986	310.12
290.217	312.12
290.448	300.12
290.679	294.12
290.91	305.12
291.141	289.12
291.371	303.12
291.602	301.12
291.833	311.12
292.064	316.12
292.295	306.12
292.526	306.12
292.757	313.12
292.987	316.12
293.218	311.12
293.449	296.12
293.68	305.12
293.91	307.12
294.141	313.12
294.372	310.12
294.603	315.12
294.833	317.12
295.064	292.12
295.295	292.12
295.525	296.12
295.756	324.12
295.987	315.12
296.217	326.12
296.448	324.12
296.679	322.12
296.909	308.12
297.14	279.12
297.37	310.12
297.601	326.12
297.831	303.12
298.062	315.12
298.292	328.12
298.523	316.12
298.753	320.12
298.984	320.12
299.214	344.12
299.445	320.12
299.675	320.12
299.905	332.12
300.136	320.12
300.366	325.12
300.597	326.12
300.827	320.12
301.057	345.12
301.288	328.12
301.518	362.12
301.748	347.12
301.979	352.12
302.209	338.12
302.439	343.12
302.669	325.12
302.9	321.12
303.13	348.12
303.36	349.12
303.59	360.12
303.82	349.12
304.051	342.12
304.281	346.12
304.511	344.12
304.741	355.12
304.971	336.12
305.201	345.12
305.431	324.12
305.661	328.12
305.891	333.12
306.121	341.12
306.352	340.12
306.582	352.12
306.812	359.12
307.042	358.12
307.272	353.12
307.502	352.12
307.731	345.12
307.961	359.12
308.191	342.12
308.421	357.12
308.651	346.12
308.881	340.12
309.111	349.12
309.341	355.12
309.571	376.12
309.8	358.12
310.03	374.12
310.26	386.12
310.49	393.12
310.72	375.12
310.949	390.12
311.179	396.12
311.409	397.12
311.639	380.12
311.868	373.12
312.098	379.12
312.328	376.12
312.557	393.12
312.787	405.12
313.017	395.12
313.246	400.12
313.476	384.12
313.706	378.12
313.935	392.12
314.165	405.12
314.394	414.12
314.624	406.12
314.853	395.12
315.083	395.12
315.312	404.12
315.542	392.12
315.771	371.12
316.001	404.12
316.23	376.12
316.46	348.12
316.689	389.12
316.919	389.12
317.148	381.12
317.377	387.12
317.607	395.12
317.836	387.12
318.065	398.12
318.295	398.12
318.524	387.12
318.753	375.12
318.983	376.12
319.212	361.12
319.441	388.12
319.67	410.12
319.9	385.12
320.129	400.12
320.358	377.12
320.587	407.12
320.816	397.12
321.046	390.12
321.275	414.12
321.504	403.12
321.733	419.12
321.962	406.12
322.191	429.12
322.42	413.12
322.649	436.12
322.878	416.12
323.108	437.12
323.337	450.12
323.566	483.12
323.795	514.12
324.024	534.12
324.253	629.12
324.482	865.12
324.71	1266.12
324.939	1779.12
325.168	1520.12
325.397	826.12
325.626	553.12
325.855	488.12
326.084	489.12
326.313	494.12
326.542	477.12
326.77	512.12
326.999	610.12
327.228	801.12
327.457	1151.12
327.686	1316.12
327.914	902.12
328.143	630.12
328.372	552.12
328.6	553.12
328.829	514.12
329.058	520.12
329.287	544.12
329.515	488.12
329.744	488.12
329.972	468.12
330.201	488.12
330.43	505.12
330.658	564.12
330.887	545.12
331.115	541.12
331.344	489.12
331.572	500.12
331.801	501.12
332.03	481.12
332.258	480.12
332.486	456.12
332.715	459.12
332.943	469.12
333.172	465.12
333.4	477.12
333.629	486.12
333.857	488.12
334.085	491.12
334.314	501.12
334.542	526.12
334.771	524.12
334.999	491.12
335.227	480.12
335.455	477.12
335.684	462.12
335.912	445.12
336.14	466.12
336.369	472.12
336.597	480.12
336.825	444.12
337.053	473.12
337.281	456.12
337.51	451.12
337.738	437.12
337.966	440.12
338.194	461.12
338.422	449.12
338.65	428.12
338.878	436.12
339.106	436.12
339.334	435.12
339.562	451.12
339.79	445.12
340.018	431.12
340.246	413.12
340.474	442.12
340.702	420.12
340.93	434.12
341.158	430.12
341.386	434.12
341.614	424.12
341.842	422.12
342.07	413.12
342.298	424.12
342.526	420.12
342.754	423.12
342.981	412.12
343.209	414.12
343.437	435.12
343.665	413.12
343.893	451.12
344.12	450.12
344.348	461.12
344.576	457.12
344.804	427.12
345.031	424.12
345.259	439.12
345.487	426.12
345.714	431.12
345.942	428.12
346.17	432.12
346.397	404.12
346.625	423.12
346.853	427.12
347.08	401.12
347.308	406.12
347.535	420.12
347.763	428.12
347.99	421.12
348.218	409.12
348.445	399.12
348.673	409.12
348.9	406.12
349.128	413.12
349.355	378.12
349.583	384.12
349.81	411.12
350.037	395.12
350.265	380.12
350.492	399.12
350.72	401.12
350.947	397.12
351.174	404.12
351.402	424.12
351.629	404.12
351.856	404.12
352.083	412.12
352.311	416.12
352.538	426.12
352.765	418.12
352.992	422.12
353.22	402.12
353.447	408.12
353.674	427.12
353.901	416.12
354.128	413.12
354.355	371.12
354.583	384.12
354.81	384.12
355.037	387.12
355.264	386.12
355.491	388.12
355.718	392.12
355.945	378.12
356.172	391.12
356.399	391.12
356.626	379.12
356.853	400.12
357.08	402.12
357.307	397.12
357.534	398.12
357.761	387.12
357.988	389.12
358.215	377.12
358.441	386.12
358.668	384.12
358.895	409.12
359.122	394.12
359.349	398.12
359.576	401.12
359.802	403.12
360.029	423.12
360.256	428.12
360.483	429.12
360.709	410.12
360.936	401.12
361.163	384.12
361.39	383.12
361.616	390.12
361.843	412.12
362.07	405.12
362.296	406.12
362.523	395.12
362.749	397.12
362.976	401.12
363.203	372.12
363.429	388.12
363.656	392.12
363.882	382.12
364.109	396.12
364.335	380.12
364.562	372.12
364.788	399.12
365.015	376.12
365.241	388.12
365.468	382.12
365.694	383.12
365.92	387.12
366.147	372.12
366.373	377.12
366.599	371.12
366.826	381.12
367.052	384.12
367.278	376.12
367.505	373.12
367.731	388.12
367.957	396.12
368.184	401.12
368.41	394.12
368.636	404.12
368.862	406.12
369.089	408.12
369.315	388.12
369.541	368.12
369.767	397.12
369.993	383.12
370.219	383.12
370.445	383.12
370.672	375.12
370.898	381.12
371.124	399.12
371.35	374.12
371.576	389.12
371.802	385.12
372.028	398.12
372.254	410.12
372.48	368.12
372.706	410.12
372.932	383.12
373.158	364.12
373.384	386.12
373.61	398.12
373.835	374.12
374.061	397.12
374.287	397.12
374.513	386.12
374.739	396.12
374.965	393.12
375.191	411.12
375.416	388.12
375.642	382.12
375.868	385.12
376.094	392.12
376.319	405.12
376.545	377.12
376.771	368.12
376.997	392.12
377.222	396.12
377.448	375.12
377.674	395.12
377.899	356.12
378.125	372.12
378.35	361.12
378.576	386.12
378.802	355.12
379.027	376.12
379.253	361.12
379.478	363.12
379.704	356.12
379.929	382.12
380.155	400.12
380.38	390.12
380.606	378.12
380.831	372.12
381.057	378.12
381.282	390.12
381.507	381.12
381.733	393.12
381.958	389.12
382.184	396.12
382.409	372.12
382.634	406.12
382.86	353.12
383.085	398.12
383.31	402.12
383.535	398.12
383.761	405.12
383.986	402.12
384.211	412.12
384.436	414.12
384.662	426.12
384.887	396.12
385.112	420.12
385.337	406.12
385.562	405.12
385.787	408.12
386.013	428.12
386.238	434.12
386.463	418.12
386.688	418.12
386.913	440.12
387.138	424.12
387.363	409.12
387.588	413.12
387.813	385.12
388.038	406.12
388.263	404.12
388.488	426.12
388.713	408.12
388.938	421.12
389.163	423.12
389.387	416.12
389.612	407.12
389.837	427.12
390.062	432.12
390.287	407.12
390.512	409.12
390.736	428.12
390.961	429.12
391.186	410.12
391.411	409.12
391.636	442.12
391.86	432.12
392.085	444.12
392.31	435.12
392.534	433.12
392.759	444.12
392.984	418.12
393.208	425.12
393.433	415.12
393.658	434.12
393.882	441.12
394.107	422.12
394.331	421.12
394.556	420.12
394.78	417.12
395.005	445.12
395.229	422.12
395.454	424.12
395.678	437.12
395.903	460.12
396.127	449.12
396.352	469.12
396.576	462.12
396.801	422.12
397.025	420.12
397.249	435.12
397.474	434.12
397.698	456.12
397.922	460.12
398.147	468.12
398.371	469.12
398.595	466.12
398.82	488.12
399.044	497.12
399.268	514.12
399.492	534.12
399.717	569.12
399.941	594.12
400.165	583.12
400.389	608.12
400.613	533.12
400.837	504.12
401.062	476.12
401.286	455.12
401.51	491.12
401.734	470.12
401.958	477.12
402.182	467.12
402.406	491.12
402.63	478.12
402.854	478.12
403.078	479.12
403.302	493.12
403.526	484.12
403.75	484.12
403.974	480.12
404.198	485.12
404.422	506.12
404.645	482.12
404.869	494.12
405.093	525.12
405.317	564.12
405.541	582.12
405.765	543.12
405.988	502.12
406.212	511.12
406.436	541.12
406.66	546.12
406.883	537.12
407.107	587.12
407.331	612.12
407.555	632.12
407.778	630.12
408.002	586.12
408.226	560.12
408.449	521.12
408.673	536.12
408.896	565.12
409.12	594.12
409.344	576.12
409.567	532.12
409.791	503.12
410.014	493.12
410.238	498.12
410.461	474.12
410.685	492.12
410.908	496.12
411.132	520.12
411.355	573.12
411.578	536.12
411.802	501.12
412.025	486.12
412.249	483.12
412.472	534.12
412.695	546.12
412.919	544.12
413.142	497.12
413.365	477.12
413.589	489.12
413.812	467.12
414.035	455.12
414.258	465.12
414.482	447.12
414.705	458.12
414.928	454.12
415.151	440.12
415.374	459.12
415.597	463.12
415.821	440.12
416.044	472.12
416.267	441.12
416.49	443.12
416.713	473.12
416.936	470.12
417.159	463.12
417.382	466.12
417.605	474.12
417.828	473.12
418.051	483.12
418.274	455.12
418.497	465.12
418.72	469.12
418.943	448.12
419.166	484.12
419.389	499.12
419.611	486.12
419.834	501.12
420.057	489.12
420.28	480.12
420.503	473.12
420.726	482.12
420.948	474.12
421.171	510.12
421.394	546.12
421.617	494.12
421.839	462.12
422.062	481.12
422.285	473.12
422.507	547.12
422.73	591.12
422.953	555.12
423.175	515.12
423.398	496.12
423.621	494.12
423.843	524.12
424.066	503.12
424.288	511.12
424.511	530.12
424.733	591.12
424.956	642.12
425.178	588.12
425.401	597.12
425.623	616.12
425.846	529.12
426.068	504.12
426.291	488.12
426.513	493.12
426.735	506.12
426.958	544.12
427.18	591.12
427.402	727.12
427.625	761.12
427.847	633.12
428.069	561.12
428.292	511.12
428.514	499.12
428.736	473.12
428.958	462.12
429.181	464.12
429.403	455.12
429.625	473.12
429.847	532.12
430.069	568.12
430.292	534.12
430.514	470.12
430.736	472.12
430.958	455.12
431.18	443.12
431.402	435.12
431.624	454.12
431.846	440.12
432.068	446.12
432.29	442.12
432.512	436.12
432.734	447.12
432.956	459.12
433.178	443.12
433.4	474.12
433.622	464.12
433.844	455.12
434.066	425.12
434.287	454.12
434.509	448.12
434.731	442.12
434.953	448.12
435.175	479.12
435.397	500.12
435.618	492.12
435.84	520.12
436.062	630.12
436.284	646.12
436.505	575.12
436.727	498.12
436.949	471.12
437.17	455.12
437.392	443.12
437.614	460.12
437.835	499.12
438.057	561.12
438.278	643.12
438.5	647.12
438.721	713.12
438.943	683.12
439.165	548.12
439.386	502.12
439.608	498.12
439.829	508.12
440.05	520.12
440.272	531.12
440.493	528.12
440.715	480.12
440.936	453.12
441.158	474.12
441.379	448.12
441.6	492.12
441.822	501.12
442.043	542.12
442.264	570.12
442.486	624.12
442.707	526.12
442.928	491.12
443.149	498.12
443.371	515.12
443.592	564.12
443.813	640.12
444.034	700.12
444.255	588.12
444.476	525.12
444.698	503.12
444.919	497.12
445.14	591.12
445.361	543.12
445.582	536.12
445.803	571.12
446.024	650.12
446.245	660.12
446.466	604.12
446.687	509.12
446.908	480.12
447.129	467.12
447.35	446.12
447.571	452.12
447.792	438.12
448.013	447.12
448.234	464.12
448.455	523.12
448.675	587.12
448.896	698.12
449.117	598.12
449.338	573.12
449.559	663.12
449.779	734.12
450	560.12
450.221	482.12
450.442	468.12
450.662	450.12
450.883	445.12
451.104	462.12
451.324	426.12
451.545	417.12
451.766	422.12
451.986	410.12
452.207	410.12
452.428	409.12
452.648	411.12
452.869	392.12
453.089	398.12
453.31	411.12
453.53	417.12
453.751	422.12
453.971	416.12
454.192	425.12
454.412	406.12
454.633	400.12
454.853	411.12
455.073	399.12
455.294	435.12
455.514	484.12
455.734	454.12
455.955	396.12
456.175	376.12
456.395	386.12
456.616	374.12
456.836	378.12
457.056	378.12
457.276	373.12
457.497	390.12
457.717	395.12
457.937	403.12
458.157	395.12
458.377	392.12
458.598	412.12
458.818	451.12
459.038	504.12
459.258	556.12
459.478	477.12
459.698	438.12
459.918	409.12
460.138	441.12
460.358	436.12
460.578	437.12
460.798	460.12
461.018	441.12
461.238	443.12
461.458	469.12
461.678	438.12
461.898	450.12
462.118	453.12
462.338	472.12
462.558	469.12
462.777	462.12
462.997	489.12
463.217	488.12
463.437	514.12
463.657	485.12
463.876	496.12
464.096	500.12
464.316	487.12
464.536	483.12
464.755	489.12
464.975	476.12
465.195	470.12
465.414	528.12
465.634	488.12
465.854	443.12
466.073	435.12
466.293	430.12
466.512	418.12
466.732	406.12
466.951	417.12
467.171	422.12
467.391	410.12
467.61	443.12
467.829	415.12
468.049	434.12
468.268	395.12
468.488	414.12
468.707	399.12
468.927	376.12
469.146	388.12
469.365	398.12
469.585	403.12
469.804	410.12
470.023	416.12
470.243	410.12
470.462	414.12
470.681	443.12
470.901	424.12
471.12	410.12
471.339	419.12
471.558	427.12
471.777	446.12
471.997	413.12
472.216	424.12
472.435	432.12
472.654	433.12
472.873	415.12
473.092	416.12
473.311	397.12
473.53	393.12
473.749	402.12
473.968	470.12
474.187	539.12
474.406	583.12
474.625	471.12
474.844	408.12
475.063	432.12
475.282	417.12
475.501	428.12
475.72	444.12
475.939	412.12
476.158	437.12
476.377	430.12
476.596	427.12
476.814	428.12
477.033	429.12
477.252	438.12
477.471	460.12
477.69	443.12
477.908	459.12
478.127	456.12
478.346	456.12
478.564	466.12
478.783	466.12
479.002	491.12
479.22	483.12
479.439	508.12
479.658	520.12
479.876	497.12
480.095	498.12
480.313	537.12
480.532	532.12
480.751	525.12
480.969	498.12
481.188	560.12
481.406	561.12
481.624	514.12
481.843	493.12
482.061	496.12
482.28	459.12
482.498	468.12
482.717	486.12
482.935	476.12
483.153	450.12
483.372	474.12
483.59	468.12
483.808	474.12
484.027	480.12
484.245	483.12
484.463	489.12
484.681	500.12
484.9	470.12
485.118	485.12
485.336	497.12
485.554	507.12
485.772	484.12
485.99	491.12
486.209	504.12
486.427	501.12
486.645	508.12
486.863	511.12
487.081	525.12
487.299	502.12
487.517	512.12
487.735	515.12
487.953	524.12
488.171	525.12
488.389	510.12
488.607	511.12
488.825	521.12
489.043	523.12
489.261	505.12
489.479	513.12
489.696	513.12
489.914	513.12
490.132	520.12
490.35	530.12
490.568	527.12
490.786	538.12
491.003	545.12
491.221	558.12
491.439	542.12
491.657	580.12
491.874	556.12
492.092	555.12
492.31	573.12
492.527	557.12
492.745	576.12
492.963	597.12
493.18	579.12
493.398	592.12
493.615	573.12
493.833	581.12
494.05	608.12
494.268	590.12
494.485	591.12
494.703	592.12
494.92	563.12
495.138	598.12
495.355	596.12
495.573	604.12
495.79	614.12
496.008	590.12
496.225	603.12
496.442	617.12
496.66	588.12
496.877	592.12
497.094	605.12
497.312	599.12
497.529	628.12
497.746	646.12
497.963	654.12
498.181	631.12
498.398	670.12
498.615	694.12
498.832	712.12
499.049	730.12
499.267	720.12
499.484	782.12
499.701	814.12
499.918	859.12
500.135	862.12
500.352	921.12
500.569	948.12
500.786	933.12
501.003	909.12
501.22	906.12
501.437	865.12
501.654	820.12
501.871	806.12
