Data from 1977.PennyLincolnUp.Lamp.En5.5.200Scan.071719.P1_HRD10591_16-06-15-864.txt Node
Date: Thu Jul 18 16:06:15 EDT 2019
User: cochatt
Spectrometer: HR+D1059
Trigger mode: 1
Integration Time (sec): 1.000000E-1
Scans to average: 1
Electric dark correction enabled: true
Nonlinearity correction enabled: false
Boxcar width: 0
XAxis mode: Wavelengths
Number of Pixels in Spectrum: 2048
>>>>>Begin Spectral Data<<<<<
223.165	-6.94
223.4	-6.94
223.635	-6.94
223.869	-16.94
224.104	-13.94
224.338	-15.94
224.573	-20.94
224.808	5.06
225.042	-11.94
225.277	-4.94
225.511	-16.94
225.746	5.06
225.98	-4.94
226.215	18.06
226.449	12.06
226.683	16.06
226.918	29.06
227.152	28.06
227.387	46.06
227.621	34.06
227.856	41.06
228.09	48.06
228.324	49.06
228.559	50.06
228.793	69.06
229.027	86.06
229.262	97.06
229.496	103.06
229.73	112.06
229.964	144.06
230.199	128.06
230.433	93.06
230.667	106.06
230.901	128.06
231.136	114.06
231.37	118.06
231.604	106.06
231.838	121.06
232.072	118.06
232.306	106.06
232.541	114.06
232.775	123.06
233.009	103.06
233.243	114.06
233.477	116.06
233.711	104.06
233.945	118.06
234.179	123.06
234.413	117.06
234.647	105.06
234.881	96.06
235.115	107.06
235.349	132.06
235.583	130.06
235.817	108.06
236.051	114.06
236.285	148.06
236.519	107.06
236.753	141.06
236.987	134.06
237.221	148.06
237.455	195.06
237.689	160.06
237.922	138.06
238.156	117.06
238.39	128.06
238.624	123.06
238.858	129.06
239.091	134.06
239.325	125.06
239.559	126.06
239.793	123.06
240.027	129.06
240.26	148.06
240.494	153.06
240.728	153.06
240.961	150.06
241.195	132.06
241.429	127.06
241.662	143.06
241.896	137.06
242.13	130.06
242.363	135.06
242.597	136.06
242.83	122.06
243.064	134.06
243.298	132.06
243.531	147.06
243.765	125.06
243.998	140.06
244.232	139.06
244.465	147.06
244.699	144.06
244.932	159.06
245.166	164.06
245.399	146.06
245.633	148.06
245.866	144.06
246.099	145.06
246.333	142.06
246.566	139.06
246.8	146.06
247.033	162.06
247.266	168.06
247.5	149.06
247.733	151.06
247.966	163.06
248.2	168.06
248.433	168.06
248.666	169.06
248.899	184.06
249.133	186.06
249.366	190.06
249.599	198.06
249.832	172.06
250.066	194.06
250.299	175.06
250.532	193.06
250.765	188.06
250.998	207.06
251.231	202.06
251.465	212.06
251.698	209.06
251.931	192.06
252.164	205.06
252.397	191.06
252.63	186.06
252.863	197.06
253.096	186.06
253.329	207.06
253.562	197.06
253.795	200.06
254.028	188.06
254.261	213.06
254.494	207.06
254.727	227.06
254.96	242.06
255.193	231.06
255.426	226.06
255.659	230.06
255.892	228.06
256.124	214.06
256.357	234.06
256.59	203.06
256.823	196.06
257.056	204.06
257.289	212.06
257.521	228.06
257.754	213.06
257.987	203.06
258.22	198.06
258.452	212.06
258.685	215.06
258.918	212.06
259.151	194.06
259.383	214.06
259.616	212.06
259.849	219.06
260.081	237.06
260.314	227.06
260.547	229.06
260.779	218.06
261.012	230.06
261.244	222.06
261.477	227.06
261.71	210.06
261.942	230.06
262.175	235.06
262.407	223.06
262.64	212.06
262.872	219.06
263.105	212.06
263.337	222.06
263.57	218.06
263.802	206.06
264.035	215.06
264.267	210.06
264.499	204.06
264.732	228.06
264.964	214.06
265.197	197.06
265.429	224.06
265.661	220.06
265.894	198.06
266.126	231.06
266.358	202.06
266.591	208.06
266.823	226.06
267.055	227.06
267.287	215.06
267.52	217.06
267.752	226.06
267.984	227.06
268.216	228.06
268.448	229.06
268.681	233.06
268.913	242.06
269.145	260.06
269.377	270.06
269.609	285.06
269.841	233.06
270.073	250.06
270.306	279.06
270.538	286.06
270.77	289.06
271.002	299.06
271.234	286.06
271.466	272.06
271.698	276.06
271.93	306.06
272.162	300.06
272.394	303.06
272.626	290.06
272.858	283.06
273.09	276.06
273.322	268.06
273.553	286.06
273.785	263.06
274.017	252.06
274.249	246.06
274.481	248.06
274.713	260.06
274.945	287.06
275.176	275.06
275.408	278.06
275.64	259.06
275.872	256.06
276.104	256.06
276.335	283.06
276.567	276.06
276.799	282.06
277.031	295.06
277.262	302.06
277.494	302.06
277.726	309.06
277.957	286.06
278.189	281.06
278.421	275.06
278.652	276.06
278.884	286.06
279.115	267.06
279.347	287.06
279.579	262.06
279.81	258.06
280.042	284.06
280.273	272.06
280.505	296.06
280.736	271.06
280.968	271.06
281.199	284.06
281.431	272.06
281.662	270.06
281.894	264.06
282.125	291.06
282.356	304.06
282.588	287.06
282.819	320.06
283.051	295.06
283.282	282.06
283.513	284.06
283.745	284.06
283.976	294.06
284.207	280.06
284.439	292.06
284.67	294.06
284.901	291.06
285.132	278.06
285.364	286.06
285.595	304.06
285.826	272.06
286.057	287.06
286.288	286.06
286.52	286.06
286.751	285.06
286.982	293.06
287.213	290.06
287.444	302.06
287.675	295.06
287.906	314.06
288.138	304.06
288.369	322.06
288.6	307.06
288.831	320.06
289.062	293.06
289.293	310.06
289.524	309.06
289.755	315.06
289.986	291.06
290.217	320.06
290.448	322.06
290.679	297.06
290.91	314.06
291.141	310.06
291.371	314.06
291.602	318.06
291.833	307.06
292.064	313.06
292.295	298.06
292.526	308.06
292.757	298.06
292.987	278.06
293.218	303.06
293.449	322.06
293.68	298.06
293.91	296.06
294.141	304.06
294.372	302.06
294.603	297.06
294.833	307.06
295.064	284.06
295.295	307.06
295.525	315.06
295.756	311.06
295.987	330.06
296.217	319.06
296.448	346.06
296.679	338.06
296.909	331.06
297.14	312.06
297.37	308.06
297.601	316.06
297.831	311.06
298.062	315.06
298.292	332.06
298.523	335.06
298.753	314.06
298.984	322.06
299.214	326.06
299.445	326.06
299.675	323.06
299.905	324.06
300.136	320.06
300.366	339.06
300.597	322.06
300.827	338.06
301.057	342.06
301.288	345.06
301.518	339.06
301.748	346.06
301.979	345.06
302.209	353.06
302.439	364.06
302.669	343.06
302.9	336.06
303.13	342.06
303.36	334.06
303.59	334.06
303.82	344.06
304.051	336.06
304.281	343.06
304.511	351.06
304.741	333.06
304.971	345.06
305.201	339.06
305.431	349.06
305.661	333.06
305.891	347.06
306.121	338.06
306.352	342.06
306.582	353.06
306.812	347.06
307.042	332.06
307.272	357.06
307.502	322.06
307.731	344.06
307.961	342.06
308.191	360.06
308.421	340.06
308.651	350.06
308.881	356.06
309.111	352.06
309.341	346.06
309.571	361.06
309.8	375.06
310.03	348.06
310.26	349.06
310.49	379.06
310.72	376.06
310.949	381.06
311.179	401.06
311.409	378.06
311.639	382.06
311.868	363.06
312.098	382.06
312.328	376.06
312.557	385.06
312.787	391.06
313.017	404.06
313.246	393.06
313.476	380.06
313.706	388.06
313.935	364.06
314.165	404.06
314.394	390.06
314.624	390.06
314.853	397.06
315.083	378.06
315.312	390.06
315.542	375.06
315.771	383.06
316.001	375.06
316.23	380.06
316.46	372.06
316.689	394.06
316.919	398.06
317.148	377.06
317.377	382.06
317.607	378.06
317.836	394.06
318.065	377.06
318.295	383.06
318.524	386.06
318.753	403.06
318.983	394.06
319.212	378.06
319.441	395.06
319.67	389.06
319.9	370.06
320.129	397.06
320.358	388.06
320.587	403.06
320.816	381.06
321.046	395.06
321.275	396.06
321.504	424.06
321.733	409.06
321.962	408.06
322.191	425.06
322.42	386.06
322.649	426.06
322.878	435.06
323.108	437.06
323.337	465.06
323.566	461.06
323.795	474.06
324.024	509.06
324.253	608.06
324.482	791.06
324.71	1202.06
324.939	1596.06
325.168	1359.06
325.397	749.06
325.626	555.06
325.855	502.06
326.084	470.06
326.313	459.06
326.542	468.06
326.77	492.06
326.999	547.06
327.228	728.06
327.457	1054.06
327.686	1168.06
327.914	842.06
328.143	599.06
328.372	566.06
328.6	516.06
328.829	496.06
329.058	469.06
329.287	493.06
329.515	491.06
329.744	468.06
329.972	459.06
330.201	476.06
330.43	518.06
330.658	516.06
330.887	534.06
331.115	515.06
331.344	474.06
331.572	461.06
331.801	482.06
332.03	486.06
332.258	451.06
332.486	459.06
332.715	457.06
332.943	451.06
333.172	447.06
333.4	463.06
333.629	484.06
333.857	476.06
334.085	492.06
334.314	525.06
334.542	498.06
334.771	495.06
334.999	492.06
335.227	487.06
335.455	460.06
335.684	485.06
335.912	464.06
336.14	444.06
336.369	428.06
336.597	439.06
336.825	455.06
337.053	453.06
337.281	452.06
337.51	437.06
337.738	462.06
337.966	447.06
338.194	447.06
338.422	446.06
338.65	453.06
338.878	426.06
339.106	424.06
339.334	425.06
339.562	430.06
339.79	413.06
340.018	440.06
340.246	426.06
340.474	418.06
340.702	440.06
340.93	438.06
341.158	425.06
341.386	415.06
341.614	400.06
341.842	419.06
342.07	434.06
342.298	411.06
342.526	410.06
342.754	411.06
342.981	403.06
343.209	432.06
343.437	434.06
343.665	430.06
343.893	435.06
344.12	459.06
344.348	444.06
344.576	438.06
344.804	428.06
345.031	419.06
345.259	445.06
345.487	440.06
345.714	431.06
345.942	422.06
346.17	422.06
346.397	404.06
346.625	395.06
346.853	416.06
347.08	395.06
347.308	399.06
347.535	422.06
347.763	418.06
347.99	402.06
348.218	407.06
348.445	411.06
348.673	395.06
348.9	408.06
349.128	408.06
349.355	395.06
349.583	398.06
349.81	395.06
350.037	400.06
350.265	382.06
350.492	407.06
350.72	411.06
350.947	401.06
351.174	409.06
351.402	417.06
351.629	415.06
351.856	419.06
352.083	402.06
352.311	417.06
352.538	418.06
352.765	410.06
352.992	407.06
353.22	394.06
353.447	396.06
353.674	411.06
353.901	414.06
354.128	373.06
354.355	389.06
354.583	371.06
354.81	383.06
355.037	405.06
355.264	382.06
355.491	362.06
355.718	363.06
355.945	391.06
356.172	378.06
356.399	367.06
356.626	372.06
356.853	378.06
357.08	386.06
357.307	388.06
357.534	381.06
357.761	394.06
357.988	359.06
358.215	402.06
358.441	370.06
358.668	374.06
358.895	414.06
359.122	383.06
359.349	398.06
359.576	421.06
359.802	415.06
360.029	428.06
360.256	424.06
360.483	410.06
360.709	416.06
360.936	390.06
361.163	404.06
361.39	402.06
361.616	404.06
361.843	409.06
362.07	395.06
362.296	392.06
362.523	389.06
362.749	396.06
362.976	400.06
363.203	376.06
363.429	381.06
363.656	394.06
363.882	384.06
364.109	389.06
364.335	382.06
364.562	356.06
364.788	384.06
365.015	374.06
365.241	378.06
365.468	373.06
365.694	380.06
365.92	378.06
366.147	382.06
366.373	372.06
366.599	380.06
366.826	372.06
367.052	380.06
367.278	376.06
367.505	402.06
367.731	383.06
367.957	361.06
368.184	376.06
368.41	376.06
368.636	385.06
368.862	378.06
369.089	377.06
369.315	392.06
369.541	371.06
369.767	388.06
369.993	383.06
370.219	389.06
370.445	380.06
370.672	394.06
370.898	383.06
371.124	382.06
371.35	388.06
371.576	375.06
371.802	387.06
372.028	386.06
372.254	380.06
372.48	400.06
372.706	390.06
372.932	384.06
373.158	403.06
373.384	365.06
373.61	378.06
373.835	383.06
374.061	380.06
374.287	395.06
374.513	379.06
374.739	395.06
374.965	408.06
375.191	391.06
375.416	422.06
375.642	376.06
375.868	371.06
376.094	384.06
376.319	360.06
376.545	376.06
376.771	379.06
376.997	396.06
377.222	388.06
377.448	399.06
377.674	360.06
377.899	388.06
378.125	380.06
378.35	391.06
378.576	384.06
378.802	364.06
379.027	376.06
379.253	398.06
379.478	382.06
379.704	378.06
379.929	389.06
380.155	374.06
380.38	375.06
380.606	378.06
380.831	394.06
381.057	388.06
381.282	371.06
381.507	380.06
381.733	383.06
381.958	378.06
382.184	378.06
382.409	412.06
382.634	396.06
382.86	380.06
383.085	374.06
383.31	390.06
383.535	387.06
383.761	377.06
383.986	389.06
384.211	403.06
384.436	396.06
384.662	400.06
384.887	409.06
385.112	414.06
385.337	403.06
385.562	418.06
385.787	408.06
386.013	420.06
386.238	425.06
386.463	430.06
386.688	419.06
386.913	405.06
387.138	420.06
387.363	414.06
387.588	429.06
387.813	422.06
388.038	411.06
388.263	398.06
388.488	408.06
388.713	419.06
388.938	416.06
389.163	439.06
389.387	408.06
389.612	427.06
389.837	438.06
390.062	424.06
390.287	416.06
390.512	418.06
390.736	413.06
390.961	411.06
391.186	401.06
391.411	425.06
391.636	421.06
391.86	421.06
392.085	427.06
392.31	421.06
392.534	446.06
392.759	434.06
392.984	428.06
393.208	438.06
393.433	425.06
393.658	414.06
393.882	395.06
394.107	414.06
394.331	414.06
394.556	415.06
394.78	422.06
395.005	434.06
395.229	432.06
395.454	445.06
395.678	430.06
395.903	434.06
396.127	468.06
396.352	441.06
396.576	445.06
396.801	418.06
397.025	428.06
397.249	423.06
397.474	449.06
397.698	465.06
397.922	468.06
398.147	464.06
398.371	469.06
398.595	467.06
398.82	480.06
399.044	490.06
399.268	517.06
399.492	524.06
399.717	576.06
399.941	600.06
400.165	596.06
400.389	595.06
400.613	558.06
400.837	517.06
401.062	487.06
401.286	488.06
401.51	476.06
401.734	472.06
401.958	495.06
402.182	477.06
402.406	500.06
402.63	482.06
402.854	480.06
403.078	446.06
403.302	502.06
403.526	483.06
403.75	503.06
403.974	480.06
404.198	482.06
404.422	485.06
404.645	490.06
404.869	498.06
405.093	536.06
405.317	560.06
405.541	549.06
405.765	509.06
405.988	498.06
406.212	500.06
406.436	525.06
406.66	534.06
406.883	538.06
407.107	543.06
407.331	580.06
407.555	657.06
407.778	626.06
408.002	589.06
408.226	540.06
408.449	546.06
408.673	540.06
408.896	558.06
409.12	600.06
409.344	568.06
409.567	511.06
409.791	498.06
410.014	492.06
410.238	509.06
410.461	500.06
410.685	485.06
410.908	510.06
411.132	491.06
411.355	550.06
411.578	531.06
411.802	464.06
412.025	510.06
412.249	504.06
412.472	503.06
412.695	523.06
412.919	526.06
413.142	479.06
413.365	483.06
413.589	471.06
413.812	483.06
414.035	470.06
414.258	470.06
414.482	468.06
414.705	463.06
414.928	457.06
415.151	459.06
415.374	464.06
415.597	435.06
415.821	449.06
416.044	442.06
416.267	461.06
416.49	463.06
416.713	445.06
416.936	464.06
417.159	448.06
417.382	460.06
417.605	447.06
417.828	478.06
418.051	468.06
418.274	482.06
418.497	469.06
418.72	462.06
418.943	434.06
419.166	482.06
419.389	486.06
419.611	491.06
419.834	483.06
420.057	491.06
420.28	484.06
420.503	463.06
420.726	453.06
420.948	485.06
421.171	531.06
421.394	547.06
421.617	473.06
421.839	484.06
422.062	482.06
422.285	498.06
422.507	515.06
422.73	597.06
422.953	581.06
423.175	502.06
423.398	502.06
423.621	482.06
423.843	500.06
424.066	517.06
424.288	507.06
424.511	510.06
424.733	575.06
424.956	606.06
425.178	604.06
425.401	582.06
425.623	612.06
425.846	516.06
426.068	503.06
426.291	476.06
426.513	456.06
426.735	487.06
426.958	514.06
427.18	594.06
427.402	677.06
427.625	762.06
427.847	616.06
428.069	563.06
428.292	500.06
428.514	475.06
428.736	445.06
428.958	472.06
429.181	440.06
429.403	445.06
429.625	472.06
429.847	476.06
430.069	514.06
430.292	527.06
430.514	477.06
430.736	457.06
430.958	446.06
431.18	444.06
431.402	435.06
431.624	426.06
431.846	421.06
432.068	432.06
432.29	413.06
432.512	446.06
432.734	447.06
432.956	459.06
433.178	449.06
433.4	458.06
433.622	427.06
433.844	441.06
434.066	443.06
434.287	425.06
434.509	446.06
434.731	459.06
434.953	459.06
435.175	478.06
435.397	493.06
435.618	499.06
435.84	512.06
436.062	590.06
436.284	642.06
436.505	527.06
436.727	499.06
436.949	457.06
437.17	438.06
437.392	447.06
437.614	471.06
437.835	505.06
438.057	589.06
438.278	639.06
438.5	646.06
438.721	708.06
438.943	679.06
439.165	528.06
439.386	488.06
439.608	479.06
439.829	479.06
440.05	496.06
440.272	547.06
440.493	502.06
440.715	459.06
440.936	468.06
441.158	470.06
441.379	454.06
441.6	478.06
441.822	469.06
442.043	511.06
442.264	605.06
442.486	619.06
442.707	502.06
442.928	514.06
443.149	498.06
443.371	510.06
443.592	571.06
443.813	638.06
444.034	685.06
444.255	556.06
444.476	524.06
444.698	508.06
444.919	506.06
445.14	589.06
445.361	535.06
445.582	506.06
445.803	564.06
446.024	640.06
446.245	652.06
446.466	592.06
446.687	508.06
446.908	494.06
447.129	442.06
447.35	450.06
447.571	458.06
447.792	444.06
448.013	442.06
448.234	445.06
448.455	503.06
448.675	589.06
448.896	692.06
449.117	596.06
449.338	541.06
449.559	612.06
449.779	727.06
450	554.06
450.221	478.06
450.442	432.06
450.662	442.06
450.883	440.06
451.104	434.06
451.324	445.06
451.545	434.06
451.766	418.06
451.986	388.06
452.207	398.06
452.428	415.06
452.648	390.06
452.869	390.06
453.089	400.06
453.31	414.06
453.53	400.06
453.751	390.06
453.971	398.06
454.192	395.06
454.412	380.06
454.633	396.06
454.853	395.06
455.073	414.06
455.294	414.06
455.514	463.06
455.734	483.06
455.955	429.06
456.175	393.06
456.395	375.06
456.616	380.06
456.836	375.06
457.056	363.06
457.276	382.06
457.497	380.06
457.717	375.06
457.937	393.06
458.157	392.06
458.377	408.06
458.598	421.06
458.818	456.06
459.038	492.06
459.258	516.06
459.478	458.06
459.698	454.06
459.918	432.06
460.138	447.06
460.358	460.06
460.578	454.06
460.798	473.06
461.018	454.06
461.238	454.06
461.458	439.06
461.678	445.06
461.898	442.06
462.118	447.06
462.338	459.06
462.558	459.06
462.777	453.06
462.997	512.06
463.217	498.06
463.437	490.06
463.657	503.06
463.876	478.06
464.096	475.06
464.316	487.06
464.536	478.06
464.755	501.06
464.975	484.06
465.195	497.06
465.414	519.06
465.634	475.06
465.854	461.06
466.073	439.06
466.293	431.06
466.512	408.06
466.732	421.06
466.951	404.06
467.171	422.06
467.391	408.06
467.61	418.06
467.829	414.06
468.049	412.06
468.268	424.06
468.488	425.06
468.707	397.06
468.927	417.06
469.146	414.06
469.365	399.06
469.585	410.06
469.804	398.06
470.023	397.06
470.243	437.06
470.462	419.06
470.681	412.06
470.901	436.06
471.12	431.06
471.339	406.06
471.558	430.06
471.777	400.06
471.997	412.06
472.216	432.06
472.435	447.06
472.654	420.06
472.873	412.06
473.092	410.06
473.311	399.06
473.53	388.06
473.749	420.06
473.968	460.06
474.187	512.06
474.406	509.06
474.625	439.06
474.844	415.06
475.063	408.06
475.282	413.06
475.501	400.06
475.72	410.06
475.939	431.06
476.158	416.06
476.377	424.06
476.596	439.06
476.814	428.06
477.033	436.06
477.252	440.06
477.471	433.06
477.69	444.06
477.908	451.06
478.127	430.06
478.346	438.06
478.564	459.06
478.783	461.06
479.002	484.06
479.22	485.06
479.439	486.06
479.658	471.06
479.876	491.06
480.095	498.06
480.313	502.06
480.532	516.06
480.751	494.06
480.969	505.06
481.188	536.06
481.406	547.06
481.624	491.06
481.843	489.06
482.061	471.06
482.28	478.06
482.498	502.06
482.717	495.06
482.935	484.06
483.153	477.06
483.372	481.06
483.59	479.06
483.808	473.06
484.027	480.06
484.245	474.06
484.463	502.06
484.681	484.06
484.9	492.06
485.118	499.06
485.336	477.06
485.554	494.06
485.772	508.06
485.99	475.06
486.209	488.06
486.427	476.06
486.645	502.06
486.863	494.06
487.081	498.06
487.299	512.06
487.517	503.06
487.735	510.06
487.953	510.06
488.171	493.06
488.389	492.06
488.607	510.06
488.825	519.06
489.043	500.06
489.261	524.06
489.479	533.06
489.696	532.06
489.914	509.06
490.132	518.06
490.35	502.06
490.568	543.06
490.786	523.06
491.003	533.06
491.221	549.06
491.439	554.06
491.657	555.06
491.874	580.06
492.092	575.06
492.31	560.06
492.527	567.06
492.745	579.06
492.963	591.06
493.18	567.06
493.398	581.06
493.615	567.06
493.833	579.06
494.05	561.06
494.268	582.06
494.485	585.06
494.703	549.06
494.92	580.06
495.138	569.06
495.355	583.06
495.573	590.06
495.79	589.06
496.008	587.06
496.225	590.06
496.442	607.06
496.66	600.06
496.877	592.06
497.094	596.06
497.312	596.06
497.529	608.06
497.746	630.06
497.963	635.06
498.181	651.06
498.398	681.06
498.615	693.06
498.832	705.06
499.049	712.06
499.267	742.06
499.484	747.06
499.701	791.06
499.918	826.06
500.135	867.06
500.352	934.06
500.569	942.06
500.786	927.06
501.003	925.06
501.22	876.06
501.437	839.06
501.654	777.06
501.871	802.06
502.088	767.06
