Data from 1977.PennyLincolnUp.Lamp.En5.5.200Scan.071719.P1_HRD10591_16-04-33-875.txt Node
Date: Thu Jul 18 16:04:33 EDT 2019
User: cochatt
Spectrometer: HR+D1059
Trigger mode: 1
Integration Time (sec): 1.000000E-1
Scans to average: 1
Electric dark correction enabled: true
Nonlinearity correction enabled: false
Boxcar width: 0
XAxis mode: Wavelengths
Number of Pixels in Spectrum: 2048
>>>>>Begin Spectral Data<<<<<
223.165	-8.62
223.4	-8.62
223.635	-8.62
223.869	-17.62
224.104	-17.62
224.338	-10.62
224.573	-14.62
224.808	-1.62
225.042	4.38
225.277	-1.62
225.511	2.38
225.746	5.38
225.98	8.38
226.215	6.38
226.449	-4.62
226.683	19.38
226.918	17.38
227.152	13.38
227.387	46.38
227.621	27.38
227.856	50.38
228.09	43.38
228.324	55.38
228.559	56.38
228.793	72.38
229.027	65.38
229.262	65.38
229.496	62.38
229.73	71.38
229.964	71.38
230.199	68.38
230.433	89.38
230.667	65.38
230.901	74.38
231.136	90.38
231.37	94.38
231.604	90.38
231.838	85.38
232.072	94.38
232.306	100.38
232.541	100.38
232.775	94.38
233.009	79.38
233.243	77.38
233.477	85.38
233.711	91.38
233.945	90.38
234.179	80.38
234.413	87.38
234.647	88.38
234.881	84.38
235.115	91.38
235.349	92.38
235.583	85.38
235.817	88.38
236.051	102.38
236.285	86.38
236.519	88.38
236.753	84.38
236.987	77.38
237.221	81.38
237.455	83.38
237.689	102.38
237.922	88.38
238.156	85.38
238.39	97.38
238.624	74.38
238.858	81.38
239.091	87.38
239.325	84.38
239.559	85.38
239.793	106.38
240.027	73.38
240.26	85.38
240.494	93.38
240.728	86.38
240.961	87.38
241.195	87.38
241.429	95.38
241.662	82.38
241.896	92.38
242.13	98.38
242.363	85.38
242.597	85.38
242.83	88.38
243.064	89.38
243.298	94.38
243.531	90.38
243.765	95.38
243.998	88.38
244.232	77.38
244.465	87.38
244.699	79.38
244.932	102.38
245.166	87.38
245.399	79.38
245.633	84.38
245.866	88.38
246.099	82.38
246.333	100.38
246.566	79.38
246.8	83.38
247.033	89.38
247.266	96.38
247.5	102.38
247.733	97.38
247.966	79.38
248.2	88.38
248.433	82.38
248.666	95.38
248.899	92.38
249.133	87.38
249.366	92.38
249.599	93.38
249.832	85.38
250.066	94.38
250.299	89.38
250.532	105.38
250.765	85.38
250.998	99.38
251.231	103.38
251.465	106.38
251.698	100.38
251.931	87.38
252.164	92.38
252.397	98.38
252.63	98.38
252.863	90.38
253.096	100.38
253.329	92.38
253.562	98.38
253.795	98.38
254.028	91.38
254.261	91.38
254.494	96.38
254.727	125.38
254.96	105.38
255.193	86.38
255.426	98.38
255.659	109.38
255.892	110.38
256.124	95.38
256.357	92.38
256.59	98.38
256.823	105.38
257.056	93.38
257.289	91.38
257.521	101.38
257.754	95.38
257.987	103.38
258.22	93.38
258.452	99.38
258.685	98.38
258.918	101.38
259.151	95.38
259.383	101.38
259.616	103.38
259.849	114.38
260.081	115.38
260.314	92.38
260.547	102.38
260.779	98.38
261.012	93.38
261.244	85.38
261.477	106.38
261.71	94.38
261.942	99.38
262.175	97.38
262.407	100.38
262.64	96.38
262.872	100.38
263.105	109.38
263.337	99.38
263.57	104.38
263.802	115.38
264.035	108.38
264.267	103.38
264.499	102.38
264.732	102.38
264.964	108.38
265.197	110.38
265.429	86.38
265.661	100.38
265.894	109.38
266.126	109.38
266.358	103.38
266.591	93.38
266.823	102.38
267.055	98.38
267.287	107.38
267.52	103.38
267.752	103.38
267.984	101.38
268.216	106.38
268.448	101.38
268.681	97.38
268.913	101.38
269.145	127.38
269.377	113.38
269.609	115.38
269.841	114.38
270.073	98.38
270.306	115.38
270.538	110.38
270.77	100.38
271.002	108.38
271.234	107.38
271.466	111.38
271.698	106.38
271.93	104.38
272.162	114.38
272.394	108.38
272.626	116.38
272.858	106.38
273.09	123.38
273.322	121.38
273.553	119.38
273.785	116.38
274.017	108.38
274.249	108.38
274.481	111.38
274.713	115.38
274.945	110.38
275.176	113.38
275.408	97.38
275.64	110.38
275.872	111.38
276.104	110.38
276.335	102.38
276.567	113.38
276.799	106.38
277.031	106.38
277.262	120.38
277.494	128.38
277.726	120.38
277.957	106.38
278.189	108.38
278.421	101.38
278.652	104.38
278.884	95.38
279.115	94.38
279.347	119.38
279.579	128.38
279.81	115.38
280.042	119.38
280.273	119.38
280.505	109.38
280.736	115.38
280.968	107.38
281.199	113.38
281.431	127.38
281.662	125.38
281.894	101.38
282.125	114.38
282.356	115.38
282.588	106.38
282.819	111.38
283.051	129.38
283.282	129.38
283.513	118.38
283.745	107.38
283.976	110.38
284.207	108.38
284.439	121.38
284.67	117.38
284.901	119.38
285.132	120.38
285.364	110.38
285.595	115.38
285.826	115.38
286.057	129.38
286.288	114.38
286.52	119.38
286.751	102.38
286.982	102.38
287.213	111.38
287.444	114.38
287.675	105.38
287.906	122.38
288.138	121.38
288.369	100.38
288.6	125.38
288.831	129.38
289.062	116.38
289.293	116.38
289.524	117.38
289.755	122.38
289.986	101.38
290.217	123.38
290.448	114.38
290.679	113.38
290.91	122.38
291.141	116.38
291.371	136.38
291.602	124.38
291.833	125.38
292.064	109.38
292.295	116.38
292.526	123.38
292.757	123.38
292.987	130.38
293.218	111.38
293.449	110.38
293.68	121.38
293.91	115.38
294.141	114.38
294.372	115.38
294.603	120.38
294.833	119.38
295.064	121.38
295.295	129.38
295.525	124.38
295.756	138.38
295.987	125.38
296.217	120.38
296.448	113.38
296.679	118.38
296.909	124.38
297.14	121.38
297.37	117.38
297.601	122.38
297.831	131.38
298.062	116.38
298.292	113.38
298.523	126.38
298.753	121.38
298.984	119.38
299.214	131.38
299.445	120.38
299.675	120.38
299.905	121.38
300.136	111.38
300.366	119.38
300.597	125.38
300.827	117.38
301.057	136.38
301.288	121.38
301.518	127.38
301.748	136.38
301.979	132.38
302.209	134.38
302.439	141.38
302.669	146.38
302.9	123.38
303.13	139.38
303.36	126.38
303.59	137.38
303.82	120.38
304.051	141.38
304.281	130.38
304.511	125.38
304.741	133.38
304.971	126.38
305.201	120.38
305.431	134.38
305.661	121.38
305.891	133.38
306.121	126.38
306.352	133.38
306.582	123.38
306.812	131.38
307.042	126.38
307.272	117.38
307.502	126.38
307.731	122.38
307.961	133.38
308.191	127.38
308.421	133.38
308.651	123.38
308.881	122.38
309.111	122.38
309.341	133.38
309.571	136.38
309.8	127.38
310.03	137.38
310.26	137.38
310.49	131.38
310.72	125.38
310.949	129.38
311.179	138.38
311.409	122.38
311.639	129.38
311.868	140.38
312.098	138.38
312.328	126.38
312.557	116.38
312.787	133.38
313.017	115.38
313.246	121.38
313.476	109.38
313.706	118.38
313.935	133.38
314.165	122.38
314.394	137.38
314.624	124.38
314.853	136.38
315.083	136.38
315.312	129.38
315.542	126.38
315.771	124.38
316.001	134.38
316.23	124.38
316.46	141.38
316.689	138.38
316.919	129.38
317.148	153.38
317.377	144.38
317.607	129.38
317.836	131.38
318.065	115.38
318.295	129.38
318.524	115.38
318.753	134.38
318.983	124.38
319.212	133.38
319.441	133.38
319.67	138.38
319.9	135.38
320.129	129.38
320.358	143.38
320.587	142.38
320.816	135.38
321.046	123.38
321.275	127.38
321.504	125.38
321.733	135.38
321.962	125.38
322.191	129.38
322.42	123.38
322.649	137.38
322.878	128.38
323.108	156.38
323.337	123.38
323.566	136.38
323.795	128.38
324.024	144.38
324.253	132.38
324.482	160.38
324.71	187.38
324.939	199.38
325.168	187.38
325.397	150.38
325.626	130.38
325.855	141.38
326.084	147.38
326.313	127.38
326.542	141.38
326.77	131.38
326.999	159.38
327.228	164.38
327.457	187.38
327.686	170.38
327.914	171.38
328.143	148.38
328.372	135.38
328.6	134.38
328.829	138.38
329.058	140.38
329.287	134.38
329.515	144.38
329.744	156.38
329.972	148.38
330.201	138.38
330.43	137.38
330.658	136.38
330.887	154.38
331.115	137.38
331.344	139.38
331.572	142.38
331.801	134.38
332.03	140.38
332.258	148.38
332.486	136.38
332.715	133.38
332.943	133.38
333.172	157.38
333.4	149.38
333.629	124.38
333.857	142.38
334.085	148.38
334.314	162.38
334.542	149.38
334.771	150.38
334.999	138.38
335.227	131.38
335.455	131.38
335.684	141.38
335.912	138.38
336.14	151.38
336.369	135.38
336.597	136.38
336.825	133.38
337.053	156.38
337.281	138.38
337.51	144.38
337.738	142.38
337.966	121.38
338.194	135.38
338.422	151.38
338.65	150.38
338.878	134.38
339.106	132.38
339.334	141.38
339.562	134.38
339.79	136.38
340.018	141.38
340.246	138.38
340.474	142.38
340.702	123.38
340.93	135.38
341.158	149.38
341.386	147.38
341.614	151.38
341.842	157.38
342.07	145.38
342.298	128.38
342.526	155.38
342.754	142.38
342.981	137.38
343.209	131.38
343.437	147.38
343.665	147.38
343.893	153.38
344.12	151.38
344.348	145.38
344.576	142.38
344.804	133.38
345.031	127.38
345.259	155.38
345.487	160.38
345.714	140.38
345.942	127.38
346.17	136.38
346.397	137.38
346.625	141.38
346.853	139.38
347.08	140.38
347.308	137.38
347.535	133.38
347.763	134.38
347.99	130.38
348.218	142.38
348.445	135.38
348.673	139.38
348.9	139.38
349.128	138.38
349.355	130.38
349.583	131.38
349.81	127.38
350.037	135.38
350.265	131.38
350.492	133.38
350.72	128.38
350.947	130.38
351.174	129.38
351.402	143.38
351.629	132.38
351.856	132.38
352.083	132.38
352.311	137.38
352.538	131.38
352.765	140.38
352.992	133.38
353.22	139.38
353.447	144.38
353.674	144.38
353.901	144.38
354.128	148.38
354.355	127.38
354.583	140.38
354.81	144.38
355.037	150.38
355.264	142.38
355.491	141.38
355.718	126.38
355.945	129.38
356.172	123.38
356.399	116.38
356.626	133.38
356.853	126.38
357.08	118.38
357.307	126.38
357.534	120.38
357.761	138.38
357.988	141.38
358.215	136.38
358.441	127.38
358.668	139.38
358.895	139.38
359.122	131.38
359.349	133.38
359.576	139.38
359.802	122.38
360.029	122.38
360.256	130.38
360.483	134.38
360.709	137.38
360.936	137.38
361.163	142.38
361.39	131.38
361.616	147.38
361.843	137.38
362.07	138.38
362.296	139.38
362.523	147.38
362.749	139.38
362.976	135.38
363.203	151.38
363.429	123.38
363.656	139.38
363.882	136.38
364.109	132.38
364.335	129.38
364.562	143.38
364.788	142.38
365.015	142.38
365.241	140.38
365.468	115.38
365.694	137.38
365.92	133.38
366.147	117.38
366.373	117.38
366.599	142.38
366.826	144.38
367.052	137.38
367.278	127.38
367.505	139.38
367.731	135.38
367.957	127.38
368.184	129.38
368.41	151.38
368.636	145.38
368.862	146.38
369.089	132.38
369.315	139.38
369.541	122.38
369.767	148.38
369.993	137.38
370.219	130.38
370.445	129.38
370.672	135.38
370.898	143.38
371.124	140.38
371.35	163.38
371.576	139.38
371.802	136.38
372.028	129.38
372.254	132.38
372.48	140.38
372.706	148.38
372.932	142.38
373.158	139.38
373.384	137.38
373.61	141.38
373.835	156.38
374.061	139.38
374.287	124.38
374.513	124.38
374.739	121.38
374.965	138.38
375.191	174.38
375.416	159.38
375.642	156.38
375.868	147.38
376.094	158.38
376.319	144.38
376.545	115.38
376.771	129.38
376.997	127.38
377.222	147.38
377.448	135.38
377.674	140.38
377.899	123.38
378.125	147.38
378.35	143.38
378.576	135.38
378.802	137.38
379.027	133.38
379.253	127.38
379.478	131.38
379.704	136.38
379.929	141.38
380.155	127.38
380.38	141.38
380.606	141.38
380.831	134.38
381.057	150.38
381.282	153.38
381.507	144.38
381.733	142.38
381.958	141.38
382.184	143.38
382.409	126.38
382.634	146.38
382.86	131.38
383.085	131.38
383.31	150.38
383.535	141.38
383.761	133.38
383.986	131.38
384.211	146.38
384.436	149.38
384.662	146.38
384.887	142.38
385.112	138.38
385.337	138.38
385.562	157.38
385.787	157.38
386.013	158.38
386.238	170.38
386.463	139.38
386.688	157.38
386.913	166.38
387.138	133.38
387.363	156.38
387.588	161.38
387.813	154.38
388.038	142.38
388.263	169.38
388.488	149.38
388.713	166.38
388.938	151.38
389.163	131.38
389.387	150.38
389.612	149.38
389.837	156.38
390.062	139.38
390.287	139.38
390.512	140.38
390.736	155.38
390.961	137.38
391.186	150.38
391.411	137.38
391.636	142.38
391.86	148.38
392.085	161.38
392.31	149.38
392.534	153.38
392.759	148.38
392.984	161.38
393.208	146.38
393.433	167.38
393.658	153.38
393.882	151.38
394.107	146.38
394.331	155.38
394.556	138.38
394.78	141.38
395.005	159.38
395.229	141.38
395.454	145.38
395.678	158.38
395.903	147.38
396.127	148.38
396.352	136.38
396.576	149.38
396.801	166.38
397.025	144.38
397.249	149.38
397.474	154.38
397.698	159.38
397.922	161.38
398.147	157.38
398.371	167.38
398.595	154.38
398.82	178.38
399.044	154.38
399.268	161.38
399.492	182.38
399.717	190.38
399.941	197.38
400.165	185.38
400.389	181.38
400.613	173.38
400.837	175.38
401.062	165.38
401.286	173.38
401.51	161.38
401.734	161.38
401.958	164.38
402.182	172.38
402.406	153.38
402.63	167.38
402.854	163.38
403.078	171.38
403.302	165.38
403.526	166.38
403.75	167.38
403.974	168.38
404.198	161.38
404.422	161.38
404.645	172.38
404.869	165.38
405.093	164.38
405.317	168.38
405.541	169.38
405.765	165.38
405.988	171.38
406.212	171.38
406.436	164.38
406.66	174.38
406.883	175.38
407.107	179.38
407.331	175.38
407.555	190.38
407.778	200.38
408.002	174.38
408.226	177.38
408.449	183.38
408.673	186.38
408.896	169.38
409.12	186.38
409.344	184.38
409.567	173.38
409.791	172.38
410.014	158.38
410.238	161.38
410.461	162.38
410.685	181.38
410.908	185.38
411.132	162.38
411.355	177.38
411.578	165.38
411.802	174.38
412.025	163.38
412.249	151.38
412.472	165.38
412.695	164.38
412.919	156.38
413.142	157.38
413.365	166.38
413.589	169.38
413.812	158.38
414.035	153.38
414.258	155.38
414.482	150.38
414.705	169.38
414.928	162.38
415.151	174.38
415.374	171.38
415.597	164.38
415.821	153.38
416.044	165.38
416.267	158.38
416.49	150.38
416.713	158.38
416.936	157.38
417.159	158.38
417.382	163.38
417.605	155.38
417.828	159.38
418.051	169.38
418.274	156.38
418.497	161.38
418.72	161.38
418.943	167.38
419.166	182.38
419.389	181.38
419.611	160.38
419.834	168.38
420.057	177.38
420.28	170.38
420.503	175.38
420.726	167.38
420.948	154.38
421.171	167.38
421.394	170.38
421.617	161.38
421.839	154.38
422.062	167.38
422.285	157.38
422.507	187.38
422.73	173.38
422.953	173.38
423.175	148.38
423.398	158.38
423.621	157.38
423.843	157.38
424.066	177.38
424.288	157.38
424.511	172.38
424.733	173.38
424.956	169.38
425.178	172.38
425.401	178.38
425.623	173.38
425.846	157.38
426.068	147.38
426.291	179.38
426.513	156.38
426.735	166.38
426.958	154.38
427.18	183.38
427.402	190.38
427.625	180.38
427.847	171.38
428.069	188.38
428.292	153.38
428.514	150.38
428.736	165.38
428.958	161.38
429.181	162.38
429.403	158.38
429.625	159.38
429.847	159.38
430.069	168.38
430.292	154.38
430.514	144.38
430.736	167.38
430.958	153.38
431.18	158.38
431.402	144.38
431.624	164.38
431.846	152.38
432.068	146.38
432.29	142.38
432.512	164.38
432.734	156.38
432.956	159.38
433.178	150.38
433.4	160.38
433.622	157.38
433.844	158.38
434.066	148.38
434.287	155.38
434.509	148.38
434.731	155.38
434.953	168.38
435.175	157.38
435.397	153.38
435.618	177.38
435.84	175.38
436.062	181.38
436.284	173.38
436.505	173.38
436.727	153.38
436.949	165.38
437.17	157.38
437.392	137.38
437.614	158.38
437.835	161.38
438.057	158.38
438.278	169.38
438.5	181.38
438.721	168.38
438.943	187.38
439.165	164.38
439.386	153.38
439.608	166.38
439.829	167.38
440.05	155.38
440.272	166.38
440.493	171.38
440.715	150.38
440.936	157.38
441.158	151.38
441.379	170.38
441.6	171.38
441.822	172.38
442.043	152.38
442.264	156.38
442.486	166.38
442.707	185.38
442.928	171.38
443.149	171.38
443.371	169.38
443.592	178.38
443.813	173.38
444.034	195.38
444.255	165.38
444.476	181.38
444.698	170.38
444.919	170.38
445.14	237.38
445.361	203.38
445.582	171.38
445.803	172.38
446.024	169.38
446.245	177.38
446.466	154.38
446.687	153.38
446.908	168.38
447.129	149.38
447.35	164.38
447.571	138.38
447.792	141.38
448.013	140.38
448.234	151.38
448.455	157.38
448.675	159.38
448.896	166.38
449.117	156.38
449.338	153.38
449.559	167.38
449.779	183.38
450	172.38
450.221	153.38
450.442	136.38
450.662	137.38
450.883	139.38
451.104	166.38
451.324	152.38
451.545	161.38
451.766	143.38
451.986	150.38
452.207	142.38
452.428	153.38
452.648	159.38
452.869	140.38
453.089	153.38
453.31	159.38
453.53	147.38
453.751	134.38
453.971	142.38
454.192	136.38
454.412	150.38
454.633	146.38
454.853	147.38
455.073	155.38
455.294	142.38
455.514	153.38
455.734	142.38
455.955	145.38
456.175	140.38
456.395	129.38
456.616	132.38
456.836	146.38
457.056	131.38
457.276	131.38
457.497	137.38
457.717	143.38
457.937	155.38
458.157	142.38
458.377	145.38
458.598	147.38
458.818	154.38
459.038	164.38
459.258	159.38
459.478	143.38
459.698	183.38
459.918	155.38
460.138	163.38
460.358	159.38
460.578	157.38
460.798	165.38
461.018	165.38
461.238	151.38
461.458	155.38
461.678	164.38
461.898	167.38
462.118	180.38
462.338	169.38
462.558	163.38
462.777	161.38
462.997	171.38
463.217	172.38
463.437	176.38
463.657	180.38
463.876	166.38
464.096	170.38
464.316	182.38
464.536	175.38
464.755	180.38
464.975	172.38
465.195	181.38
465.414	182.38
465.634	163.38
465.854	159.38
466.073	150.38
466.293	165.38
466.512	151.38
466.732	143.38
466.951	153.38
467.171	159.38
467.391	163.38
467.61	146.38
467.829	145.38
468.049	154.38
468.268	157.38
468.488	165.38
468.707	150.38
468.927	149.38
469.146	151.38
469.365	151.38
469.585	149.38
469.804	142.38
470.023	167.38
470.243	164.38
470.462	150.38
470.681	174.38
470.901	141.38
471.12	165.38
471.339	168.38
471.558	142.38
471.777	147.38
471.997	147.38
472.216	153.38
472.435	134.38
472.654	153.38
472.873	167.38
473.092	153.38
473.311	158.38
473.53	157.38
473.749	152.38
473.968	149.38
474.187	164.38
474.406	163.38
474.625	152.38
474.844	152.38
475.063	164.38
475.282	158.38
475.501	147.38
475.72	155.38
475.939	136.38
476.158	167.38
476.377	171.38
476.596	159.38
476.814	164.38
477.033	151.38
477.252	165.38
477.471	153.38
477.69	146.38
477.908	156.38
478.127	156.38
478.346	156.38
478.564	168.38
478.783	169.38
479.002	179.38
479.22	162.38
479.439	175.38
479.658	160.38
479.876	162.38
480.095	187.38
480.313	165.38
480.532	179.38
480.751	185.38
480.969	163.38
481.188	161.38
481.406	180.38
481.624	175.38
481.843	149.38
482.061	171.38
482.28	161.38
482.498	162.38
482.717	158.38
482.935	170.38
483.153	169.38
483.372	163.38
483.59	168.38
483.808	158.38
484.027	158.38
484.245	157.38
484.463	164.38
484.681	166.38
484.9	165.38
485.118	184.38
485.336	174.38
485.554	189.38
485.772	153.38
485.99	163.38
486.209	148.38
486.427	166.38
486.645	143.38
486.863	170.38
487.081	180.38
487.299	172.38
487.517	180.38
487.735	168.38
487.953	168.38
488.171	167.38
488.389	177.38
488.607	160.38
488.825	178.38
489.043	167.38
489.261	163.38
489.479	182.38
489.696	157.38
489.914	162.38
490.132	169.38
490.35	163.38
490.568	164.38
490.786	177.38
491.003	182.38
491.221	183.38
491.439	181.38
491.657	175.38
491.874	177.38
492.092	165.38
492.31	179.38
492.527	182.38
492.745	170.38
492.963	183.38
493.18	169.38
493.398	184.38
493.615	197.38
493.833	186.38
494.05	189.38
494.268	183.38
494.485	191.38
494.703	200.38
494.92	191.38
495.138	187.38
495.355	188.38
495.573	205.38
495.79	182.38
496.008	200.38
496.225	194.38
496.442	201.38
496.66	179.38
496.877	191.38
497.094	197.38
497.312	178.38
497.529	188.38
497.746	205.38
497.963	201.38
498.181	196.38
498.398	208.38
498.615	215.38
498.832	222.38
499.049	229.38
499.267	223.38
499.484	231.38
499.701	262.38
499.918	243.38
500.135	282.38
500.352	292.38
500.569	302.38
500.786	293.38
501.003	298.38
501.22	284.38
501.437	259.38
501.654	232.38
501.871	264.38
502.088	219.38
502.305	226.38
502.522	202.38
502.739	220.38
502.956	213.38
503.172	203.38
503.389	213.38
503.606	195.38
503.823	195.38
