Data from 1977.PennyLincolnUp.Lamp.En5.5.200Scan.071719.P1_HRD10591_16-07-23-864.txt Node
Date: Thu Jul 18 16:07:23 EDT 2019
User: cochatt
Spectrometer: HR+D1059
Trigger mode: 1
Integration Time (sec): 1.000000E-1
Scans to average: 1
Electric dark correction enabled: true
Nonlinearity correction enabled: false
Boxcar width: 0
XAxis mode: Wavelengths
Number of Pixels in Spectrum: 2048
>>>>>Begin Spectral Data<<<<<
223.165	-16.5
223.4	-16.5
223.635	-16.5
223.869	-32.5
224.104	-10.5
224.338	-7.5
224.573	-8.5
224.808	-6.5
225.042	-21.5
225.277	-5.5
225.511	-0.5
225.746	2.5
225.98	-0.5
226.215	8.5
226.449	13.5
226.683	27.5
226.918	25.5
227.152	32.5
227.387	27.5
227.621	43.5
227.856	43.5
228.09	35.5
228.324	59.5
228.559	52.5
228.793	57.5
229.027	80.5
229.262	108.5
229.496	123.5
229.73	131.5
229.964	142.5
230.199	126.5
230.433	113.5
230.667	116.5
230.901	97.5
231.136	107.5
231.37	97.5
231.604	114.5
231.838	119.5
232.072	119.5
232.306	111.5
232.541	106.5
232.775	116.5
233.009	118.5
233.243	98.5
233.477	118.5
233.711	111.5
233.945	120.5
234.179	122.5
234.413	121.5
234.647	108.5
234.881	123.5
235.115	117.5
235.349	111.5
235.583	129.5
235.817	115.5
236.051	118.5
236.285	125.5
236.519	124.5
236.753	136.5
236.987	130.5
237.221	169.5
237.455	205.5
237.689	178.5
237.922	133.5
238.156	133.5
238.39	122.5
238.624	133.5
238.858	125.5
239.091	131.5
239.325	115.5
239.559	119.5
239.793	119.5
240.027	122.5
240.26	138.5
240.494	151.5
240.728	131.5
240.961	162.5
241.195	151.5
241.429	129.5
241.662	123.5
241.896	145.5
242.13	136.5
242.363	114.5
242.597	116.5
242.83	130.5
243.064	133.5
243.298	152.5
243.531	134.5
243.765	148.5
243.998	137.5
244.232	149.5
244.465	143.5
244.699	147.5
244.932	141.5
245.166	140.5
245.399	167.5
245.633	162.5
245.866	155.5
246.099	154.5
246.333	156.5
246.566	136.5
246.8	160.5
247.033	154.5
247.266	152.5
247.5	160.5
247.733	164.5
247.966	176.5
248.2	175.5
248.433	151.5
248.666	189.5
248.899	180.5
249.133	179.5
249.366	183.5
249.599	198.5
249.832	172.5
250.066	181.5
250.299	197.5
250.532	208.5
250.765	206.5
250.998	224.5
251.231	217.5
251.465	218.5
251.698	204.5
251.931	184.5
252.164	196.5
252.397	184.5
252.63	186.5
252.863	205.5
253.096	193.5
253.329	211.5
253.562	221.5
253.795	197.5
254.028	210.5
254.261	205.5
254.494	207.5
254.727	233.5
254.96	257.5
255.193	248.5
255.426	228.5
255.659	240.5
255.892	223.5
256.124	223.5
256.357	233.5
256.59	218.5
256.823	212.5
257.056	196.5
257.289	216.5
257.521	200.5
257.754	217.5
257.987	211.5
258.22	207.5
258.452	195.5
258.685	201.5
258.918	213.5
259.151	196.5
259.383	227.5
259.616	214.5
259.849	214.5
260.081	247.5
260.314	242.5
260.547	265.5
260.779	217.5
261.012	247.5
261.244	229.5
261.477	231.5
261.71	230.5
261.942	211.5
262.175	238.5
262.407	245.5
262.64	211.5
262.872	217.5
263.105	214.5
263.337	209.5
263.57	229.5
263.802	203.5
264.035	215.5
264.267	231.5
264.499	216.5
264.732	224.5
264.964	230.5
265.197	212.5
265.429	225.5
265.661	209.5
265.894	225.5
266.126	219.5
266.358	239.5
266.591	223.5
266.823	233.5
267.055	248.5
267.287	224.5
267.52	223.5
267.752	236.5
267.984	243.5
268.216	234.5
268.448	229.5
268.681	242.5
268.913	267.5
269.145	270.5
269.377	276.5
269.609	260.5
269.841	260.5
270.073	265.5
270.306	283.5
270.538	320.5
270.77	311.5
271.002	311.5
271.234	292.5
271.466	308.5
271.698	310.5
271.93	320.5
272.162	316.5
272.394	320.5
272.626	294.5
272.858	288.5
273.09	307.5
273.322	294.5
273.553	289.5
273.785	253.5
274.017	265.5
274.249	292.5
274.481	273.5
274.713	257.5
274.945	259.5
275.176	285.5
275.408	270.5
275.64	284.5
275.872	270.5
276.104	277.5
276.335	287.5
276.567	277.5
276.799	293.5
277.031	302.5
277.262	326.5
277.494	315.5
277.726	314.5
277.957	294.5
278.189	304.5
278.421	290.5
278.652	283.5
278.884	292.5
279.115	291.5
279.347	266.5
279.579	287.5
279.81	276.5
280.042	271.5
280.273	281.5
280.505	289.5
280.736	288.5
280.968	275.5
281.199	280.5
281.431	305.5
281.662	283.5
281.894	276.5
282.125	291.5
282.356	326.5
282.588	305.5
282.819	315.5
283.051	309.5
283.282	307.5
283.513	309.5
283.745	305.5
283.976	304.5
284.207	290.5
284.439	289.5
284.67	289.5
284.901	298.5
285.132	308.5
285.364	292.5
285.595	303.5
285.826	304.5
286.057	313.5
286.288	283.5
286.52	273.5
286.751	287.5
286.982	300.5
287.213	287.5
287.444	318.5
287.675	307.5
287.906	312.5
288.138	331.5
288.369	325.5
288.6	320.5
288.831	316.5
289.062	325.5
289.293	324.5
289.524	322.5
289.755	309.5
289.986	310.5
290.217	285.5
290.448	280.5
290.679	305.5
290.91	307.5
291.141	293.5
291.371	312.5
291.602	320.5
291.833	313.5
292.064	325.5
292.295	324.5
292.526	293.5
292.757	317.5
292.987	309.5
293.218	308.5
293.449	311.5
293.68	298.5
293.91	325.5
294.141	335.5
294.372	323.5
294.603	316.5
294.833	325.5
295.064	325.5
295.295	313.5
295.525	304.5
295.756	324.5
295.987	316.5
296.217	330.5
296.448	354.5
296.679	329.5
296.909	310.5
297.14	326.5
297.37	316.5
297.601	323.5
297.831	318.5
298.062	311.5
298.292	333.5
298.523	318.5
298.753	340.5
298.984	327.5
299.214	321.5
299.445	348.5
299.675	341.5
299.905	348.5
300.136	342.5
300.366	335.5
300.597	326.5
300.827	348.5
301.057	345.5
301.288	357.5
301.518	355.5
301.748	344.5
301.979	357.5
302.209	352.5
302.439	358.5
302.669	340.5
302.9	343.5
303.13	333.5
303.36	339.5
303.59	369.5
303.82	371.5
304.051	364.5
304.281	348.5
304.511	344.5
304.741	347.5
304.971	372.5
305.201	338.5
305.431	331.5
305.661	367.5
305.891	354.5
306.121	364.5
306.352	352.5
306.582	359.5
306.812	340.5
307.042	372.5
307.272	355.5
307.502	353.5
307.731	342.5
307.961	358.5
308.191	355.5
308.421	346.5
308.651	359.5
308.881	359.5
309.111	347.5
309.341	371.5
309.571	393.5
309.8	364.5
310.03	367.5
310.26	397.5
310.49	377.5
310.72	375.5
310.949	388.5
311.179	387.5
311.409	396.5
311.639	378.5
311.868	387.5
312.098	401.5
312.328	415.5
312.557	419.5
312.787	399.5
313.017	419.5
313.246	406.5
313.476	388.5
313.706	396.5
313.935	411.5
314.165	405.5
314.394	407.5
314.624	404.5
314.853	419.5
315.083	404.5
315.312	395.5
315.542	383.5
315.771	404.5
316.001	383.5
316.23	397.5
316.46	403.5
316.689	393.5
316.919	403.5
317.148	390.5
317.377	413.5
317.607	397.5
317.836	407.5
318.065	387.5
318.295	388.5
318.524	391.5
318.753	402.5
318.983	398.5
319.212	400.5
319.441	415.5
319.67	406.5
319.9	401.5
320.129	411.5
320.358	395.5
320.587	387.5
320.816	428.5
321.046	397.5
321.275	415.5
321.504	415.5
321.733	395.5
321.962	440.5
322.191	433.5
322.42	443.5
322.649	452.5
322.878	456.5
323.108	449.5
323.337	486.5
323.566	500.5
323.795	532.5
324.024	568.5
324.253	639.5
324.482	906.5
324.71	1332.5
324.939	1878.5
325.168	1567.5
325.397	827.5
325.626	596.5
325.855	536.5
326.084	499.5
326.313	503.5
326.542	521.5
326.77	542.5
326.999	597.5
327.228	827.5
327.457	1183.5
327.686	1420.5
327.914	951.5
328.143	663.5
328.372	582.5
328.6	571.5
328.829	547.5
329.058	552.5
329.287	545.5
329.515	502.5
329.744	484.5
329.972	503.5
330.201	510.5
330.43	546.5
330.658	570.5
330.887	569.5
331.115	563.5
331.344	505.5
331.572	495.5
331.801	490.5
332.03	509.5
332.258	491.5
332.486	476.5
332.715	469.5
332.943	488.5
333.172	472.5
333.4	470.5
333.629	481.5
333.857	503.5
334.085	516.5
334.314	510.5
334.542	537.5
334.771	549.5
334.999	484.5
335.227	476.5
335.455	463.5
335.684	486.5
335.912	476.5
336.14	493.5
336.369	454.5
336.597	446.5
336.825	456.5
337.053	460.5
337.281	450.5
337.51	446.5
337.738	448.5
337.966	453.5
338.194	456.5
338.422	465.5
338.65	449.5
338.878	457.5
339.106	450.5
339.334	448.5
339.562	434.5
339.79	461.5
340.018	447.5
340.246	445.5
340.474	457.5
340.702	442.5
340.93	455.5
341.158	426.5
341.386	447.5
341.614	455.5
341.842	427.5
342.07	432.5
342.298	435.5
342.526	436.5
342.754	430.5
342.981	418.5
343.209	436.5
343.437	450.5
343.665	449.5
343.893	436.5
344.12	464.5
344.348	473.5
344.576	481.5
344.804	468.5
345.031	423.5
345.259	451.5
345.487	434.5
345.714	404.5
345.942	407.5
346.17	435.5
346.397	427.5
346.625	423.5
346.853	422.5
347.08	414.5
347.308	413.5
347.535	423.5
347.763	418.5
347.99	418.5
348.218	425.5
348.445	445.5
348.673	428.5
348.9	433.5
349.128	408.5
349.355	416.5
349.583	402.5
349.81	394.5
350.037	402.5
350.265	393.5
350.492	406.5
350.72	397.5
350.947	417.5
351.174	425.5
351.402	411.5
351.629	423.5
351.856	428.5
352.083	427.5
352.311	425.5
352.538	435.5
352.765	435.5
352.992	421.5
353.22	417.5
353.447	408.5
353.674	404.5
353.901	417.5
354.128	420.5
354.355	411.5
354.583	405.5
354.81	393.5
355.037	373.5
355.264	404.5
355.491	380.5
355.718	400.5
355.945	393.5
356.172	383.5
356.399	402.5
356.626	380.5
356.853	383.5
357.08	375.5
357.307	391.5
357.534	400.5
357.761	389.5
357.988	397.5
358.215	416.5
358.441	391.5
358.668	379.5
358.895	396.5
359.122	386.5
359.349	404.5
359.576	418.5
359.802	449.5
360.029	453.5
360.256	449.5
360.483	442.5
360.709	411.5
360.936	412.5
361.163	404.5
361.39	399.5
361.616	416.5
361.843	393.5
362.07	410.5
362.296	395.5
362.523	389.5
362.749	396.5
362.976	394.5
363.203	395.5
363.429	381.5
363.656	417.5
363.882	405.5
364.109	396.5
364.335	399.5
364.562	396.5
364.788	387.5
365.015	393.5
365.241	382.5
365.468	390.5
365.694	408.5
365.92	405.5
366.147	396.5
366.373	409.5
366.599	385.5
366.826	394.5
367.052	400.5
367.278	373.5
367.505	389.5
367.731	401.5
367.957	390.5
368.184	399.5
368.41	400.5
368.636	414.5
368.862	420.5
369.089	398.5
369.315	394.5
369.541	384.5
369.767	397.5
369.993	413.5
370.219	399.5
370.445	394.5
370.672	400.5
370.898	376.5
371.124	393.5
371.35	403.5
371.576	383.5
371.802	380.5
372.028	416.5
372.254	415.5
372.48	390.5
372.706	394.5
372.932	389.5
373.158	422.5
373.384	407.5
373.61	388.5
373.835	406.5
374.061	389.5
374.287	398.5
374.513	406.5
374.739	427.5
374.965	404.5
375.191	409.5
375.416	427.5
375.642	400.5
375.868	417.5
376.094	410.5
376.319	407.5
376.545	403.5
376.771	395.5
376.997	387.5
377.222	388.5
377.448	411.5
377.674	382.5
377.899	377.5
378.125	378.5
378.35	396.5
378.576	392.5
378.802	397.5
379.027	379.5
379.253	389.5
379.478	379.5
379.704	395.5
379.929	396.5
380.155	407.5
380.38	395.5
380.606	380.5
380.831	395.5
381.057	405.5
381.282	381.5
381.507	380.5
381.733	386.5
381.958	391.5
382.184	403.5
382.409	395.5
382.634	386.5
382.86	399.5
383.085	399.5
383.31	408.5
383.535	412.5
383.761	402.5
383.986	427.5
384.211	409.5
384.436	411.5
384.662	419.5
384.887	418.5
385.112	420.5
385.337	437.5
385.562	434.5
385.787	419.5
386.013	432.5
386.238	422.5
386.463	425.5
386.688	423.5
386.913	420.5
387.138	447.5
387.363	420.5
387.588	425.5
387.813	455.5
388.038	420.5
388.263	428.5
388.488	427.5
388.713	447.5
388.938	425.5
389.163	435.5
389.387	437.5
389.612	428.5
389.837	434.5
390.062	416.5
390.287	426.5
390.512	404.5
390.736	426.5
390.961	423.5
391.186	434.5
391.411	418.5
391.636	426.5
391.86	437.5
392.085	449.5
392.31	411.5
392.534	448.5
392.759	459.5
392.984	445.5
393.208	428.5
393.433	443.5
393.658	425.5
393.882	434.5
394.107	406.5
394.331	454.5
394.556	420.5
394.78	439.5
395.005	441.5
395.229	416.5
395.454	450.5
395.678	461.5
395.903	449.5
396.127	462.5
396.352	471.5
396.576	457.5
396.801	453.5
397.025	416.5
397.249	453.5
397.474	444.5
397.698	471.5
397.922	465.5
398.147	487.5
398.371	485.5
398.595	500.5
398.82	469.5
399.044	500.5
399.268	519.5
399.492	565.5
399.717	595.5
399.941	633.5
400.165	636.5
400.389	626.5
400.613	568.5
400.837	536.5
401.062	522.5
401.286	500.5
401.51	489.5
401.734	492.5
401.958	511.5
402.182	485.5
402.406	492.5
402.63	508.5
402.854	504.5
403.078	485.5
403.302	515.5
403.526	491.5
403.75	489.5
403.974	505.5
404.198	511.5
404.422	506.5
404.645	519.5
404.869	521.5
405.093	537.5
405.317	577.5
405.541	613.5
405.765	564.5
405.988	515.5
406.212	532.5
406.436	545.5
406.66	558.5
406.883	537.5
407.107	571.5
407.331	606.5
407.555	662.5
407.778	659.5
408.002	594.5
408.226	563.5
408.449	559.5
408.673	555.5
408.896	584.5
409.12	636.5
409.344	564.5
409.567	533.5
409.791	510.5
410.014	500.5
410.238	492.5
410.461	507.5
410.685	497.5
410.908	497.5
411.132	551.5
411.355	603.5
411.578	551.5
411.802	503.5
412.025	511.5
412.249	520.5
412.472	536.5
412.695	568.5
412.919	562.5
413.142	513.5
413.365	486.5
413.589	472.5
413.812	482.5
414.035	479.5
414.258	457.5
414.482	477.5
414.705	484.5
414.928	460.5
415.151	480.5
415.374	468.5
415.597	480.5
415.821	463.5
416.044	477.5
416.267	483.5
416.49	454.5
416.713	460.5
416.936	477.5
417.159	476.5
417.382	453.5
417.605	466.5
417.828	482.5
418.051	483.5
418.274	481.5
418.497	476.5
418.72	491.5
418.943	462.5
419.166	507.5
419.389	525.5
419.611	496.5
419.834	519.5
420.057	500.5
420.28	498.5
420.503	491.5
420.726	501.5
420.948	514.5
421.171	532.5
421.394	548.5
421.617	519.5
421.839	496.5
422.062	484.5
422.285	499.5
422.507	551.5
422.73	639.5
422.953	599.5
423.175	521.5
423.398	514.5
423.621	499.5
423.843	509.5
424.066	499.5
424.288	520.5
424.511	524.5
424.733	576.5
424.956	669.5
425.178	630.5
425.401	626.5
425.623	602.5
425.846	521.5
426.068	512.5
426.291	506.5
426.513	530.5
426.735	515.5
426.958	561.5
427.18	633.5
427.402	753.5
427.625	799.5
427.847	680.5
428.069	585.5
428.292	544.5
428.514	489.5
428.736	481.5
428.958	483.5
429.181	485.5
429.403	456.5
429.625	480.5
429.847	511.5
430.069	579.5
430.292	569.5
430.514	481.5
430.736	471.5
430.958	464.5
431.18	466.5
431.402	441.5
431.624	450.5
431.846	416.5
432.068	465.5
432.29	451.5
432.512	460.5
432.734	453.5
432.956	478.5
433.178	454.5
433.4	467.5
433.622	456.5
433.844	467.5
434.066	439.5
434.287	479.5
434.509	456.5
434.731	465.5
434.953	489.5
435.175	480.5
435.397	505.5
435.618	528.5
435.84	548.5
436.062	627.5
436.284	676.5
436.505	571.5
436.727	536.5
436.949	500.5
437.17	466.5
437.392	461.5
437.614	469.5
437.835	502.5
438.057	579.5
438.278	656.5
438.5	661.5
438.721	717.5
438.943	700.5
439.165	578.5
439.386	523.5
439.608	512.5
439.829	519.5
440.05	526.5
440.272	561.5
440.493	509.5
440.715	480.5
440.936	485.5
441.158	485.5
441.379	482.5
441.6	481.5
441.822	501.5
442.043	577.5
442.264	614.5
442.486	653.5
442.707	579.5
442.928	521.5
443.149	505.5
443.371	542.5
443.592	578.5
443.813	666.5
444.034	717.5
444.255	593.5
444.476	526.5
444.698	523.5
444.919	521.5
445.14	643.5
445.361	560.5
445.582	536.5
445.803	603.5
446.024	673.5
446.245	674.5
446.466	647.5
446.687	546.5
446.908	507.5
447.129	465.5
447.35	475.5
447.571	484.5
447.792	451.5
448.013	465.5
448.234	483.5
448.455	517.5
448.675	625.5
448.896	701.5
449.117	620.5
449.338	579.5
449.559	649.5
449.779	761.5
450	623.5
450.221	499.5
450.442	461.5
450.662	451.5
450.883	452.5
451.104	470.5
451.324	444.5
451.545	444.5
451.766	428.5
451.986	422.5
452.207	403.5
452.428	382.5
452.648	415.5
452.869	407.5
453.089	421.5
453.31	442.5
453.53	417.5
453.751	409.5
453.971	418.5
454.192	423.5
454.412	399.5
454.633	410.5
454.853	425.5
455.073	393.5
455.294	415.5
455.514	482.5
455.734	470.5
455.955	417.5
456.175	412.5
456.395	394.5
456.616	376.5
456.836	380.5
457.056	395.5
457.276	393.5
457.497	399.5
457.717	401.5
457.937	410.5
458.157	408.5
458.377	375.5
458.598	413.5
458.818	466.5
459.038	518.5
459.258	511.5
459.478	489.5
459.698	460.5
459.918	432.5
460.138	445.5
460.358	467.5
460.578	465.5
460.798	457.5
461.018	475.5
461.238	454.5
461.458	452.5
461.678	442.5
461.898	455.5
462.118	441.5
462.338	477.5
462.558	471.5
462.777	491.5
462.997	518.5
463.217	498.5
463.437	538.5
463.657	513.5
463.876	505.5
464.096	505.5
464.316	504.5
464.536	499.5
464.755	486.5
464.975	493.5
465.195	502.5
465.414	554.5
465.634	501.5
465.854	455.5
466.073	447.5
466.293	436.5
466.512	451.5
466.732	438.5
466.951	409.5
467.171	423.5
467.391	431.5
467.61	449.5
467.829	412.5
468.049	441.5
468.268	419.5
468.488	411.5
468.707	413.5
468.927	413.5
469.146	416.5
469.365	415.5
469.585	424.5
469.804	427.5
470.023	427.5
470.243	425.5
470.462	442.5
470.681	440.5
470.901	440.5
471.12	438.5
471.339	452.5
471.558	443.5
471.777	428.5
471.997	416.5
472.216	408.5
472.435	437.5
472.654	435.5
472.873	427.5
473.092	420.5
473.311	419.5
473.53	421.5
473.749	425.5
473.968	475.5
474.187	553.5
474.406	565.5
474.625	466.5
474.844	447.5
475.063	431.5
475.282	441.5
475.501	435.5
475.72	432.5
475.939	435.5
476.158	447.5
476.377	429.5
476.596	441.5
476.814	429.5
477.033	463.5
477.252	463.5
477.471	444.5
477.69	438.5
477.908	473.5
478.127	480.5
478.346	467.5
478.564	480.5
478.783	473.5
479.002	484.5
479.22	475.5
479.439	504.5
479.658	510.5
479.876	517.5
480.095	553.5
480.313	553.5
480.532	529.5
480.751	520.5
480.969	525.5
481.188	571.5
481.406	546.5
481.624	529.5
481.843	516.5
482.061	500.5
482.28	503.5
482.498	498.5
482.717	493.5
482.935	517.5
483.153	496.5
483.372	486.5
483.59	499.5
483.808	476.5
484.027	508.5
484.245	491.5
484.463	490.5
484.681	500.5
484.9	492.5
485.118	506.5
485.336	482.5
485.554	497.5
485.772	496.5
485.99	533.5
486.209	520.5
486.427	502.5
486.645	505.5
486.863	536.5
487.081	519.5
487.299	526.5
487.517	524.5
487.735	528.5
487.953	538.5
488.171	541.5
488.389	519.5
488.607	522.5
488.825	529.5
489.043	530.5
489.261	548.5
489.479	535.5
489.696	523.5
489.914	547.5
490.132	538.5
490.35	553.5
490.568	537.5
490.786	531.5
491.003	571.5
491.221	552.5
491.439	560.5
491.657	572.5
491.874	581.5
492.092	607.5
492.31	595.5
492.527	574.5
492.745	579.5
492.963	604.5
493.18	589.5
493.398	598.5
493.615	583.5
493.833	592.5
494.05	599.5
494.268	599.5
494.485	608.5
494.703	602.5
494.92	602.5
495.138	602.5
495.355	619.5
495.573	611.5
495.79	597.5
496.008	610.5
496.225	599.5
496.442	624.5
496.66	589.5
496.877	617.5
497.094	630.5
497.312	617.5
497.529	643.5
497.746	644.5
497.963	663.5
498.181	687.5
498.398	709.5
498.615	702.5
498.832	735.5
499.049	741.5
499.267	751.5
499.484	778.5
499.701	827.5
499.918	853.5
500.135	892.5
500.352	953.5
500.569	951.5
500.786	974.5
501.003	952.5
501.22	926.5
501.437	859.5
501.654	807.5
501.871	861.5
502.088	774.5
502.305	754.5
502.522	703.5
502.739	721.5
502.956	687.5
503.172	695.5
503.389	630.5
503.606	651.5
503.823	667.5
504.04	653.5
504.256	644.5
504.473	650.5
504.69	636.5
504.907	594.5
505.123	597.5
505.34	610.5
505.557	597.5
505.773	608.5
505.99	612.5
506.207	591.5
506.423	578.5
506.64	583.5
506.856	561.5
507.073	578.5
507.289	557.5
507.506	549.5
507.722	553.5
507.939	569.5
508.155	569.5
508.372	552.5
508.588	535.5
508.805	543.5
509.021	562.5
509.238	548.5
509.454	573.5
509.67	550.5
509.887	563.5
510.103	535.5
510.319	542.5
510.536	601.5
510.752	921.5
510.968	764.5
511.184	565.5
511.401	557.5
511.617	533.5
511.833	531.5
512.049	499.5
512.265	538.5
512.481	521.5
512.698	527.5
512.914	508.5
513.13	480.5
513.346	520.5
513.562	525.5
513.778	514.5
513.994	519.5
514.21	529.5
514.426	551.5
514.642	563.5
514.858	588.5
515.074	589.5
515.29	654.5
515.506	869.5
515.721	749.5
515.937	615.5
516.153	568.5
516.369	570.5
516.585	550.5
516.801	546.5
517.016	549.5
517.232	537.5
517.448	574.5
517.664	565.5
517.879	552.5
518.095	549.5
518.311	540.5
518.527	550.5
518.742	534.5
518.958	530.5
519.173	544.5
519.389	529.5
519.605	521.5
519.82	519.5
520.036	543.5
