Data from 1977.PennyLincolnUp.Lamp.En5.5.200Scan.071719.P1_HRD10591_16-05-56-864.txt Node
Date: Thu Jul 18 16:05:56 EDT 2019
User: cochatt
Spectrometer: HR+D1059
Trigger mode: 1
Integration Time (sec): 1.000000E-1
Scans to average: 1
Electric dark correction enabled: true
Nonlinearity correction enabled: false
Boxcar width: 0
XAxis mode: Wavelengths
Number of Pixels in Spectrum: 2048
>>>>>Begin Spectral Data<<<<<
223.165	-16.5
223.4	-16.5
223.635	-16.5
223.869	2.5
224.104	-13.5
224.338	-23.5
224.573	-13.5
224.808	-3.5
225.042	-7.5
225.277	-14.5
225.511	-0.5
225.746	4.5
225.98	9.5
226.215	5.5
226.449	19.5
226.683	6.5
226.918	17.5
227.152	27.5
227.387	28.5
227.621	32.5
227.856	32.5
228.09	51.5
228.324	57.5
228.559	44.5
228.793	51.5
229.027	90.5
229.262	97.5
229.496	122.5
229.73	119.5
229.964	130.5
230.199	100.5
230.433	105.5
230.667	106.5
230.901	105.5
231.136	123.5
231.37	104.5
231.604	99.5
231.838	98.5
232.072	118.5
232.306	118.5
232.541	123.5
232.775	119.5
233.009	111.5
233.243	112.5
233.477	106.5
233.711	111.5
233.945	123.5
234.179	108.5
234.413	99.5
234.647	117.5
234.881	107.5
235.115	111.5
235.349	112.5
235.583	117.5
235.817	121.5
236.051	127.5
236.285	136.5
236.519	135.5
236.753	122.5
236.987	131.5
237.221	173.5
237.455	210.5
237.689	179.5
237.922	127.5
238.156	107.5
238.39	123.5
238.624	116.5
238.858	112.5
239.091	120.5
239.325	119.5
239.559	122.5
239.793	129.5
240.027	138.5
240.26	148.5
240.494	143.5
240.728	161.5
240.961	147.5
241.195	135.5
241.429	132.5
241.662	135.5
241.896	129.5
242.13	136.5
242.363	131.5
242.597	133.5
242.83	136.5
243.064	149.5
243.298	145.5
243.531	157.5
243.765	132.5
243.998	131.5
244.232	128.5
244.465	148.5
244.699	138.5
244.932	145.5
245.166	132.5
245.399	129.5
245.633	149.5
245.866	140.5
246.099	135.5
246.333	135.5
246.566	162.5
246.8	163.5
247.033	164.5
247.266	151.5
247.5	167.5
247.733	168.5
247.966	176.5
248.2	169.5
248.433	161.5
248.666	175.5
248.899	163.5
249.133	193.5
249.366	185.5
249.599	193.5
249.832	181.5
250.066	186.5
250.299	159.5
250.532	193.5
250.765	192.5
250.998	213.5
251.231	211.5
251.465	209.5
251.698	206.5
251.931	203.5
252.164	193.5
252.397	206.5
252.63	199.5
252.863	194.5
253.096	205.5
253.329	220.5
253.562	203.5
253.795	216.5
254.028	210.5
254.261	214.5
254.494	216.5
254.727	231.5
254.96	259.5
255.193	268.5
255.426	242.5
255.659	213.5
255.892	219.5
256.124	221.5
256.357	205.5
256.59	197.5
256.823	214.5
257.056	205.5
257.289	219.5
257.521	210.5
257.754	207.5
257.987	212.5
258.22	219.5
258.452	207.5
258.685	223.5
258.918	211.5
259.151	209.5
259.383	221.5
259.616	224.5
259.849	203.5
260.081	214.5
260.314	251.5
260.547	265.5
260.779	246.5
261.012	248.5
261.244	213.5
261.477	225.5
261.71	233.5
261.942	237.5
262.175	226.5
262.407	226.5
262.64	227.5
262.872	224.5
263.105	211.5
263.337	212.5
263.57	237.5
263.802	215.5
264.035	218.5
264.267	227.5
264.499	213.5
264.732	239.5
264.964	215.5
265.197	212.5
265.429	234.5
265.661	231.5
265.894	226.5
266.126	214.5
266.358	212.5
266.591	220.5
266.823	248.5
267.055	224.5
267.287	236.5
267.52	237.5
267.752	215.5
267.984	231.5
268.216	236.5
268.448	243.5
268.681	239.5
268.913	260.5
269.145	278.5
269.377	273.5
269.609	266.5
269.841	269.5
270.073	270.5
270.306	279.5
270.538	287.5
270.77	287.5
271.002	292.5
271.234	292.5
271.466	316.5
271.698	307.5
271.93	306.5
272.162	304.5
272.394	319.5
272.626	288.5
272.858	283.5
273.09	291.5
273.322	281.5
273.553	279.5
273.785	252.5
274.017	280.5
274.249	273.5
274.481	260.5
274.713	275.5
274.945	269.5
275.176	274.5
275.408	274.5
275.64	264.5
275.872	277.5
276.104	268.5
276.335	265.5
276.567	285.5
276.799	293.5
277.031	307.5
277.262	295.5
277.494	304.5
277.726	320.5
277.957	280.5
278.189	286.5
278.421	280.5
278.652	296.5
278.884	288.5
279.115	295.5
279.347	291.5
279.579	273.5
279.81	273.5
280.042	299.5
280.273	298.5
280.505	285.5
280.736	279.5
280.968	295.5
281.199	290.5
281.431	281.5
281.662	281.5
281.894	289.5
282.125	284.5
282.356	299.5
282.588	310.5
282.819	306.5
283.051	291.5
283.282	300.5
283.513	296.5
283.745	297.5
283.976	320.5
284.207	323.5
284.439	288.5
284.67	292.5
284.901	291.5
285.132	308.5
285.364	283.5
285.595	301.5
285.826	310.5
286.057	315.5
286.288	305.5
286.52	311.5
286.751	318.5
286.982	293.5
287.213	304.5
287.444	299.5
287.675	300.5
287.906	314.5
288.138	313.5
288.369	333.5
288.6	330.5
288.831	331.5
289.062	284.5
289.293	324.5
289.524	307.5
289.755	321.5
289.986	324.5
290.217	314.5
290.448	311.5
290.679	306.5
290.91	294.5
291.141	305.5
291.371	301.5
291.602	303.5
291.833	314.5
292.064	317.5
292.295	315.5
292.526	300.5
292.757	323.5
292.987	323.5
293.218	310.5
293.449	319.5
293.68	328.5
293.91	317.5
294.141	315.5
294.372	306.5
294.603	324.5
294.833	312.5
295.064	328.5
295.295	330.5
295.525	322.5
295.756	331.5
295.987	324.5
296.217	319.5
296.448	331.5
296.679	295.5
296.909	315.5
297.14	312.5
297.37	346.5
297.601	330.5
297.831	336.5
298.062	334.5
298.292	335.5
298.523	348.5
298.753	323.5
298.984	341.5
299.214	339.5
299.445	336.5
299.675	337.5
299.905	338.5
300.136	318.5
300.366	334.5
300.597	344.5
300.827	346.5
301.057	361.5
301.288	359.5
301.518	354.5
301.748	349.5
301.979	336.5
302.209	370.5
302.439	343.5
302.669	351.5
302.9	356.5
303.13	360.5
303.36	340.5
303.59	346.5
303.82	363.5
304.051	361.5
304.281	360.5
304.511	352.5
304.741	344.5
304.971	364.5
305.201	339.5
305.431	357.5
305.661	359.5
305.891	368.5
306.121	356.5
306.352	353.5
306.582	362.5
306.812	362.5
307.042	373.5
307.272	362.5
307.502	341.5
307.731	368.5
307.961	377.5
308.191	360.5
308.421	353.5
308.651	348.5
308.881	359.5
309.111	364.5
309.341	367.5
309.571	371.5
309.8	407.5
310.03	376.5
310.26	386.5
310.49	403.5
310.72	386.5
310.949	391.5
311.179	391.5
311.409	393.5
311.639	403.5
311.868	403.5
312.098	389.5
312.328	401.5
312.557	384.5
312.787	405.5
313.017	418.5
313.246	394.5
313.476	405.5
313.706	398.5
313.935	398.5
314.165	402.5
314.394	427.5
314.624	409.5
314.853	407.5
315.083	394.5
315.312	385.5
315.542	415.5
315.771	395.5
316.001	409.5
316.23	389.5
316.46	398.5
316.689	412.5
316.919	418.5
317.148	388.5
317.377	398.5
317.607	399.5
317.836	400.5
318.065	388.5
318.295	401.5
318.524	391.5
318.753	392.5
318.983	407.5
319.212	379.5
319.441	398.5
319.67	417.5
319.9	413.5
320.129	417.5
320.358	408.5
320.587	391.5
320.816	409.5
321.046	405.5
321.275	422.5
321.504	428.5
321.733	409.5
321.962	416.5
322.191	421.5
322.42	444.5
322.649	441.5
322.878	439.5
323.108	449.5
323.337	456.5
323.566	472.5
323.795	497.5
324.024	517.5
324.253	611.5
324.482	845.5
324.71	1239.5
324.939	1687.5
325.168	1429.5
325.397	781.5
325.626	574.5
325.855	511.5
326.084	484.5
326.313	476.5
326.542	485.5
326.77	512.5
326.999	614.5
327.228	774.5
327.457	1099.5
327.686	1250.5
327.914	865.5
328.143	634.5
328.372	549.5
328.6	535.5
328.829	514.5
329.058	526.5
329.287	542.5
329.515	520.5
329.744	504.5
329.972	498.5
330.201	491.5
330.43	525.5
330.658	533.5
330.887	566.5
331.115	547.5
331.344	507.5
331.572	475.5
331.801	479.5
332.03	485.5
332.258	498.5
332.486	460.5
332.715	455.5
332.943	468.5
333.172	467.5
333.4	480.5
333.629	495.5
333.857	492.5
334.085	527.5
334.314	524.5
334.542	529.5
334.771	545.5
334.999	506.5
335.227	479.5
335.455	480.5
335.684	471.5
335.912	467.5
336.14	483.5
336.369	471.5
336.597	482.5
336.825	481.5
337.053	480.5
337.281	485.5
337.51	453.5
337.738	445.5
337.966	475.5
338.194	474.5
338.422	448.5
338.65	447.5
338.878	451.5
339.106	432.5
339.334	460.5
339.562	459.5
339.79	428.5
340.018	443.5
340.246	443.5
340.474	455.5
340.702	439.5
340.93	439.5
341.158	460.5
341.386	476.5
341.614	411.5
341.842	421.5
342.07	429.5
342.298	432.5
342.526	449.5
342.754	440.5
342.981	427.5
343.209	433.5
343.437	451.5
343.665	448.5
343.893	462.5
344.12	459.5
344.348	450.5
344.576	450.5
344.804	456.5
345.031	455.5
345.259	468.5
345.487	445.5
345.714	437.5
345.942	440.5
346.17	431.5
346.397	414.5
346.625	437.5
346.853	398.5
347.08	414.5
347.308	397.5
347.535	424.5
347.763	413.5
347.99	436.5
348.218	408.5
348.445	445.5
348.673	434.5
348.9	412.5
349.128	408.5
349.355	422.5
349.583	405.5
349.81	407.5
350.037	405.5
350.265	415.5
350.492	418.5
350.72	399.5
350.947	395.5
351.174	408.5
351.402	417.5
351.629	412.5
351.856	434.5
352.083	438.5
352.311	431.5
352.538	427.5
352.765	429.5
352.992	416.5
353.22	397.5
353.447	406.5
353.674	396.5
353.901	377.5
354.128	406.5
354.355	380.5
354.583	395.5
354.81	380.5
355.037	413.5
355.264	391.5
355.491	411.5
355.718	389.5
355.945	373.5
356.172	393.5
356.399	396.5
356.626	390.5
356.853	405.5
357.08	411.5
357.307	403.5
357.534	409.5
357.761	411.5
357.988	388.5
358.215	413.5
358.441	383.5
358.668	403.5
358.895	389.5
359.122	408.5
359.349	416.5
359.576	417.5
359.802	432.5
360.029	427.5
360.256	446.5
360.483	438.5
360.709	405.5
360.936	417.5
361.163	390.5
361.39	407.5
361.616	411.5
361.843	404.5
362.07	417.5
362.296	409.5
362.523	400.5
362.749	406.5
362.976	408.5
363.203	407.5
363.429	400.5
363.656	400.5
363.882	404.5
364.109	396.5
364.335	395.5
364.562	379.5
364.788	407.5
365.015	400.5
365.241	399.5
365.468	399.5
365.694	403.5
365.92	384.5
366.147	389.5
366.373	392.5
366.599	383.5
366.826	371.5
367.052	393.5
367.278	391.5
367.505	396.5
367.731	398.5
367.957	395.5
368.184	394.5
368.41	401.5
368.636	411.5
368.862	400.5
369.089	405.5
369.315	396.5
369.541	389.5
369.767	396.5
369.993	396.5
370.219	383.5
370.445	374.5
370.672	387.5
370.898	384.5
371.124	389.5
371.35	408.5
371.576	387.5
371.802	401.5
372.028	402.5
372.254	404.5
372.48	404.5
372.706	378.5
372.932	402.5
373.158	429.5
373.384	408.5
373.61	404.5
373.835	417.5
374.061	407.5
374.287	396.5
374.513	403.5
374.739	428.5
374.965	393.5
375.191	394.5
375.416	417.5
375.642	412.5
375.868	387.5
376.094	405.5
376.319	409.5
376.545	397.5
376.771	401.5
376.997	382.5
377.222	399.5
377.448	400.5
377.674	386.5
377.899	387.5
378.125	370.5
378.35	397.5
378.576	378.5
378.802	387.5
379.027	385.5
379.253	380.5
379.478	402.5
379.704	393.5
379.929	406.5
380.155	411.5
380.38	397.5
380.606	393.5
380.831	388.5
381.057	390.5
381.282	402.5
381.507	392.5
381.733	399.5
381.958	416.5
382.184	414.5
382.409	405.5
382.634	392.5
382.86	400.5
383.085	390.5
383.31	431.5
383.535	405.5
383.761	415.5
383.986	411.5
384.211	414.5
384.436	417.5
384.662	419.5
384.887	427.5
385.112	420.5
385.337	440.5
385.562	434.5
385.787	432.5
386.013	442.5
386.238	449.5
386.463	448.5
386.688	441.5
386.913	451.5
387.138	427.5
387.363	450.5
387.588	450.5
387.813	428.5
388.038	432.5
388.263	423.5
388.488	411.5
388.713	418.5
388.938	435.5
389.163	431.5
389.387	439.5
389.612	448.5
389.837	420.5
390.062	434.5
390.287	421.5
390.512	413.5
390.736	426.5
390.961	449.5
391.186	432.5
391.411	432.5
391.636	445.5
391.86	438.5
392.085	449.5
392.31	466.5
392.534	441.5
392.759	435.5
392.984	431.5
393.208	441.5
393.433	445.5
393.658	437.5
393.882	421.5
394.107	441.5
394.331	449.5
394.556	431.5
394.78	443.5
395.005	450.5
395.229	444.5
395.454	453.5
395.678	452.5
395.903	462.5
396.127	443.5
396.352	453.5
396.576	447.5
396.801	456.5
397.025	439.5
397.249	472.5
397.474	463.5
397.698	448.5
397.922	454.5
398.147	497.5
398.371	498.5
398.595	478.5
398.82	495.5
399.044	508.5
399.268	506.5
399.492	551.5
399.717	580.5
399.941	620.5
400.165	619.5
400.389	595.5
400.613	580.5
400.837	518.5
401.062	486.5
401.286	495.5
401.51	515.5
401.734	488.5
401.958	499.5
402.182	503.5
402.406	490.5
402.63	505.5
402.854	513.5
403.078	511.5
403.302	501.5
403.526	510.5
403.75	474.5
403.974	497.5
404.198	496.5
404.422	499.5
404.645	513.5
404.869	521.5
405.093	525.5
405.317	577.5
405.541	593.5
405.765	574.5
405.988	521.5
406.212	545.5
406.436	543.5
406.66	563.5
406.883	541.5
407.107	577.5
407.331	595.5
407.555	647.5
407.778	657.5
408.002	601.5
408.226	567.5
408.449	572.5
408.673	561.5
408.896	560.5
409.12	597.5
409.344	588.5
409.567	520.5
409.791	532.5
410.014	505.5
410.238	483.5
410.461	495.5
410.685	521.5
410.908	528.5
411.132	552.5
411.355	563.5
411.578	547.5
411.802	521.5
412.025	493.5
412.249	514.5
412.472	520.5
412.695	535.5
412.919	539.5
413.142	492.5
413.365	486.5
413.589	472.5
413.812	467.5
414.035	490.5
414.258	479.5
414.482	460.5
414.705	489.5
414.928	484.5
415.151	474.5
415.374	476.5
415.597	468.5
415.821	455.5
416.044	454.5
416.267	475.5
416.49	483.5
416.713	465.5
416.936	471.5
417.159	482.5
417.382	496.5
417.605	481.5
417.828	471.5
418.051	495.5
418.274	492.5
418.497	454.5
418.72	473.5
418.943	469.5
419.166	491.5
419.389	488.5
419.611	521.5
419.834	501.5
420.057	500.5
420.28	501.5
420.503	489.5
420.726	513.5
420.948	506.5
421.171	528.5
421.394	546.5
421.617	520.5
421.839	499.5
422.062	492.5
422.285	517.5
422.507	581.5
422.73	626.5
422.953	603.5
423.175	526.5
423.398	510.5
423.621	494.5
423.843	529.5
424.066	506.5
424.288	525.5
424.511	550.5
424.733	593.5
424.956	636.5
425.178	621.5
425.401	627.5
425.623	627.5
425.846	571.5
426.068	524.5
426.291	507.5
426.513	519.5
426.735	513.5
426.958	556.5
427.18	628.5
427.402	709.5
427.625	773.5
427.847	677.5
428.069	575.5
428.292	529.5
428.514	514.5
428.736	479.5
428.958	483.5
429.181	482.5
429.403	468.5
429.625	468.5
429.847	492.5
430.069	551.5
430.292	549.5
430.514	473.5
430.736	444.5
430.958	458.5
431.18	468.5
431.402	442.5
431.624	441.5
431.846	438.5
432.068	434.5
432.29	461.5
432.512	425.5
432.734	482.5
432.956	432.5
433.178	443.5
433.4	462.5
433.622	453.5
433.844	473.5
434.066	445.5
434.287	460.5
434.509	462.5
434.731	467.5
434.953	507.5
435.175	474.5
435.397	523.5
435.618	507.5
435.84	532.5
436.062	608.5
436.284	658.5
436.505	575.5
436.727	509.5
436.949	486.5
437.17	477.5
437.392	473.5
437.614	485.5
437.835	488.5
438.057	558.5
438.278	639.5
438.5	679.5
438.721	713.5
438.943	685.5
439.165	561.5
439.386	518.5
439.608	507.5
439.829	504.5
440.05	496.5
440.272	550.5
440.493	535.5
440.715	468.5
440.936	455.5
441.158	458.5
441.379	464.5
441.6	480.5
441.822	512.5
442.043	533.5
442.264	599.5
442.486	637.5
442.707	529.5
442.928	531.5
443.149	519.5
443.371	532.5
443.592	567.5
443.813	641.5
444.034	715.5
444.255	587.5
444.476	545.5
444.698	499.5
444.919	529.5
445.14	634.5
445.361	579.5
445.582	553.5
445.803	585.5
446.024	668.5
446.245	669.5
446.466	610.5
446.687	536.5
446.908	506.5
447.129	479.5
447.35	455.5
447.571	443.5
447.792	459.5
448.013	459.5
448.234	491.5
448.455	511.5
448.675	589.5
448.896	705.5
449.117	597.5
449.338	548.5
449.559	650.5
449.779	754.5
450	593.5
450.221	487.5
450.442	484.5
450.662	482.5
450.883	455.5
451.104	463.5
451.324	446.5
451.545	444.5
451.766	434.5
451.986	428.5
452.207	398.5
452.428	411.5
452.648	397.5
452.869	408.5
453.089	424.5
453.31	428.5
453.53	420.5
453.751	423.5
453.971	431.5
454.192	426.5
454.412	424.5
454.633	408.5
454.853	394.5
455.073	402.5
455.294	424.5
455.514	476.5
455.734	453.5
455.955	423.5
456.175	411.5
456.395	381.5
456.616	386.5
456.836	406.5
457.056	407.5
457.276	397.5
457.497	395.5
457.717	390.5
457.937	401.5
458.157	403.5
458.377	404.5
458.598	427.5
458.818	480.5
459.038	510.5
459.258	532.5
459.478	462.5
459.698	452.5
459.918	451.5
460.138	453.5
460.358	434.5
460.578	468.5
460.798	450.5
461.018	472.5
461.238	483.5
461.458	467.5
461.678	453.5
461.898	434.5
462.118	458.5
462.338	472.5
462.558	487.5
462.777	496.5
462.997	504.5
463.217	550.5
463.437	528.5
463.657	501.5
463.876	489.5
464.096	490.5
464.316	496.5
464.536	498.5
464.755	499.5
464.975	475.5
465.195	511.5
465.414	518.5
465.634	501.5
465.854	460.5
466.073	430.5
466.293	460.5
466.512	428.5
466.732	428.5
466.951	440.5
467.171	418.5
467.391	404.5
467.61	416.5
467.829	439.5
468.049	425.5
468.268	434.5
468.488	416.5
468.707	415.5
468.927	424.5
469.146	404.5
469.365	409.5
469.585	412.5
469.804	439.5
470.023	435.5
470.243	428.5
470.462	423.5
470.681	442.5
470.901	430.5
471.12	420.5
471.339	427.5
471.558	434.5
471.777	437.5
471.997	439.5
472.216	432.5
472.435	422.5
472.654	433.5
472.873	417.5
473.092	411.5
473.311	422.5
473.53	455.5
473.749	449.5
473.968	466.5
474.187	549.5
474.406	574.5
474.625	481.5
474.844	438.5
475.063	443.5
475.282	416.5
475.501	431.5
475.72	447.5
475.939	444.5
476.158	456.5
476.377	431.5
476.596	443.5
476.814	459.5
477.033	441.5
477.252	435.5
477.471	439.5
477.69	446.5
477.908	436.5
478.127	479.5
478.346	481.5
478.564	498.5
478.783	489.5
479.002	485.5
479.22	506.5
479.439	493.5
479.658	495.5
479.876	510.5
480.095	511.5
480.313	539.5
480.532	551.5
480.751	551.5
480.969	511.5
481.188	554.5
481.406	572.5
481.624	543.5
481.843	492.5
482.061	531.5
482.28	509.5
482.498	491.5
482.717	489.5
482.935	476.5
483.153	491.5
483.372	512.5
483.59	500.5
483.808	487.5
484.027	480.5
484.245	510.5
484.463	487.5
484.681	497.5
484.9	513.5
485.118	493.5
485.336	491.5
485.554	492.5
485.772	509.5
485.99	515.5
486.209	508.5
486.427	514.5
486.645	507.5
486.863	516.5
487.081	513.5
487.299	522.5
487.517	509.5
487.735	514.5
487.953	512.5
488.171	531.5
488.389	529.5
488.607	512.5
488.825	523.5
489.043	523.5
489.261	548.5
489.479	535.5
489.696	519.5
489.914	548.5
490.132	543.5
490.35	548.5
490.568	530.5
490.786	535.5
491.003	522.5
491.221	552.5
491.439	579.5
491.657	575.5
491.874	590.5
492.092	586.5
492.31	587.5
492.527	580.5
492.745	589.5
492.963	599.5
493.18	616.5
493.398	612.5
493.615	600.5
493.833	586.5
494.05	602.5
494.268	596.5
494.485	589.5
494.703	583.5
494.92	594.5
495.138	596.5
495.355	613.5
495.573	616.5
495.79	615.5
496.008	612.5
496.225	604.5
496.442	604.5
496.66	629.5
496.877	626.5
497.094	609.5
497.312	614.5
497.529	639.5
497.746	643.5
497.963	645.5
498.181	674.5
498.398	677.5
498.615	693.5
498.832	737.5
499.049	738.5
499.267	759.5
499.484	787.5
499.701	825.5
499.918	879.5
500.135	899.5
500.352	975.5
500.569	989.5
500.786	970.5
501.003	964.5
501.22	915.5
501.437	877.5
501.654	823.5
501.871	805.5
502.088	762.5
502.305	741.5
502.522	736.5
502.739	688.5
502.956	683.5
503.172	681.5
503.389	643.5
503.606	667.5
503.823	667.5
504.04	637.5
504.256	639.5
504.473	633.5
504.69	644.5
504.907	625.5
505.123	634.5
505.34	607.5
505.557	586.5
505.773	610.5
505.99	584.5
506.207	587.5
506.423	602.5
506.64	597.5
506.856	569.5
507.073	590.5
507.289	577.5
507.506	559.5
507.722	565.5
507.939	547.5
508.155	564.5
508.372	547.5
508.588	553.5
508.805	529.5
509.021	553.5
509.238	559.5
509.454	559.5
509.67	548.5
509.887	526.5
510.103	559.5
510.319	560.5
510.536	579.5
510.752	865.5
510.968	694.5
511.184	554.5
511.401	535.5
511.617	519.5
511.833	525.5
512.049	512.5
512.265	513.5
512.481	503.5
512.698	500.5
512.914	519.5
513.13	523.5
513.346	505.5
513.562	527.5
513.778	513.5
513.994	535.5
514.21	506.5
514.426	540.5
514.642	545.5
514.858	582.5
515.074	570.5
515.29	669.5
515.506	881.5
515.721	747.5
515.937	599.5
516.153	536.5
516.369	541.5
516.585	519.5
516.801	545.5
517.016	559.5
517.232	561.5
517.448	557.5
517.664	552.5
517.879	563.5
518.095	561.5
518.311	560.5
518.527	542.5
518.742	539.5
518.958	525.5
519.173	517.5
519.389	520.5
519.605	529.5
519.82	541.5
520.036	526.5
