Data from 1977.PennyLincolnUp.Lamp.En5.5.200Scan.071719.P1_HRD10591_16-07-40-866.txt Node
Date: Thu Jul 18 16:07:40 EDT 2019
User: cochatt
Spectrometer: HR+D1059
Trigger mode: 1
Integration Time (sec): 1.000000E-1
Scans to average: 1
Electric dark correction enabled: true
Nonlinearity correction enabled: false
Boxcar width: 0
XAxis mode: Wavelengths
Number of Pixels in Spectrum: 2048
>>>>>Begin Spectral Data<<<<<
223.165	-6.06
223.4	-6.06
223.635	-6.06
223.869	-22.06
224.104	-18.06
224.338	-20.06
224.573	-12.06
224.808	-8.06
225.042	-6.06
225.277	-6.06
225.511	-4.06
225.746	-1.06
225.98	-0.06
226.215	8.94
226.449	14.94
226.683	26.94
226.918	20.94
227.152	31.94
227.387	34.94
227.621	31.94
227.856	41.94
228.09	42.94
228.324	46.94
228.559	56.94
228.793	70.94
229.027	86.94
229.262	89.94
229.496	128.94
229.73	122.94
229.964	137.94
230.199	130.94
230.433	100.94
230.667	112.94
230.901	112.94
231.136	100.94
231.37	112.94
231.604	106.94
231.838	112.94
232.072	107.94
232.306	117.94
232.541	110.94
232.775	114.94
233.009	108.94
233.243	113.94
233.477	117.94
233.711	118.94
233.945	109.94
234.179	122.94
234.413	116.94
234.647	119.94
234.881	115.94
235.115	124.94
235.349	109.94
235.583	117.94
235.817	120.94
236.051	128.94
236.285	117.94
236.519	135.94
236.753	128.94
236.987	130.94
237.221	164.94
237.455	215.94
237.689	168.94
237.922	134.94
238.156	116.94
238.39	133.94
238.624	113.94
238.858	116.94
239.091	125.94
239.325	121.94
239.559	129.94
239.793	133.94
240.027	133.94
240.26	129.94
240.494	154.94
240.728	142.94
240.961	156.94
241.195	145.94
241.429	137.94
241.662	146.94
241.896	129.94
242.13	121.94
242.363	137.94
242.597	130.94
242.83	140.94
243.064	145.94
243.298	156.94
243.531	142.94
243.765	139.94
243.998	133.94
244.232	145.94
244.465	144.94
244.699	151.94
244.932	135.94
245.166	163.94
245.399	157.94
245.633	158.94
245.866	148.94
246.099	132.94
246.333	154.94
246.566	140.94
246.8	139.94
247.033	173.94
247.266	172.94
247.5	153.94
247.733	157.94
247.966	168.94
248.2	176.94
248.433	168.94
248.666	177.94
248.899	190.94
249.133	193.94
249.366	209.94
249.599	206.94
249.832	184.94
250.066	173.94
250.299	188.94
250.532	184.94
250.765	198.94
250.998	212.94
251.231	213.94
251.465	215.94
251.698	181.94
251.931	205.94
252.164	196.94
252.397	200.94
252.63	193.94
252.863	201.94
253.096	218.94
253.329	228.94
253.562	227.94
253.795	213.94
254.028	228.94
254.261	215.94
254.494	230.94
254.727	240.94
254.96	282.94
255.193	261.94
255.426	229.94
255.659	223.94
255.892	220.94
256.124	217.94
256.357	246.94
256.59	228.94
256.823	231.94
257.056	212.94
257.289	235.94
257.521	214.94
257.754	220.94
257.987	224.94
258.22	210.94
258.452	209.94
258.685	206.94
258.918	219.94
259.151	225.94
259.383	236.94
259.616	242.94
259.849	230.94
260.081	245.94
260.314	243.94
260.547	260.94
260.779	236.94
261.012	243.94
261.244	212.94
261.477	237.94
261.71	238.94
261.942	233.94
262.175	237.94
262.407	234.94
262.64	228.94
262.872	217.94
263.105	227.94
263.337	233.94
263.57	236.94
263.802	240.94
264.035	209.94
264.267	219.94
264.499	243.94
264.732	247.94
264.964	226.94
265.197	224.94
265.429	223.94
265.661	226.94
265.894	225.94
266.126	241.94
266.358	220.94
266.591	234.94
266.823	233.94
267.055	255.94
267.287	237.94
267.52	230.94
267.752	230.94
267.984	243.94
268.216	250.94
268.448	260.94
268.681	232.94
268.913	259.94
269.145	274.94
269.377	292.94
269.609	284.94
269.841	294.94
270.073	294.94
270.306	307.94
270.538	320.94
270.77	312.94
271.002	318.94
271.234	299.94
271.466	287.94
271.698	341.94
271.93	354.94
272.162	330.94
272.394	317.94
272.626	308.94
272.858	308.94
273.09	298.94
273.322	289.94
273.553	278.94
273.785	276.94
274.017	290.94
274.249	278.94
274.481	280.94
274.713	290.94
274.945	292.94
275.176	278.94
275.408	274.94
275.64	272.94
275.872	261.94
276.104	290.94
276.335	277.94
276.567	285.94
276.799	293.94
277.031	304.94
277.262	316.94
277.494	335.94
277.726	301.94
277.957	322.94
278.189	306.94
278.421	284.94
278.652	296.94
278.884	300.94
279.115	309.94
279.347	281.94
279.579	277.94
279.81	278.94
280.042	284.94
280.273	293.94
280.505	273.94
280.736	278.94
280.968	293.94
281.199	305.94
281.431	278.94
281.662	280.94
281.894	295.94
282.125	294.94
282.356	293.94
282.588	321.94
282.819	306.94
283.051	290.94
283.282	297.94
283.513	307.94
283.745	311.94
283.976	305.94
284.207	302.94
284.439	319.94
284.67	313.94
284.901	318.94
285.132	305.94
285.364	311.94
285.595	291.94
285.826	290.94
286.057	313.94
286.288	300.94
286.52	310.94
286.751	309.94
286.982	308.94
287.213	336.94
287.444	322.94
287.675	330.94
287.906	325.94
288.138	329.94
288.369	342.94
288.6	329.94
288.831	318.94
289.062	335.94
289.293	308.94
289.524	336.94
289.755	317.94
289.986	313.94
290.217	316.94
290.448	320.94
290.679	327.94
290.91	328.94
291.141	322.94
291.371	307.94
291.602	312.94
291.833	324.94
292.064	318.94
292.295	310.94
292.526	324.94
292.757	319.94
292.987	312.94
293.218	325.94
293.449	321.94
293.68	334.94
293.91	312.94
294.141	330.94
294.372	302.94
294.603	316.94
294.833	318.94
295.064	329.94
295.295	322.94
295.525	323.94
295.756	340.94
295.987	340.94
296.217	348.94
296.448	340.94
296.679	342.94
296.909	319.94
297.14	324.94
297.37	325.94
297.601	335.94
297.831	341.94
298.062	347.94
298.292	342.94
298.523	342.94
298.753	348.94
298.984	338.94
299.214	334.94
299.445	344.94
299.675	335.94
299.905	357.94
300.136	320.94
300.366	345.94
300.597	347.94
300.827	338.94
301.057	353.94
301.288	370.94
301.518	348.94
301.748	350.94
301.979	354.94
302.209	337.94
302.439	357.94
302.669	362.94
302.9	354.94
303.13	356.94
303.36	381.94
303.59	373.94
303.82	358.94
304.051	357.94
304.281	385.94
304.511	353.94
304.741	386.94
304.971	354.94
305.201	362.94
305.431	357.94
305.661	370.94
305.891	361.94
306.121	349.94
306.352	363.94
306.582	369.94
306.812	354.94
307.042	360.94
307.272	375.94
307.502	372.94
307.731	377.94
307.961	376.94
308.191	370.94
308.421	374.94
308.651	356.94
308.881	364.94
309.111	373.94
309.341	349.94
309.571	397.94
309.8	354.94
310.03	372.94
310.26	383.94
310.49	374.94
310.72	400.94
310.949	398.94
311.179	396.94
311.409	384.94
311.639	381.94
311.868	382.94
312.098	406.94
312.328	406.94
312.557	407.94
312.787	427.94
313.017	419.94
313.246	388.94
313.476	396.94
313.706	406.94
313.935	391.94
314.165	402.94
314.394	406.94
314.624	449.94
314.853	384.94
315.083	424.94
315.312	404.94
315.542	404.94
315.771	388.94
316.001	397.94
316.23	420.94
316.46	407.94
316.689	411.94
316.919	421.94
317.148	416.94
317.377	423.94
317.607	427.94
317.836	424.94
318.065	400.94
318.295	410.94
318.524	397.94
318.753	404.94
318.983	422.94
319.212	402.94
319.441	416.94
319.67	399.94
319.9	404.94
320.129	401.94
320.358	423.94
320.587	402.94
320.816	420.94
321.046	430.94
321.275	422.94
321.504	417.94
321.733	423.94
321.962	435.94
322.191	428.94
322.42	457.94
322.649	465.94
322.878	479.94
323.108	476.94
323.337	482.94
323.566	509.94
323.795	525.94
324.024	558.94
324.253	650.94
324.482	890.94
324.71	1317.94
324.939	1874.94
325.168	1580.94
325.397	842.94
325.626	611.94
325.855	534.94
326.084	513.94
326.313	516.94
326.542	514.94
326.77	542.94
326.999	609.94
327.228	836.94
327.457	1184.94
327.686	1412.94
327.914	936.94
328.143	656.94
328.372	582.94
328.6	564.94
328.829	550.94
329.058	551.94
329.287	587.94
329.515	545.94
329.744	512.94
329.972	513.94
330.201	500.94
330.43	562.94
330.658	548.94
330.887	570.94
331.115	552.94
331.344	530.94
331.572	481.94
331.801	500.94
332.03	518.94
332.258	504.94
332.486	480.94
332.715	478.94
332.943	491.94
333.172	481.94
333.4	486.94
333.629	518.94
333.857	524.94
334.085	520.94
334.314	533.94
334.542	543.94
334.771	549.94
334.999	536.94
335.227	530.94
335.455	490.94
335.684	476.94
335.912	472.94
336.14	459.94
336.369	478.94
336.597	483.94
336.825	463.94
337.053	474.94
337.281	459.94
337.51	480.94
337.738	488.94
337.966	458.94
338.194	465.94
338.422	468.94
338.65	469.94
338.878	449.94
339.106	444.94
339.334	446.94
339.562	451.94
339.79	471.94
340.018	464.94
340.246	442.94
340.474	461.94
340.702	440.94
340.93	447.94
341.158	453.94
341.386	460.94
341.614	449.94
341.842	451.94
342.07	444.94
342.298	438.94
342.526	423.94
342.754	432.94
342.981	438.94
343.209	437.94
343.437	441.94
343.665	471.94
343.893	460.94
344.12	473.94
344.348	466.94
344.576	473.94
344.804	474.94
345.031	469.94
345.259	454.94
345.487	460.94
345.714	433.94
345.942	440.94
346.17	439.94
346.397	414.94
346.625	421.94
346.853	440.94
347.08	434.94
347.308	427.94
347.535	430.94
347.763	460.94
347.99	442.94
348.218	428.94
348.445	423.94
348.673	453.94
348.9	437.94
349.128	432.94
349.355	412.94
349.583	421.94
349.81	417.94
350.037	429.94
350.265	418.94
350.492	423.94
350.72	411.94
350.947	419.94
351.174	417.94
351.402	452.94
351.629	426.94
351.856	432.94
352.083	437.94
352.311	447.94
352.538	429.94
352.765	449.94
352.992	442.94
353.22	424.94
353.447	399.94
353.674	434.94
353.901	399.94
354.128	413.94
354.355	402.94
354.583	422.94
354.81	404.94
355.037	413.94
355.264	388.94
355.491	398.94
355.718	406.94
355.945	402.94
356.172	395.94
356.399	394.94
356.626	412.94
356.853	404.94
357.08	406.94
357.307	400.94
357.534	406.94
357.761	403.94
357.988	394.94
358.215	406.94
358.441	406.94
358.668	428.94
358.895	403.94
359.122	402.94
359.349	416.94
359.576	416.94
359.802	436.94
360.029	462.94
360.256	451.94
360.483	444.94
360.709	419.94
360.936	410.94
361.163	419.94
361.39	432.94
361.616	417.94
361.843	417.94
362.07	413.94
362.296	412.94
362.523	417.94
362.749	404.94
362.976	405.94
363.203	393.94
363.429	398.94
363.656	409.94
363.882	400.94
364.109	414.94
364.335	413.94
364.562	403.94
364.788	410.94
365.015	404.94
365.241	395.94
365.468	406.94
365.694	403.94
365.92	395.94
366.147	406.94
366.373	404.94
366.599	417.94
366.826	406.94
367.052	398.94
367.278	401.94
367.505	402.94
367.731	410.94
367.957	401.94
368.184	399.94
368.41	397.94
368.636	406.94
368.862	417.94
369.089	411.94
369.315	413.94
369.541	406.94
369.767	396.94
369.993	397.94
370.219	370.94
370.445	409.94
370.672	393.94
370.898	433.94
371.124	389.94
371.35	395.94
371.576	419.94
371.802	410.94
372.028	416.94
372.254	402.94
372.48	404.94
372.706	405.94
372.932	413.94
373.158	419.94
373.384	396.94
373.61	395.94
373.835	396.94
374.061	405.94
374.287	411.94
374.513	397.94
374.739	412.94
374.965	410.94
375.191	446.94
375.416	416.94
375.642	406.94
375.868	409.94
376.094	395.94
376.319	387.94
376.545	412.94
376.771	395.94
376.997	398.94
377.222	386.94
377.448	397.94
377.674	391.94
377.899	393.94
378.125	409.94
378.35	401.94
378.576	390.94
378.802	379.94
379.027	404.94
379.253	428.94
379.478	399.94
379.704	398.94
379.929	401.94
380.155	414.94
380.38	380.94
380.606	383.94
380.831	405.94
381.057	406.94
381.282	386.94
381.507	416.94
381.733	406.94
381.958	414.94
382.184	412.94
382.409	405.94
382.634	398.94
382.86	403.94
383.085	411.94
383.31	416.94
383.535	412.94
383.761	412.94
383.986	407.94
384.211	417.94
384.436	399.94
384.662	408.94
384.887	441.94
385.112	436.94
385.337	441.94
385.562	446.94
385.787	424.94
386.013	444.94
386.238	457.94
386.463	463.94
386.688	449.94
386.913	444.94
387.138	434.94
387.363	425.94
387.588	415.94
387.813	436.94
388.038	438.94
388.263	450.94
388.488	455.94
388.713	455.94
388.938	433.94
389.163	423.94
389.387	454.94
389.612	431.94
389.837	438.94
390.062	428.94
390.287	423.94
390.512	425.94
390.736	432.94
390.961	461.94
391.186	437.94
391.411	439.94
391.636	429.94
391.86	453.94
392.085	456.94
392.31	439.94
392.534	463.94
392.759	444.94
392.984	438.94
393.208	427.94
393.433	448.94
393.658	454.94
393.882	445.94
394.107	453.94
394.331	450.94
394.556	456.94
394.78	442.94
395.005	432.94
395.229	458.94
395.454	439.94
395.678	451.94
395.903	461.94
396.127	469.94
396.352	489.94
396.576	475.94
396.801	441.94
397.025	436.94
397.249	480.94
397.474	462.94
397.698	458.94
397.922	460.94
398.147	514.94
398.371	518.94
398.595	481.94
398.82	488.94
399.044	504.94
399.268	540.94
399.492	564.94
399.717	587.94
399.941	619.94
400.165	612.94
400.389	644.94
400.613	566.94
400.837	530.94
401.062	535.94
401.286	517.94
401.51	496.94
401.734	497.94
401.958	524.94
402.182	512.94
402.406	509.94
402.63	498.94
402.854	532.94
403.078	532.94
403.302	522.94
403.526	512.94
403.75	538.94
403.974	538.94
404.198	522.94
404.422	497.94
404.645	531.94
404.869	532.94
405.093	544.94
405.317	601.94
405.541	601.94
405.765	565.94
405.988	527.94
406.212	537.94
406.436	545.94
406.66	565.94
406.883	553.94
407.107	596.94
407.331	604.94
407.555	675.94
407.778	658.94
408.002	621.94
408.226	579.94
408.449	581.94
408.673	576.94
408.896	591.94
409.12	614.94
409.344	581.94
409.567	541.94
409.791	535.94
410.014	501.94
410.238	497.94
410.461	506.94
410.685	513.94
410.908	521.94
411.132	575.94
411.355	598.94
411.578	562.94
411.802	502.94
412.025	490.94
412.249	512.94
412.472	537.94
412.695	554.94
412.919	578.94
413.142	513.94
413.365	519.94
413.589	508.94
413.812	493.94
414.035	508.94
414.258	502.94
414.482	474.94
414.705	485.94
414.928	470.94
415.151	466.94
415.374	484.94
415.597	480.94
415.821	491.94
416.044	477.94
416.267	503.94
416.49	475.94
416.713	476.94
416.936	484.94
417.159	476.94
417.382	484.94
417.605	475.94
417.828	495.94
418.051	498.94
418.274	499.94
418.497	464.94
418.72	472.94
418.943	472.94
419.166	468.94
419.389	532.94
419.611	504.94
419.834	485.94
420.057	536.94
420.28	504.94
420.503	507.94
420.726	510.94
420.948	502.94
421.171	549.94
421.394	553.94
421.617	518.94
421.839	499.94
422.062	515.94
422.285	526.94
422.507	567.94
422.73	609.94
422.953	609.94
423.175	525.94
423.398	529.94
423.621	524.94
423.843	509.94
424.066	531.94
424.288	522.94
424.511	539.94
424.733	595.94
424.956	677.94
425.178	640.94
425.401	626.94
425.623	617.94
425.846	541.94
426.068	525.94
426.291	522.94
426.513	527.94
426.735	532.94
426.958	580.94
427.18	635.94
427.402	770.94
427.625	809.94
427.847	708.94
428.069	617.94
428.292	537.94
428.514	511.94
428.736	531.94
428.958	484.94
429.181	472.94
429.403	453.94
429.625	496.94
429.847	527.94
430.069	568.94
430.292	594.94
430.514	488.94
430.736	484.94
430.958	461.94
431.18	468.94
431.402	438.94
431.624	472.94
431.846	466.94
432.068	456.94
432.29	453.94
432.512	450.94
432.734	483.94
432.956	456.94
433.178	452.94
433.4	460.94
433.622	466.94
433.844	470.94
434.066	466.94
434.287	444.94
434.509	462.94
434.731	498.94
434.953	476.94
435.175	514.94
435.397	500.94
435.618	526.94
435.84	555.94
436.062	645.94
436.284	678.94
436.505	582.94
436.727	513.94
436.949	492.94
437.17	498.94
437.392	483.94
437.614	492.94
437.835	527.94
438.057	578.94
438.278	690.94
438.5	676.94
438.721	762.94
438.943	726.94
439.165	577.94
439.386	530.94
439.608	518.94
439.829	525.94
440.05	544.94
440.272	568.94
440.493	555.94
440.715	491.94
440.936	492.94
441.158	477.94
441.379	507.94
441.6	514.94
441.822	519.94
442.043	562.94
442.264	618.94
442.486	657.94
442.707	562.94
442.928	542.94
443.149	531.94
443.371	549.94
443.592	582.94
443.813	659.94
444.034	709.94
444.255	625.94
444.476	546.94
444.698	539.94
444.919	536.94
445.14	661.94
445.361	612.94
445.582	572.94
445.803	600.94
446.024	690.94
446.245	683.94
446.466	648.94
446.687	561.94
446.908	498.94
447.129	489.94
447.35	514.94
447.571	482.94
447.792	480.94
448.013	484.94
448.234	493.94
448.455	516.94
448.675	650.94
448.896	736.94
449.117	607.94
449.338	588.94
449.559	674.94
449.779	789.94
450	628.94
450.221	498.94
450.442	485.94
450.662	460.94
450.883	461.94
451.104	475.94
451.324	451.94
451.545	446.94
451.766	437.94
451.986	415.94
452.207	441.94
452.428	436.94
452.648	419.94
452.869	436.94
453.089	432.94
453.31	435.94
453.53	425.94
453.751	413.94
453.971	424.94
454.192	444.94
454.412	418.94
454.633	434.94
454.853	402.94
455.073	408.94
455.294	445.94
455.514	500.94
455.734	479.94
455.955	421.94
456.175	385.94
456.395	404.94
456.616	391.94
456.836	392.94
457.056	411.94
457.276	391.94
457.497	404.94
457.717	392.94
457.937	404.94
458.157	411.94
458.377	413.94
458.598	429.94
458.818	478.94
459.038	525.94
459.258	564.94
459.478	464.94
459.698	453.94
459.918	452.94
460.138	466.94
460.358	457.94
460.578	457.94
460.798	491.94
461.018	467.94
461.238	465.94
461.458	473.94
461.678	453.94
461.898	460.94
462.118	458.94
462.338	446.94
462.558	489.94
462.777	500.94
462.997	524.94
463.217	539.94
463.437	532.94
463.657	511.94
463.876	516.94
464.096	503.94
464.316	500.94
464.536	509.94
464.755	518.94
464.975	483.94
465.195	505.94
465.414	550.94
465.634	505.94
465.854	473.94
466.073	449.94
466.293	429.94
466.512	450.94
466.732	425.94
466.951	445.94
467.171	432.94
467.391	434.94
467.61	435.94
467.829	453.94
468.049	457.94
468.268	445.94
468.488	436.94
468.707	428.94
468.927	442.94
469.146	424.94
469.365	427.94
469.585	418.94
469.804	442.94
470.023	432.94
470.243	441.94
470.462	452.94
470.681	455.94
470.901	446.94
471.12	440.94
471.339	442.94
471.558	435.94
471.777	447.94
471.997	425.94
472.216	441.94
472.435	459.94
472.654	434.94
472.873	440.94
473.092	410.94
473.311	441.94
473.53	434.94
473.749	450.94
473.968	477.94
474.187	576.94
474.406	590.94
474.625	492.94
474.844	484.94
475.063	442.94
475.282	444.94
475.501	455.94
475.72	452.94
475.939	445.94
476.158	450.94
476.377	444.94
476.596	438.94
476.814	483.94
477.033	457.94
477.252	466.94
477.471	463.94
477.69	466.94
477.908	466.94
478.127	486.94
478.346	488.94
478.564	480.94
478.783	486.94
479.002	518.94
479.22	512.94
479.439	527.94
479.658	551.94
479.876	507.94
480.095	551.94
480.313	582.94
480.532	547.94
480.751	539.94
480.969	529.94
481.188	554.94
481.406	577.94
481.624	528.94
481.843	534.94
482.061	539.94
482.28	490.94
482.498	515.94
482.717	496.94
482.935	518.94
483.153	519.94
483.372	491.94
483.59	516.94
483.808	493.94
484.027	514.94
484.245	491.94
484.463	488.94
484.681	513.94
484.9	523.94
485.118	503.94
485.336	479.94
485.554	518.94
485.772	526.94
485.99	516.94
486.209	522.94
486.427	539.94
486.645	528.94
486.863	535.94
487.081	536.94
487.299	539.94
487.517	542.94
487.735	540.94
487.953	540.94
488.171	529.94
488.389	527.94
488.607	541.94
488.825	530.94
489.043	536.94
489.261	540.94
489.479	548.94
489.696	546.94
489.914	539.94
490.132	555.94
490.35	578.94
490.568	557.94
490.786	587.94
491.003	576.94
491.221	592.94
491.439	558.94
491.657	586.94
491.874	593.94
492.092	601.94
492.31	601.94
492.527	609.94
492.745	579.94
492.963	612.94
493.18	611.94
493.398	626.94
493.615	648.94
493.833	618.94
494.05	632.94
494.268	628.94
494.485	607.94
494.703	635.94
494.92	618.94
495.138	632.94
495.355	626.94
495.573	635.94
495.79	633.94
496.008	614.94
496.225	620.94
496.442	630.94
496.66	657.94
496.877	649.94
497.094	617.94
497.312	647.94
497.529	656.94
497.746	638.94
497.963	701.94
498.181	681.94
498.398	712.94
498.615	737.94
498.832	729.94
499.049	741.94
499.267	754.94
499.484	803.94
499.701	829.94
499.918	846.94
500.135	920.94
500.352	965.94
500.569	978.94
500.786	1007.94
501.003	971.94
501.22	912.94
501.437	915.94
501.654	864.94
501.871	838.94
502.088	813.94
