Data from 1977.PennyLincolnUp.Lamp.En5.5.200Scan.071719.P1_HRD10591_16-07-54-864.txt Node
Date: Thu Jul 18 16:07:54 EDT 2019
User: cochatt
Spectrometer: HR+D1059
Trigger mode: 1
Integration Time (sec): 1.000000E-1
Scans to average: 1
Electric dark correction enabled: true
Nonlinearity correction enabled: false
Boxcar width: 0
XAxis mode: Wavelengths
Number of Pixels in Spectrum: 2048
>>>>>Begin Spectral Data<<<<<
223.165	-25.38
223.4	-25.38
223.635	-25.38
223.869	-24.38
224.104	-31.38
224.338	-11.38
224.573	-17.38
224.808	-15.38
225.042	-7.38
225.277	-11.38
225.511	2.62
225.746	2.62
225.98	17.62
226.215	16.62
226.449	21.62
226.683	21.62
226.918	28.62
227.152	32.62
227.387	36.62
227.621	37.62
227.856	43.62
228.09	41.62
228.324	38.62
228.559	50.62
228.793	84.62
229.027	97.62
229.262	119.62
229.496	106.62
229.73	112.62
229.964	134.62
230.199	113.62
230.433	120.62
230.667	110.62
230.901	112.62
231.136	107.62
231.37	102.62
231.604	100.62
231.838	108.62
232.072	116.62
232.306	116.62
232.541	117.62
232.775	104.62
233.009	122.62
233.243	106.62
233.477	121.62
233.711	107.62
233.945	107.62
234.179	119.62
234.413	104.62
234.647	110.62
234.881	106.62
235.115	114.62
235.349	123.62
235.583	105.62
235.817	105.62
236.051	116.62
236.285	106.62
236.519	116.62
236.753	116.62
236.987	117.62
237.221	158.62
237.455	212.62
237.689	173.62
237.922	144.62
238.156	115.62
238.39	116.62
238.624	115.62
238.858	117.62
239.091	114.62
239.325	117.62
239.559	105.62
239.793	123.62
240.027	132.62
240.26	146.62
240.494	149.62
240.728	136.62
240.961	130.62
241.195	144.62
241.429	132.62
241.662	125.62
241.896	125.62
242.13	133.62
242.363	135.62
242.597	141.62
242.83	137.62
243.064	147.62
243.298	128.62
243.531	128.62
243.765	137.62
243.998	136.62
244.232	144.62
244.465	130.62
244.699	132.62
244.932	125.62
245.166	164.62
245.399	146.62
245.633	135.62
245.866	148.62
246.099	141.62
246.333	140.62
246.566	151.62
246.8	154.62
247.033	160.62
247.266	170.62
247.5	154.62
247.733	146.62
247.966	165.62
248.2	165.62
248.433	171.62
248.666	186.62
248.899	163.62
249.133	192.62
249.366	199.62
249.599	192.62
249.832	185.62
250.066	181.62
250.299	168.62
250.532	180.62
250.765	200.62
250.998	207.62
251.231	211.62
251.465	214.62
251.698	187.62
251.931	174.62
252.164	201.62
252.397	185.62
252.63	200.62
252.863	194.62
253.096	202.62
253.329	214.62
253.562	208.62
253.795	199.62
254.028	217.62
254.261	209.62
254.494	226.62
254.727	261.62
254.96	240.62
255.193	260.62
255.426	241.62
255.659	234.62
255.892	221.62
256.124	224.62
256.357	215.62
256.59	222.62
256.823	212.62
257.056	210.62
257.289	222.62
257.521	214.62
257.754	220.62
257.987	204.62
258.22	203.62
258.452	212.62
258.685	229.62
258.918	200.62
259.151	208.62
259.383	212.62
259.616	208.62
259.849	217.62
260.081	213.62
260.314	230.62
260.547	261.62
260.779	235.62
261.012	234.62
261.244	205.62
261.477	230.62
261.71	243.62
261.942	216.62
262.175	213.62
262.407	226.62
262.64	204.62
262.872	221.62
263.105	226.62
263.337	225.62
263.57	197.62
263.802	208.62
264.035	218.62
264.267	236.62
264.499	209.62
264.732	216.62
264.964	204.62
265.197	197.62
265.429	222.62
265.661	212.62
265.894	227.62
266.126	216.62
266.358	200.62
266.591	222.62
266.823	233.62
267.055	234.62
267.287	228.62
267.52	220.62
267.752	232.62
267.984	240.62
268.216	234.62
268.448	219.62
268.681	243.62
268.913	256.62
269.145	256.62
269.377	283.62
269.609	264.62
269.841	278.62
270.073	266.62
270.306	287.62
270.538	307.62
270.77	326.62
271.002	281.62
271.234	279.62
271.466	293.62
271.698	306.62
271.93	308.62
272.162	310.62
272.394	324.62
272.626	311.62
272.858	285.62
273.09	283.62
273.322	284.62
273.553	280.62
273.785	275.62
274.017	269.62
274.249	263.62
274.481	282.62
274.713	272.62
274.945	297.62
275.176	266.62
275.408	262.62
275.64	276.62
275.872	252.62
276.104	292.62
276.335	263.62
276.567	286.62
276.799	274.62
277.031	275.62
277.262	311.62
277.494	316.62
277.726	287.62
277.957	302.62
278.189	294.62
278.421	283.62
278.652	283.62
278.884	291.62
279.115	284.62
279.347	284.62
279.579	278.62
279.81	264.62
280.042	266.62
280.273	279.62
280.505	280.62
280.736	281.62
280.968	281.62
281.199	282.62
281.431	305.62
281.662	288.62
281.894	283.62
282.125	287.62
282.356	293.62
282.588	293.62
282.819	284.62
283.051	281.62
283.282	293.62
283.513	286.62
283.745	294.62
283.976	310.62
284.207	290.62
284.439	310.62
284.67	296.62
284.901	282.62
285.132	304.62
285.364	300.62
285.595	286.62
285.826	281.62
286.057	308.62
286.288	288.62
286.52	299.62
286.751	292.62
286.982	302.62
287.213	298.62
287.444	308.62
287.675	298.62
287.906	316.62
288.138	321.62
288.369	332.62
288.6	325.62
288.831	310.62
289.062	316.62
289.293	309.62
289.524	297.62
289.755	309.62
289.986	298.62
290.217	308.62
290.448	314.62
290.679	326.62
290.91	316.62
291.141	296.62
291.371	297.62
291.602	306.62
291.833	302.62
292.064	300.62
292.295	312.62
292.526	304.62
292.757	307.62
292.987	310.62
293.218	314.62
293.449	320.62
293.68	310.62
293.91	316.62
294.141	309.62
294.372	314.62
294.603	310.62
294.833	315.62
295.064	306.62
295.295	321.62
295.525	319.62
295.756	310.62
295.987	312.62
296.217	337.62
296.448	333.62
296.679	326.62
296.909	328.62
297.14	315.62
297.37	336.62
297.601	324.62
297.831	305.62
298.062	306.62
298.292	330.62
298.523	334.62
298.753	308.62
298.984	311.62
299.214	331.62
299.445	337.62
299.675	344.62
299.905	312.62
300.136	326.62
300.366	333.62
300.597	341.62
300.827	336.62
301.057	341.62
301.288	348.62
301.518	348.62
301.748	342.62
301.979	351.62
302.209	350.62
302.439	339.62
302.669	324.62
302.9	344.62
303.13	340.62
303.36	335.62
303.59	339.62
303.82	347.62
304.051	353.62
304.281	349.62
304.511	337.62
304.741	350.62
304.971	334.62
305.201	336.62
305.431	344.62
305.661	338.62
305.891	349.62
306.121	359.62
306.352	356.62
306.582	354.62
306.812	345.62
307.042	372.62
307.272	346.62
307.502	366.62
307.731	358.62
307.961	364.62
308.191	370.62
308.421	360.62
308.651	350.62
308.881	343.62
309.111	368.62
309.341	340.62
309.571	346.62
309.8	380.62
310.03	377.62
310.26	393.62
310.49	397.62
310.72	390.62
310.949	396.62
311.179	414.62
311.409	361.62
311.639	372.62
311.868	379.62
312.098	361.62
312.328	371.62
312.557	404.62
312.787	412.62
313.017	396.62
313.246	378.62
313.476	391.62
313.706	388.62
313.935	395.62
314.165	408.62
314.394	428.62
314.624	416.62
314.853	402.62
315.083	383.62
315.312	369.62
315.542	377.62
315.771	349.62
316.001	386.62
316.23	391.62
316.46	395.62
316.689	379.62
316.919	395.62
317.148	376.62
317.377	397.62
317.607	416.62
317.836	398.62
318.065	383.62
318.295	394.62
318.524	388.62
318.753	384.62
318.983	399.62
319.212	377.62
319.441	389.62
319.67	396.62
319.9	395.62
320.129	397.62
320.358	391.62
320.587	377.62
320.816	396.62
321.046	393.62
321.275	408.62
321.504	418.62
321.733	405.62
321.962	413.62
322.191	419.62
322.42	432.62
322.649	449.62
322.878	437.62
323.108	451.62
323.337	461.62
323.566	485.62
323.795	490.62
324.024	555.62
324.253	639.62
324.482	872.62
324.71	1295.62
324.939	1794.62
325.168	1546.62
325.397	797.62
325.626	600.62
325.855	534.62
326.084	505.62
326.313	489.62
326.542	493.62
326.77	520.62
326.999	611.62
327.228	794.62
327.457	1188.62
327.686	1358.62
327.914	932.62
328.143	620.62
328.372	566.62
328.6	532.62
328.829	527.62
329.058	541.62
329.287	544.62
329.515	526.62
329.744	498.62
329.972	493.62
330.201	504.62
330.43	516.62
330.658	538.62
330.887	543.62
331.115	554.62
331.344	517.62
331.572	486.62
331.801	481.62
332.03	492.62
332.258	471.62
332.486	461.62
332.715	459.62
332.943	468.62
333.172	463.62
333.4	478.62
333.629	472.62
333.857	512.62
334.085	481.62
334.314	511.62
334.542	528.62
334.771	538.62
334.999	479.62
335.227	477.62
335.455	478.62
335.684	472.62
335.912	465.62
336.14	459.62
336.369	467.62
336.597	454.62
336.825	462.62
337.053	465.62
337.281	456.62
337.51	453.62
337.738	427.62
337.966	477.62
338.194	446.62
338.422	456.62
338.65	439.62
338.878	437.62
339.106	457.62
339.334	430.62
339.562	406.62
339.79	435.62
340.018	444.62
340.246	429.62
340.474	461.62
340.702	446.62
340.93	438.62
341.158	422.62
341.386	425.62
341.614	416.62
341.842	439.62
342.07	418.62
342.298	436.62
342.526	429.62
342.754	426.62
342.981	423.62
343.209	421.62
343.437	427.62
343.665	440.62
343.893	448.62
344.12	453.62
344.348	437.62
344.576	439.62
344.804	444.62
345.031	450.62
345.259	462.62
345.487	447.62
345.714	433.62
345.942	437.62
346.17	420.62
346.397	413.62
346.625	410.62
346.853	424.62
347.08	409.62
347.308	422.62
347.535	414.62
347.763	432.62
347.99	418.62
348.218	442.62
348.445	427.62
348.673	416.62
348.9	418.62
349.128	410.62
349.355	394.62
349.583	389.62
349.81	402.62
350.037	410.62
350.265	400.62
350.492	400.62
350.72	388.62
350.947	418.62
351.174	410.62
351.402	412.62
351.629	417.62
351.856	399.62
352.083	419.62
352.311	407.62
352.538	408.62
352.765	424.62
352.992	407.62
353.22	398.62
353.447	380.62
353.674	408.62
353.901	384.62
354.128	386.62
354.355	388.62
354.583	392.62
354.81	376.62
355.037	381.62
355.264	388.62
355.491	381.62
355.718	408.62
355.945	386.62
356.172	380.62
356.399	391.62
356.626	402.62
356.853	382.62
357.08	371.62
357.307	369.62
357.534	367.62
357.761	381.62
357.988	394.62
358.215	392.62
358.441	385.62
358.668	381.62
358.895	390.62
359.122	390.62
359.349	406.62
359.576	403.62
359.802	414.62
360.029	394.62
360.256	407.62
360.483	425.62
360.709	418.62
360.936	430.62
361.163	411.62
361.39	413.62
361.616	419.62
361.843	397.62
362.07	388.62
362.296	396.62
362.523	395.62
362.749	394.62
362.976	390.62
363.203	398.62
363.429	398.62
363.656	385.62
363.882	380.62
364.109	388.62
364.335	397.62
364.562	388.62
364.788	392.62
365.015	416.62
365.241	403.62
365.468	404.62
365.694	390.62
365.92	394.62
366.147	393.62
366.373	424.62
366.599	380.62
366.826	388.62
367.052	392.62
367.278	405.62
367.505	388.62
367.731	390.62
367.957	390.62
368.184	398.62
368.41	382.62
368.636	393.62
368.862	376.62
369.089	392.62
369.315	389.62
369.541	389.62
369.767	380.62
369.993	390.62
370.219	391.62
370.445	390.62
370.672	394.62
370.898	372.62
371.124	386.62
371.35	388.62
371.576	396.62
371.802	398.62
372.028	381.62
372.254	372.62
372.48	389.62
372.706	391.62
372.932	388.62
373.158	395.62
373.384	389.62
373.61	378.62
373.835	390.62
374.061	407.62
374.287	382.62
374.513	377.62
374.739	406.62
374.965	407.62
375.191	397.62
375.416	374.62
375.642	402.62
375.868	408.62
376.094	398.62
376.319	392.62
376.545	393.62
376.771	397.62
376.997	398.62
377.222	385.62
377.448	384.62
377.674	392.62
377.899	375.62
378.125	388.62
378.35	391.62
378.576	372.62
378.802	389.62
379.027	397.62
379.253	376.62
379.478	396.62
379.704	380.62
379.929	383.62
380.155	387.62
380.38	377.62
380.606	395.62
380.831	374.62
381.057	374.62
381.282	381.62
381.507	387.62
381.733	390.62
381.958	395.62
382.184	381.62
382.409	381.62
382.634	382.62
382.86	408.62
383.085	418.62
383.31	398.62
383.535	410.62
383.761	390.62
383.986	383.62
384.211	385.62
384.436	388.62
384.662	418.62
384.887	420.62
385.112	412.62
385.337	410.62
385.562	392.62
385.787	425.62
386.013	437.62
386.238	430.62
386.463	428.62
386.688	426.62
386.913	400.62
387.138	395.62
387.363	404.62
387.588	418.62
387.813	419.62
388.038	420.62
388.263	409.62
388.488	422.62
388.713	429.62
388.938	404.62
389.163	425.62
389.387	434.62
389.612	418.62
389.837	422.62
390.062	414.62
390.287	412.62
390.512	428.62
390.736	404.62
390.961	431.62
391.186	427.62
391.411	445.62
391.636	456.62
391.86	448.62
392.085	438.62
392.31	423.62
392.534	441.62
392.759	429.62
392.984	441.62
393.208	405.62
393.433	413.62
393.658	407.62
393.882	430.62
394.107	438.62
394.331	428.62
394.556	424.62
394.78	429.62
395.005	421.62
395.229	425.62
395.454	448.62
395.678	458.62
395.903	460.62
396.127	445.62
396.352	453.62
396.576	460.62
396.801	456.62
397.025	426.62
397.249	460.62
397.474	444.62
397.698	454.62
397.922	471.62
398.147	470.62
398.371	469.62
398.595	444.62
398.82	479.62
399.044	490.62
399.268	496.62
399.492	542.62
399.717	575.62
399.941	596.62
400.165	585.62
400.389	586.62
400.613	551.62
400.837	522.62
401.062	504.62
401.286	492.62
401.51	486.62
401.734	484.62
401.958	497.62
402.182	481.62
402.406	494.62
402.63	491.62
402.854	486.62
403.078	492.62
403.302	512.62
403.526	518.62
403.75	509.62
403.974	510.62
404.198	505.62
404.422	505.62
404.645	534.62
404.869	486.62
405.093	539.62
405.317	556.62
405.541	588.62
405.765	549.62
405.988	522.62
406.212	527.62
406.436	555.62
406.66	541.62
406.883	519.62
407.107	548.62
407.331	599.62
407.555	644.62
407.778	648.62
408.002	596.62
408.226	557.62
408.449	541.62
408.673	548.62
408.896	571.62
409.12	600.62
409.344	571.62
409.567	509.62
409.791	521.62
410.014	482.62
410.238	476.62
410.461	486.62
410.685	503.62
410.908	490.62
411.132	548.62
411.355	554.62
411.578	532.62
411.802	519.62
412.025	506.62
412.249	496.62
412.472	530.62
412.695	537.62
412.919	526.62
413.142	484.62
413.365	491.62
413.589	478.62
413.812	466.62
414.035	456.62
414.258	468.62
414.482	458.62
414.705	460.62
414.928	468.62
415.151	460.62
415.374	439.62
415.597	448.62
415.821	464.62
416.044	454.62
416.267	457.62
416.49	452.62
416.713	473.62
416.936	467.62
417.159	462.62
417.382	458.62
417.605	476.62
417.828	462.62
418.051	474.62
418.274	473.62
418.497	457.62
418.72	453.62
418.943	458.62
419.166	471.62
419.389	490.62
419.611	483.62
419.834	479.62
420.057	493.62
420.28	492.62
420.503	490.62
420.726	483.62
420.948	478.62
421.171	518.62
421.394	547.62
421.617	508.62
421.839	485.62
422.062	498.62
422.285	494.62
422.507	542.62
422.73	593.62
422.953	592.62
423.175	528.62
423.398	501.62
423.621	490.62
423.843	512.62
424.066	507.62
424.288	501.62
424.511	506.62
424.733	573.62
424.956	618.62
425.178	596.62
425.401	601.62
425.623	610.62
425.846	536.62
426.068	510.62
426.291	494.62
426.513	475.62
426.735	485.62
426.958	557.62
427.18	631.62
427.402	726.62
427.625	782.62
427.847	670.62
428.069	584.62
428.292	535.62
428.514	494.62
428.736	452.62
428.958	484.62
429.181	457.62
429.403	460.62
429.625	462.62
429.847	514.62
430.069	537.62
430.292	538.62
430.514	470.62
430.736	480.62
430.958	450.62
431.18	442.62
431.402	445.62
431.624	432.62
431.846	433.62
432.068	426.62
432.29	449.62
432.512	459.62
432.734	446.62
432.956	436.62
433.178	436.62
433.4	437.62
433.622	430.62
433.844	433.62
434.066	450.62
434.287	448.62
434.509	463.62
434.731	466.62
434.953	447.62
435.175	473.62
435.397	510.62
435.618	502.62
435.84	527.62
436.062	612.62
436.284	661.62
436.505	566.62
436.727	488.62
436.949	478.62
437.17	462.62
437.392	458.62
437.614	468.62
437.835	499.62
438.057	577.62
438.278	643.62
438.5	672.62
438.721	713.62
438.943	685.62
439.165	570.62
439.386	484.62
439.608	492.62
439.829	505.62
440.05	522.62
440.272	567.62
440.493	540.62
440.715	489.62
440.936	488.62
441.158	477.62
441.379	472.62
441.6	498.62
441.822	498.62
442.043	512.62
442.264	612.62
442.486	627.62
442.707	519.62
442.928	520.62
443.149	504.62
443.371	518.62
443.592	569.62
443.813	673.62
444.034	694.62
444.255	579.62
444.476	530.62
444.698	514.62
444.919	520.62
445.14	649.62
445.361	597.62
445.582	552.62
445.803	574.62
446.024	643.62
446.245	688.62
446.466	619.62
446.687	542.62
446.908	508.62
447.129	443.62
447.35	458.62
447.571	457.62
447.792	447.62
448.013	468.62
448.234	466.62
448.455	522.62
448.675	620.62
448.896	722.62
449.117	615.62
449.338	560.62
449.559	661.62
449.779	752.62
450	604.62
450.221	498.62
450.442	468.62
450.662	433.62
450.883	452.62
451.104	424.62
451.324	460.62
451.545	425.62
451.766	414.62
451.986	429.62
452.207	403.62
452.428	403.62
452.648	427.62
452.869	387.62
453.089	422.62
453.31	440.62
453.53	421.62
453.751	410.62
453.971	396.62
454.192	416.62
454.412	412.62
454.633	420.62
454.853	392.62
455.073	389.62
455.294	411.62
455.514	486.62
455.734	462.62
455.955	408.62
456.175	381.62
456.395	378.62
456.616	384.62
456.836	400.62
457.056	376.62
457.276	375.62
457.497	413.62
457.717	389.62
457.937	404.62
458.157	400.62
458.377	386.62
458.598	438.62
458.818	469.62
459.038	505.62
459.258	524.62
459.478	470.62
459.698	420.62
459.918	426.62
460.138	439.62
460.358	452.62
460.578	445.62
460.798	435.62
461.018	423.62
461.238	449.62
461.458	441.62
461.678	435.62
461.898	464.62
462.118	446.62
462.338	458.62
462.558	476.62
462.777	479.62
462.997	498.62
463.217	525.62
463.437	492.62
463.657	488.62
463.876	500.62
464.096	482.62
464.316	489.62
464.536	476.62
464.755	480.62
464.975	481.62
465.195	485.62
465.414	524.62
465.634	464.62
465.854	446.62
466.073	419.62
466.293	418.62
466.512	414.62
466.732	407.62
466.951	413.62
467.171	425.62
467.391	412.62
467.61	442.62
467.829	425.62
468.049	410.62
468.268	405.62
468.488	407.62
468.707	404.62
468.927	402.62
469.146	408.62
469.365	399.62
469.585	413.62
469.804	396.62
470.023	434.62
470.243	417.62
470.462	421.62
470.681	436.62
470.901	437.62
471.12	433.62
471.339	421.62
471.558	424.62
471.777	439.62
471.997	417.62
472.216	413.62
472.435	423.62
472.654	422.62
472.873	413.62
473.092	413.62
473.311	429.62
473.53	411.62
473.749	435.62
473.968	467.62
474.187	536.62
474.406	537.62
474.625	456.62
474.844	427.62
475.063	422.62
475.282	438.62
475.501	402.62
475.72	439.62
475.939	436.62
476.158	441.62
476.377	421.62
476.596	434.62
476.814	448.62
477.033	455.62
477.252	455.62
477.471	436.62
477.69	446.62
477.908	476.62
478.127	464.62
478.346	457.62
478.564	467.62
478.783	471.62
479.002	476.62
479.22	473.62
479.439	513.62
479.658	512.62
479.876	516.62
480.095	502.62
480.313	543.62
480.532	542.62
480.751	527.62
480.969	520.62
481.188	540.62
481.406	564.62
481.624	540.62
481.843	523.62
482.061	508.62
482.28	488.62
482.498	469.62
482.717	483.62
482.935	484.62
483.153	489.62
483.372	483.62
483.59	514.62
483.808	484.62
484.027	489.62
484.245	490.62
484.463	495.62
484.681	493.62
484.9	494.62
485.118	507.62
485.336	495.62
485.554	528.62
485.772	497.62
485.99	494.62
486.209	523.62
486.427	496.62
486.645	508.62
486.863	523.62
487.081	509.62
487.299	520.62
487.517	517.62
487.735	518.62
487.953	522.62
488.171	522.62
488.389	532.62
488.607	487.62
488.825	518.62
489.043	502.62
489.261	539.62
489.479	534.62
489.696	546.62
489.914	523.62
490.132	543.62
490.35	534.62
490.568	540.62
490.786	552.62
491.003	545.62
491.221	542.62
491.439	561.62
491.657	558.62
491.874	567.62
492.092	594.62
492.31	572.62
492.527	575.62
492.745	590.62
492.963	584.62
493.18	570.62
493.398	566.62
493.615	596.62
493.833	586.62
494.05	585.62
494.268	596.62
494.485	595.62
494.703	593.62
494.92	590.62
495.138	585.62
495.355	608.62
495.573	597.62
495.79	607.62
496.008	607.62
496.225	594.62
496.442	595.62
496.66	593.62
496.877	618.62
497.094	594.62
497.312	615.62
497.529	633.62
497.746	656.62
497.963	644.62
498.181	666.62
498.398	667.62
498.615	684.62
498.832	683.62
499.049	709.62
499.267	743.62
499.484	768.62
499.701	808.62
499.918	851.62
500.135	889.62
500.352	926.62
500.569	938.62
500.786	933.62
501.003	946.62
501.22	887.62
501.437	858.62
501.654	805.62
501.871	793.62
