Data from 1977.PennyLincolnUp.Lamp.En5.5.200Scan.071719.P1_HRD10591_16-04-49-863.txt Node
Date: Thu Jul 18 16:04:49 EDT 2019
User: cochatt
Spectrometer: HR+D1059
Trigger mode: 1
Integration Time (sec): 1.000000E-1
Scans to average: 1
Electric dark correction enabled: true
Nonlinearity correction enabled: false
Boxcar width: 0
XAxis mode: Wavelengths
Number of Pixels in Spectrum: 2048
>>>>>Begin Spectral Data<<<<<
223.165	-12.69
223.4	-12.69
223.635	-12.69
223.869	-19.69
224.104	-18.69
224.338	-19.69
224.573	-9.69
224.808	-12.69
225.042	-3.69
225.277	6.31
225.511	3.31
225.746	-6.69
225.98	-0.69
226.215	3.31
226.449	21.31
226.683	24.31
226.918	24.31
227.152	21.31
227.387	28.31
227.621	34.31
227.856	23.31
228.09	50.31
228.324	49.31
228.559	53.31
228.793	70.31
229.027	95.31
229.262	88.31
229.496	118.31
229.73	120.31
229.964	149.31
230.199	143.31
230.433	113.31
230.667	123.31
230.901	110.31
231.136	115.31
231.37	109.31
231.604	92.31
231.838	107.31
232.072	118.31
232.306	119.31
232.541	128.31
232.775	120.31
233.009	121.31
233.243	116.31
233.477	122.31
233.711	110.31
233.945	111.31
234.179	111.31
234.413	124.31
234.647	105.31
234.881	109.31
235.115	115.31
235.349	116.31
235.583	99.31
235.817	121.31
236.051	123.31
236.285	127.31
236.519	134.31
236.753	127.31
236.987	143.31
237.221	176.31
237.455	212.31
237.689	173.31
237.922	145.31
238.156	132.31
238.39	127.31
238.624	131.31
238.858	118.31
239.091	116.31
239.325	125.31
239.559	139.31
239.793	135.31
240.027	124.31
240.26	127.31
240.494	148.31
240.728	148.31
240.961	155.31
241.195	139.31
241.429	128.31
241.662	136.31
241.896	117.31
242.13	108.31
242.363	126.31
242.597	140.31
242.83	143.31
243.064	119.31
243.298	151.31
243.531	131.31
243.765	137.31
243.998	153.31
244.232	143.31
244.465	137.31
244.699	146.31
244.932	143.31
245.166	146.31
245.399	132.31
245.633	141.31
245.866	135.31
246.099	144.31
246.333	149.31
246.566	142.31
246.8	149.31
247.033	153.31
247.266	149.31
247.5	163.31
247.733	168.31
247.966	159.31
248.2	193.31
248.433	184.31
248.666	162.31
248.899	175.31
249.133	201.31
249.366	197.31
249.599	177.31
249.832	181.31
250.066	178.31
250.299	189.31
250.532	170.31
250.765	181.31
250.998	209.31
251.231	208.31
251.465	207.31
251.698	208.31
251.931	192.31
252.164	185.31
252.397	192.31
252.63	204.31
252.863	198.31
253.096	199.31
253.329	216.31
253.562	203.31
253.795	187.31
254.028	213.31
254.261	202.31
254.494	205.31
254.727	253.31
254.96	249.31
255.193	240.31
255.426	234.31
255.659	214.31
255.892	215.31
256.124	214.31
256.357	221.31
256.59	204.31
256.823	202.31
257.056	199.31
257.289	205.31
257.521	215.31
257.754	200.31
257.987	209.31
258.22	191.31
258.452	203.31
258.685	198.31
258.918	196.31
259.151	204.31
259.383	219.31
259.616	227.31
259.849	203.31
260.081	214.31
260.314	234.31
260.547	239.31
260.779	225.31
261.012	229.31
261.244	231.31
261.477	214.31
261.71	208.31
261.942	231.31
262.175	233.31
262.407	225.31
262.64	229.31
262.872	213.31
263.105	218.31
263.337	228.31
263.57	224.31
263.802	215.31
264.035	223.31
264.267	221.31
264.499	207.31
264.732	214.31
264.964	238.31
265.197	221.31
265.429	221.31
265.661	225.31
265.894	205.31
266.126	216.31
266.358	220.31
266.591	225.31
266.823	225.31
267.055	249.31
267.287	222.31
267.52	223.31
267.752	229.31
267.984	224.31
268.216	227.31
268.448	248.31
268.681	231.31
268.913	219.31
269.145	267.31
269.377	286.31
269.609	267.31
269.841	270.31
270.073	272.31
270.306	282.31
270.538	289.31
270.77	302.31
271.002	292.31
271.234	291.31
271.466	301.31
271.698	300.31
271.93	311.31
272.162	305.31
272.394	309.31
272.626	281.31
272.858	270.31
273.09	262.31
273.322	274.31
273.553	267.31
273.785	263.31
274.017	276.31
274.249	271.31
274.481	250.31
274.713	261.31
274.945	266.31
275.176	280.31
275.408	280.31
275.64	265.31
275.872	275.31
276.104	279.31
276.335	286.31
276.567	287.31
276.799	278.31
277.031	304.31
277.262	312.31
277.494	305.31
277.726	288.31
277.957	288.31
278.189	289.31
278.421	290.31
278.652	282.31
278.884	296.31
279.115	273.31
279.347	288.31
279.579	311.31
279.81	322.31
280.042	313.31
280.273	331.31
280.505	287.31
280.736	303.31
280.968	280.31
281.199	279.31
281.431	272.31
281.662	252.31
281.894	284.31
282.125	280.31
282.356	307.31
282.588	309.31
282.819	327.31
283.051	304.31
283.282	296.31
283.513	292.31
283.745	297.31
283.976	283.31
284.207	303.31
284.439	303.31
284.67	297.31
284.901	281.31
285.132	303.31
285.364	285.31
285.595	290.31
285.826	293.31
286.057	289.31
286.288	294.31
286.52	307.31
286.751	282.31
286.982	284.31
287.213	303.31
287.444	318.31
287.675	319.31
287.906	305.31
288.138	323.31
288.369	326.31
288.6	326.31
288.831	310.31
289.062	326.31
289.293	301.31
289.524	293.31
289.755	299.31
289.986	312.31
290.217	281.31
290.448	302.31
290.679	297.31
290.91	300.31
291.141	314.31
291.371	286.31
291.602	303.31
291.833	314.31
292.064	287.31
292.295	291.31
292.526	311.31
292.757	301.31
292.987	304.31
293.218	284.31
293.449	305.31
293.68	325.31
293.91	301.31
294.141	320.31
294.372	284.31
294.603	301.31
294.833	300.31
295.064	284.31
295.295	284.31
295.525	317.31
295.756	315.31
295.987	333.31
296.217	353.31
296.448	331.31
296.679	320.31
296.909	309.31
297.14	321.31
297.37	329.31
297.601	314.31
297.831	320.31
298.062	323.31
298.292	315.31
298.523	329.31
298.753	314.31
298.984	329.31
299.214	315.31
299.445	332.31
299.675	335.31
299.905	324.31
300.136	333.31
300.366	316.31
300.597	345.31
300.827	329.31
301.057	316.31
301.288	344.31
301.518	346.31
301.748	341.31
301.979	358.31
302.209	334.31
302.439	324.31
302.669	351.31
302.9	339.31
303.13	346.31
303.36	365.31
303.59	367.31
303.82	349.31
304.051	347.31
304.281	352.31
304.511	348.31
304.741	327.31
304.971	333.31
305.201	331.31
305.431	354.31
305.661	324.31
305.891	341.31
306.121	337.31
306.352	343.31
306.582	349.31
306.812	353.31
307.042	351.31
307.272	358.31
307.502	348.31
307.731	352.31
307.961	358.31
308.191	375.31
308.421	368.31
308.651	356.31
308.881	365.31
309.111	352.31
309.341	357.31
309.571	371.31
309.8	368.31
310.03	368.31
310.26	391.31
310.49	400.31
310.72	396.31
310.949	389.31
311.179	406.31
311.409	396.31
311.639	386.31
311.868	380.31
312.098	389.31
312.328	400.31
312.557	414.31
312.787	422.31
313.017	414.31
313.246	408.31
313.476	407.31
313.706	374.31
313.935	408.31
314.165	408.31
314.394	386.31
314.624	414.31
314.853	419.31
315.083	418.31
315.312	388.31
315.542	386.31
315.771	379.31
316.001	384.31
316.23	407.31
316.46	401.31
316.689	399.31
316.919	391.31
317.148	420.31
317.377	399.31
317.607	405.31
317.836	407.31
318.065	396.31
318.295	419.31
318.524	405.31
318.753	399.31
318.983	407.31
319.212	391.31
319.441	380.31
319.67	406.31
319.9	380.31
320.129	386.31
320.358	389.31
320.587	402.31
320.816	414.31
321.046	424.31
321.275	407.31
321.504	402.31
321.733	429.31
321.962	436.31
322.191	442.31
322.42	432.31
322.649	471.31
322.878	474.31
323.108	501.31
323.337	485.31
323.566	515.31
323.795	541.31
324.024	596.31
324.253	751.31
324.482	1053.31
324.71	1739.31
324.939	2455.31
325.168	2034.31
325.397	1011.31
325.626	691.31
325.855	574.31
326.084	490.31
326.313	519.31
326.542	528.31
326.77	580.31
326.999	699.31
327.228	988.31
327.457	1498.31
327.686	1832.31
327.914	1180.31
328.143	735.31
328.372	641.31
328.6	583.31
328.829	573.31
329.058	608.31
329.287	600.31
329.515	540.31
329.744	537.31
329.972	514.31
330.201	523.31
330.43	563.31
330.658	589.31
330.887	625.31
331.115	598.31
331.344	517.31
331.572	475.31
331.801	501.31
332.03	490.31
332.258	488.31
332.486	477.31
332.715	473.31
332.943	469.31
333.172	455.31
333.4	461.31
333.629	475.31
333.857	502.31
334.085	504.31
334.314	501.31
334.542	497.31
334.771	529.31
334.999	511.31
335.227	482.31
335.455	468.31
335.684	478.31
335.912	480.31
336.14	459.31
336.369	459.31
336.597	458.31
336.825	464.31
337.053	465.31
337.281	459.31
337.51	461.31
337.738	441.31
337.966	451.31
338.194	447.31
338.422	466.31
338.65	448.31
338.878	455.31
339.106	442.31
339.334	441.31
339.562	437.31
339.79	446.31
340.018	429.31
340.246	426.31
340.474	448.31
340.702	464.31
340.93	429.31
341.158	419.31
341.386	420.31
341.614	449.31
341.842	445.31
342.07	430.31
342.298	439.31
342.526	430.31
342.754	417.31
342.981	413.31
343.209	411.31
343.437	447.31
343.665	447.31
343.893	460.31
344.12	431.31
344.348	449.31
344.576	443.31
344.804	462.31
345.031	458.31
345.259	463.31
345.487	452.31
345.714	433.31
345.942	439.31
346.17	439.31
346.397	433.31
346.625	416.31
346.853	426.31
347.08	405.31
347.308	401.31
347.535	429.31
347.763	436.31
347.99	451.31
348.218	436.31
348.445	454.31
348.673	432.31
348.9	437.31
349.128	416.31
349.355	409.31
349.583	391.31
349.81	405.31
350.037	406.31
350.265	380.31
350.492	399.31
350.72	408.31
350.947	397.31
351.174	432.31
351.402	435.31
351.629	423.31
351.856	416.31
352.083	433.31
352.311	426.31
352.538	435.31
352.765	431.31
352.992	427.31
353.22	422.31
353.447	407.31
353.674	407.31
353.901	409.31
354.128	414.31
354.355	402.31
354.583	402.31
354.81	385.31
355.037	385.31
355.264	388.31
355.491	390.31
355.718	393.31
355.945	412.31
356.172	399.31
356.399	372.31
356.626	380.31
356.853	409.31
357.08	391.31
357.307	384.31
357.534	401.31
357.761	395.31
357.988	388.31
358.215	401.31
358.441	399.31
358.668	376.31
358.895	407.31
359.122	404.31
359.349	402.31
359.576	400.31
359.802	436.31
360.029	479.31
360.256	468.31
360.483	460.31
360.709	393.31
360.936	441.31
361.163	410.31
361.39	418.31
361.616	408.31
361.843	407.31
362.07	421.31
362.296	419.31
362.523	404.31
362.749	394.31
362.976	399.31
363.203	389.31
363.429	383.31
363.656	406.31
363.882	399.31
364.109	401.31
364.335	398.31
364.562	406.31
364.788	392.31
365.015	385.31
365.241	397.31
365.468	400.31
365.694	398.31
365.92	393.31
366.147	375.31
366.373	375.31
366.599	412.31
366.826	396.31
367.052	377.31
367.278	405.31
367.505	390.31
367.731	389.31
367.957	396.31
368.184	369.31
368.41	403.31
368.636	422.31
368.862	410.31
369.089	391.31
369.315	384.31
369.541	384.31
369.767	384.31
369.993	385.31
370.219	376.31
370.445	380.31
370.672	386.31
370.898	381.31
371.124	384.31
371.35	366.31
371.576	379.31
371.802	371.31
372.028	380.31
372.254	383.31
372.48	388.31
372.706	393.31
372.932	375.31
373.158	384.31
373.384	376.31
373.61	399.31
373.835	395.31
374.061	409.31
374.287	389.31
374.513	419.31
374.739	375.31
374.965	391.31
375.191	398.31
375.416	409.31
375.642	401.31
375.868	395.31
376.094	393.31
376.319	383.31
376.545	379.31
376.771	386.31
376.997	383.31
377.222	376.31
377.448	376.31
377.674	375.31
377.899	383.31
378.125	362.31
378.35	385.31
378.576	364.31
378.802	381.31
379.027	374.31
379.253	393.31
379.478	391.31
379.704	374.31
379.929	388.31
380.155	375.31
380.38	400.31
380.606	409.31
380.831	391.31
381.057	402.31
381.282	388.31
381.507	401.31
381.733	385.31
381.958	397.31
382.184	412.31
382.409	411.31
382.634	412.31
382.86	397.31
383.085	385.31
383.31	385.31
383.535	401.31
383.761	405.31
383.986	423.31
384.211	408.31
384.436	427.31
384.662	407.31
384.887	441.31
385.112	437.31
385.337	461.31
385.562	441.31
385.787	448.31
386.013	448.31
386.238	456.31
386.463	447.31
386.688	432.31
386.913	463.31
387.138	451.31
387.363	452.31
387.588	424.31
387.813	429.31
388.038	429.31
388.263	452.31
388.488	463.31
388.713	415.31
388.938	426.31
389.163	441.31
389.387	421.31
389.612	413.31
389.837	414.31
390.062	407.31
390.287	388.31
390.512	411.31
390.736	420.31
390.961	438.31
391.186	406.31
391.411	418.31
391.636	439.31
391.86	441.31
392.085	436.31
392.31	439.31
392.534	411.31
392.759	447.31
392.984	449.31
393.208	536.31
393.433	646.31
393.658	672.31
393.882	486.31
394.107	447.31
394.331	431.31
394.556	437.31
394.78	443.31
395.005	443.31
395.229	436.31
395.454	441.31
395.678	449.31
395.903	442.31
396.127	464.31
396.352	491.31
396.576	479.31
396.801	542.31
397.025	611.31
397.249	545.31
397.474	486.31
397.698	454.31
397.922	443.31
398.147	457.31
398.371	457.31
398.595	467.31
398.82	461.31
399.044	501.31
399.268	502.31
399.492	531.31
399.717	553.31
399.941	598.31
400.165	606.31
400.389	574.31
400.613	548.31
400.837	521.31
401.062	506.31
401.286	511.31
401.51	465.31
401.734	486.31
401.958	462.31
402.182	486.31
402.406	494.31
402.63	515.31
402.854	485.31
403.078	470.31
403.302	474.31
403.526	497.31
403.75	516.31
403.974	468.31
404.198	500.31
404.422	492.31
404.645	507.31
404.869	485.31
405.093	496.31
405.317	539.31
405.541	569.31
405.765	513.31
405.988	495.31
406.212	531.31
406.436	558.31
406.66	559.31
406.883	556.31
407.107	576.31
407.331	599.31
407.555	647.31
407.778	645.31
408.002	589.31
408.226	556.31
408.449	553.31
408.673	543.31
408.896	564.31
409.12	571.31
409.344	552.31
409.567	515.31
409.791	507.31
410.014	495.31
410.238	502.31
410.461	502.31
410.685	504.31
410.908	499.31
411.132	550.31
411.355	557.31
411.578	531.31
411.802	482.31
412.025	455.31
412.249	492.31
412.472	480.31
412.695	523.31
412.919	519.31
413.142	481.31
413.365	468.31
413.589	468.31
413.812	428.31
414.035	473.31
414.258	448.31
414.482	440.31
414.705	471.31
414.928	467.31
415.151	461.31
415.374	465.31
415.597	455.31
415.821	450.31
416.044	454.31
416.267	447.31
416.49	460.31
416.713	453.31
416.936	457.31
417.159	442.31
417.382	455.31
417.605	458.31
417.828	466.31
418.051	479.31
418.274	471.31
418.497	461.31
418.72	439.31
418.943	450.31
419.166	471.31
419.389	503.31
419.611	487.31
419.834	500.31
420.057	478.31
420.28	454.31
420.503	454.31
420.726	468.31
420.948	480.31
421.171	542.31
421.394	535.31
421.617	486.31
421.839	479.31
422.062	469.31
422.285	473.31
422.507	523.31
422.73	623.31
422.953	631.31
423.175	521.31
423.398	488.31
423.621	503.31
423.843	502.31
424.066	510.31
424.288	488.31
424.511	527.31
424.733	541.31
424.956	639.31
425.178	607.31
425.401	583.31
425.623	632.31
425.846	529.31
426.068	527.31
426.291	484.31
426.513	495.31
426.735	515.31
426.958	563.31
427.18	592.31
427.402	705.31
427.625	793.31
427.847	700.31
428.069	601.31
428.292	539.31
428.514	500.31
428.736	474.31
428.958	480.31
429.181	469.31
429.403	463.31
429.625	451.31
429.847	494.31
430.069	545.31
430.292	563.31
430.514	481.31
430.736	452.31
430.958	468.31
431.18	457.31
431.402	464.31
431.624	446.31
431.846	438.31
432.068	431.31
432.29	415.31
432.512	427.31
432.734	443.31
432.956	437.31
433.178	467.31
433.4	469.31
433.622	459.31
433.844	435.31
434.066	457.31
434.287	439.31
434.509	440.31
434.731	447.31
434.953	455.31
435.175	458.31
435.397	494.31
435.618	499.31
435.84	523.31
436.062	600.31
436.284	701.31
436.505	571.31
436.727	488.31
436.949	469.31
437.17	449.31
437.392	463.31
437.614	480.31
437.835	505.31
438.057	569.31
438.278	669.31
438.5	669.31
438.721	736.31
438.943	708.31
439.165	543.31
439.386	511.31
439.608	519.31
439.829	495.31
440.05	553.31
440.272	580.31
440.493	535.31
440.715	508.31
440.936	472.31
441.158	457.31
441.379	468.31
441.6	478.31
441.822	508.31
442.043	542.31
442.264	605.31
442.486	639.31
442.707	547.31
442.928	524.31
443.149	512.31
443.371	551.31
443.592	560.31
443.813	668.31
444.034	700.31
444.255	593.31
444.476	530.31
444.698	500.31
444.919	527.31
445.14	584.31
445.361	577.31
445.582	553.31
445.803	609.31
446.024	692.31
446.245	688.31
446.466	647.31
446.687	525.31
446.908	509.31
447.129	488.31
447.35	467.31
447.571	452.31
447.792	457.31
448.013	454.31
448.234	475.31
448.455	486.31
448.675	615.31
448.896	694.31
449.117	599.31
449.338	575.31
449.559	672.31
449.779	752.31
450	597.31
450.221	515.31
450.442	487.31
450.662	447.31
450.883	453.31
451.104	460.31
451.324	449.31
451.545	447.31
451.766	433.31
451.986	407.31
452.207	421.31
452.428	414.31
452.648	419.31
452.869	413.31
453.089	410.31
453.31	415.31
453.53	420.31
453.751	425.31
453.971	430.31
454.192	436.31
454.412	430.31
454.633	411.31
454.853	396.31
455.073	392.31
455.294	438.31
455.514	522.31
455.734	483.31
455.955	414.31
456.175	392.31
456.395	379.31
456.616	402.31
456.836	403.31
457.056	395.31
457.276	388.31
457.497	395.31
457.717	392.31
457.937	400.31
458.157	404.31
458.377	377.31
458.598	420.31
458.818	456.31
459.038	555.31
459.258	559.31
459.478	485.31
459.698	446.31
459.918	435.31
460.138	458.31
460.358	438.31
460.578	472.31
460.798	469.31
461.018	480.31
461.238	462.31
461.458	454.31
461.678	441.31
461.898	450.31
462.118	448.31
462.338	458.31
462.558	483.31
462.777	486.31
462.997	512.31
463.217	509.31
463.437	515.31
463.657	490.31
463.876	477.31
464.096	496.31
464.316	471.31
464.536	488.31
464.755	463.31
464.975	498.31
465.195	533.31
465.414	586.31
465.634	525.31
465.854	477.31
466.073	455.31
466.293	425.31
466.512	428.31
466.732	412.31
466.951	436.31
467.171	432.31
467.391	427.31
467.61	427.31
467.829	423.31
468.049	424.31
468.268	439.31
468.488	422.31
468.707	443.31
468.927	413.31
469.146	382.31
469.365	427.31
469.585	403.31
469.804	423.31
470.023	431.31
470.243	411.31
470.462	423.31
470.681	453.31
470.901	447.31
471.12	421.31
471.339	441.31
471.558	431.31
471.777	432.31
471.997	411.31
472.216	411.31
472.435	439.31
472.654	413.31
472.873	395.31
473.092	405.31
473.311	399.31
473.53	398.31
473.749	424.31
473.968	452.31
474.187	546.31
474.406	565.31
474.625	476.31
474.844	422.31
475.063	428.31
475.282	420.31
475.501	421.31
475.72	427.31
475.939	428.31
476.158	442.31
476.377	427.31
476.596	441.31
476.814	437.31
477.033	449.31
477.252	439.31
477.471	459.31
477.69	435.31
477.908	453.31
478.127	485.31
478.346	479.31
478.564	473.31
478.783	469.31
479.002	502.31
479.22	507.31
479.439	495.31
479.658	511.31
479.876	506.31
480.095	494.31
480.313	531.31
480.532	551.31
480.751	514.31
480.969	526.31
481.188	563.31
481.406	558.31
481.624	503.31
481.843	522.31
482.061	485.31
482.28	503.31
482.498	483.31
482.717	487.31
482.935	503.31
483.153	479.31
483.372	494.31
483.59	501.31
483.808	494.31
484.027	492.31
484.245	493.31
484.463	477.31
484.681	494.31
484.9	503.31
485.118	491.31
485.336	513.31
485.554	521.31
485.772	519.31
485.99	506.31
486.209	519.31
486.427	517.31
486.645	519.31
486.863	546.31
487.081	533.31
487.299	534.31
487.517	505.31
487.735	516.31
487.953	519.31
488.171	505.31
488.389	527.31
488.607	534.31
488.825	524.31
489.043	532.31
489.261	511.31
489.479	513.31
489.696	516.31
489.914	516.31
490.132	532.31
490.35	524.31
490.568	547.31
490.786	548.31
491.003	556.31
491.221	547.31
491.439	545.31
491.657	547.31
491.874	550.31
492.092	558.31
492.31	566.31
492.527	576.31
492.745	575.31
492.963	582.31
493.18	589.31
493.398	578.31
493.615	610.31
493.833	613.31
494.05	608.31
494.268	593.31
494.485	607.31
494.703	594.31
494.92	594.31
495.138	577.31
495.355	601.31
495.573	591.31
495.79	594.31
496.008	611.31
496.225	619.31
496.442	623.31
496.66	618.31
496.877	628.31
497.094	610.31
497.312	609.31
497.529	612.31
497.746	637.31
497.963	628.31
498.181	668.31
498.398	683.31
498.615	667.31
498.832	712.31
499.049	699.31
499.267	741.31
499.484	766.31
499.701	781.31
499.918	841.31
500.135	899.31
500.352	922.31
500.569	952.31
500.786	935.31
501.003	918.31
501.22	885.31
501.437	829.31
501.654	842.31
501.871	775.31
