Data from 1977.PennyLincolnUp.Lamp.En5.5.200Scan.071719.P1_HRD10591_16-05-46-863.txt Node
Date: Thu Jul 18 16:05:46 EDT 2019
User: cochatt
Spectrometer: HR+D1059
Trigger mode: 1
Integration Time (sec): 1.000000E-1
Scans to average: 1
Electric dark correction enabled: true
Nonlinearity correction enabled: false
Boxcar width: 0
XAxis mode: Wavelengths
Number of Pixels in Spectrum: 2048
>>>>>Begin Spectral Data<<<<<
223.165	-16.12
223.4	-16.12
223.635	-16.12
223.869	-27.12
224.104	-27.12
224.338	-10.12
224.573	-10.12
224.808	-3.12
225.042	-18.12
225.277	3.88
225.511	-8.12
225.746	-6.12
225.98	17.88
226.215	20.88
226.449	7.88
226.683	28.88
226.918	16.88
227.152	29.88
227.387	40.88
227.621	45.88
227.856	63.88
228.09	47.88
228.324	27.88
228.559	42.88
228.793	57.88
229.027	94.88
229.262	83.88
229.496	87.88
229.73	118.88
229.964	141.88
230.199	104.88
230.433	101.88
230.667	100.88
230.901	91.88
231.136	115.88
231.37	109.88
231.604	93.88
231.838	106.88
232.072	121.88
232.306	108.88
232.541	112.88
232.775	108.88
233.009	99.88
233.243	121.88
233.477	109.88
233.711	115.88
233.945	102.88
234.179	123.88
234.413	117.88
234.647	138.88
234.881	131.88
235.115	125.88
235.349	123.88
235.583	119.88
235.817	118.88
236.051	123.88
236.285	118.88
236.519	119.88
236.753	130.88
236.987	127.88
237.221	148.88
237.455	193.88
237.689	157.88
237.922	136.88
238.156	139.88
238.39	122.88
238.624	116.88
238.858	110.88
239.091	133.88
239.325	104.88
239.559	109.88
239.793	121.88
240.027	135.88
240.26	134.88
240.494	138.88
240.728	137.88
240.961	141.88
241.195	137.88
241.429	132.88
241.662	118.88
241.896	124.88
242.13	137.88
242.363	130.88
242.597	122.88
242.83	118.88
243.064	124.88
243.298	139.88
243.531	139.88
243.765	140.88
243.998	128.88
244.232	128.88
244.465	150.88
244.699	139.88
244.932	142.88
245.166	145.88
245.399	140.88
245.633	137.88
245.866	139.88
246.099	144.88
246.333	155.88
246.566	146.88
246.8	146.88
247.033	157.88
247.266	136.88
247.5	155.88
247.733	164.88
247.966	161.88
248.2	169.88
248.433	159.88
248.666	157.88
248.899	178.88
249.133	179.88
249.366	201.88
249.599	176.88
249.832	178.88
250.066	167.88
250.299	187.88
250.532	173.88
250.765	169.88
250.998	195.88
251.231	207.88
251.465	203.88
251.698	183.88
251.931	187.88
252.164	199.88
252.397	195.88
252.63	185.88
252.863	191.88
253.096	208.88
253.329	217.88
253.562	199.88
253.795	207.88
254.028	203.88
254.261	201.88
254.494	207.88
254.727	208.88
254.96	249.88
255.193	226.88
255.426	219.88
255.659	214.88
255.892	210.88
256.124	213.88
256.357	224.88
256.59	207.88
256.823	222.88
257.056	208.88
257.289	200.88
257.521	193.88
257.754	215.88
257.987	189.88
258.22	195.88
258.452	197.88
258.685	208.88
258.918	215.88
259.151	201.88
259.383	207.88
259.616	214.88
259.849	215.88
260.081	228.88
260.314	218.88
260.547	230.88
260.779	226.88
261.012	210.88
261.244	212.88
261.477	213.88
261.71	213.88
261.942	217.88
262.175	237.88
262.407	235.88
262.64	213.88
262.872	217.88
263.105	219.88
263.337	213.88
263.57	211.88
263.802	212.88
264.035	220.88
264.267	188.88
264.499	228.88
264.732	220.88
264.964	212.88
265.197	202.88
265.429	203.88
265.661	223.88
265.894	210.88
266.126	223.88
266.358	199.88
266.591	220.88
266.823	225.88
267.055	209.88
267.287	223.88
267.52	213.88
267.752	213.88
267.984	229.88
268.216	228.88
268.448	231.88
268.681	243.88
268.913	237.88
269.145	258.88
269.377	269.88
269.609	265.88
269.841	249.88
270.073	263.88
270.306	276.88
270.538	301.88
270.77	287.88
271.002	293.88
271.234	293.88
271.466	276.88
271.698	284.88
271.93	273.88
272.162	299.88
272.394	311.88
272.626	296.88
272.858	285.88
273.09	266.88
273.322	263.88
273.553	260.88
273.785	251.88
274.017	246.88
274.249	262.88
274.481	264.88
274.713	251.88
274.945	271.88
275.176	256.88
275.408	282.88
275.64	260.88
275.872	257.88
276.104	269.88
276.335	280.88
276.567	247.88
276.799	297.88
277.031	298.88
277.262	294.88
277.494	304.88
277.726	297.88
277.957	275.88
278.189	272.88
278.421	275.88
278.652	269.88
278.884	279.88
279.115	286.88
279.347	283.88
279.579	280.88
279.81	259.88
280.042	279.88
280.273	279.88
280.505	257.88
280.736	272.88
280.968	266.88
281.199	270.88
281.431	284.88
281.662	273.88
281.894	286.88
282.125	275.88
282.356	289.88
282.588	287.88
282.819	308.88
283.051	300.88
283.282	284.88
283.513	280.88
283.745	295.88
283.976	288.88
284.207	286.88
284.439	288.88
284.67	299.88
284.901	283.88
285.132	278.88
285.364	284.88
285.595	284.88
285.826	281.88
286.057	292.88
286.288	273.88
286.52	302.88
286.751	303.88
286.982	288.88
287.213	294.88
287.444	297.88
287.675	293.88
287.906	317.88
288.138	317.88
288.369	324.88
288.6	317.88
288.831	299.88
289.062	302.88
289.293	287.88
289.524	305.88
289.755	287.88
289.986	313.88
290.217	307.88
290.448	311.88
290.679	320.88
290.91	279.88
291.141	300.88
291.371	296.88
291.602	301.88
291.833	293.88
292.064	300.88
292.295	302.88
292.526	307.88
292.757	313.88
292.987	312.88
293.218	300.88
293.449	305.88
293.68	300.88
293.91	324.88
294.141	305.88
294.372	297.88
294.603	306.88
294.833	295.88
295.064	296.88
295.295	297.88
295.525	302.88
295.756	314.88
295.987	318.88
296.217	331.88
296.448	333.88
296.679	316.88
296.909	317.88
297.14	324.88
297.37	294.88
297.601	323.88
297.831	325.88
298.062	329.88
298.292	297.88
298.523	333.88
298.753	323.88
298.984	321.88
299.214	316.88
299.445	324.88
299.675	323.88
299.905	330.88
300.136	334.88
300.366	309.88
300.597	332.88
300.827	345.88
301.057	361.88
301.288	336.88
301.518	340.88
301.748	344.88
301.979	339.88
302.209	344.88
302.439	331.88
302.669	341.88
302.9	335.88
303.13	330.88
303.36	336.88
303.59	356.88
303.82	352.88
304.051	350.88
304.281	342.88
304.511	327.88
304.741	320.88
304.971	331.88
305.201	340.88
305.431	343.88
305.661	355.88
305.891	317.88
306.121	346.88
306.352	334.88
306.582	333.88
306.812	347.88
307.042	335.88
307.272	326.88
307.502	321.88
307.731	334.88
307.961	329.88
308.191	353.88
308.421	352.88
308.651	346.88
308.881	352.88
309.111	378.88
309.341	351.88
309.571	349.88
309.8	351.88
310.03	347.88
310.26	372.88
310.49	358.88
310.72	359.88
310.949	391.88
311.179	389.88
311.409	381.88
311.639	370.88
311.868	358.88
312.098	373.88
312.328	381.88
312.557	378.88
312.787	384.88
313.017	390.88
313.246	369.88
313.476	368.88
313.706	382.88
313.935	387.88
314.165	375.88
314.394	399.88
314.624	391.88
314.853	395.88
315.083	403.88
315.312	377.88
315.542	357.88
315.771	375.88
316.001	375.88
316.23	385.88
316.46	368.88
316.689	371.88
316.919	382.88
317.148	407.88
317.377	380.88
317.607	383.88
317.836	386.88
318.065	388.88
318.295	371.88
318.524	375.88
318.753	374.88
318.983	358.88
319.212	363.88
319.441	363.88
319.67	377.88
319.9	395.88
320.129	382.88
320.358	389.88
320.587	391.88
320.816	385.88
321.046	384.88
321.275	392.88
321.504	380.88
321.733	391.88
321.962	419.88
322.191	405.88
322.42	416.88
322.649	428.88
322.878	423.88
323.108	444.88
323.337	447.88
323.566	447.88
323.795	476.88
324.024	510.88
324.253	580.88
324.482	781.88
324.71	1081.88
324.939	1468.88
325.168	1293.88
325.397	687.88
325.626	533.88
325.855	477.88
326.084	464.88
326.313	454.88
326.542	449.88
326.77	490.88
326.999	571.88
327.228	715.88
327.457	981.88
327.686	1125.88
327.914	773.88
328.143	575.88
328.372	519.88
328.6	496.88
328.829	502.88
329.058	490.88
329.287	502.88
329.515	480.88
329.744	451.88
329.972	468.88
330.201	449.88
330.43	476.88
330.658	493.88
330.887	512.88
331.115	492.88
331.344	446.88
331.572	454.88
331.801	461.88
332.03	453.88
332.258	446.88
332.486	436.88
332.715	447.88
332.943	438.88
333.172	432.88
333.4	455.88
333.629	462.88
333.857	496.88
334.085	514.88
334.314	500.88
334.542	491.88
334.771	493.88
334.999	466.88
335.227	480.88
335.455	465.88
335.684	463.88
335.912	449.88
336.14	450.88
336.369	461.88
336.597	445.88
336.825	453.88
337.053	448.88
337.281	435.88
337.51	429.88
337.738	442.88
337.966	435.88
338.194	433.88
338.422	430.88
338.65	416.88
338.878	424.88
339.106	426.88
339.334	431.88
339.562	433.88
339.79	425.88
340.018	423.88
340.246	415.88
340.474	428.88
340.702	419.88
340.93	429.88
341.158	420.88
341.386	414.88
341.614	439.88
341.842	428.88
342.07	409.88
342.298	412.88
342.526	408.88
342.754	417.88
342.981	431.88
343.209	427.88
343.437	419.88
343.665	409.88
343.893	432.88
344.12	442.88
344.348	438.88
344.576	441.88
344.804	439.88
345.031	445.88
345.259	428.88
345.487	425.88
345.714	399.88
345.942	413.88
346.17	409.88
346.397	380.88
346.625	401.88
346.853	391.88
347.08	409.88
347.308	411.88
347.535	405.88
347.763	406.88
347.99	415.88
348.218	397.88
348.445	390.88
348.673	395.88
348.9	397.88
349.128	400.88
349.355	380.88
349.583	397.88
349.81	388.88
350.037	409.88
350.265	374.88
350.492	395.88
350.72	375.88
350.947	392.88
351.174	392.88
351.402	403.88
351.629	395.88
351.856	387.88
352.083	403.88
352.311	410.88
352.538	409.88
352.765	401.88
352.992	384.88
353.22	406.88
353.447	397.88
353.674	395.88
353.901	385.88
354.128	387.88
354.355	405.88
354.583	389.88
354.81	384.88
355.037	379.88
355.264	379.88
355.491	378.88
355.718	377.88
355.945	374.88
356.172	389.88
356.399	371.88
356.626	381.88
356.853	374.88
357.08	381.88
357.307	371.88
357.534	363.88
357.761	384.88
357.988	372.88
358.215	389.88
358.441	384.88
358.668	380.88
358.895	387.88
359.122	391.88
359.349	375.88
359.576	393.88
359.802	388.88
360.029	410.88
360.256	415.88
360.483	397.88
360.709	399.88
360.936	412.88
361.163	401.88
361.39	371.88
361.616	397.88
361.843	400.88
362.07	392.88
362.296	383.88
362.523	377.88
362.749	409.88
362.976	386.88
363.203	383.88
363.429	352.88
363.656	384.88
363.882	385.88
364.109	396.88
364.335	384.88
364.562	374.88
364.788	368.88
365.015	375.88
365.241	391.88
365.468	401.88
365.694	375.88
365.92	355.88
366.147	381.88
366.373	378.88
366.599	389.88
366.826	379.88
367.052	358.88
367.278	371.88
367.505	397.88
367.731	377.88
367.957	381.88
368.184	383.88
368.41	372.88
368.636	389.88
368.862	383.88
369.089	365.88
369.315	377.88
369.541	385.88
369.767	391.88
369.993	392.88
370.219	376.88
370.445	378.88
370.672	371.88
370.898	383.88
371.124	381.88
371.35	363.88
371.576	380.88
371.802	385.88
372.028	367.88
372.254	375.88
372.48	361.88
372.706	371.88
372.932	388.88
373.158	380.88
373.384	387.88
373.61	373.88
373.835	368.88
374.061	385.88
374.287	386.88
374.513	383.88
374.739	395.88
374.965	390.88
375.191	371.88
375.416	407.88
375.642	383.88
375.868	381.88
376.094	388.88
376.319	375.88
376.545	369.88
376.771	381.88
376.997	363.88
377.222	381.88
377.448	391.88
377.674	359.88
377.899	368.88
378.125	360.88
378.35	381.88
378.576	373.88
378.802	377.88
379.027	375.88
379.253	380.88
379.478	365.88
379.704	371.88
379.929	387.88
380.155	377.88
380.38	375.88
380.606	352.88
380.831	370.88
381.057	381.88
381.282	398.88
381.507	367.88
381.733	381.88
381.958	387.88
382.184	380.88
382.409	370.88
382.634	392.88
382.86	389.88
383.085	387.88
383.31	418.88
383.535	410.88
383.761	418.88
383.986	405.88
384.211	391.88
384.436	387.88
384.662	399.88
384.887	411.88
385.112	410.88
385.337	389.88
385.562	407.88
385.787	414.88
386.013	432.88
386.238	417.88
386.463	423.88
386.688	407.88
386.913	402.88
387.138	415.88
387.363	411.88
387.588	435.88
387.813	429.88
388.038	422.88
388.263	414.88
388.488	393.88
388.713	444.88
388.938	426.88
389.163	405.88
389.387	403.88
389.612	405.88
389.837	409.88
390.062	406.88
390.287	430.88
390.512	420.88
390.736	401.88
390.961	413.88
391.186	419.88
391.411	437.88
391.636	430.88
391.86	443.88
392.085	433.88
392.31	451.88
392.534	438.88
392.759	435.88
392.984	417.88
393.208	413.88
393.433	421.88
393.658	422.88
393.882	428.88
394.107	411.88
394.331	409.88
394.556	410.88
394.78	439.88
395.005	435.88
395.229	417.88
395.454	447.88
395.678	437.88
395.903	453.88
396.127	444.88
396.352	451.88
396.576	438.88
396.801	436.88
397.025	436.88
397.249	435.88
397.474	437.88
397.698	435.88
397.922	456.88
398.147	456.88
398.371	446.88
398.595	463.88
398.82	486.88
399.044	484.88
399.268	504.88
399.492	532.88
399.717	589.88
399.941	574.88
400.165	589.88
400.389	603.88
400.613	505.88
400.837	504.88
401.062	511.88
401.286	475.88
401.51	473.88
401.734	478.88
401.958	484.88
402.182	477.88
402.406	488.88
402.63	505.88
402.854	492.88
403.078	509.88
403.302	493.88
403.526	504.88
403.75	505.88
403.974	491.88
404.198	499.88
404.422	499.88
404.645	510.88
404.869	520.88
405.093	531.88
405.317	531.88
405.541	559.88
405.765	534.88
405.988	528.88
406.212	512.88
406.436	518.88
406.66	529.88
406.883	543.88
407.107	547.88
407.331	559.88
407.555	637.88
407.778	635.88
408.002	584.88
408.226	538.88
408.449	543.88
408.673	519.88
408.896	542.88
409.12	600.88
409.344	543.88
409.567	514.88
409.791	512.88
410.014	492.88
410.238	484.88
410.461	506.88
410.685	502.88
410.908	522.88
411.132	516.88
411.355	547.88
411.578	521.88
411.802	476.88
412.025	458.88
412.249	484.88
412.472	502.88
412.695	510.88
412.919	487.88
413.142	481.88
413.365	459.88
413.589	471.88
413.812	456.88
414.035	463.88
414.258	461.88
414.482	462.88
414.705	441.88
414.928	481.88
415.151	464.88
415.374	459.88
415.597	443.88
415.821	483.88
416.044	443.88
416.267	464.88
416.49	460.88
416.713	463.88
416.936	468.88
417.159	435.88
417.382	465.88
417.605	439.88
417.828	465.88
418.051	469.88
418.274	453.88
418.497	453.88
418.72	441.88
418.943	444.88
419.166	478.88
419.389	502.88
419.611	480.88
419.834	501.88
420.057	500.88
420.28	481.88
420.503	479.88
420.726	464.88
420.948	475.88
421.171	517.88
421.394	512.88
421.617	504.88
421.839	477.88
422.062	490.88
422.285	477.88
422.507	527.88
422.73	572.88
422.953	549.88
423.175	525.88
423.398	486.88
423.621	495.88
423.843	491.88
424.066	499.88
424.288	519.88
424.511	518.88
424.733	553.88
424.956	591.88
425.178	580.88
425.401	584.88
425.623	571.88
425.846	510.88
426.068	494.88
426.291	483.88
426.513	464.88
426.735	491.88
426.958	513.88
427.18	573.88
427.402	665.88
427.625	715.88
427.847	633.88
428.069	567.88
428.292	535.88
428.514	466.88
428.736	453.88
428.958	449.88
429.181	437.88
429.403	448.88
429.625	456.88
429.847	487.88
430.069	528.88
430.292	506.88
430.514	472.88
430.736	440.88
430.958	443.88
431.18	441.88
431.402	431.88
431.624	426.88
431.846	400.88
432.068	421.88
432.29	415.88
432.512	440.88
432.734	435.88
432.956	431.88
433.178	446.88
433.4	458.88
433.622	440.88
433.844	450.88
434.066	429.88
434.287	434.88
434.509	431.88
434.731	428.88
434.953	462.88
435.175	471.88
435.397	465.88
435.618	485.88
435.84	523.88
436.062	582.88
436.284	623.88
436.505	537.88
436.727	478.88
436.949	458.88
437.17	442.88
437.392	444.88
437.614	447.88
437.835	452.88
438.057	517.88
438.278	613.88
438.5	596.88
438.721	653.88
438.943	632.88
439.165	530.88
439.386	495.88
439.608	478.88
439.829	469.88
440.05	488.88
440.272	518.88
440.493	486.88
440.715	474.88
440.936	484.88
441.158	443.88
441.379	466.88
441.6	471.88
441.822	477.88
442.043	501.88
442.264	565.88
442.486	621.88
442.707	539.88
442.928	488.88
443.149	495.88
443.371	506.88
443.592	531.88
443.813	608.88
444.034	653.88
444.255	566.88
444.476	552.88
444.698	501.88
444.919	513.88
445.14	599.88
445.361	543.88
445.582	493.88
445.803	544.88
446.024	600.88
446.245	639.88
446.466	571.88
446.687	491.88
446.908	501.88
447.129	477.88
447.35	455.88
447.571	452.88
447.792	454.88
448.013	444.88
448.234	454.88
448.455	477.88
448.675	596.88
448.896	653.88
449.117	571.88
449.338	546.88
449.559	599.88
449.779	686.88
450	556.88
450.221	471.88
450.442	423.88
450.662	413.88
450.883	419.88
451.104	425.88
451.324	441.88
451.545	396.88
451.766	378.88
451.986	387.88
452.207	395.88
452.428	401.88
452.648	408.88
452.869	387.88
453.089	379.88
453.31	410.88
453.53	407.88
453.751	400.88
453.971	383.88
454.192	397.88
454.412	380.88
454.633	383.88
454.853	390.88
455.073	383.88
455.294	418.88
455.514	469.88
455.734	435.88
455.955	391.88
456.175	368.88
456.395	381.88
456.616	377.88
456.836	358.88
457.056	343.88
457.276	364.88
457.497	390.88
457.717	379.88
457.937	398.88
458.157	399.88
458.377	402.88
458.598	409.88
458.818	431.88
459.038	495.88
459.258	486.88
459.478	439.88
459.698	440.88
459.918	444.88
460.138	451.88
460.358	439.88
460.578	451.88
460.798	443.88
461.018	460.88
461.238	440.88
461.458	446.88
461.678	448.88
461.898	453.88
462.118	471.88
462.338	461.88
462.558	476.88
462.777	477.88
462.997	492.88
463.217	499.88
463.437	505.88
463.657	473.88
463.876	483.88
464.096	508.88
464.316	490.88
464.536	472.88
464.755	468.88
464.975	491.88
465.195	475.88
465.414	534.88
465.634	467.88
465.854	445.88
466.073	436.88
466.293	394.88
466.512	410.88
466.732	407.88
466.951	411.88
467.171	402.88
467.391	417.88
467.61	419.88
467.829	411.88
468.049	412.88
468.268	416.88
468.488	392.88
468.707	405.88
468.927	416.88
469.146	388.88
469.365	405.88
469.585	403.88
469.804	411.88
470.023	412.88
470.243	419.88
470.462	403.88
470.681	423.88
470.901	416.88
471.12	435.88
471.339	402.88
471.558	432.88
471.777	421.88
471.997	416.88
472.216	420.88
472.435	435.88
472.654	399.88
472.873	396.88
473.092	420.88
473.311	407.88
473.53	400.88
473.749	416.88
473.968	449.88
474.187	505.88
474.406	521.88
474.625	429.88
474.844	408.88
475.063	431.88
475.282	423.88
475.501	427.88
475.72	421.88
475.939	414.88
476.158	423.88
476.377	424.88
476.596	410.88
476.814	435.88
477.033	444.88
477.252	430.88
477.471	423.88
477.69	437.88
477.908	456.88
478.127	462.88
478.346	440.88
478.564	448.88
478.783	472.88
479.002	461.88
479.22	474.88
479.439	465.88
479.658	490.88
479.876	488.88
480.095	511.88
480.313	530.88
480.532	494.88
480.751	522.88
480.969	510.88
481.188	528.88
481.406	523.88
481.624	501.88
481.843	479.88
482.061	477.88
482.28	464.88
482.498	479.88
482.717	462.88
482.935	467.88
483.153	473.88
483.372	459.88
483.59	430.88
483.808	485.88
484.027	460.88
484.245	475.88
484.463	476.88
484.681	493.88
484.9	482.88
485.118	455.88
485.336	488.88
485.554	477.88
485.772	486.88
485.99	497.88
486.209	483.88
486.427	476.88
486.645	499.88
486.863	501.88
487.081	510.88
487.299	493.88
487.517	498.88
487.735	507.88
487.953	518.88
488.171	504.88
488.389	491.88
488.607	522.88
488.825	509.88
489.043	522.88
489.261	521.88
489.479	511.88
489.696	496.88
489.914	501.88
490.132	515.88
490.35	499.88
490.568	510.88
490.786	516.88
491.003	529.88
491.221	540.88
491.439	543.88
491.657	534.88
491.874	561.88
492.092	524.88
492.31	556.88
492.527	542.88
492.745	560.88
492.963	569.88
493.18	551.88
493.398	556.88
493.615	585.88
493.833	565.88
494.05	571.88
494.268	563.88
494.485	577.88
494.703	589.88
494.92	575.88
495.138	570.88
495.355	554.88
495.573	583.88
495.79	573.88
496.008	582.88
496.225	587.88
496.442	589.88
496.66	576.88
496.877	588.88
497.094	571.88
497.312	590.88
497.529	610.88
497.746	628.88
497.963	620.88
498.181	641.88
498.398	637.88
498.615	672.88
498.832	697.88
499.049	701.88
499.267	742.88
499.484	738.88
499.701	777.88
499.918	867.88
500.135	880.88
500.352	933.88
500.569	951.88
500.786	947.88
501.003	942.88
501.22	875.88
501.437	865.88
501.654	820.88
501.871	768.88
502.088	741.88
