Data from 1977.PennyLincolnUp.Lamp.En5.5.200Scan.071719.P1_HRD10591_16-07-05-864.txt Node
Date: Thu Jul 18 16:07:05 EDT 2019
User: cochatt
Spectrometer: HR+D1059
Trigger mode: 1
Integration Time (sec): 1.000000E-1
Scans to average: 1
Electric dark correction enabled: true
Nonlinearity correction enabled: false
Boxcar width: 0
XAxis mode: Wavelengths
Number of Pixels in Spectrum: 2048
>>>>>Begin Spectral Data<<<<<
223.165	-6.38
223.4	-6.38
223.635	-6.38
223.869	-25.38
224.104	-13.38
224.338	-6.38
224.573	-18.38
224.808	-5.38
225.042	-5.38
225.277	-1.38
225.511	-7.38
225.746	-15.38
225.98	-6.38
226.215	14.62
226.449	17.62
226.683	13.62
226.918	28.62
227.152	36.62
227.387	36.62
227.621	31.62
227.856	35.62
228.09	43.62
228.324	54.62
228.559	52.62
228.793	64.62
229.027	84.62
229.262	99.62
229.496	97.62
229.73	122.62
229.964	129.62
230.199	120.62
230.433	106.62
230.667	107.62
230.901	96.62
231.136	105.62
231.37	115.62
231.604	99.62
231.838	108.62
232.072	116.62
232.306	124.62
232.541	122.62
232.775	126.62
233.009	112.62
233.243	125.62
233.477	120.62
233.711	112.62
233.945	104.62
234.179	115.62
234.413	109.62
234.647	112.62
234.881	122.62
235.115	114.62
235.349	119.62
235.583	109.62
235.817	125.62
236.051	127.62
236.285	130.62
236.519	131.62
236.753	119.62
236.987	130.62
237.221	174.62
237.455	217.62
237.689	176.62
237.922	137.62
238.156	145.62
238.39	125.62
238.624	126.62
238.858	133.62
239.091	139.62
239.325	109.62
239.559	118.62
239.793	122.62
240.027	125.62
240.26	138.62
240.494	147.62
240.728	122.62
240.961	156.62
241.195	151.62
241.429	144.62
241.662	141.62
241.896	143.62
242.13	123.62
242.363	139.62
242.597	122.62
242.83	121.62
243.064	133.62
243.298	144.62
243.531	134.62
243.765	122.62
243.998	148.62
244.232	147.62
244.465	150.62
244.699	142.62
244.932	145.62
245.166	139.62
245.399	138.62
245.633	144.62
245.866	141.62
246.099	148.62
246.333	155.62
246.566	154.62
246.8	146.62
247.033	162.62
247.266	145.62
247.5	151.62
247.733	167.62
247.966	155.62
248.2	163.62
248.433	163.62
248.666	173.62
248.899	182.62
249.133	183.62
249.366	207.62
249.599	182.62
249.832	181.62
250.066	180.62
250.299	186.62
250.532	183.62
250.765	187.62
250.998	208.62
251.231	228.62
251.465	204.62
251.698	207.62
251.931	204.62
252.164	189.62
252.397	210.62
252.63	188.62
252.863	206.62
253.096	219.62
253.329	226.62
253.562	222.62
253.795	216.62
254.028	211.62
254.261	198.62
254.494	227.62
254.727	238.62
254.96	243.62
255.193	239.62
255.426	222.62
255.659	225.62
255.892	221.62
256.124	220.62
256.357	222.62
256.59	224.62
256.823	209.62
257.056	213.62
257.289	187.62
257.521	179.62
257.754	206.62
257.987	216.62
258.22	221.62
258.452	218.62
258.685	220.62
258.918	191.62
259.151	222.62
259.383	234.62
259.616	236.62
259.849	232.62
260.081	220.62
260.314	237.62
260.547	246.62
260.779	236.62
261.012	242.62
261.244	222.62
261.477	226.62
261.71	215.62
261.942	218.62
262.175	226.62
262.407	233.62
262.64	232.62
262.872	219.62
263.105	237.62
263.337	212.62
263.57	210.62
263.802	209.62
264.035	219.62
264.267	222.62
264.499	233.62
264.732	222.62
264.964	215.62
265.197	211.62
265.429	226.62
265.661	203.62
265.894	219.62
266.126	227.62
266.358	231.62
266.591	232.62
266.823	251.62
267.055	228.62
267.287	229.62
267.52	226.62
267.752	245.62
267.984	250.62
268.216	245.62
268.448	223.62
268.681	242.62
268.913	267.62
269.145	276.62
269.377	277.62
269.609	280.62
269.841	260.62
270.073	270.62
270.306	291.62
270.538	309.62
270.77	306.62
271.002	305.62
271.234	292.62
271.466	311.62
271.698	312.62
271.93	322.62
272.162	318.62
272.394	316.62
272.626	312.62
272.858	290.62
273.09	274.62
273.322	278.62
273.553	276.62
273.785	274.62
274.017	282.62
274.249	267.62
274.481	262.62
274.713	254.62
274.945	279.62
275.176	294.62
275.408	287.62
275.64	286.62
275.872	271.62
276.104	269.62
276.335	267.62
276.567	296.62
276.799	301.62
277.031	322.62
277.262	326.62
277.494	309.62
277.726	309.62
277.957	307.62
278.189	287.62
278.421	293.62
278.652	291.62
278.884	287.62
279.115	284.62
279.347	279.62
279.579	276.62
279.81	288.62
280.042	269.62
280.273	278.62
280.505	295.62
280.736	278.62
280.968	275.62
281.199	271.62
281.431	283.62
281.662	271.62
281.894	282.62
282.125	280.62
282.356	312.62
282.588	286.62
282.819	317.62
283.051	292.62
283.282	293.62
283.513	284.62
283.745	300.62
283.976	310.62
284.207	298.62
284.439	290.62
284.67	288.62
284.901	312.62
285.132	307.62
285.364	293.62
285.595	319.62
285.826	312.62
286.057	298.62
286.288	306.62
286.52	299.62
286.751	315.62
286.982	302.62
287.213	294.62
287.444	301.62
287.675	313.62
287.906	343.62
288.138	314.62
288.369	340.62
288.6	329.62
288.831	317.62
289.062	320.62
289.293	325.62
289.524	313.62
289.755	307.62
289.986	313.62
290.217	319.62
290.448	312.62
290.679	318.62
290.91	326.62
291.141	296.62
291.371	304.62
291.602	299.62
291.833	300.62
292.064	311.62
292.295	306.62
292.526	325.62
292.757	315.62
292.987	294.62
293.218	316.62
293.449	301.62
293.68	338.62
293.91	316.62
294.141	311.62
294.372	300.62
294.603	302.62
294.833	299.62
295.064	329.62
295.295	306.62
295.525	307.62
295.756	334.62
295.987	319.62
296.217	317.62
296.448	348.62
296.679	325.62
296.909	318.62
297.14	318.62
297.37	322.62
297.601	329.62
297.831	323.62
298.062	323.62
298.292	340.62
298.523	341.62
298.753	341.62
298.984	315.62
299.214	323.62
299.445	322.62
299.675	325.62
299.905	318.62
300.136	322.62
300.366	324.62
300.597	328.62
300.827	339.62
301.057	345.62
301.288	349.62
301.518	337.62
301.748	345.62
301.979	349.62
302.209	364.62
302.439	357.62
302.669	360.62
302.9	350.62
303.13	353.62
303.36	362.62
303.59	349.62
303.82	367.62
304.051	367.62
304.281	360.62
304.511	345.62
304.741	349.62
304.971	345.62
305.201	381.62
305.431	356.62
305.661	350.62
305.891	351.62
306.121	356.62
306.352	365.62
306.582	376.62
306.812	362.62
307.042	360.62
307.272	341.62
307.502	354.62
307.731	367.62
307.961	347.62
308.191	371.62
308.421	362.62
308.651	351.62
308.881	362.62
309.111	374.62
309.341	346.62
309.571	364.62
309.8	379.62
310.03	394.62
310.26	379.62
310.49	391.62
310.72	394.62
310.949	390.62
311.179	395.62
311.409	372.62
311.639	397.62
311.868	394.62
312.098	380.62
312.328	385.62
312.557	396.62
312.787	398.62
313.017	402.62
313.246	397.62
313.476	385.62
313.706	401.62
313.935	408.62
314.165	406.62
314.394	403.62
314.624	401.62
314.853	393.62
315.083	389.62
315.312	411.62
315.542	400.62
315.771	382.62
316.001	391.62
316.23	390.62
316.46	378.62
316.689	397.62
316.919	384.62
317.148	387.62
317.377	404.62
317.607	409.62
317.836	406.62
318.065	398.62
318.295	402.62
318.524	409.62
318.753	374.62
318.983	387.62
319.212	386.62
319.441	400.62
319.67	379.62
319.9	396.62
320.129	392.62
320.358	399.62
320.587	399.62
320.816	400.62
321.046	413.62
321.275	423.62
321.504	399.62
321.733	400.62
321.962	411.62
322.191	418.62
322.42	444.62
322.649	447.62
322.878	437.62
323.108	451.62
323.337	471.62
323.566	484.62
323.795	501.62
324.024	536.62
324.253	616.62
324.482	889.62
324.71	1291.62
324.939	1791.62
325.168	1497.62
325.397	823.62
325.626	600.62
325.855	521.62
326.084	495.62
326.313	480.62
326.542	499.62
326.77	533.62
326.999	594.62
327.228	818.62
327.457	1163.62
327.686	1309.62
327.914	924.62
328.143	640.62
328.372	595.62
328.6	535.62
328.829	516.62
329.058	549.62
329.287	544.62
329.515	493.62
329.744	506.62
329.972	490.62
330.201	502.62
330.43	534.62
330.658	534.62
330.887	570.62
331.115	546.62
331.344	520.62
331.572	499.62
331.801	488.62
332.03	491.62
332.258	452.62
332.486	469.62
332.715	495.62
332.943	467.62
333.172	453.62
333.4	493.62
333.629	496.62
333.857	508.62
334.085	510.62
334.314	517.62
334.542	541.62
334.771	545.62
334.999	500.62
335.227	501.62
335.455	481.62
335.684	480.62
335.912	483.62
336.14	465.62
336.369	466.62
336.597	475.62
336.825	473.62
337.053	463.62
337.281	448.62
337.51	468.62
337.738	460.62
337.966	474.62
338.194	463.62
338.422	465.62
338.65	462.62
338.878	442.62
339.106	454.62
339.334	462.62
339.562	465.62
339.79	436.62
340.018	441.62
340.246	439.62
340.474	459.62
340.702	429.62
340.93	430.62
341.158	447.62
341.386	425.62
341.614	421.62
341.842	447.62
342.07	431.62
342.298	431.62
342.526	452.62
342.754	440.62
342.981	454.62
343.209	431.62
343.437	435.62
343.665	443.62
343.893	460.62
344.12	461.62
344.348	460.62
344.576	436.62
344.804	436.62
345.031	468.62
345.259	446.62
345.487	447.62
345.714	426.62
345.942	430.62
346.17	426.62
346.397	437.62
346.625	420.62
346.853	422.62
347.08	424.62
347.308	437.62
347.535	437.62
347.763	437.62
347.99	429.62
348.218	416.62
348.445	422.62
348.673	440.62
348.9	441.62
349.128	416.62
349.355	414.62
349.583	404.62
349.81	426.62
350.037	396.62
350.265	401.62
350.492	404.62
350.72	405.62
350.947	403.62
351.174	427.62
351.402	422.62
351.629	427.62
351.856	445.62
352.083	418.62
352.311	442.62
352.538	410.62
352.765	415.62
352.992	403.62
353.22	407.62
353.447	415.62
353.674	383.62
353.901	398.62
354.128	412.62
354.355	392.62
354.583	392.62
354.81	399.62
355.037	412.62
355.264	382.62
355.491	396.62
355.718	380.62
355.945	400.62
356.172	386.62
356.399	388.62
356.626	390.62
356.853	402.62
357.08	376.62
357.307	383.62
357.534	388.62
357.761	383.62
357.988	415.62
358.215	411.62
358.441	398.62
358.668	381.62
358.895	384.62
359.122	393.62
359.349	396.62
359.576	412.62
359.802	419.62
360.029	438.62
360.256	440.62
360.483	437.62
360.709	407.62
360.936	401.62
361.163	415.62
361.39	414.62
361.616	416.62
361.843	414.62
362.07	400.62
362.296	394.62
362.523	416.62
362.749	405.62
362.976	396.62
363.203	406.62
363.429	395.62
363.656	400.62
363.882	387.62
364.109	400.62
364.335	400.62
364.562	385.62
364.788	378.62
365.015	396.62
365.241	392.62
365.468	409.62
365.694	392.62
365.92	408.62
366.147	370.62
366.373	406.62
366.599	401.62
366.826	391.62
367.052	403.62
367.278	390.62
367.505	398.62
367.731	382.62
367.957	376.62
368.184	400.62
368.41	399.62
368.636	404.62
368.862	397.62
369.089	402.62
369.315	388.62
369.541	390.62
369.767	386.62
369.993	397.62
370.219	372.62
370.445	392.62
370.672	389.62
370.898	397.62
371.124	391.62
371.35	392.62
371.576	388.62
371.802	408.62
372.028	399.62
372.254	394.62
372.48	394.62
372.706	394.62
372.932	394.62
373.158	407.62
373.384	391.62
373.61	384.62
373.835	388.62
374.061	382.62
374.287	403.62
374.513	394.62
374.739	398.62
374.965	392.62
375.191	384.62
375.416	390.62
375.642	412.62
375.868	403.62
376.094	395.62
376.319	399.62
376.545	393.62
376.771	404.62
376.997	388.62
377.222	380.62
377.448	370.62
377.674	395.62
377.899	387.62
378.125	377.62
378.35	398.62
378.576	384.62
378.802	396.62
379.027	375.62
379.253	388.62
379.478	382.62
379.704	372.62
379.929	368.62
380.155	372.62
380.38	377.62
380.606	386.62
380.831	411.62
381.057	401.62
381.282	370.62
381.507	388.62
381.733	388.62
381.958	395.62
382.184	404.62
382.409	392.62
382.634	407.62
382.86	399.62
383.085	384.62
383.31	388.62
383.535	408.62
383.761	416.62
383.986	405.62
384.211	420.62
384.436	427.62
384.662	419.62
384.887	407.62
385.112	409.62
385.337	421.62
385.562	418.62
385.787	407.62
386.013	426.62
386.238	419.62
386.463	434.62
386.688	440.62
386.913	432.62
387.138	441.62
387.363	410.62
387.588	431.62
387.813	424.62
388.038	411.62
388.263	396.62
388.488	414.62
388.713	423.62
388.938	444.62
389.163	435.62
389.387	432.62
389.612	423.62
389.837	410.62
390.062	417.62
390.287	426.62
390.512	428.62
390.736	428.62
390.961	427.62
391.186	415.62
391.411	437.62
391.636	446.62
391.86	430.62
392.085	453.62
392.31	456.62
392.534	423.62
392.759	436.62
392.984	442.62
393.208	450.62
393.433	427.62
393.658	423.62
393.882	431.62
394.107	429.62
394.331	424.62
394.556	404.62
394.78	454.62
395.005	439.62
395.229	428.62
395.454	424.62
395.678	451.62
395.903	463.62
396.127	492.62
396.352	482.62
396.576	444.62
396.801	455.62
397.025	435.62
397.249	444.62
397.474	469.62
397.698	455.62
397.922	475.62
398.147	493.62
398.371	479.62
398.595	488.62
398.82	466.62
399.044	502.62
399.268	510.62
399.492	557.62
399.717	586.62
399.941	600.62
400.165	631.62
400.389	605.62
400.613	541.62
400.837	520.62
401.062	508.62
401.286	490.62
401.51	487.62
401.734	468.62
401.958	472.62
402.182	488.62
402.406	503.62
402.63	506.62
402.854	503.62
403.078	484.62
403.302	485.62
403.526	509.62
403.75	510.62
403.974	510.62
404.198	507.62
404.422	505.62
404.645	511.62
404.869	534.62
405.093	523.62
405.317	540.62
405.541	592.62
405.765	564.62
405.988	524.62
406.212	527.62
406.436	519.62
406.66	550.62
406.883	541.62
407.107	546.62
407.331	598.62
407.555	657.62
407.778	640.62
408.002	611.62
408.226	582.62
408.449	548.62
408.673	546.62
408.896	564.62
409.12	603.62
409.344	585.62
409.567	540.62
409.791	507.62
410.014	492.62
410.238	492.62
410.461	484.62
410.685	495.62
410.908	488.62
411.132	541.62
411.355	563.62
411.578	558.62
411.802	521.62
412.025	501.62
412.249	491.62
412.472	522.62
412.695	526.62
412.919	540.62
413.142	490.62
413.365	485.62
413.589	493.62
413.812	473.62
414.035	458.62
414.258	482.62
414.482	470.62
414.705	456.62
414.928	469.62
415.151	449.62
415.374	456.62
415.597	456.62
415.821	483.62
416.044	472.62
416.267	438.62
416.49	444.62
416.713	462.62
416.936	454.62
417.159	456.62
417.382	460.62
417.605	441.62
417.828	463.62
418.051	518.62
418.274	490.62
418.497	471.62
418.72	476.62
418.943	469.62
419.166	489.62
419.389	491.62
419.611	482.62
419.834	472.62
420.057	499.62
420.28	488.62
420.503	465.62
420.726	465.62
420.948	472.62
421.171	540.62
421.394	556.62
421.617	487.62
421.839	490.62
422.062	471.62
422.285	482.62
422.507	518.62
422.73	603.62
422.953	576.62
423.175	521.62
423.398	492.62
423.621	497.62
423.843	501.62
424.066	490.62
424.288	490.62
424.511	524.62
424.733	576.62
424.956	629.62
425.178	629.62
425.401	617.62
425.623	638.62
425.846	553.62
426.068	534.62
426.291	498.62
426.513	483.62
426.735	502.62
426.958	547.62
427.18	609.62
427.402	742.62
427.625	791.62
427.847	670.62
428.069	607.62
428.292	528.62
428.514	513.62
428.736	507.62
428.958	468.62
429.181	453.62
429.403	470.62
429.625	478.62
429.847	500.62
430.069	558.62
430.292	569.62
430.514	488.62
430.736	464.62
430.958	472.62
431.18	445.62
431.402	456.62
431.624	444.62
431.846	437.62
432.068	438.62
432.29	442.62
432.512	451.62
432.734	457.62
432.956	455.62
433.178	454.62
433.4	454.62
433.622	447.62
433.844	460.62
434.066	446.62
434.287	457.62
434.509	471.62
434.731	479.62
434.953	461.62
435.175	471.62
435.397	512.62
435.618	526.62
435.84	515.62
436.062	593.62
436.284	659.62
436.505	556.62
436.727	496.62
436.949	487.62
437.17	452.62
437.392	471.62
437.614	470.62
437.835	514.62
438.057	574.62
438.278	647.62
438.5	665.62
438.721	709.62
438.943	714.62
439.165	558.62
439.386	514.62
439.608	520.62
439.829	509.62
440.05	525.62
440.272	551.62
440.493	530.62
440.715	477.62
440.936	483.62
441.158	488.62
441.379	472.62
441.6	477.62
441.822	494.62
442.043	526.62
442.264	599.62
442.486	628.62
442.707	549.62
442.928	508.62
443.149	518.62
443.371	529.62
443.592	570.62
443.813	653.62
444.034	703.62
444.255	593.62
444.476	538.62
444.698	527.62
444.919	521.62
445.14	590.62
445.361	555.62
445.582	549.62
445.803	611.62
446.024	700.62
446.245	650.62
446.466	599.62
446.687	544.62
446.908	498.62
447.129	450.62
447.35	460.62
447.571	470.62
447.792	452.62
448.013	470.62
448.234	452.62
448.455	494.62
448.675	608.62
448.896	701.62
449.117	603.62
449.338	589.62
449.559	672.62
449.779	766.62
450	615.62
450.221	515.62
450.442	478.62
450.662	452.62
450.883	438.62
451.104	437.62
451.324	449.62
451.545	438.62
451.766	431.62
451.986	414.62
452.207	399.62
452.428	409.62
452.648	400.62
452.869	447.62
453.089	407.62
453.31	444.62
453.53	403.62
453.751	406.62
453.971	404.62
454.192	419.62
454.412	404.62
454.633	388.62
454.853	415.62
455.073	422.62
455.294	442.62
455.514	488.62
455.734	452.62
455.955	412.62
456.175	401.62
456.395	393.62
456.616	390.62
456.836	390.62
457.056	368.62
457.276	383.62
457.497	382.62
457.717	400.62
457.937	400.62
458.157	406.62
458.377	395.62
458.598	416.62
458.818	437.62
459.038	517.62
459.258	528.62
459.478	456.62
459.698	441.62
459.918	447.62
460.138	434.62
460.358	440.62
460.578	458.62
460.798	473.62
461.018	463.62
461.238	442.62
461.458	443.62
461.678	460.62
461.898	461.62
462.118	463.62
462.338	477.62
462.558	469.62
462.777	495.62
462.997	507.62
463.217	505.62
463.437	492.62
463.657	519.62
463.876	490.62
464.096	497.62
464.316	468.62
464.536	501.62
464.755	495.62
464.975	487.62
465.195	505.62
465.414	532.62
465.634	492.62
465.854	451.62
466.073	459.62
466.293	429.62
466.512	438.62
466.732	447.62
466.951	410.62
467.171	412.62
467.391	419.62
467.61	420.62
467.829	428.62
468.049	423.62
468.268	434.62
468.488	409.62
468.707	392.62
468.927	412.62
469.146	415.62
469.365	410.62
469.585	410.62
469.804	427.62
470.023	428.62
470.243	418.62
470.462	427.62
470.681	445.62
470.901	456.62
471.12	449.62
471.339	434.62
471.558	431.62
471.777	422.62
471.997	404.62
472.216	395.62
472.435	444.62
472.654	442.62
472.873	435.62
473.092	397.62
473.311	439.62
473.53	432.62
473.749	415.62
473.968	454.62
474.187	544.62
474.406	564.62
474.625	484.62
474.844	428.62
475.063	418.62
475.282	432.62
475.501	432.62
475.72	447.62
475.939	422.62
476.158	427.62
476.377	420.62
476.596	429.62
476.814	451.62
477.033	460.62
477.252	450.62
477.471	442.62
477.69	466.62
477.908	452.62
478.127	467.62
478.346	467.62
478.564	467.62
478.783	475.62
479.002	480.62
479.22	472.62
479.439	496.62
479.658	489.62
479.876	508.62
480.095	523.62
480.313	541.62
480.532	533.62
480.751	527.62
480.969	512.62
481.188	539.62
481.406	564.62
481.624	548.62
481.843	523.62
482.061	500.62
482.28	474.62
482.498	484.62
482.717	470.62
482.935	493.62
483.153	480.62
483.372	482.62
483.59	485.62
483.808	458.62
484.027	495.62
484.245	492.62
484.463	515.62
484.681	481.62
484.9	510.62
485.118	512.62
485.336	486.62
485.554	507.62
485.772	524.62
485.99	511.62
486.209	487.62
486.427	504.62
486.645	531.62
486.863	538.62
487.081	495.62
487.299	517.62
487.517	517.62
487.735	520.62
487.953	528.62
488.171	528.62
488.389	498.62
488.607	525.62
488.825	526.62
489.043	510.62
489.261	539.62
489.479	536.62
489.696	533.62
489.914	515.62
490.132	536.62
490.35	559.62
490.568	557.62
490.786	534.62
491.003	550.62
491.221	572.62
491.439	586.62
491.657	561.62
491.874	563.62
492.092	599.62
492.31	596.62
492.527	587.62
492.745	596.62
492.963	604.62
493.18	574.62
493.398	598.62
493.615	617.62
493.833	595.62
494.05	579.62
494.268	598.62
494.485	606.62
494.703	587.62
494.92	615.62
495.138	591.62
495.355	604.62
495.573	604.62
495.79	603.62
496.008	608.62
496.225	604.62
496.442	591.62
496.66	600.62
496.877	606.62
497.094	619.62
497.312	623.62
497.529	628.62
497.746	646.62
497.963	642.62
498.181	646.62
498.398	677.62
498.615	705.62
498.832	724.62
499.049	718.62
499.267	761.62
499.484	753.62
499.701	843.62
499.918	835.62
500.135	888.62
500.352	930.62
500.569	959.62
500.786	955.62
501.003	943.62
501.22	909.62
501.437	879.62
501.654	842.62
501.871	799.62
502.088	775.62
