Data from 1977.PennyLincolnUp.Lamp.En5.5.200Scan.071719.P1_HRD10591_16-06-11-864.txt Node
Date: Thu Jul 18 16:06:11 EDT 2019
User: cochatt
Spectrometer: HR+D1059
Trigger mode: 1
Integration Time (sec): 1.000000E-1
Scans to average: 1
Electric dark correction enabled: true
Nonlinearity correction enabled: false
Boxcar width: 0
XAxis mode: Wavelengths
Number of Pixels in Spectrum: 2048
>>>>>Begin Spectral Data<<<<<
223.165	-25.81
223.4	-25.81
223.635	-25.81
223.869	-18.81
224.104	-19.81
224.338	-17.81
224.573	-16.81
224.808	-6.81
225.042	4.19
225.277	-2.81
225.511	9.19
225.746	-2.81
225.98	24.19
226.215	6.19
226.449	16.19
226.683	11.19
226.918	7.19
227.152	33.19
227.387	32.19
227.621	39.19
227.856	37.19
228.09	50.19
228.324	47.19
228.559	61.19
228.793	66.19
229.027	81.19
229.262	108.19
229.496	120.19
229.73	116.19
229.964	140.19
230.199	102.19
230.433	108.19
230.667	101.19
230.901	110.19
231.136	102.19
231.37	118.19
231.604	109.19
231.838	114.19
232.072	106.19
232.306	105.19
232.541	127.19
232.775	114.19
233.009	123.19
233.243	114.19
233.477	103.19
233.711	109.19
233.945	116.19
234.179	121.19
234.413	121.19
234.647	117.19
234.881	111.19
235.115	122.19
235.349	120.19
235.583	106.19
235.817	134.19
236.051	117.19
236.285	117.19
236.519	123.19
236.753	133.19
236.987	145.19
237.221	172.19
237.455	210.19
237.689	154.19
237.922	148.19
238.156	140.19
238.39	147.19
238.624	138.19
238.858	111.19
239.091	138.19
239.325	121.19
239.559	132.19
239.793	132.19
240.027	140.19
240.26	132.19
240.494	144.19
240.728	155.19
240.961	165.19
241.195	146.19
241.429	142.19
241.662	130.19
241.896	138.19
242.13	135.19
242.363	142.19
242.597	134.19
242.83	140.19
243.064	139.19
243.298	134.19
243.531	149.19
243.765	130.19
243.998	127.19
244.232	139.19
244.465	135.19
244.699	156.19
244.932	136.19
245.166	140.19
245.399	145.19
245.633	143.19
245.866	150.19
246.099	134.19
246.333	141.19
246.566	152.19
246.8	150.19
247.033	151.19
247.266	155.19
247.5	166.19
247.733	157.19
247.966	158.19
248.2	167.19
248.433	172.19
248.666	159.19
248.899	164.19
249.133	178.19
249.366	194.19
249.599	183.19
249.832	179.19
250.066	188.19
250.299	178.19
250.532	178.19
250.765	201.19
250.998	216.19
251.231	222.19
251.465	202.19
251.698	217.19
251.931	226.19
252.164	202.19
252.397	204.19
252.63	186.19
252.863	198.19
253.096	211.19
253.329	205.19
253.562	190.19
253.795	200.19
254.028	219.19
254.261	220.19
254.494	206.19
254.727	242.19
254.96	256.19
255.193	255.19
255.426	235.19
255.659	226.19
255.892	203.19
256.124	234.19
256.357	222.19
256.59	206.19
256.823	207.19
257.056	211.19
257.289	201.19
257.521	215.19
257.754	202.19
257.987	204.19
258.22	215.19
258.452	208.19
258.685	208.19
258.918	222.19
259.151	208.19
259.383	236.19
259.616	221.19
259.849	220.19
260.081	232.19
260.314	239.19
260.547	249.19
260.779	242.19
261.012	218.19
261.244	225.19
261.477	231.19
261.71	221.19
261.942	220.19
262.175	235.19
262.407	218.19
262.64	223.19
262.872	248.19
263.105	224.19
263.337	219.19
263.57	211.19
263.802	217.19
264.035	220.19
264.267	238.19
264.499	216.19
264.732	218.19
264.964	207.19
265.197	226.19
265.429	228.19
265.661	218.19
265.894	215.19
266.126	236.19
266.358	226.19
266.591	239.19
266.823	238.19
267.055	240.19
267.287	228.19
267.52	246.19
267.752	237.19
267.984	235.19
268.216	247.19
268.448	245.19
268.681	237.19
268.913	260.19
269.145	263.19
269.377	287.19
269.609	266.19
269.841	278.19
270.073	269.19
270.306	322.19
270.538	334.19
270.77	328.19
271.002	307.19
271.234	290.19
271.466	290.19
271.698	302.19
271.93	310.19
272.162	288.19
272.394	309.19
272.626	292.19
272.858	310.19
273.09	293.19
273.322	274.19
273.553	269.19
273.785	266.19
274.017	299.19
274.249	282.19
274.481	278.19
274.713	273.19
274.945	268.19
275.176	276.19
275.408	273.19
275.64	270.19
275.872	271.19
276.104	273.19
276.335	272.19
276.567	281.19
276.799	291.19
277.031	308.19
277.262	301.19
277.494	342.19
277.726	302.19
277.957	308.19
278.189	295.19
278.421	276.19
278.652	280.19
278.884	274.19
279.115	275.19
279.347	300.19
279.579	292.19
279.81	295.19
280.042	282.19
280.273	308.19
280.505	279.19
280.736	282.19
280.968	286.19
281.199	304.19
281.431	299.19
281.662	284.19
281.894	277.19
282.125	300.19
282.356	292.19
282.588	313.19
282.819	313.19
283.051	286.19
283.282	297.19
283.513	284.19
283.745	306.19
283.976	318.19
284.207	294.19
284.439	316.19
284.67	298.19
284.901	299.19
285.132	317.19
285.364	300.19
285.595	299.19
285.826	295.19
286.057	300.19
286.288	301.19
286.52	302.19
286.751	301.19
286.982	314.19
287.213	297.19
287.444	302.19
287.675	299.19
287.906	319.19
288.138	314.19
288.369	316.19
288.6	319.19
288.831	340.19
289.062	322.19
289.293	325.19
289.524	306.19
289.755	313.19
289.986	309.19
290.217	316.19
290.448	312.19
290.679	316.19
290.91	321.19
291.141	325.19
291.371	311.19
291.602	317.19
291.833	310.19
292.064	318.19
292.295	303.19
292.526	304.19
292.757	322.19
292.987	318.19
293.218	322.19
293.449	324.19
293.68	313.19
293.91	334.19
294.141	308.19
294.372	318.19
294.603	334.19
294.833	334.19
295.064	309.19
295.295	325.19
295.525	318.19
295.756	329.19
295.987	340.19
296.217	342.19
296.448	344.19
296.679	327.19
296.909	331.19
297.14	343.19
297.37	327.19
297.601	317.19
297.831	314.19
298.062	328.19
298.292	331.19
298.523	333.19
298.753	341.19
298.984	337.19
299.214	336.19
299.445	331.19
299.675	339.19
299.905	354.19
300.136	324.19
300.366	333.19
300.597	364.19
300.827	360.19
301.057	339.19
301.288	340.19
301.518	352.19
301.748	348.19
301.979	343.19
302.209	360.19
302.439	356.19
302.669	345.19
302.9	350.19
303.13	348.19
303.36	347.19
303.59	356.19
303.82	363.19
304.051	355.19
304.281	367.19
304.511	379.19
304.741	362.19
304.971	357.19
305.201	357.19
305.431	350.19
305.661	350.19
305.891	341.19
306.121	360.19
306.352	363.19
306.582	361.19
306.812	348.19
307.042	358.19
307.272	343.19
307.502	363.19
307.731	353.19
307.961	359.19
308.191	355.19
308.421	357.19
308.651	372.19
308.881	358.19
309.111	355.19
309.341	363.19
309.571	364.19
309.8	370.19
310.03	390.19
310.26	385.19
310.49	414.19
310.72	376.19
310.949	402.19
311.179	404.19
311.409	401.19
311.639	395.19
311.868	379.19
312.098	380.19
312.328	366.19
312.557	416.19
312.787	419.19
313.017	399.19
313.246	397.19
313.476	395.19
313.706	405.19
313.935	402.19
314.165	406.19
314.394	411.19
314.624	406.19
314.853	392.19
315.083	405.19
315.312	403.19
315.542	384.19
315.771	387.19
316.001	393.19
316.23	381.19
316.46	375.19
316.689	423.19
316.919	399.19
317.148	398.19
317.377	407.19
317.607	396.19
317.836	394.19
318.065	377.19
318.295	388.19
318.524	385.19
318.753	386.19
318.983	405.19
319.212	378.19
319.441	392.19
319.67	396.19
319.9	382.19
320.129	403.19
320.358	393.19
320.587	418.19
320.816	383.19
321.046	401.19
321.275	407.19
321.504	410.19
321.733	412.19
321.962	411.19
322.191	430.19
322.42	420.19
322.649	423.19
322.878	449.19
323.108	463.19
323.337	463.19
323.566	473.19
323.795	494.19
324.024	534.19
324.253	631.19
324.482	858.19
324.71	1193.19
324.939	1688.19
325.168	1427.19
325.397	788.19
325.626	598.19
325.855	492.19
326.084	518.19
326.313	494.19
326.542	475.19
326.77	523.19
326.999	594.19
327.228	788.19
327.457	1117.19
327.686	1286.19
327.914	845.19
328.143	640.19
328.372	549.19
328.6	527.19
328.829	527.19
329.058	513.19
329.287	523.19
329.515	521.19
329.744	502.19
329.972	501.19
330.201	503.19
330.43	509.19
330.658	540.19
330.887	566.19
331.115	528.19
331.344	506.19
331.572	466.19
331.801	493.19
332.03	477.19
332.258	482.19
332.486	466.19
332.715	468.19
332.943	457.19
333.172	468.19
333.4	473.19
333.629	494.19
333.857	490.19
334.085	488.19
334.314	524.19
334.542	529.19
334.771	505.19
334.999	527.19
335.227	475.19
335.455	488.19
335.684	465.19
335.912	451.19
336.14	473.19
336.369	458.19
336.597	480.19
336.825	472.19
337.053	471.19
337.281	477.19
337.51	470.19
337.738	449.19
337.966	468.19
338.194	466.19
338.422	463.19
338.65	438.19
338.878	452.19
339.106	450.19
339.334	449.19
339.562	465.19
339.79	447.19
340.018	446.19
340.246	440.19
340.474	453.19
340.702	436.19
340.93	456.19
341.158	426.19
341.386	437.19
341.614	437.19
341.842	442.19
342.07	418.19
342.298	411.19
342.526	432.19
342.754	416.19
342.981	421.19
343.209	416.19
343.437	430.19
343.665	463.19
343.893	458.19
344.12	460.19
344.348	468.19
344.576	454.19
344.804	460.19
345.031	441.19
345.259	470.19
345.487	456.19
345.714	429.19
345.942	407.19
346.17	427.19
346.397	428.19
346.625	403.19
346.853	410.19
347.08	413.19
347.308	440.19
347.535	410.19
347.763	433.19
347.99	437.19
348.218	408.19
348.445	420.19
348.673	406.19
348.9	427.19
349.128	421.19
349.355	401.19
349.583	414.19
349.81	427.19
350.037	392.19
350.265	404.19
350.492	407.19
350.72	404.19
350.947	409.19
351.174	434.19
351.402	401.19
351.629	407.19
351.856	417.19
352.083	404.19
352.311	413.19
352.538	408.19
352.765	416.19
352.992	415.19
353.22	403.19
353.447	422.19
353.674	396.19
353.901	414.19
354.128	409.19
354.355	398.19
354.583	404.19
354.81	394.19
355.037	395.19
355.264	393.19
355.491	362.19
355.718	390.19
355.945	396.19
356.172	388.19
356.399	381.19
356.626	376.19
356.853	410.19
357.08	411.19
357.307	407.19
357.534	394.19
357.761	394.19
357.988	388.19
358.215	391.19
358.441	384.19
358.668	395.19
358.895	390.19
359.122	414.19
359.349	379.19
359.576	429.19
359.802	424.19
360.029	429.19
360.256	431.19
360.483	436.19
360.709	416.19
360.936	408.19
361.163	422.19
361.39	421.19
361.616	426.19
361.843	404.19
362.07	420.19
362.296	424.19
362.523	414.19
362.749	419.19
362.976	406.19
363.203	402.19
363.429	397.19
363.656	388.19
363.882	405.19
364.109	400.19
364.335	390.19
364.562	392.19
364.788	384.19
365.015	411.19
365.241	380.19
365.468	399.19
365.694	401.19
365.92	422.19
366.147	406.19
366.373	405.19
366.599	413.19
366.826	381.19
367.052	386.19
367.278	381.19
367.505	366.19
367.731	394.19
367.957	390.19
368.184	394.19
368.41	407.19
368.636	412.19
368.862	403.19
369.089	411.19
369.315	411.19
369.541	395.19
369.767	384.19
369.993	383.19
370.219	407.19
370.445	384.19
370.672	397.19
370.898	373.19
371.124	405.19
371.35	422.19
371.576	408.19
371.802	410.19
372.028	393.19
372.254	397.19
372.48	397.19
372.706	404.19
372.932	422.19
373.158	409.19
373.384	396.19
373.61	397.19
373.835	395.19
374.061	405.19
374.287	408.19
374.513	416.19
374.739	401.19
374.965	411.19
375.191	422.19
375.416	406.19
375.642	404.19
375.868	393.19
376.094	399.19
376.319	401.19
376.545	407.19
376.771	403.19
376.997	384.19
377.222	394.19
377.448	385.19
377.674	389.19
377.899	385.19
378.125	395.19
378.35	366.19
378.576	382.19
378.802	377.19
379.027	400.19
379.253	387.19
379.478	403.19
379.704	366.19
379.929	390.19
380.155	408.19
380.38	381.19
380.606	385.19
380.831	383.19
381.057	394.19
381.282	400.19
381.507	388.19
381.733	397.19
381.958	400.19
382.184	410.19
382.409	402.19
382.634	398.19
382.86	395.19
383.085	397.19
383.31	400.19
383.535	420.19
383.761	410.19
383.986	417.19
384.211	418.19
384.436	428.19
384.662	432.19
384.887	431.19
385.112	411.19
385.337	430.19
385.562	431.19
385.787	436.19
386.013	446.19
386.238	428.19
386.463	438.19
386.688	421.19
386.913	414.19
387.138	423.19
387.363	410.19
387.588	407.19
387.813	408.19
388.038	416.19
388.263	426.19
388.488	434.19
388.713	431.19
388.938	427.19
389.163	430.19
389.387	421.19
389.612	415.19
389.837	420.19
390.062	408.19
390.287	438.19
390.512	430.19
390.736	428.19
390.961	439.19
391.186	444.19
391.411	424.19
391.636	431.19
391.86	430.19
392.085	443.19
392.31	457.19
392.534	429.19
392.759	427.19
392.984	429.19
393.208	454.19
393.433	450.19
393.658	434.19
393.882	426.19
394.107	426.19
394.331	448.19
394.556	430.19
394.78	457.19
395.005	429.19
395.229	452.19
395.454	445.19
395.678	467.19
395.903	477.19
396.127	492.19
396.352	486.19
396.576	437.19
396.801	470.19
397.025	450.19
397.249	458.19
397.474	458.19
397.698	430.19
397.922	479.19
398.147	482.19
398.371	495.19
398.595	488.19
398.82	492.19
399.044	514.19
399.268	540.19
399.492	560.19
399.717	581.19
399.941	615.19
400.165	624.19
400.389	614.19
400.613	558.19
400.837	522.19
401.062	504.19
401.286	495.19
401.51	513.19
401.734	486.19
401.958	501.19
402.182	487.19
402.406	481.19
402.63	527.19
402.854	510.19
403.078	506.19
403.302	470.19
403.526	488.19
403.75	526.19
403.974	504.19
404.198	503.19
404.422	511.19
404.645	534.19
404.869	505.19
405.093	548.19
405.317	569.19
405.541	581.19
405.765	557.19
405.988	520.19
406.212	531.19
406.436	534.19
406.66	555.19
406.883	553.19
407.107	570.19
407.331	592.19
407.555	660.19
407.778	660.19
408.002	607.19
408.226	551.19
408.449	552.19
408.673	538.19
408.896	570.19
409.12	592.19
409.344	589.19
409.567	533.19
409.791	518.19
410.014	495.19
410.238	504.19
410.461	489.19
410.685	536.19
410.908	509.19
411.132	552.19
411.355	571.19
411.578	554.19
411.802	520.19
412.025	502.19
412.249	503.19
412.472	528.19
412.695	540.19
412.919	555.19
413.142	504.19
413.365	495.19
413.589	480.19
413.812	473.19
414.035	463.19
414.258	469.19
414.482	477.19
414.705	486.19
414.928	471.19
415.151	473.19
415.374	450.19
415.597	461.19
415.821	455.19
416.044	486.19
416.267	475.19
416.49	489.19
416.713	472.19
416.936	468.19
417.159	483.19
417.382	482.19
417.605	472.19
417.828	483.19
418.051	485.19
418.274	488.19
418.497	474.19
418.72	480.19
418.943	457.19
419.166	500.19
419.389	525.19
419.611	509.19
419.834	455.19
420.057	476.19
420.28	494.19
420.503	486.19
420.726	501.19
420.948	490.19
421.171	508.19
421.394	553.19
421.617	502.19
421.839	506.19
422.062	500.19
422.285	510.19
422.507	564.19
422.73	621.19
422.953	584.19
423.175	540.19
423.398	502.19
423.621	500.19
423.843	512.19
424.066	522.19
424.288	540.19
424.511	533.19
424.733	580.19
424.956	652.19
425.178	613.19
425.401	606.19
425.623	648.19
425.846	535.19
426.068	524.19
426.291	500.19
426.513	525.19
426.735	520.19
426.958	546.19
427.18	619.19
427.402	715.19
427.625	777.19
427.847	651.19
428.069	559.19
428.292	535.19
428.514	476.19
428.736	457.19
428.958	473.19
429.181	468.19
429.403	454.19
429.625	473.19
429.847	502.19
430.069	538.19
430.292	567.19
430.514	482.19
430.736	463.19
430.958	458.19
431.18	442.19
431.402	431.19
431.624	450.19
431.846	424.19
432.068	452.19
432.29	454.19
432.512	445.19
432.734	449.19
432.956	468.19
433.178	470.19
433.4	453.19
433.622	451.19
433.844	442.19
434.066	424.19
434.287	449.19
434.509	458.19
434.731	476.19
434.953	469.19
435.175	486.19
435.397	499.19
435.618	516.19
435.84	529.19
436.062	605.19
436.284	643.19
436.505	549.19
436.727	507.19
436.949	471.19
437.17	477.19
437.392	470.19
437.614	500.19
437.835	519.19
438.057	587.19
438.278	655.19
438.5	641.19
438.721	715.19
438.943	692.19
439.165	568.19
439.386	522.19
439.608	522.19
439.829	487.19
440.05	518.19
440.272	542.19
440.493	525.19
440.715	486.19
440.936	486.19
441.158	471.19
441.379	458.19
441.6	479.19
441.822	508.19
442.043	538.19
442.264	607.19
442.486	649.19
442.707	542.19
442.928	505.19
443.149	521.19
443.371	544.19
443.592	574.19
443.813	639.19
444.034	705.19
444.255	572.19
444.476	526.19
444.698	513.19
444.919	540.19
445.14	629.19
445.361	556.19
445.582	538.19
445.803	578.19
446.024	651.19
446.245	642.19
446.466	596.19
446.687	530.19
446.908	507.19
447.129	487.19
447.35	468.19
447.571	462.19
447.792	449.19
448.013	446.19
448.234	481.19
448.455	514.19
448.675	590.19
448.896	700.19
449.117	581.19
449.338	556.19
449.559	647.19
449.779	738.19
450	592.19
450.221	524.19
450.442	485.19
450.662	425.19
450.883	468.19
451.104	464.19
451.324	444.19
451.545	442.19
451.766	436.19
451.986	400.19
452.207	427.19
452.428	401.19
452.648	404.19
452.869	399.19
453.089	428.19
453.31	430.19
453.53	431.19
453.751	418.19
453.971	405.19
454.192	430.19
454.412	410.19
454.633	420.19
454.853	420.19
455.073	397.19
455.294	426.19
455.514	467.19
455.734	472.19
455.955	415.19
456.175	402.19
456.395	390.19
456.616	404.19
456.836	386.19
457.056	386.19
457.276	363.19
457.497	385.19
457.717	391.19
457.937	398.19
458.157	396.19
458.377	397.19
458.598	430.19
458.818	455.19
459.038	507.19
459.258	534.19
459.478	471.19
459.698	456.19
459.918	452.19
460.138	471.19
460.358	453.19
460.578	460.19
460.798	477.19
461.018	470.19
461.238	461.19
461.458	462.19
461.678	463.19
461.898	472.19
462.118	451.19
462.338	477.19
462.558	474.19
462.777	483.19
462.997	504.19
463.217	528.19
463.437	526.19
463.657	501.19
463.876	516.19
464.096	492.19
464.316	509.19
464.536	487.19
464.755	479.19
464.975	479.19
465.195	506.19
465.414	551.19
465.634	513.19
465.854	440.19
466.073	457.19
466.293	414.19
466.512	429.19
466.732	413.19
466.951	414.19
467.171	427.19
467.391	431.19
467.61	439.19
467.829	448.19
468.049	435.19
468.268	418.19
468.488	432.19
468.707	408.19
468.927	414.19
469.146	432.19
469.365	432.19
469.585	402.19
469.804	410.19
470.023	428.19
470.243	435.19
470.462	428.19
470.681	439.19
470.901	426.19
471.12	408.19
471.339	437.19
471.558	425.19
471.777	439.19
471.997	415.19
472.216	430.19
472.435	431.19
472.654	420.19
472.873	415.19
473.092	413.19
473.311	398.19
473.53	406.19
473.749	429.19
473.968	482.19
474.187	537.19
474.406	545.19
474.625	475.19
474.844	452.19
475.063	421.19
475.282	431.19
475.501	430.19
475.72	439.19
475.939	435.19
476.158	452.19
476.377	448.19
476.596	443.19
476.814	443.19
477.033	441.19
477.252	439.19
477.471	449.19
477.69	482.19
477.908	451.19
478.127	472.19
478.346	477.19
478.564	488.19
478.783	471.19
479.002	488.19
479.22	489.19
479.439	511.19
479.658	514.19
479.876	507.19
480.095	492.19
480.313	532.19
480.532	548.19
480.751	518.19
480.969	537.19
481.188	538.19
481.406	573.19
481.624	526.19
481.843	500.19
482.061	506.19
482.28	489.19
482.498	498.19
482.717	480.19
482.935	498.19
483.153	509.19
483.372	508.19
483.59	470.19
483.808	482.19
484.027	491.19
484.245	500.19
484.463	487.19
484.681	510.19
484.9	501.19
485.118	513.19
485.336	505.19
485.554	503.19
485.772	502.19
485.99	501.19
486.209	517.19
486.427	517.19
486.645	526.19
486.863	521.19
487.081	515.19
487.299	522.19
487.517	534.19
487.735	526.19
487.953	527.19
488.171	506.19
488.389	528.19
488.607	528.19
488.825	546.19
489.043	518.19
489.261	515.19
489.479	535.19
489.696	520.19
489.914	526.19
490.132	516.19
490.35	539.19
490.568	548.19
490.786	566.19
491.003	555.19
491.221	555.19
491.439	570.19
491.657	579.19
491.874	578.19
492.092	586.19
492.31	591.19
492.527	575.19
492.745	571.19
492.963	577.19
493.18	600.19
493.398	584.19
493.615	606.19
493.833	605.19
494.05	607.19
494.268	626.19
494.485	600.19
494.703	594.19
494.92	596.19
495.138	598.19
495.355	626.19
495.573	622.19
495.79	621.19
496.008	621.19
496.225	607.19
496.442	604.19
496.66	603.19
496.877	613.19
497.094	629.19
497.312	612.19
497.529	654.19
497.746	642.19
497.963	637.19
498.181	666.19
498.398	692.19
498.615	711.19
498.832	719.19
499.049	757.19
499.267	749.19
499.484	769.19
499.701	802.19
499.918	885.19
500.135	904.19
500.352	929.19
500.569	979.19
500.786	962.19
501.003	964.19
501.22	923.19
501.437	874.19
501.654	841.19
501.871	835.19
502.088	789.19
