Data from 1977.PennyLincolnUp.Lamp.En5.5.200Scan.071719.P1_HRD10591_16-05-02-863.txt Node
Date: Thu Jul 18 16:05:02 EDT 2019
User: cochatt
Spectrometer: HR+D1059
Trigger mode: 1
Integration Time (sec): 1.000000E-1
Scans to average: 1
Electric dark correction enabled: true
Nonlinearity correction enabled: false
Boxcar width: 0
XAxis mode: Wavelengths
Number of Pixels in Spectrum: 2048
>>>>>Begin Spectral Data<<<<<
223.165	-21.44
223.4	-21.44
223.635	-21.44
223.869	-18.44
224.104	-18.44
224.338	-25.44
224.573	-14.44
224.808	-17.44
225.042	-7.44
225.277	-22.44
225.511	1.56
225.746	3.56
225.98	4.56
226.215	9.56
226.449	14.56
226.683	41.56
226.918	29.56
227.152	40.56
227.387	33.56
227.621	44.56
227.856	43.56
228.09	46.56
228.324	52.56
228.559	51.56
228.793	69.56
229.027	85.56
229.262	79.56
229.496	102.56
229.73	103.56
229.964	122.56
230.199	107.56
230.433	104.56
230.667	94.56
230.901	100.56
231.136	105.56
231.37	108.56
231.604	102.56
231.838	105.56
232.072	103.56
232.306	122.56
232.541	109.56
232.775	111.56
233.009	116.56
233.243	108.56
233.477	112.56
233.711	110.56
233.945	121.56
234.179	108.56
234.413	110.56
234.647	100.56
234.881	104.56
235.115	126.56
235.349	108.56
235.583	102.56
235.817	106.56
236.051	105.56
236.285	136.56
236.519	108.56
236.753	118.56
236.987	127.56
237.221	153.56
237.455	169.56
237.689	143.56
237.922	130.56
238.156	110.56
238.39	116.56
238.624	112.56
238.858	115.56
239.091	119.56
239.325	108.56
239.559	110.56
239.793	111.56
240.027	133.56
240.26	110.56
240.494	144.56
240.728	135.56
240.961	132.56
241.195	130.56
241.429	123.56
241.662	136.56
241.896	122.56
242.13	141.56
242.363	124.56
242.597	116.56
242.83	144.56
243.064	136.56
243.298	132.56
243.531	143.56
243.765	137.56
243.998	137.56
244.232	137.56
244.465	130.56
244.699	135.56
244.932	139.56
245.166	136.56
245.399	137.56
245.633	138.56
245.866	151.56
246.099	147.56
246.333	151.56
246.566	125.56
246.8	149.56
247.033	153.56
247.266	167.56
247.5	148.56
247.733	154.56
247.966	155.56
248.2	158.56
248.433	149.56
248.666	167.56
248.899	157.56
249.133	177.56
249.366	189.56
249.599	167.56
249.832	150.56
250.066	159.56
250.299	165.56
250.532	174.56
250.765	188.56
250.998	184.56
251.231	183.56
251.465	183.56
251.698	158.56
251.931	175.56
252.164	174.56
252.397	176.56
252.63	191.56
252.863	190.56
253.096	196.56
253.329	188.56
253.562	189.56
253.795	200.56
254.028	179.56
254.261	185.56
254.494	193.56
254.727	207.56
254.96	215.56
255.193	206.56
255.426	216.56
255.659	202.56
255.892	190.56
256.124	193.56
256.357	186.56
256.59	179.56
256.823	187.56
257.056	182.56
257.289	176.56
257.521	184.56
257.754	179.56
257.987	193.56
258.22	183.56
258.452	197.56
258.685	196.56
258.918	178.56
259.151	199.56
259.383	208.56
259.616	188.56
259.849	202.56
260.081	203.56
260.314	222.56
260.547	214.56
260.779	219.56
261.012	191.56
261.244	203.56
261.477	189.56
261.71	193.56
261.942	208.56
262.175	196.56
262.407	208.56
262.64	207.56
262.872	194.56
263.105	180.56
263.337	212.56
263.57	198.56
263.802	216.56
264.035	213.56
264.267	211.56
264.499	198.56
264.732	197.56
264.964	202.56
265.197	205.56
265.429	203.56
265.661	190.56
265.894	218.56
266.126	205.56
266.358	207.56
266.591	218.56
266.823	197.56
267.055	206.56
267.287	212.56
267.52	208.56
267.752	210.56
267.984	210.56
268.216	230.56
268.448	212.56
268.681	217.56
268.913	217.56
269.145	230.56
269.377	248.56
269.609	253.56
269.841	230.56
270.073	250.56
270.306	254.56
270.538	265.56
270.77	253.56
271.002	265.56
271.234	253.56
271.466	251.56
271.698	262.56
271.93	280.56
272.162	263.56
272.394	270.56
272.626	278.56
272.858	251.56
273.09	253.56
273.322	263.56
273.553	248.56
273.785	229.56
274.017	239.56
274.249	245.56
274.481	249.56
274.713	256.56
274.945	234.56
275.176	236.56
275.408	239.56
275.64	228.56
275.872	249.56
276.104	246.56
276.335	251.56
276.567	263.56
276.799	260.56
277.031	276.56
277.262	288.56
277.494	278.56
277.726	275.56
277.957	274.56
278.189	246.56
278.421	250.56
278.652	261.56
278.884	269.56
279.115	259.56
279.347	266.56
279.579	269.56
279.81	254.56
280.042	268.56
280.273	247.56
280.505	253.56
280.736	248.56
280.968	261.56
281.199	261.56
281.431	263.56
281.662	262.56
281.894	269.56
282.125	263.56
282.356	273.56
282.588	271.56
282.819	281.56
283.051	269.56
283.282	251.56
283.513	261.56
283.745	253.56
283.976	265.56
284.207	275.56
284.439	283.56
284.67	277.56
284.901	250.56
285.132	271.56
285.364	265.56
285.595	266.56
285.826	261.56
286.057	278.56
286.288	271.56
286.52	252.56
286.751	283.56
286.982	285.56
287.213	277.56
287.444	280.56
287.675	270.56
287.906	278.56
288.138	269.56
288.369	284.56
288.6	272.56
288.831	280.56
289.062	285.56
289.293	295.56
289.524	275.56
289.755	273.56
289.986	279.56
290.217	281.56
290.448	278.56
290.679	286.56
290.91	286.56
291.141	273.56
291.371	291.56
291.602	287.56
291.833	271.56
292.064	270.56
292.295	281.56
292.526	302.56
292.757	293.56
292.987	276.56
293.218	291.56
293.449	281.56
293.68	267.56
293.91	279.56
294.141	289.56
294.372	287.56
294.603	295.56
294.833	295.56
295.064	292.56
295.295	278.56
295.525	287.56
295.756	272.56
295.987	288.56
296.217	319.56
296.448	300.56
296.679	298.56
296.909	313.56
297.14	305.56
297.37	298.56
297.601	300.56
297.831	295.56
298.062	289.56
298.292	283.56
298.523	294.56
298.753	305.56
298.984	312.56
299.214	318.56
299.445	303.56
299.675	300.56
299.905	312.56
300.136	307.56
300.366	301.56
300.597	315.56
300.827	312.56
301.057	310.56
301.288	295.56
301.518	305.56
301.748	302.56
301.979	321.56
302.209	308.56
302.439	321.56
302.669	315.56
302.9	318.56
303.13	320.56
303.36	310.56
303.59	314.56
303.82	318.56
304.051	319.56
304.281	327.56
304.511	328.56
304.741	292.56
304.971	316.56
305.201	343.56
305.431	315.56
305.661	313.56
305.891	313.56
306.121	327.56
306.352	322.56
306.582	330.56
306.812	314.56
307.042	322.56
307.272	319.56
307.502	311.56
307.731	307.56
307.961	320.56
308.191	307.56
308.421	344.56
308.651	333.56
308.881	327.56
309.111	317.56
309.341	336.56
309.571	337.56
309.8	331.56
310.03	332.56
310.26	348.56
310.49	345.56
310.72	349.56
310.949	368.56
311.179	361.56
311.409	360.56
311.639	362.56
311.868	344.56
312.098	345.56
312.328	351.56
312.557	370.56
312.787	350.56
313.017	362.56
313.246	349.56
313.476	355.56
313.706	350.56
313.935	340.56
314.165	358.56
314.394	367.56
314.624	365.56
314.853	334.56
315.083	355.56
315.312	353.56
315.542	357.56
315.771	368.56
316.001	333.56
316.23	357.56
316.46	345.56
316.689	360.56
316.919	349.56
317.148	357.56
317.377	376.56
317.607	383.56
317.836	366.56
318.065	350.56
318.295	338.56
318.524	344.56
318.753	361.56
318.983	347.56
319.212	349.56
319.441	344.56
319.67	345.56
319.9	361.56
320.129	342.56
320.358	364.56
320.587	347.56
320.816	347.56
321.046	368.56
321.275	366.56
321.504	347.56
321.733	360.56
321.962	360.56
322.191	387.56
322.42	363.56
322.649	381.56
322.878	393.56
323.108	368.56
323.337	392.56
323.566	423.56
323.795	399.56
324.024	419.56
324.253	489.56
324.482	615.56
324.71	873.56
324.939	1212.56
325.168	1040.56
325.397	593.56
325.626	475.56
325.855	420.56
326.084	393.56
326.313	393.56
326.542	415.56
326.77	428.56
326.999	456.56
327.228	602.56
327.457	812.56
327.686	908.56
327.914	635.56
328.143	495.56
328.372	453.56
328.6	470.56
328.829	431.56
329.058	435.56
329.287	471.56
329.515	427.56
329.744	416.56
329.972	415.56
330.201	442.56
330.43	447.56
330.658	442.56
330.887	461.56
331.115	445.56
331.344	428.56
331.572	419.56
331.801	429.56
332.03	428.56
332.258	412.56
332.486	412.56
332.715	413.56
332.943	412.56
333.172	436.56
333.4	416.56
333.629	428.56
333.857	439.56
334.085	445.56
334.314	425.56
334.542	465.56
334.771	446.56
334.999	416.56
335.227	432.56
335.455	417.56
335.684	414.56
335.912	410.56
336.14	413.56
336.369	405.56
336.597	425.56
336.825	429.56
337.053	404.56
337.281	426.56
337.51	390.56
337.738	425.56
337.966	409.56
338.194	429.56
338.422	389.56
338.65	383.56
338.878	403.56
339.106	406.56
339.334	411.56
339.562	399.56
339.79	411.56
340.018	401.56
340.246	387.56
340.474	383.56
340.702	407.56
340.93	399.56
341.158	396.56
341.386	383.56
341.614	374.56
341.842	375.56
342.07	372.56
342.298	390.56
342.526	395.56
342.754	359.56
342.981	372.56
343.209	381.56
343.437	393.56
343.665	385.56
343.893	414.56
344.12	427.56
344.348	417.56
344.576	417.56
344.804	397.56
345.031	409.56
345.259	411.56
345.487	405.56
345.714	392.56
345.942	381.56
346.17	377.56
346.397	377.56
346.625	376.56
346.853	375.56
347.08	389.56
347.308	379.56
347.535	391.56
347.763	396.56
347.99	392.56
348.218	377.56
348.445	379.56
348.673	388.56
348.9	380.56
349.128	367.56
349.355	361.56
349.583	371.56
349.81	362.56
350.037	376.56
350.265	374.56
350.492	346.56
350.72	354.56
350.947	383.56
351.174	378.56
351.402	375.56
351.629	371.56
351.856	371.56
352.083	366.56
352.311	366.56
352.538	362.56
352.765	364.56
352.992	376.56
353.22	365.56
353.447	380.56
353.674	363.56
353.901	375.56
354.128	366.56
354.355	351.56
354.583	368.56
354.81	374.56
355.037	366.56
355.264	367.56
355.491	362.56
355.718	364.56
355.945	362.56
356.172	354.56
356.399	357.56
356.626	353.56
356.853	369.56
357.08	364.56
357.307	349.56
357.534	362.56
357.761	371.56
357.988	352.56
358.215	361.56
358.441	346.56
358.668	347.56
358.895	373.56
359.122	353.56
359.349	365.56
359.576	349.56
359.802	375.56
360.029	361.56
360.256	387.56
360.483	371.56
360.709	352.56
360.936	365.56
361.163	355.56
361.39	360.56
361.616	368.56
361.843	360.56
362.07	361.56
362.296	351.56
362.523	357.56
362.749	363.56
362.976	345.56
363.203	363.56
363.429	362.56
363.656	357.56
363.882	364.56
364.109	371.56
364.335	354.56
364.562	348.56
364.788	349.56
365.015	349.56
365.241	352.56
365.468	370.56
365.694	349.56
365.92	359.56
366.147	354.56
366.373	368.56
366.599	352.56
366.826	350.56
367.052	365.56
367.278	347.56
367.505	361.56
367.731	350.56
367.957	343.56
368.184	358.56
368.41	361.56
368.636	366.56
368.862	359.56
369.089	368.56
369.315	371.56
369.541	375.56
369.767	372.56
369.993	334.56
370.219	333.56
370.445	335.56
370.672	360.56
370.898	352.56
371.124	378.56
371.35	345.56
371.576	372.56
371.802	363.56
372.028	365.56
372.254	357.56
372.48	365.56
372.706	378.56
372.932	359.56
373.158	355.56
373.384	362.56
373.61	359.56
373.835	361.56
374.061	337.56
374.287	345.56
374.513	352.56
374.739	373.56
374.965	386.56
375.191	372.56
375.416	360.56
375.642	359.56
375.868	372.56
376.094	360.56
376.319	353.56
376.545	355.56
376.771	350.56
376.997	351.56
377.222	352.56
377.448	355.56
377.674	357.56
377.899	358.56
378.125	372.56
378.35	347.56
378.576	349.56
378.802	373.56
379.027	374.56
379.253	351.56
379.478	357.56
379.704	358.56
379.929	365.56
380.155	359.56
380.38	373.56
380.606	346.56
380.831	341.56
381.057	375.56
381.282	361.56
381.507	353.56
381.733	372.56
381.958	354.56
382.184	365.56
382.409	383.56
382.634	365.56
382.86	383.56
383.085	376.56
383.31	355.56
383.535	384.56
383.761	384.56
383.986	402.56
384.211	403.56
384.436	380.56
384.662	388.56
384.887	389.56
385.112	398.56
385.337	387.56
385.562	394.56
385.787	410.56
386.013	411.56
386.238	416.56
386.463	420.56
386.688	404.56
386.913	401.56
387.138	399.56
387.363	396.56
387.588	390.56
387.813	378.56
388.038	391.56
388.263	399.56
388.488	399.56
388.713	390.56
388.938	385.56
389.163	387.56
389.387	399.56
389.612	384.56
389.837	397.56
390.062	388.56
390.287	390.56
390.512	397.56
390.736	401.56
390.961	350.56
391.186	403.56
391.411	382.56
391.636	403.56
391.86	408.56
392.085	404.56
392.31	421.56
392.534	409.56
392.759	388.56
392.984	390.56
393.208	406.56
393.433	408.56
393.658	396.56
393.882	398.56
394.107	393.56
394.331	410.56
394.556	383.56
394.78	381.56
395.005	411.56
395.229	423.56
395.454	389.56
395.678	411.56
395.903	437.56
396.127	411.56
396.352	410.56
396.576	419.56
396.801	406.56
397.025	418.56
397.249	419.56
397.474	409.56
397.698	425.56
397.922	408.56
398.147	421.56
398.371	451.56
398.595	446.56
398.82	429.56
399.044	460.56
399.268	497.56
399.492	507.56
399.717	540.56
399.941	570.56
400.165	542.56
400.389	540.56
400.613	505.56
400.837	460.56
401.062	468.56
401.286	475.56
401.51	447.56
401.734	432.56
401.958	472.56
402.182	443.56
402.406	441.56
402.63	448.56
402.854	452.56
403.078	471.56
403.302	439.56
403.526	457.56
403.75	469.56
403.974	475.56
404.198	458.56
404.422	469.56
404.645	475.56
404.869	484.56
405.093	476.56
405.317	523.56
405.541	523.56
405.765	502.56
405.988	464.56
406.212	496.56
406.436	466.56
406.66	501.56
406.883	480.56
407.107	485.56
407.331	525.56
407.555	584.56
407.778	569.56
408.002	523.56
408.226	493.56
408.449	508.56
408.673	499.56
408.896	497.56
409.12	542.56
409.344	507.56
409.567	471.56
409.791	476.56
410.014	467.56
410.238	446.56
410.461	445.56
410.685	457.56
410.908	448.56
411.132	505.56
411.355	489.56
411.578	481.56
411.802	447.56
412.025	451.56
412.249	451.56
412.472	475.56
412.695	463.56
412.919	471.56
413.142	451.56
413.365	451.56
413.589	458.56
413.812	451.56
414.035	442.56
414.258	431.56
414.482	423.56
414.705	421.56
414.928	449.56
415.151	440.56
415.374	427.56
415.597	435.56
415.821	424.56
416.044	425.56
416.267	437.56
416.49	431.56
416.713	428.56
416.936	412.56
417.159	433.56
417.382	454.56
417.605	436.56
417.828	436.56
418.051	440.56
418.274	437.56
418.497	439.56
418.72	420.56
418.943	409.56
419.166	429.56
419.389	466.56
419.611	438.56
419.834	443.56
420.057	461.56
420.28	445.56
420.503	407.56
420.726	459.56
420.948	448.56
421.171	491.56
421.394	484.56
421.617	429.56
421.839	412.56
422.062	438.56
422.285	457.56
422.507	481.56
422.73	528.56
422.953	503.56
423.175	462.56
423.398	435.56
423.621	445.56
423.843	484.56
424.066	458.56
424.288	455.56
424.511	486.56
424.733	502.56
424.956	556.56
425.178	524.56
425.401	537.56
425.623	536.56
425.846	474.56
426.068	446.56
426.291	451.56
426.513	422.56
426.735	435.56
426.958	465.56
427.18	481.56
427.402	596.56
427.625	679.56
427.847	532.56
428.069	500.56
428.292	444.56
428.514	428.56
428.736	430.56
428.958	413.56
429.181	417.56
429.403	412.56
429.625	418.56
429.847	445.56
430.069	489.56
430.292	488.56
430.514	422.56
430.736	401.56
430.958	435.56
431.18	407.56
431.402	405.56
431.624	374.56
431.846	393.56
432.068	397.56
432.29	411.56
432.512	393.56
432.734	429.56
432.956	417.56
433.178	410.56
433.4	436.56
433.622	412.56
433.844	412.56
434.066	410.56
434.287	411.56
434.509	408.56
434.731	411.56
434.953	424.56
435.175	443.56
435.397	444.56
435.618	445.56
435.84	465.56
436.062	557.56
436.284	587.56
436.505	496.56
436.727	448.56
436.949	438.56
437.17	424.56
437.392	416.56
437.614	427.56
437.835	433.56
438.057	485.56
438.278	524.56
438.5	554.56
438.721	623.56
438.943	608.56
439.165	476.56
439.386	441.56
439.608	433.56
439.829	422.56
440.05	440.56
440.272	486.56
440.493	478.56
440.715	427.56
440.936	431.56
441.158	422.56
441.379	422.56
441.6	428.56
441.822	426.56
442.043	470.56
442.264	508.56
442.486	543.56
442.707	473.56
442.928	472.56
443.149	450.56
443.371	457.56
443.592	493.56
443.813	560.56
444.034	606.56
444.255	501.56
444.476	468.56
444.698	472.56
444.919	465.56
445.14	566.56
445.361	513.56
445.582	497.56
445.803	499.56
446.024	556.56
446.245	554.56
446.466	530.56
446.687	460.56
446.908	442.56
447.129	422.56
447.35	410.56
447.571	405.56
447.792	405.56
448.013	404.56
448.234	418.56
448.455	447.56
448.675	521.56
448.896	604.56
449.117	507.56
449.338	478.56
449.559	561.56
449.779	634.56
450	507.56
450.221	432.56
450.442	400.56
450.662	401.56
450.883	384.56
451.104	391.56
451.324	395.56
451.545	375.56
451.766	384.56
451.986	365.56
452.207	378.56
452.428	366.56
452.648	381.56
452.869	383.56
453.089	374.56
453.31	382.56
453.53	384.56
453.751	373.56
453.971	374.56
454.192	365.56
454.412	359.56
454.633	366.56
454.853	363.56
455.073	377.56
455.294	379.56
455.514	443.56
455.734	438.56
455.955	375.56
456.175	364.56
456.395	363.56
456.616	327.56
456.836	364.56
457.056	343.56
457.276	339.56
457.497	365.56
457.717	369.56
457.937	382.56
458.157	364.56
458.377	358.56
458.598	395.56
458.818	402.56
459.038	437.56
459.258	453.56
459.478	413.56
459.698	421.56
459.918	414.56
460.138	407.56
460.358	413.56
460.578	410.56
460.798	436.56
461.018	432.56
461.238	412.56
461.458	400.56
461.678	421.56
461.898	429.56
462.118	427.56
462.338	456.56
462.558	432.56
462.777	444.56
462.997	458.56
463.217	468.56
463.437	466.56
463.657	485.56
463.876	456.56
464.096	477.56
464.316	435.56
464.536	460.56
464.755	449.56
464.975	443.56
465.195	469.56
465.414	461.56
465.634	421.56
465.854	405.56
466.073	407.56
466.293	406.56
466.512	383.56
466.732	375.56
466.951	380.56
467.171	399.56
467.391	398.56
467.61	399.56
467.829	384.56
468.049	388.56
468.268	375.56
468.488	361.56
468.707	381.56
468.927	364.56
469.146	381.56
469.365	368.56
469.585	375.56
469.804	373.56
470.023	383.56
470.243	388.56
470.462	378.56
470.681	379.56
470.901	399.56
471.12	378.56
471.339	392.56
471.558	387.56
471.777	375.56
471.997	389.56
472.216	397.56
472.435	380.56
472.654	395.56
472.873	373.56
473.092	385.56
473.311	391.56
473.53	384.56
473.749	395.56
473.968	422.56
474.187	453.56
474.406	489.56
474.625	407.56
474.844	395.56
475.063	379.56
475.282	381.56
475.501	396.56
475.72	405.56
475.939	407.56
476.158	396.56
476.377	403.56
476.596	393.56
476.814	386.56
477.033	407.56
477.252	405.56
477.471	415.56
477.69	432.56
477.908	422.56
478.127	444.56
478.346	427.56
478.564	419.56
478.783	426.56
479.002	451.56
479.22	439.56
479.439	446.56
479.658	453.56
479.876	451.56
480.095	454.56
480.313	463.56
480.532	460.56
480.751	469.56
480.969	469.56
481.188	466.56
481.406	465.56
481.624	450.56
481.843	445.56
482.061	445.56
482.28	432.56
482.498	455.56
482.717	441.56
482.935	439.56
483.153	441.56
483.372	444.56
483.59	430.56
483.808	435.56
484.027	443.56
484.245	436.56
484.463	439.56
484.681	461.56
484.9	462.56
485.118	451.56
485.336	457.56
485.554	448.56
485.772	453.56
485.99	452.56
486.209	464.56
486.427	443.56
486.645	454.56
486.863	457.56
487.081	484.56
487.299	460.56
487.517	454.56
487.735	455.56
487.953	482.56
488.171	473.56
488.389	461.56
488.607	482.56
488.825	482.56
489.043	466.56
489.261	460.56
489.479	463.56
489.696	442.56
489.914	468.56
490.132	499.56
490.35	483.56
490.568	463.56
490.786	503.56
491.003	478.56
491.221	495.56
491.439	503.56
491.657	496.56
491.874	499.56
492.092	487.56
492.31	510.56
492.527	494.56
492.745	512.56
492.963	505.56
493.18	510.56
493.398	521.56
493.615	509.56
493.833	509.56
494.05	523.56
494.268	528.56
494.485	519.56
494.703	526.56
494.92	529.56
495.138	538.56
495.355	533.56
495.573	522.56
495.79	529.56
496.008	539.56
496.225	517.56
496.442	538.56
496.66	533.56
496.877	534.56
497.094	541.56
497.312	559.56
497.529	563.56
497.746	578.56
497.963	575.56
498.181	631.56
498.398	611.56
498.615	638.56
498.832	623.56
499.049	659.56
499.267	683.56
499.484	705.56
499.701	734.56
499.918	801.56
500.135	803.56
500.352	855.56
500.569	875.56
500.786	896.56
501.003	871.56
501.22	819.56
501.437	791.56
501.654	758.56
501.871	731.56
502.088	699.56
