Data from 1977.PennyLincolnUp.Lamp.En5.5.200Scan.071719.P1_HRD10591_16-06-21-864.txt Node
Date: Thu Jul 18 16:06:21 EDT 2019
User: cochatt
Spectrometer: HR+D1059
Trigger mode: 1
Integration Time (sec): 1.000000E-1
Scans to average: 1
Electric dark correction enabled: true
Nonlinearity correction enabled: false
Boxcar width: 0
XAxis mode: Wavelengths
Number of Pixels in Spectrum: 2048
>>>>>Begin Spectral Data<<<<<
223.165	-20.75
223.4	-20.75
223.635	-20.75
223.869	-21.75
224.104	-14.75
224.338	-13.75
224.573	-3.75
224.808	-6.75
225.042	-13.75
225.277	-16.75
225.511	-16.75
225.746	-1.75
225.98	-2.75
226.215	22.25
226.449	27.25
226.683	24.25
226.918	26.25
227.152	33.25
227.387	44.25
227.621	58.25
227.856	53.25
228.09	55.25
228.324	35.25
228.559	42.25
228.793	70.25
229.027	104.25
229.262	96.25
229.496	110.25
229.73	117.25
229.964	139.25
230.199	132.25
230.433	123.25
230.667	115.25
230.901	123.25
231.136	112.25
231.37	106.25
231.604	119.25
231.838	99.25
232.072	118.25
232.306	119.25
232.541	104.25
232.775	108.25
233.009	115.25
233.243	109.25
233.477	117.25
233.711	119.25
233.945	111.25
234.179	116.25
234.413	118.25
234.647	122.25
234.881	118.25
235.115	118.25
235.349	125.25
235.583	118.25
235.817	127.25
236.051	115.25
236.285	120.25
236.519	135.25
236.753	130.25
236.987	137.25
237.221	169.25
237.455	217.25
237.689	169.25
237.922	139.25
238.156	120.25
238.39	140.25
238.624	127.25
238.858	129.25
239.091	129.25
239.325	100.25
239.559	132.25
239.793	124.25
240.027	131.25
240.26	153.25
240.494	154.25
240.728	146.25
240.961	133.25
241.195	139.25
241.429	138.25
241.662	133.25
241.896	147.25
242.13	145.25
242.363	136.25
242.597	122.25
242.83	143.25
243.064	153.25
243.298	159.25
243.531	157.25
243.765	135.25
243.998	137.25
244.232	130.25
244.465	138.25
244.699	150.25
244.932	150.25
245.166	143.25
245.399	148.25
245.633	128.25
245.866	147.25
246.099	147.25
246.333	149.25
246.566	149.25
246.8	154.25
247.033	145.25
247.266	157.25
247.5	164.25
247.733	173.25
247.966	160.25
248.2	177.25
248.433	160.25
248.666	181.25
248.899	187.25
249.133	197.25
249.366	205.25
249.599	192.25
249.832	186.25
250.066	178.25
250.299	177.25
250.532	185.25
250.765	199.25
250.998	220.25
251.231	221.25
251.465	214.25
251.698	201.25
251.931	198.25
252.164	217.25
252.397	210.25
252.63	197.25
252.863	188.25
253.096	218.25
253.329	223.25
253.562	237.25
253.795	217.25
254.028	221.25
254.261	235.25
254.494	222.25
254.727	254.25
254.96	273.25
255.193	252.25
255.426	239.25
255.659	232.25
255.892	232.25
256.124	234.25
256.357	241.25
256.59	232.25
256.823	220.25
257.056	220.25
257.289	203.25
257.521	220.25
257.754	219.25
257.987	200.25
258.22	212.25
258.452	220.25
258.685	214.25
258.918	205.25
259.151	207.25
259.383	217.25
259.616	212.25
259.849	233.25
260.081	230.25
260.314	246.25
260.547	266.25
260.779	245.25
261.012	214.25
261.244	222.25
261.477	229.25
261.71	232.25
261.942	223.25
262.175	241.25
262.407	226.25
262.64	198.25
262.872	224.25
263.105	199.25
263.337	213.25
263.57	225.25
263.802	231.25
264.035	219.25
264.267	234.25
264.499	226.25
264.732	236.25
264.964	222.25
265.197	232.25
265.429	233.25
265.661	218.25
265.894	223.25
266.126	230.25
266.358	239.25
266.591	218.25
266.823	233.25
267.055	249.25
267.287	257.25
267.52	241.25
267.752	231.25
267.984	221.25
268.216	225.25
268.448	249.25
268.681	246.25
268.913	245.25
269.145	278.25
269.377	280.25
269.609	257.25
269.841	279.25
270.073	277.25
270.306	286.25
270.538	293.25
270.77	315.25
271.002	309.25
271.234	273.25
271.466	296.25
271.698	297.25
271.93	311.25
272.162	307.25
272.394	304.25
272.626	305.25
272.858	297.25
273.09	290.25
273.322	280.25
273.553	271.25
273.785	284.25
274.017	283.25
274.249	286.25
274.481	260.25
274.713	273.25
274.945	274.25
275.176	279.25
275.408	263.25
275.64	269.25
275.872	285.25
276.104	266.25
276.335	285.25
276.567	286.25
276.799	288.25
277.031	316.25
277.262	322.25
277.494	347.25
277.726	310.25
277.957	319.25
278.189	293.25
278.421	293.25
278.652	285.25
278.884	278.25
279.115	282.25
279.347	281.25
279.579	284.25
279.81	269.25
280.042	273.25
280.273	269.25
280.505	299.25
280.736	278.25
280.968	297.25
281.199	283.25
281.431	281.25
281.662	288.25
281.894	290.25
282.125	294.25
282.356	287.25
282.588	291.25
282.819	330.25
283.051	325.25
283.282	285.25
283.513	293.25
283.745	309.25
283.976	282.25
284.207	293.25
284.439	300.25
284.67	301.25
284.901	297.25
285.132	304.25
285.364	283.25
285.595	299.25
285.826	306.25
286.057	296.25
286.288	290.25
286.52	302.25
286.751	309.25
286.982	311.25
287.213	325.25
287.444	294.25
287.675	306.25
287.906	307.25
288.138	322.25
288.369	333.25
288.6	341.25
288.831	302.25
289.062	322.25
289.293	319.25
289.524	303.25
289.755	315.25
289.986	305.25
290.217	311.25
290.448	312.25
290.679	326.25
290.91	321.25
291.141	317.25
291.371	327.25
291.602	313.25
291.833	306.25
292.064	313.25
292.295	307.25
292.526	299.25
292.757	298.25
292.987	329.25
293.218	315.25
293.449	317.25
293.68	326.25
293.91	327.25
294.141	320.25
294.372	317.25
294.603	317.25
294.833	330.25
295.064	324.25
295.295	325.25
295.525	311.25
295.756	312.25
295.987	330.25
296.217	343.25
296.448	346.25
296.679	325.25
296.909	326.25
297.14	318.25
297.37	329.25
297.601	299.25
297.831	334.25
298.062	351.25
298.292	329.25
298.523	334.25
298.753	337.25
298.984	338.25
299.214	336.25
299.445	326.25
299.675	338.25
299.905	358.25
300.136	332.25
300.366	329.25
300.597	340.25
300.827	347.25
301.057	321.25
301.288	359.25
301.518	355.25
301.748	329.25
301.979	339.25
302.209	344.25
302.439	342.25
302.669	351.25
302.9	349.25
303.13	358.25
303.36	381.25
303.59	345.25
303.82	354.25
304.051	374.25
304.281	371.25
304.511	349.25
304.741	352.25
304.971	369.25
305.201	362.25
305.431	353.25
305.661	351.25
305.891	341.25
306.121	362.25
306.352	379.25
306.582	383.25
306.812	365.25
307.042	347.25
307.272	366.25
307.502	362.25
307.731	361.25
307.961	350.25
308.191	358.25
308.421	370.25
308.651	368.25
308.881	365.25
309.111	366.25
309.341	359.25
309.571	380.25
309.8	368.25
310.03	387.25
310.26	391.25
310.49	378.25
310.72	394.25
310.949	386.25
311.179	390.25
311.409	382.25
311.639	369.25
311.868	397.25
312.098	398.25
312.328	395.25
312.557	412.25
312.787	403.25
313.017	415.25
313.246	417.25
313.476	382.25
313.706	379.25
313.935	390.25
314.165	408.25
314.394	389.25
314.624	388.25
314.853	400.25
315.083	390.25
315.312	385.25
315.542	391.25
315.771	392.25
316.001	389.25
316.23	403.25
316.46	385.25
316.689	401.25
316.919	385.25
317.148	406.25
317.377	400.25
317.607	386.25
317.836	391.25
318.065	399.25
318.295	392.25
318.524	381.25
318.753	405.25
318.983	401.25
319.212	381.25
319.441	397.25
319.67	416.25
319.9	398.25
320.129	381.25
320.358	416.25
320.587	409.25
320.816	395.25
321.046	403.25
321.275	425.25
321.504	439.25
321.733	400.25
321.962	409.25
322.191	413.25
322.42	426.25
322.649	423.25
322.878	460.25
323.108	458.25
323.337	469.25
323.566	469.25
323.795	478.25
324.024	548.25
324.253	634.25
324.482	864.25
324.71	1236.25
324.939	1712.25
325.168	1483.25
325.397	781.25
325.626	575.25
325.855	510.25
326.084	501.25
326.313	468.25
326.542	496.25
326.77	535.25
326.999	598.25
327.228	766.25
327.457	1116.25
327.686	1301.25
327.914	880.25
328.143	618.25
328.372	555.25
328.6	547.25
328.829	505.25
329.058	523.25
329.287	538.25
329.515	514.25
329.744	492.25
329.972	475.25
330.201	493.25
330.43	521.25
330.658	554.25
330.887	572.25
331.115	557.25
331.344	504.25
331.572	471.25
331.801	498.25
332.03	494.25
332.258	503.25
332.486	467.25
332.715	463.25
332.943	478.25
333.172	493.25
333.4	466.25
333.629	503.25
333.857	481.25
334.085	479.25
334.314	530.25
334.542	509.25
334.771	526.25
334.999	483.25
335.227	483.25
335.455	495.25
335.684	496.25
335.912	480.25
336.14	471.25
336.369	472.25
336.597	469.25
336.825	492.25
337.053	457.25
337.281	461.25
337.51	467.25
337.738	451.25
337.966	465.25
338.194	453.25
338.422	456.25
338.65	434.25
338.878	456.25
339.106	455.25
339.334	416.25
339.562	434.25
339.79	435.25
340.018	439.25
340.246	443.25
340.474	453.25
340.702	441.25
340.93	448.25
341.158	459.25
341.386	441.25
341.614	438.25
341.842	425.25
342.07	444.25
342.298	440.25
342.526	432.25
342.754	436.25
342.981	432.25
343.209	422.25
343.437	451.25
343.665	435.25
343.893	447.25
344.12	465.25
344.348	467.25
344.576	438.25
344.804	464.25
345.031	452.25
345.259	468.25
345.487	451.25
345.714	437.25
345.942	432.25
346.17	421.25
346.397	412.25
346.625	407.25
346.853	407.25
347.08	447.25
347.308	429.25
347.535	420.25
347.763	436.25
347.99	434.25
348.218	449.25
348.445	455.25
348.673	434.25
348.9	417.25
349.128	413.25
349.355	425.25
349.583	414.25
349.81	419.25
350.037	441.25
350.265	420.25
350.492	391.25
350.72	409.25
350.947	403.25
351.174	417.25
351.402	431.25
351.629	414.25
351.856	426.25
352.083	419.25
352.311	424.25
352.538	416.25
352.765	443.25
352.992	432.25
353.22	417.25
353.447	407.25
353.674	398.25
353.901	394.25
354.128	395.25
354.355	385.25
354.583	398.25
354.81	401.25
355.037	395.25
355.264	397.25
355.491	400.25
355.718	412.25
355.945	395.25
356.172	409.25
356.399	413.25
356.626	385.25
356.853	382.25
357.08	398.25
357.307	378.25
357.534	392.25
357.761	384.25
357.988	386.25
358.215	387.25
358.441	396.25
358.668	392.25
358.895	398.25
359.122	397.25
359.349	408.25
359.576	413.25
359.802	433.25
360.029	433.25
360.256	429.25
360.483	446.25
360.709	416.25
360.936	396.25
361.163	421.25
361.39	431.25
361.616	413.25
361.843	418.25
362.07	397.25
362.296	406.25
362.523	406.25
362.749	395.25
362.976	388.25
363.203	412.25
363.429	379.25
363.656	407.25
363.882	397.25
364.109	390.25
364.335	392.25
364.562	398.25
364.788	401.25
365.015	393.25
365.241	396.25
365.468	394.25
365.694	409.25
365.92	387.25
366.147	385.25
366.373	400.25
366.599	385.25
366.826	393.25
367.052	404.25
367.278	386.25
367.505	399.25
367.731	393.25
367.957	393.25
368.184	399.25
368.41	398.25
368.636	410.25
368.862	401.25
369.089	385.25
369.315	382.25
369.541	387.25
369.767	409.25
369.993	369.25
370.219	379.25
370.445	383.25
370.672	413.25
370.898	394.25
371.124	386.25
371.35	401.25
371.576	387.25
371.802	394.25
372.028	391.25
372.254	413.25
372.48	389.25
372.706	405.25
372.932	428.25
373.158	400.25
373.384	418.25
373.61	407.25
373.835	410.25
374.061	406.25
374.287	411.25
374.513	421.25
374.739	421.25
374.965	424.25
375.191	399.25
375.416	393.25
375.642	400.25
375.868	405.25
376.094	371.25
376.319	409.25
376.545	391.25
376.771	413.25
376.997	391.25
377.222	422.25
377.448	391.25
377.674	378.25
377.899	394.25
378.125	392.25
378.35	379.25
378.576	381.25
378.802	397.25
379.027	403.25
379.253	407.25
379.478	387.25
379.704	387.25
379.929	397.25
380.155	392.25
380.38	396.25
380.606	389.25
380.831	406.25
381.057	404.25
381.282	368.25
381.507	383.25
381.733	417.25
381.958	401.25
382.184	409.25
382.409	399.25
382.634	400.25
382.86	395.25
383.085	397.25
383.31	401.25
383.535	397.25
383.761	395.25
383.986	401.25
384.211	415.25
384.436	431.25
384.662	404.25
384.887	416.25
385.112	418.25
385.337	414.25
385.562	429.25
385.787	423.25
386.013	454.25
386.238	404.25
386.463	435.25
386.688	427.25
386.913	430.25
387.138	411.25
387.363	413.25
387.588	445.25
387.813	441.25
388.038	424.25
388.263	435.25
388.488	423.25
388.713	428.25
388.938	432.25
389.163	432.25
389.387	411.25
389.612	424.25
389.837	423.25
390.062	424.25
390.287	420.25
390.512	433.25
390.736	419.25
390.961	431.25
391.186	416.25
391.411	432.25
391.636	434.25
391.86	434.25
392.085	446.25
392.31	457.25
392.534	438.25
392.759	433.25
392.984	454.25
393.208	443.25
393.433	421.25
393.658	441.25
393.882	419.25
394.107	410.25
394.331	427.25
394.556	435.25
394.78	435.25
395.005	420.25
395.229	449.25
395.454	457.25
395.678	449.25
395.903	473.25
396.127	445.25
396.352	481.25
396.576	435.25
396.801	449.25
397.025	435.25
397.249	444.25
397.474	441.25
397.698	467.25
397.922	459.25
398.147	457.25
398.371	499.25
398.595	513.25
398.82	498.25
399.044	506.25
399.268	531.25
399.492	562.25
399.717	583.25
399.941	609.25
400.165	613.25
400.389	606.25
400.613	552.25
400.837	545.25
401.062	519.25
401.286	511.25
401.51	500.25
401.734	480.25
401.958	488.25
402.182	493.25
402.406	493.25
402.63	505.25
402.854	504.25
403.078	489.25
403.302	502.25
403.526	523.25
403.75	522.25
403.974	514.25
404.198	509.25
404.422	518.25
404.645	507.25
404.869	532.25
405.093	566.25
405.317	576.25
405.541	594.25
405.765	569.25
405.988	528.25
406.212	534.25
406.436	549.25
406.66	565.25
406.883	537.25
407.107	549.25
407.331	622.25
407.555	634.25
407.778	649.25
408.002	601.25
408.226	579.25
408.449	584.25
408.673	553.25
408.896	574.25
409.12	595.25
409.344	584.25
409.567	529.25
409.791	530.25
410.014	501.25
410.238	514.25
410.461	503.25
410.685	501.25
410.908	520.25
411.132	562.25
411.355	567.25
411.578	533.25
411.802	479.25
412.025	497.25
412.249	493.25
412.472	514.25
412.695	537.25
412.919	538.25
413.142	516.25
413.365	509.25
413.589	481.25
413.812	473.25
414.035	472.25
414.258	488.25
414.482	505.25
414.705	480.25
414.928	485.25
415.151	453.25
415.374	474.25
415.597	453.25
415.821	478.25
416.044	470.25
416.267	475.25
416.49	460.25
416.713	467.25
416.936	465.25
417.159	453.25
417.382	497.25
417.605	478.25
417.828	491.25
418.051	497.25
418.274	479.25
418.497	473.25
418.72	476.25
418.943	449.25
419.166	480.25
419.389	517.25
419.611	499.25
419.834	501.25
420.057	490.25
420.28	485.25
420.503	487.25
420.726	482.25
420.948	494.25
421.171	518.25
421.394	547.25
421.617	525.25
421.839	482.25
422.062	467.25
422.285	498.25
422.507	546.25
422.73	614.25
422.953	598.25
423.175	526.25
423.398	513.25
423.621	506.25
423.843	517.25
424.066	509.25
424.288	502.25
424.511	528.25
424.733	593.25
424.956	653.25
425.178	611.25
425.401	622.25
425.623	624.25
425.846	557.25
426.068	512.25
426.291	497.25
426.513	524.25
426.735	504.25
426.958	551.25
427.18	597.25
427.402	715.25
427.625	791.25
427.847	661.25
428.069	601.25
428.292	533.25
428.514	495.25
428.736	472.25
428.958	459.25
429.181	477.25
429.403	473.25
429.625	493.25
429.847	513.25
430.069	563.25
430.292	560.25
430.514	491.25
430.736	476.25
430.958	473.25
431.18	459.25
431.402	464.25
431.624	455.25
431.846	458.25
432.068	438.25
432.29	455.25
432.512	442.25
432.734	447.25
432.956	469.25
433.178	443.25
433.4	461.25
433.622	462.25
433.844	458.25
434.066	456.25
434.287	467.25
434.509	455.25
434.731	475.25
434.953	486.25
435.175	485.25
435.397	498.25
435.618	521.25
435.84	529.25
436.062	594.25
436.284	645.25
436.505	546.25
436.727	496.25
436.949	484.25
437.17	473.25
437.392	454.25
437.614	481.25
437.835	484.25
438.057	558.25
438.278	639.25
438.5	656.25
438.721	717.25
438.943	700.25
439.165	546.25
439.386	517.25
439.608	517.25
439.829	486.25
440.05	518.25
440.272	551.25
440.493	522.25
440.715	496.25
440.936	480.25
441.158	467.25
441.379	462.25
441.6	494.25
441.822	531.25
442.043	554.25
442.264	550.25
442.486	631.25
442.707	558.25
442.928	498.25
443.149	517.25
443.371	535.25
443.592	540.25
443.813	643.25
444.034	689.25
444.255	573.25
444.476	541.25
444.698	529.25
444.919	533.25
445.14	625.25
445.361	562.25
445.582	545.25
445.803	600.25
446.024	638.25
446.245	663.25
446.466	626.25
446.687	525.25
446.908	498.25
447.129	474.25
447.35	451.25
447.571	461.25
447.792	461.25
448.013	456.25
448.234	462.25
448.455	526.25
448.675	597.25
448.896	670.25
449.117	610.25
449.338	565.25
449.559	645.25
449.779	718.25
450	579.25
450.221	492.25
450.442	449.25
450.662	457.25
450.883	467.25
451.104	457.25
451.324	434.25
451.545	433.25
451.766	409.25
451.986	402.25
452.207	412.25
452.428	436.25
452.648	432.25
452.869	421.25
453.089	403.25
453.31	435.25
453.53	414.25
453.751	411.25
453.971	428.25
454.192	422.25
454.412	417.25
454.633	383.25
454.853	409.25
455.073	402.25
455.294	417.25
455.514	497.25
455.734	462.25
455.955	425.25
456.175	395.25
456.395	400.25
456.616	382.25
456.836	373.25
457.056	384.25
457.276	392.25
457.497	392.25
457.717	393.25
457.937	395.25
458.157	411.25
458.377	417.25
458.598	434.25
458.818	443.25
459.038	517.25
459.258	548.25
459.478	466.25
459.698	441.25
459.918	430.25
460.138	460.25
460.358	481.25
460.578	485.25
460.798	458.25
461.018	467.25
461.238	457.25
461.458	474.25
461.678	478.25
461.898	460.25
462.118	458.25
462.338	502.25
462.558	463.25
462.777	492.25
462.997	515.25
463.217	521.25
463.437	527.25
463.657	496.25
463.876	513.25
464.096	506.25
464.316	497.25
464.536	500.25
464.755	493.25
464.975	494.25
465.195	521.25
465.414	543.25
465.634	481.25
465.854	486.25
466.073	455.25
466.293	453.25
466.512	415.25
466.732	415.25
466.951	412.25
467.171	419.25
467.391	391.25
467.61	421.25
467.829	439.25
468.049	429.25
468.268	431.25
468.488	432.25
468.707	411.25
468.927	405.25
469.146	409.25
469.365	416.25
469.585	418.25
469.804	417.25
470.023	449.25
470.243	434.25
470.462	425.25
470.681	452.25
470.901	462.25
471.12	441.25
471.339	443.25
471.558	438.25
471.777	441.25
471.997	433.25
472.216	421.25
472.435	449.25
472.654	434.25
472.873	427.25
473.092	424.25
473.311	413.25
473.53	425.25
473.749	458.25
473.968	459.25
474.187	540.25
474.406	543.25
474.625	460.25
474.844	429.25
475.063	429.25
475.282	417.25
475.501	426.25
475.72	447.25
475.939	423.25
476.158	456.25
476.377	433.25
476.596	434.25
476.814	455.25
477.033	437.25
477.252	463.25
477.471	455.25
477.69	478.25
477.908	464.25
478.127	476.25
478.346	472.25
478.564	473.25
478.783	473.25
479.002	493.25
479.22	491.25
479.439	485.25
479.658	526.25
479.876	507.25
480.095	531.25
480.313	531.25
480.532	565.25
480.751	523.25
480.969	537.25
481.188	546.25
481.406	558.25
481.624	520.25
481.843	508.25
482.061	494.25
482.28	484.25
482.498	488.25
482.717	483.25
482.935	495.25
483.153	510.25
483.372	461.25
483.59	510.25
483.808	472.25
484.027	475.25
484.245	501.25
484.463	495.25
484.681	502.25
484.9	515.25
485.118	496.25
485.336	498.25
485.554	527.25
485.772	496.25
485.99	492.25
486.209	497.25
486.427	513.25
486.645	506.25
486.863	515.25
487.081	522.25
487.299	512.25
487.517	524.25
487.735	516.25
487.953	520.25
488.171	501.25
488.389	536.25
488.607	520.25
488.825	522.25
489.043	504.25
489.261	516.25
489.479	531.25
489.696	551.25
489.914	525.25
490.132	537.25
490.35	533.25
490.568	538.25
490.786	542.25
491.003	546.25
491.221	549.25
491.439	581.25
491.657	584.25
491.874	595.25
492.092	583.25
492.31	578.25
492.527	583.25
492.745	586.25
492.963	597.25
493.18	603.25
493.398	609.25
493.615	588.25
493.833	610.25
494.05	575.25
494.268	614.25
494.485	583.25
494.703	593.25
494.92	589.25
495.138	610.25
495.355	603.25
495.573	620.25
495.79	599.25
496.008	635.25
496.225	604.25
496.442	599.25
496.66	599.25
496.877	617.25
497.094	616.25
497.312	633.25
497.529	615.25
497.746	672.25
497.963	648.25
498.181	676.25
498.398	681.25
498.615	692.25
498.832	704.25
499.049	700.25
499.267	753.25
499.484	793.25
499.701	798.25
499.918	841.25
500.135	895.25
500.352	944.25
500.569	957.25
500.786	967.25
501.003	953.25
501.22	924.25
501.437	885.25
501.654	838.25
501.871	795.25
