Data from 1977.PennyLincolnUp.Lamp.En5.5.200Scan.071719.P1_HRD10591_16-07-37-865.txt Node
Date: Thu Jul 18 16:07:37 EDT 2019
User: cochatt
Spectrometer: HR+D1059
Trigger mode: 1
Integration Time (sec): 1.000000E-1
Scans to average: 1
Electric dark correction enabled: true
Nonlinearity correction enabled: false
Boxcar width: 0
XAxis mode: Wavelengths
Number of Pixels in Spectrum: 2048
>>>>>Begin Spectral Data<<<<<
223.165	-13.81
223.4	-13.81
223.635	-13.81
223.869	-10.81
224.104	-17.81
224.338	-9.81
224.573	-12.81
224.808	-21.81
225.042	-20.81
225.277	-7.81
225.511	-0.81
225.746	8.19
225.98	7.19
226.215	4.19
226.449	17.19
226.683	7.19
226.918	36.19
227.152	36.19
227.387	22.19
227.621	38.19
227.856	39.19
228.09	43.19
228.324	43.19
228.559	61.19
228.793	67.19
229.027	86.19
229.262	104.19
229.496	112.19
229.73	116.19
229.964	139.19
230.199	117.19
230.433	98.19
230.667	95.19
230.901	115.19
231.136	93.19
231.37	96.19
231.604	100.19
231.838	119.19
232.072	96.19
232.306	95.19
232.541	107.19
232.775	107.19
233.009	116.19
233.243	106.19
233.477	109.19
233.711	108.19
233.945	101.19
234.179	112.19
234.413	115.19
234.647	124.19
234.881	118.19
235.115	135.19
235.349	124.19
235.583	110.19
235.817	121.19
236.051	121.19
236.285	128.19
236.519	134.19
236.753	126.19
236.987	150.19
237.221	167.19
237.455	200.19
237.689	168.19
237.922	147.19
238.156	123.19
238.39	123.19
238.624	120.19
238.858	124.19
239.091	122.19
239.325	127.19
239.559	127.19
239.793	124.19
240.027	146.19
240.26	158.19
240.494	155.19
240.728	143.19
240.961	150.19
241.195	136.19
241.429	141.19
241.662	133.19
241.896	128.19
242.13	115.19
242.363	126.19
242.597	140.19
242.83	150.19
243.064	126.19
243.298	133.19
243.531	140.19
243.765	134.19
243.998	137.19
244.232	136.19
244.465	150.19
244.699	143.19
244.932	153.19
245.166	154.19
245.399	146.19
245.633	145.19
245.866	149.19
246.099	149.19
246.333	150.19
246.566	143.19
246.8	144.19
247.033	149.19
247.266	149.19
247.5	165.19
247.733	161.19
247.966	158.19
248.2	161.19
248.433	172.19
248.666	159.19
248.899	173.19
249.133	207.19
249.366	201.19
249.599	183.19
249.832	187.19
250.066	166.19
250.299	173.19
250.532	184.19
250.765	199.19
250.998	200.19
251.231	218.19
251.465	212.19
251.698	214.19
251.931	198.19
252.164	193.19
252.397	204.19
252.63	198.19
252.863	190.19
253.096	217.19
253.329	210.19
253.562	212.19
253.795	214.19
254.028	198.19
254.261	207.19
254.494	219.19
254.727	238.19
254.96	275.19
255.193	263.19
255.426	229.19
255.659	209.19
255.892	227.19
256.124	228.19
256.357	212.19
256.59	223.19
256.823	217.19
257.056	205.19
257.289	210.19
257.521	205.19
257.754	211.19
257.987	211.19
258.22	201.19
258.452	205.19
258.685	205.19
258.918	226.19
259.151	212.19
259.383	229.19
259.616	225.19
259.849	238.19
260.081	243.19
260.314	235.19
260.547	245.19
260.779	241.19
261.012	228.19
261.244	215.19
261.477	222.19
261.71	227.19
261.942	242.19
262.175	212.19
262.407	214.19
262.64	235.19
262.872	215.19
263.105	219.19
263.337	217.19
263.57	211.19
263.802	211.19
264.035	217.19
264.267	220.19
264.499	218.19
264.732	209.19
264.964	218.19
265.197	217.19
265.429	206.19
265.661	227.19
265.894	227.19
266.126	222.19
266.358	222.19
266.591	237.19
266.823	249.19
267.055	247.19
267.287	237.19
267.52	232.19
267.752	226.19
267.984	239.19
268.216	242.19
268.448	228.19
268.681	243.19
268.913	247.19
269.145	281.19
269.377	285.19
269.609	269.19
269.841	282.19
270.073	282.19
270.306	300.19
270.538	339.19
270.77	323.19
271.002	308.19
271.234	292.19
271.466	288.19
271.698	311.19
271.93	321.19
272.162	307.19
272.394	322.19
272.626	300.19
272.858	305.19
273.09	287.19
273.322	271.19
273.553	277.19
273.785	269.19
274.017	272.19
274.249	277.19
274.481	281.19
274.713	278.19
274.945	263.19
275.176	285.19
275.408	266.19
275.64	277.19
275.872	275.19
276.104	268.19
276.335	286.19
276.567	286.19
276.799	280.19
277.031	287.19
277.262	319.19
277.494	324.19
277.726	315.19
277.957	316.19
278.189	268.19
278.421	282.19
278.652	285.19
278.884	292.19
279.115	261.19
279.347	270.19
279.579	285.19
279.81	278.19
280.042	276.19
280.273	272.19
280.505	281.19
280.736	277.19
280.968	271.19
281.199	293.19
281.431	272.19
281.662	294.19
281.894	301.19
282.125	294.19
282.356	299.19
282.588	284.19
282.819	318.19
283.051	311.19
283.282	281.19
283.513	309.19
283.745	296.19
283.976	293.19
284.207	283.19
284.439	305.19
284.67	317.19
284.901	290.19
285.132	295.19
285.364	300.19
285.595	303.19
285.826	288.19
286.057	308.19
286.288	305.19
286.52	291.19
286.751	291.19
286.982	293.19
287.213	280.19
287.444	282.19
287.675	313.19
287.906	293.19
288.138	316.19
288.369	321.19
288.6	330.19
288.831	311.19
289.062	310.19
289.293	313.19
289.524	307.19
289.755	323.19
289.986	318.19
290.217	307.19
290.448	290.19
290.679	294.19
290.91	313.19
291.141	305.19
291.371	306.19
291.602	317.19
291.833	286.19
292.064	301.19
292.295	306.19
292.526	309.19
292.757	307.19
292.987	295.19
293.218	308.19
293.449	309.19
293.68	308.19
293.91	306.19
294.141	314.19
294.372	292.19
294.603	316.19
294.833	307.19
295.064	327.19
295.295	303.19
295.525	300.19
295.756	314.19
295.987	307.19
296.217	335.19
296.448	346.19
296.679	326.19
296.909	307.19
297.14	313.19
297.37	321.19
297.601	327.19
297.831	309.19
298.062	307.19
298.292	340.19
298.523	330.19
298.753	320.19
298.984	310.19
299.214	341.19
299.445	334.19
299.675	329.19
299.905	332.19
300.136	326.19
300.366	338.19
300.597	350.19
300.827	334.19
301.057	335.19
301.288	356.19
301.518	315.19
301.748	356.19
301.979	349.19
302.209	342.19
302.439	355.19
302.669	336.19
302.9	339.19
303.13	331.19
303.36	357.19
303.59	348.19
303.82	353.19
304.051	333.19
304.281	358.19
304.511	353.19
304.741	326.19
304.971	353.19
305.201	339.19
305.431	333.19
305.661	351.19
305.891	357.19
306.121	353.19
306.352	358.19
306.582	351.19
306.812	354.19
307.042	354.19
307.272	348.19
307.502	341.19
307.731	353.19
307.961	336.19
308.191	340.19
308.421	329.19
308.651	319.19
308.881	341.19
309.111	354.19
309.341	363.19
309.571	362.19
309.8	370.19
310.03	355.19
310.26	381.19
310.49	361.19
310.72	379.19
310.949	387.19
311.179	387.19
311.409	393.19
311.639	385.19
311.868	390.19
312.098	387.19
312.328	399.19
312.557	398.19
312.787	411.19
313.017	400.19
313.246	401.19
313.476	394.19
313.706	375.19
313.935	375.19
314.165	400.19
314.394	405.19
314.624	406.19
314.853	401.19
315.083	391.19
315.312	389.19
315.542	403.19
315.771	409.19
316.001	381.19
316.23	387.19
316.46	379.19
316.689	387.19
316.919	399.19
317.148	409.19
317.377	408.19
317.607	401.19
317.836	389.19
318.065	367.19
318.295	393.19
318.524	377.19
318.753	378.19
318.983	376.19
319.212	381.19
319.441	397.19
319.67	406.19
319.9	407.19
320.129	394.19
320.358	395.19
320.587	389.19
320.816	385.19
321.046	395.19
321.275	414.19
321.504	405.19
321.733	400.19
321.962	418.19
322.191	413.19
322.42	441.19
322.649	439.19
322.878	427.19
323.108	430.19
323.337	463.19
323.566	476.19
323.795	489.19
324.024	556.19
324.253	626.19
324.482	891.19
324.71	1306.19
324.939	1825.19
325.168	1525.19
325.397	829.19
325.626	571.19
325.855	507.19
326.084	490.19
326.313	483.19
326.542	489.19
326.77	539.19
326.999	597.19
327.228	801.19
327.457	1152.19
327.686	1341.19
327.914	908.19
328.143	650.19
328.372	578.19
328.6	529.19
328.829	513.19
329.058	531.19
329.287	537.19
329.515	506.19
329.744	489.19
329.972	501.19
330.201	509.19
330.43	538.19
330.658	537.19
330.887	545.19
331.115	537.19
331.344	501.19
331.572	490.19
331.801	490.19
332.03	482.19
332.258	451.19
332.486	469.19
332.715	475.19
332.943	472.19
333.172	474.19
333.4	467.19
333.629	479.19
333.857	498.19
334.085	474.19
334.314	508.19
334.542	534.19
334.771	513.19
334.999	486.19
335.227	491.19
335.455	467.19
335.684	468.19
335.912	453.19
336.14	459.19
336.369	461.19
336.597	451.19
336.825	447.19
337.053	457.19
337.281	461.19
337.51	445.19
337.738	445.19
337.966	437.19
338.194	458.19
338.422	446.19
338.65	441.19
338.878	445.19
339.106	437.19
339.334	433.19
339.562	424.19
339.79	437.19
340.018	431.19
340.246	442.19
340.474	439.19
340.702	423.19
340.93	438.19
341.158	444.19
341.386	451.19
341.614	451.19
341.842	443.19
342.07	429.19
342.298	433.19
342.526	413.19
342.754	405.19
342.981	411.19
343.209	443.19
343.437	417.19
343.665	417.19
343.893	439.19
344.12	447.19
344.348	455.19
344.576	445.19
344.804	455.19
345.031	467.19
345.259	423.19
345.487	433.19
345.714	431.19
345.942	410.19
346.17	427.19
346.397	404.19
346.625	406.19
346.853	398.19
347.08	414.19
347.308	399.19
347.535	417.19
347.763	428.19
347.99	418.19
348.218	426.19
348.445	427.19
348.673	423.19
348.9	409.19
349.128	399.19
349.355	403.19
349.583	391.19
349.81	399.19
350.037	382.19
350.265	409.19
350.492	408.19
350.72	407.19
350.947	412.19
351.174	399.19
351.402	426.19
351.629	408.19
351.856	419.19
352.083	394.19
352.311	417.19
352.538	441.19
352.765	443.19
352.992	426.19
353.22	409.19
353.447	385.19
353.674	396.19
353.901	391.19
354.128	389.19
354.355	392.19
354.583	376.19
354.81	395.19
355.037	374.19
355.264	396.19
355.491	408.19
355.718	362.19
355.945	399.19
356.172	398.19
356.399	381.19
356.626	369.19
356.853	399.19
357.08	375.19
357.307	382.19
357.534	377.19
357.761	391.19
357.988	399.19
358.215	389.19
358.441	389.19
358.668	394.19
358.895	381.19
359.122	379.19
359.349	411.19
359.576	408.19
359.802	412.19
360.029	408.19
360.256	444.19
360.483	433.19
360.709	390.19
360.936	405.19
361.163	403.19
361.39	391.19
361.616	405.19
361.843	399.19
362.07	393.19
362.296	383.19
362.523	408.19
362.749	409.19
362.976	400.19
363.203	399.19
363.429	398.19
363.656	390.19
363.882	390.19
364.109	386.19
364.335	385.19
364.562	391.19
364.788	391.19
365.015	378.19
365.241	394.19
365.468	386.19
365.694	389.19
365.92	379.19
366.147	377.19
366.373	371.19
366.599	391.19
366.826	391.19
367.052	390.19
367.278	390.19
367.505	367.19
367.731	385.19
367.957	395.19
368.184	385.19
368.41	424.19
368.636	397.19
368.862	381.19
369.089	397.19
369.315	390.19
369.541	374.19
369.767	385.19
369.993	389.19
370.219	388.19
370.445	387.19
370.672	385.19
370.898	381.19
371.124	399.19
371.35	363.19
371.576	398.19
371.802	403.19
372.028	381.19
372.254	383.19
372.48	388.19
372.706	385.19
372.932	382.19
373.158	397.19
373.384	389.19
373.61	379.19
373.835	379.19
374.061	404.19
374.287	404.19
374.513	380.19
374.739	403.19
374.965	408.19
375.191	391.19
375.416	389.19
375.642	379.19
375.868	375.19
376.094	390.19
376.319	395.19
376.545	396.19
376.771	385.19
376.997	394.19
377.222	377.19
377.448	381.19
377.674	390.19
377.899	357.19
378.125	377.19
378.35	369.19
378.576	362.19
378.802	372.19
379.027	386.19
379.253	382.19
379.478	385.19
379.704	369.19
379.929	374.19
380.155	393.19
380.38	371.19
380.606	373.19
380.831	396.19
381.057	377.19
381.282	387.19
381.507	388.19
381.733	389.19
381.958	370.19
382.184	383.19
382.409	385.19
382.634	373.19
382.86	385.19
383.085	408.19
383.31	397.19
383.535	410.19
383.761	387.19
383.986	395.19
384.211	389.19
384.436	398.19
384.662	400.19
384.887	399.19
385.112	424.19
385.337	409.19
385.562	401.19
385.787	409.19
386.013	426.19
386.238	439.19
386.463	433.19
386.688	397.19
386.913	410.19
387.138	406.19
387.363	421.19
387.588	416.19
387.813	411.19
388.038	413.19
388.263	408.19
388.488	419.19
388.713	433.19
388.938	429.19
389.163	425.19
389.387	430.19
389.612	423.19
389.837	420.19
390.062	421.19
390.287	396.19
390.512	407.19
390.736	424.19
390.961	400.19
391.186	414.19
391.411	424.19
391.636	454.19
391.86	425.19
392.085	433.19
392.31	441.19
392.534	425.19
392.759	422.19
392.984	439.19
393.208	437.19
393.433	431.19
393.658	405.19
393.882	420.19
394.107	428.19
394.331	419.19
394.556	405.19
394.78	445.19
395.005	427.19
395.229	411.19
395.454	427.19
395.678	428.19
395.903	449.19
396.127	447.19
396.352	471.19
396.576	440.19
396.801	441.19
397.025	435.19
397.249	420.19
397.474	467.19
397.698	445.19
397.922	445.19
398.147	465.19
398.371	470.19
398.595	456.19
398.82	468.19
399.044	475.19
399.268	511.19
399.492	569.19
399.717	565.19
399.941	599.19
400.165	604.19
400.389	581.19
400.613	542.19
400.837	496.19
401.062	499.19
401.286	475.19
401.51	490.19
401.734	475.19
401.958	494.19
402.182	488.19
402.406	508.19
402.63	488.19
402.854	493.19
403.078	478.19
403.302	468.19
403.526	509.19
403.75	493.19
403.974	489.19
404.198	503.19
404.422	480.19
404.645	490.19
404.869	495.19
405.093	530.19
405.317	549.19
405.541	603.19
405.765	552.19
405.988	518.19
406.212	525.19
406.436	549.19
406.66	526.19
406.883	531.19
407.107	562.19
407.331	595.19
407.555	634.19
407.778	639.19
408.002	567.19
408.226	546.19
408.449	546.19
408.673	542.19
408.896	547.19
409.12	567.19
409.344	558.19
409.567	525.19
409.791	494.19
410.014	493.19
410.238	484.19
410.461	489.19
410.685	485.19
410.908	534.19
411.132	519.19
411.355	557.19
411.578	538.19
411.802	509.19
412.025	492.19
412.249	482.19
412.472	517.19
412.695	507.19
412.919	525.19
413.142	488.19
413.365	465.19
413.589	470.19
413.812	467.19
414.035	466.19
414.258	461.19
414.482	458.19
414.705	477.19
414.928	484.19
415.151	450.19
415.374	465.19
415.597	454.19
415.821	447.19
416.044	461.19
416.267	460.19
416.49	443.19
416.713	474.19
416.936	452.19
417.159	457.19
417.382	463.19
417.605	458.19
417.828	463.19
418.051	483.19
418.274	480.19
418.497	454.19
418.72	462.19
418.943	467.19
419.166	458.19
419.389	501.19
419.611	494.19
419.834	501.19
420.057	461.19
420.28	472.19
420.503	485.19
420.726	469.19
420.948	489.19
421.171	519.19
421.394	541.19
421.617	483.19
421.839	469.19
422.062	469.19
422.285	478.19
422.507	545.19
422.73	589.19
422.953	570.19
423.175	504.19
423.398	494.19
423.621	476.19
423.843	527.19
424.066	485.19
424.288	509.19
424.511	524.19
424.733	574.19
424.956	653.19
425.178	593.19
425.401	619.19
425.623	631.19
425.846	550.19
426.068	520.19
426.291	487.19
426.513	485.19
426.735	497.19
426.958	556.19
427.18	615.19
427.402	697.19
427.625	812.19
427.847	689.19
428.069	581.19
428.292	548.19
428.514	475.19
428.736	447.19
428.958	465.19
429.181	453.19
429.403	468.19
429.625	461.19
429.847	504.19
430.069	558.19
430.292	559.19
430.514	479.19
430.736	474.19
430.958	458.19
431.18	442.19
431.402	450.19
431.624	438.19
431.846	435.19
432.068	445.19
432.29	422.19
432.512	451.19
432.734	462.19
432.956	439.19
433.178	444.19
433.4	467.19
433.622	445.19
433.844	434.19
434.066	443.19
434.287	446.19
434.509	447.19
434.731	455.19
434.953	455.19
435.175	473.19
435.397	476.19
435.618	484.19
435.84	540.19
436.062	631.19
436.284	663.19
436.505	581.19
436.727	512.19
436.949	483.19
437.17	461.19
437.392	471.19
437.614	453.19
437.835	476.19
438.057	580.19
438.278	669.19
438.5	633.19
438.721	740.19
438.943	704.19
439.165	558.19
439.386	486.19
439.608	493.19
439.829	482.19
440.05	494.19
440.272	570.19
440.493	522.19
440.715	489.19
440.936	485.19
441.158	465.19
441.379	462.19
441.6	486.19
441.822	501.19
442.043	527.19
442.264	593.19
442.486	637.19
442.707	550.19
442.928	509.19
443.149	506.19
443.371	533.19
443.592	572.19
443.813	651.19
444.034	697.19
444.255	577.19
444.476	546.19
444.698	510.19
444.919	517.19
445.14	629.19
445.361	563.19
445.582	527.19
445.803	583.19
446.024	669.19
446.245	672.19
446.466	600.19
446.687	511.19
446.908	478.19
447.129	451.19
447.35	474.19
447.571	455.19
447.792	449.19
448.013	442.19
448.234	467.19
448.455	519.19
448.675	617.19
448.896	697.19
449.117	609.19
449.338	576.19
449.559	648.19
449.779	769.19
450	604.19
450.221	519.19
450.442	461.19
450.662	437.19
450.883	440.19
451.104	456.19
451.324	434.19
451.545	446.19
451.766	421.19
451.986	424.19
452.207	404.19
452.428	405.19
452.648	413.19
452.869	410.19
453.089	411.19
453.31	416.19
453.53	399.19
453.751	413.19
453.971	421.19
454.192	419.19
454.412	419.19
454.633	390.19
454.853	411.19
455.073	394.19
455.294	427.19
455.514	473.19
455.734	462.19
455.955	420.19
456.175	406.19
456.395	389.19
456.616	383.19
456.836	387.19
457.056	381.19
457.276	355.19
457.497	384.19
457.717	376.19
457.937	390.19
458.157	389.19
458.377	396.19
458.598	419.19
458.818	457.19
459.038	509.19
459.258	537.19
459.478	477.19
459.698	437.19
459.918	437.19
460.138	439.19
460.358	433.19
460.578	439.19
460.798	447.19
461.018	460.19
461.238	465.19
461.458	441.19
461.678	441.19
461.898	448.19
462.118	443.19
462.338	476.19
462.558	467.19
462.777	461.19
462.997	492.19
463.217	506.19
463.437	504.19
463.657	485.19
463.876	490.19
464.096	473.19
464.316	478.19
464.536	473.19
464.755	468.19
464.975	489.19
465.195	505.19
465.414	526.19
465.634	497.19
465.854	463.19
466.073	440.19
466.293	427.19
466.512	425.19
466.732	438.19
466.951	433.19
467.171	411.19
467.391	415.19
467.61	411.19
467.829	437.19
468.049	438.19
468.268	428.19
468.488	385.19
468.707	409.19
468.927	403.19
469.146	412.19
469.365	399.19
469.585	420.19
469.804	410.19
470.023	413.19
470.243	398.19
470.462	419.19
470.681	426.19
470.901	427.19
471.12	415.19
471.339	409.19
471.558	405.19
471.777	436.19
471.997	405.19
472.216	424.19
472.435	444.19
472.654	419.19
472.873	417.19
473.092	410.19
473.311	436.19
473.53	439.19
473.749	424.19
473.968	463.19
474.187	536.19
474.406	571.19
474.625	461.19
474.844	456.19
475.063	421.19
475.282	431.19
475.501	390.19
475.72	424.19
475.939	406.19
476.158	420.19
476.377	423.19
476.596	433.19
476.814	435.19
477.033	438.19
477.252	432.19
477.471	454.19
477.69	451.19
477.908	460.19
478.127	472.19
478.346	439.19
478.564	461.19
478.783	473.19
479.002	487.19
479.22	503.19
479.439	479.19
479.658	517.19
479.876	504.19
480.095	514.19
480.313	488.19
480.532	511.19
480.751	521.19
480.969	503.19
481.188	560.19
481.406	548.19
481.624	511.19
481.843	494.19
482.061	502.19
482.28	489.19
482.498	491.19
482.717	485.19
482.935	468.19
483.153	494.19
483.372	477.19
483.59	491.19
483.808	487.19
484.027	482.19
484.245	484.19
484.463	490.19
484.681	502.19
484.9	499.19
485.118	503.19
485.336	490.19
485.554	505.19
485.772	500.19
485.99	513.19
486.209	503.19
486.427	517.19
486.645	520.19
486.863	518.19
487.081	513.19
487.299	521.19
487.517	520.19
487.735	499.19
487.953	517.19
488.171	506.19
488.389	491.19
488.607	529.19
488.825	533.19
489.043	500.19
489.261	516.19
489.479	535.19
489.696	529.19
489.914	540.19
490.132	545.19
490.35	548.19
490.568	532.19
490.786	542.19
491.003	548.19
491.221	559.19
491.439	559.19
491.657	572.19
491.874	552.19
492.092	549.19
492.31	558.19
492.527	568.19
492.745	599.19
492.963	573.19
493.18	609.19
493.398	609.19
493.615	598.19
493.833	609.19
494.05	605.19
494.268	595.19
494.485	597.19
494.703	604.19
494.92	629.19
495.138	580.19
495.355	607.19
495.573	599.19
495.79	637.19
496.008	571.19
496.225	582.19
496.442	580.19
496.66	621.19
496.877	606.19
497.094	607.19
497.312	598.19
497.529	627.19
497.746	655.19
497.963	659.19
498.181	673.19
498.398	659.19
498.615	686.19
498.832	711.19
499.049	715.19
499.267	749.19
499.484	748.19
499.701	797.19
499.918	838.19
500.135	874.19
500.352	915.19
500.569	918.19
500.786	925.19
501.003	920.19
501.22	876.19
501.437	833.19
501.654	819.19
501.871	783.19
502.088	773.19
