Data from 1977.PennyLincolnUp.Lamp.En5.5.200Scan.071719.P1_HRD10591_16-05-25-863.txt Node
Date: Thu Jul 18 16:05:25 EDT 2019
User: cochatt
Spectrometer: HR+D1059
Trigger mode: 1
Integration Time (sec): 1.000000E-1
Scans to average: 1
Electric dark correction enabled: true
Nonlinearity correction enabled: false
Boxcar width: 0
XAxis mode: Wavelengths
Number of Pixels in Spectrum: 2048
>>>>>Begin Spectral Data<<<<<
223.165	-11.75
223.4	-11.75
223.635	-11.75
223.869	-14.75
224.104	-13.75
224.338	-26.75
224.573	-16.75
224.808	-26.75
225.042	-22.75
225.277	-3.75
225.511	-3.75
225.746	10.25
225.98	13.25
226.215	6.25
226.449	20.25
226.683	24.25
226.918	32.25
227.152	34.25
227.387	28.25
227.621	26.25
227.856	46.25
228.09	39.25
228.324	50.25
228.559	59.25
228.793	77.25
229.027	80.25
229.262	112.25
229.496	81.25
229.73	104.25
229.964	124.25
230.199	118.25
230.433	109.25
230.667	102.25
230.901	105.25
231.136	102.25
231.37	118.25
231.604	113.25
231.838	114.25
232.072	116.25
232.306	106.25
232.541	104.25
232.775	109.25
233.009	122.25
233.243	123.25
233.477	100.25
233.711	120.25
233.945	97.25
234.179	103.25
234.413	94.25
234.647	121.25
234.881	112.25
235.115	126.25
235.349	119.25
235.583	122.25
235.817	121.25
236.051	112.25
236.285	116.25
236.519	109.25
236.753	118.25
236.987	132.25
237.221	150.25
237.455	181.25
237.689	148.25
237.922	126.25
238.156	132.25
238.39	125.25
238.624	134.25
238.858	107.25
239.091	112.25
239.325	116.25
239.559	119.25
239.793	99.25
240.027	126.25
240.26	131.25
240.494	130.25
240.728	148.25
240.961	146.25
241.195	138.25
241.429	125.25
241.662	125.25
241.896	122.25
242.13	113.25
242.363	128.25
242.597	122.25
242.83	131.25
243.064	126.25
243.298	128.25
243.531	125.25
243.765	140.25
243.998	133.25
244.232	135.25
244.465	119.25
244.699	136.25
244.932	129.25
245.166	148.25
245.399	138.25
245.633	141.25
245.866	144.25
246.099	140.25
246.333	143.25
246.566	120.25
246.8	138.25
247.033	133.25
247.266	145.25
247.5	160.25
247.733	170.25
247.966	157.25
248.2	160.25
248.433	152.25
248.666	146.25
248.899	174.25
249.133	162.25
249.366	179.25
249.599	176.25
249.832	172.25
250.066	177.25
250.299	176.25
250.532	171.25
250.765	182.25
250.998	200.25
251.231	197.25
251.465	194.25
251.698	178.25
251.931	205.25
252.164	185.25
252.397	184.25
252.63	191.25
252.863	180.25
253.096	189.25
253.329	201.25
253.562	214.25
253.795	203.25
254.028	187.25
254.261	198.25
254.494	204.25
254.727	217.25
254.96	234.25
255.193	243.25
255.426	207.25
255.659	204.25
255.892	209.25
256.124	210.25
256.357	199.25
256.59	212.25
256.823	193.25
257.056	188.25
257.289	208.25
257.521	216.25
257.754	200.25
257.987	197.25
258.22	192.25
258.452	197.25
258.685	212.25
258.918	199.25
259.151	214.25
259.383	204.25
259.616	210.25
259.849	208.25
260.081	237.25
260.314	237.25
260.547	243.25
260.779	227.25
261.012	218.25
261.244	216.25
261.477	210.25
261.71	210.25
261.942	219.25
262.175	212.25
262.407	216.25
262.64	207.25
262.872	211.25
263.105	215.25
263.337	212.25
263.57	208.25
263.802	200.25
264.035	204.25
264.267	211.25
264.499	190.25
264.732	197.25
264.964	209.25
265.197	205.25
265.429	203.25
265.661	200.25
265.894	220.25
266.126	210.25
266.358	201.25
266.591	213.25
266.823	223.25
267.055	232.25
267.287	238.25
267.52	214.25
267.752	241.25
267.984	237.25
268.216	218.25
268.448	228.25
268.681	210.25
268.913	215.25
269.145	229.25
269.377	245.25
269.609	258.25
269.841	266.25
270.073	269.25
270.306	281.25
270.538	273.25
270.77	293.25
271.002	267.25
271.234	264.25
271.466	275.25
271.698	296.25
271.93	278.25
272.162	269.25
272.394	299.25
272.626	273.25
272.858	276.25
273.09	265.25
273.322	266.25
273.553	267.25
273.785	265.25
274.017	250.25
274.249	249.25
274.481	256.25
274.713	263.25
274.945	248.25
275.176	259.25
275.408	268.25
275.64	266.25
275.872	281.25
276.104	264.25
276.335	267.25
276.567	277.25
276.799	257.25
277.031	287.25
277.262	303.25
277.494	292.25
277.726	277.25
277.957	275.25
278.189	282.25
278.421	271.25
278.652	287.25
278.884	270.25
279.115	276.25
279.347	288.25
279.579	268.25
279.81	272.25
280.042	266.25
280.273	273.25
280.505	261.25
280.736	273.25
280.968	275.25
281.199	280.25
281.431	266.25
281.662	256.25
281.894	282.25
282.125	281.25
282.356	282.25
282.588	300.25
282.819	291.25
283.051	278.25
283.282	277.25
283.513	265.25
283.745	279.25
283.976	282.25
284.207	288.25
284.439	285.25
284.67	285.25
284.901	285.25
285.132	296.25
285.364	285.25
285.595	287.25
285.826	276.25
286.057	297.25
286.288	294.25
286.52	286.25
286.751	281.25
286.982	274.25
287.213	296.25
287.444	283.25
287.675	292.25
287.906	310.25
288.138	312.25
288.369	299.25
288.6	305.25
288.831	310.25
289.062	318.25
289.293	299.25
289.524	296.25
289.755	295.25
289.986	280.25
290.217	301.25
290.448	292.25
290.679	309.25
290.91	317.25
291.141	312.25
291.371	312.25
291.602	297.25
291.833	296.25
292.064	308.25
292.295	291.25
292.526	294.25
292.757	309.25
292.987	284.25
293.218	271.25
293.449	290.25
293.68	280.25
293.91	296.25
294.141	285.25
294.372	313.25
294.603	314.25
294.833	305.25
295.064	295.25
295.295	296.25
295.525	321.25
295.756	320.25
295.987	314.25
296.217	299.25
296.448	316.25
296.679	325.25
296.909	325.25
297.14	317.25
297.37	339.25
297.601	315.25
297.831	326.25
298.062	341.25
298.292	307.25
298.523	312.25
298.753	323.25
298.984	333.25
299.214	314.25
299.445	328.25
299.675	323.25
299.905	333.25
300.136	318.25
300.366	305.25
300.597	339.25
300.827	347.25
301.057	345.25
301.288	313.25
301.518	341.25
301.748	341.25
301.979	337.25
302.209	339.25
302.439	329.25
302.669	324.25
302.9	342.25
303.13	343.25
303.36	334.25
303.59	342.25
303.82	351.25
304.051	352.25
304.281	349.25
304.511	339.25
304.741	349.25
304.971	333.25
305.201	341.25
305.431	340.25
305.661	332.25
305.891	333.25
306.121	344.25
306.352	349.25
306.582	344.25
306.812	335.25
307.042	349.25
307.272	348.25
307.502	344.25
307.731	342.25
307.961	358.25
308.191	341.25
308.421	345.25
308.651	333.25
308.881	328.25
309.111	344.25
309.341	336.25
309.571	339.25
309.8	350.25
310.03	363.25
310.26	363.25
310.49	343.25
310.72	376.25
310.949	341.25
311.179	380.25
311.409	376.25
311.639	378.25
311.868	365.25
312.098	365.25
312.328	381.25
312.557	387.25
312.787	380.25
313.017	370.25
313.246	385.25
313.476	377.25
313.706	381.25
313.935	377.25
314.165	376.25
314.394	379.25
314.624	389.25
314.853	386.25
315.083	388.25
315.312	375.25
315.542	381.25
315.771	380.25
316.001	395.25
316.23	388.25
316.46	385.25
316.689	389.25
316.919	364.25
317.148	388.25
317.377	380.25
317.607	402.25
317.836	376.25
318.065	396.25
318.295	399.25
318.524	390.25
318.753	374.25
318.983	374.25
319.212	353.25
319.441	380.25
319.67	378.25
319.9	377.25
320.129	366.25
320.358	387.25
320.587	360.25
320.816	392.25
321.046	390.25
321.275	383.25
321.504	390.25
321.733	400.25
321.962	406.25
322.191	402.25
322.42	397.25
322.649	402.25
322.878	440.25
323.108	433.25
323.337	437.25
323.566	458.25
323.795	468.25
324.024	487.25
324.253	548.25
324.482	744.25
324.71	1073.25
324.939	1428.25
325.168	1260.25
325.397	701.25
325.626	537.25
325.855	450.25
326.084	456.25
326.313	433.25
326.542	452.25
326.77	477.25
326.999	549.25
327.228	694.25
327.457	958.25
327.686	1055.25
327.914	753.25
328.143	560.25
328.372	504.25
328.6	495.25
328.829	468.25
329.058	470.25
329.287	490.25
329.515	476.25
329.744	471.25
329.972	443.25
330.201	460.25
330.43	466.25
330.658	512.25
330.887	494.25
331.115	507.25
331.344	475.25
331.572	446.25
331.801	470.25
332.03	455.25
332.258	451.25
332.486	428.25
332.715	448.25
332.943	437.25
333.172	451.25
333.4	469.25
333.629	484.25
333.857	467.25
334.085	473.25
334.314	482.25
334.542	502.25
334.771	516.25
334.999	473.25
335.227	465.25
335.455	459.25
335.684	469.25
335.912	438.25
336.14	442.25
336.369	436.25
336.597	452.25
336.825	442.25
337.053	450.25
337.281	440.25
337.51	427.25
337.738	447.25
337.966	420.25
338.194	416.25
338.422	432.25
338.65	426.25
338.878	424.25
339.106	437.25
339.334	436.25
339.562	416.25
339.79	411.25
340.018	421.25
340.246	449.25
340.474	413.25
340.702	406.25
340.93	412.25
341.158	419.25
341.386	421.25
341.614	414.25
341.842	410.25
342.07	398.25
342.298	423.25
342.526	391.25
342.754	423.25
342.981	400.25
343.209	424.25
343.437	404.25
343.665	431.25
343.893	433.25
344.12	445.25
344.348	448.25
344.576	422.25
344.804	438.25
345.031	440.25
345.259	442.25
345.487	433.25
345.714	411.25
345.942	405.25
346.17	377.25
346.397	402.25
346.625	407.25
346.853	410.25
347.08	422.25
347.308	419.25
347.535	389.25
347.763	420.25
347.99	414.25
348.218	416.25
348.445	428.25
348.673	393.25
348.9	394.25
349.128	406.25
349.355	390.25
349.583	387.25
349.81	413.25
350.037	398.25
350.265	394.25
350.492	379.25
350.72	414.25
350.947	394.25
351.174	398.25
351.402	385.25
351.629	385.25
351.856	404.25
352.083	408.25
352.311	405.25
352.538	408.25
352.765	422.25
352.992	387.25
353.22	393.25
353.447	398.25
353.674	394.25
353.901	404.25
354.128	397.25
354.355	369.25
354.583	381.25
354.81	389.25
355.037	369.25
355.264	368.25
355.491	382.25
355.718	382.25
355.945	382.25
356.172	375.25
356.399	377.25
356.626	378.25
356.853	388.25
357.08	384.25
357.307	363.25
357.534	358.25
357.761	367.25
357.988	378.25
358.215	398.25
358.441	387.25
358.668	382.25
358.895	403.25
359.122	372.25
359.349	403.25
359.576	388.25
359.802	393.25
360.029	400.25
360.256	404.25
360.483	427.25
360.709	392.25
360.936	395.25
361.163	403.25
361.39	390.25
361.616	374.25
361.843	399.25
362.07	374.25
362.296	390.25
362.523	389.25
362.749	378.25
362.976	382.25
363.203	391.25
363.429	390.25
363.656	380.25
363.882	386.25
364.109	365.25
364.335	376.25
364.562	384.25
364.788	374.25
365.015	380.25
365.241	396.25
365.468	385.25
365.694	388.25
365.92	399.25
366.147	371.25
366.373	396.25
366.599	361.25
366.826	364.25
367.052	365.25
367.278	379.25
367.505	365.25
367.731	384.25
367.957	380.25
368.184	371.25
368.41	390.25
368.636	382.25
368.862	380.25
369.089	394.25
369.315	372.25
369.541	375.25
369.767	396.25
369.993	371.25
370.219	402.25
370.445	398.25
370.672	364.25
370.898	374.25
371.124	381.25
371.35	380.25
371.576	376.25
371.802	395.25
372.028	388.25
372.254	398.25
372.48	396.25
372.706	373.25
372.932	393.25
373.158	405.25
373.384	397.25
373.61	377.25
373.835	394.25
374.061	387.25
374.287	385.25
374.513	395.25
374.739	378.25
374.965	392.25
375.191	408.25
375.416	410.25
375.642	395.25
375.868	389.25
376.094	381.25
376.319	386.25
376.545	380.25
376.771	366.25
376.997	366.25
377.222	380.25
377.448	365.25
377.674	371.25
377.899	370.25
378.125	382.25
378.35	377.25
378.576	392.25
378.802	368.25
379.027	383.25
379.253	374.25
379.478	385.25
379.704	391.25
379.929	370.25
380.155	386.25
380.38	358.25
380.606	385.25
380.831	382.25
381.057	380.25
381.282	362.25
381.507	375.25
381.733	380.25
381.958	397.25
382.184	375.25
382.409	395.25
382.634	386.25
382.86	398.25
383.085	402.25
383.31	399.25
383.535	386.25
383.761	405.25
383.986	402.25
384.211	394.25
384.436	392.25
384.662	414.25
384.887	411.25
385.112	405.25
385.337	413.25
385.562	430.25
385.787	413.25
386.013	418.25
386.238	431.25
386.463	436.25
386.688	440.25
386.913	396.25
387.138	396.25
387.363	404.25
387.588	406.25
387.813	420.25
388.038	416.25
388.263	428.25
388.488	421.25
388.713	417.25
388.938	409.25
389.163	423.25
389.387	420.25
389.612	410.25
389.837	407.25
390.062	416.25
390.287	406.25
390.512	418.25
390.736	416.25
390.961	398.25
391.186	428.25
391.411	435.25
391.636	417.25
391.86	438.25
392.085	435.25
392.31	436.25
392.534	436.25
392.759	407.25
392.984	434.25
393.208	412.25
393.433	432.25
393.658	432.25
393.882	422.25
394.107	425.25
394.331	407.25
394.556	413.25
394.78	420.25
395.005	433.25
395.229	420.25
395.454	435.25
395.678	434.25
395.903	435.25
396.127	456.25
396.352	461.25
396.576	440.25
396.801	436.25
397.025	422.25
397.249	451.25
397.474	447.25
397.698	451.25
397.922	469.25
398.147	478.25
398.371	466.25
398.595	461.25
398.82	456.25
399.044	468.25
399.268	501.25
399.492	528.25
399.717	585.25
399.941	577.25
400.165	600.25
400.389	596.25
400.613	552.25
400.837	505.25
401.062	496.25
401.286	484.25
401.51	465.25
401.734	474.25
401.958	480.25
402.182	465.25
402.406	469.25
402.63	491.25
402.854	494.25
403.078	492.25
403.302	494.25
403.526	498.25
403.75	497.25
403.974	491.25
404.198	505.25
404.422	492.25
404.645	507.25
404.869	505.25
405.093	512.25
405.317	543.25
405.541	577.25
405.765	526.25
405.988	524.25
406.212	489.25
406.436	506.25
406.66	508.25
406.883	516.25
407.107	546.25
407.331	589.25
407.555	606.25
407.778	613.25
408.002	585.25
408.226	510.25
408.449	522.25
408.673	523.25
408.896	533.25
409.12	565.25
409.344	576.25
409.567	500.25
409.791	490.25
410.014	496.25
410.238	493.25
410.461	489.25
410.685	479.25
410.908	473.25
411.132	510.25
411.355	540.25
411.578	537.25
411.802	473.25
412.025	484.25
412.249	486.25
412.472	502.25
412.695	542.25
412.919	518.25
413.142	501.25
413.365	465.25
413.589	455.25
413.812	466.25
414.035	474.25
414.258	483.25
414.482	450.25
414.705	456.25
414.928	445.25
415.151	468.25
415.374	461.25
415.597	464.25
415.821	466.25
416.044	461.25
416.267	444.25
416.49	449.25
416.713	445.25
416.936	454.25
417.159	436.25
417.382	458.25
417.605	458.25
417.828	478.25
418.051	473.25
418.274	464.25
418.497	438.25
418.72	440.25
418.943	429.25
419.166	484.25
419.389	477.25
419.611	484.25
419.834	487.25
420.057	482.25
420.28	452.25
420.503	457.25
420.726	475.25
420.948	470.25
421.171	474.25
421.394	540.25
421.617	492.25
421.839	468.25
422.062	455.25
422.285	467.25
422.507	526.25
422.73	576.25
422.953	538.25
423.175	504.25
423.398	479.25
423.621	477.25
423.843	484.25
424.066	483.25
424.288	496.25
424.511	517.25
424.733	551.25
424.956	619.25
425.178	571.25
425.401	593.25
425.623	572.25
425.846	512.25
426.068	473.25
426.291	466.25
426.513	465.25
426.735	476.25
426.958	512.25
427.18	557.25
427.402	682.25
427.625	730.25
427.847	635.25
428.069	541.25
428.292	506.25
428.514	468.25
428.736	446.25
428.958	461.25
429.181	446.25
429.403	421.25
429.625	442.25
429.847	462.25
430.069	529.25
430.292	510.25
430.514	471.25
430.736	447.25
430.958	441.25
431.18	433.25
431.402	435.25
431.624	429.25
431.846	420.25
432.068	430.25
432.29	430.25
432.512	420.25
432.734	438.25
432.956	433.25
433.178	453.25
433.4	443.25
433.622	444.25
433.844	438.25
434.066	434.25
434.287	424.25
434.509	415.25
434.731	442.25
434.953	432.25
435.175	439.25
435.397	502.25
435.618	470.25
435.84	494.25
436.062	603.25
436.284	625.25
436.505	512.25
436.727	490.25
436.949	456.25
437.17	421.25
437.392	440.25
437.614	462.25
437.835	478.25
438.057	536.25
438.278	588.25
438.5	595.25
438.721	692.25
438.943	661.25
439.165	510.25
439.386	481.25
439.608	485.25
439.829	463.25
440.05	487.25
440.272	521.25
440.493	489.25
440.715	459.25
440.936	450.25
441.158	451.25
441.379	452.25
441.6	463.25
441.822	489.25
442.043	511.25
442.264	565.25
442.486	572.25
442.707	520.25
442.928	471.25
443.149	491.25
443.371	512.25
443.592	529.25
443.813	616.25
444.034	637.25
444.255	557.25
444.476	507.25
444.698	489.25
444.919	536.25
445.14	592.25
445.361	550.25
445.582	525.25
445.803	539.25
446.024	589.25
446.245	615.25
446.466	565.25
446.687	492.25
446.908	486.25
447.129	437.25
447.35	433.25
447.571	442.25
447.792	435.25
448.013	440.25
448.234	458.25
448.455	488.25
448.675	563.25
448.896	635.25
449.117	560.25
449.338	545.25
449.559	612.25
449.779	698.25
450	555.25
450.221	469.25
450.442	445.25
450.662	443.25
450.883	410.25
451.104	420.25
451.324	406.25
451.545	397.25
451.766	392.25
451.986	383.25
452.207	382.25
452.428	392.25
452.648	386.25
452.869	391.25
453.089	402.25
453.31	397.25
453.53	393.25
453.751	393.25
453.971	396.25
454.192	389.25
454.412	394.25
454.633	392.25
454.853	382.25
455.073	372.25
455.294	409.25
455.514	441.25
455.734	450.25
455.955	399.25
456.175	387.25
456.395	382.25
456.616	350.25
456.836	372.25
457.056	361.25
457.276	367.25
457.497	388.25
457.717	373.25
457.937	366.25
458.157	384.25
458.377	380.25
458.598	409.25
458.818	427.25
459.038	477.25
459.258	466.25
459.478	458.25
459.698	432.25
459.918	437.25
460.138	440.25
460.358	452.25
460.578	451.25
460.798	453.25
461.018	460.25
461.238	438.25
461.458	448.25
461.678	429.25
461.898	474.25
462.118	451.25
462.338	481.25
462.558	464.25
462.777	480.25
462.997	487.25
463.217	510.25
463.437	497.25
463.657	492.25
463.876	493.25
464.096	470.25
464.316	491.25
464.536	476.25
464.755	488.25
464.975	484.25
465.195	477.25
465.414	478.25
465.634	444.25
465.854	440.25
466.073	421.25
466.293	411.25
466.512	420.25
466.732	404.25
466.951	412.25
467.171	405.25
467.391	385.25
467.61	395.25
467.829	390.25
468.049	386.25
468.268	407.25
468.488	401.25
468.707	392.25
468.927	413.25
469.146	397.25
469.365	396.25
469.585	383.25
469.804	396.25
470.023	405.25
470.243	412.25
470.462	429.25
470.681	411.25
470.901	404.25
471.12	412.25
471.339	418.25
471.558	390.25
471.777	413.25
471.997	392.25
472.216	430.25
472.435	414.25
472.654	427.25
472.873	414.25
473.092	397.25
473.311	404.25
473.53	390.25
473.749	411.25
473.968	429.25
474.187	505.25
474.406	528.25
474.625	442.25
474.844	410.25
475.063	424.25
475.282	403.25
475.501	412.25
475.72	414.25
475.939	440.25
476.158	424.25
476.377	416.25
476.596	425.25
476.814	425.25
477.033	430.25
477.252	411.25
477.471	454.25
477.69	423.25
477.908	450.25
478.127	450.25
478.346	458.25
478.564	472.25
478.783	465.25
479.002	459.25
479.22	472.25
479.439	454.25
479.658	474.25
479.876	478.25
480.095	502.25
480.313	499.25
480.532	489.25
480.751	514.25
480.969	480.25
481.188	522.25
481.406	520.25
481.624	500.25
481.843	492.25
482.061	473.25
482.28	497.25
482.498	468.25
482.717	476.25
482.935	461.25
483.153	482.25
483.372	454.25
483.59	457.25
483.808	476.25
484.027	498.25
484.245	466.25
484.463	475.25
484.681	485.25
484.9	491.25
485.118	483.25
485.336	477.25
485.554	480.25
485.772	474.25
485.99	492.25
486.209	467.25
486.427	500.25
486.645	511.25
486.863	511.25
487.081	481.25
487.299	492.25
487.517	484.25
487.735	486.25
487.953	514.25
488.171	498.25
488.389	510.25
488.607	497.25
488.825	494.25
489.043	518.25
489.261	497.25
489.479	504.25
489.696	506.25
489.914	512.25
490.132	516.25
490.35	510.25
490.568	525.25
490.786	518.25
491.003	518.25
491.221	551.25
491.439	538.25
491.657	549.25
491.874	518.25
492.092	551.25
492.31	567.25
492.527	566.25
492.745	522.25
492.963	555.25
493.18	566.25
493.398	576.25
493.615	555.25
493.833	572.25
494.05	536.25
494.268	567.25
494.485	585.25
494.703	569.25
494.92	583.25
495.138	588.25
495.355	586.25
495.573	574.25
495.79	551.25
496.008	578.25
496.225	574.25
496.442	570.25
496.66	590.25
496.877	590.25
497.094	587.25
497.312	612.25
497.529	610.25
497.746	608.25
497.963	620.25
498.181	640.25
498.398	662.25
498.615	674.25
498.832	698.25
499.049	708.25
499.267	728.25
499.484	742.25
499.701	801.25
499.918	820.25
500.135	892.25
500.352	907.25
500.569	931.25
500.786	949.25
501.003	910.25
501.22	896.25
501.437	845.25
501.654	805.25
501.871	788.25
502.088	731.25
