Data from 1977.PennyLincolnUp.Lamp.En5.5.200Scan.071719.P1_HRD10591_16-06-03-870.txt Node
Date: Thu Jul 18 16:06:03 EDT 2019
User: cochatt
Spectrometer: HR+D1059
Trigger mode: 1
Integration Time (sec): 1.000000E-1
Scans to average: 1
Electric dark correction enabled: true
Nonlinearity correction enabled: false
Boxcar width: 0
XAxis mode: Wavelengths
Number of Pixels in Spectrum: 2048
>>>>>Begin Spectral Data<<<<<
223.165	-20.5
223.4	-20.5
223.635	-20.5
223.869	-24.5
224.104	-19.5
224.338	-22.5
224.573	1.5
224.808	-1.5
225.042	-18.5
225.277	-11.5
225.511	-3.5
225.746	14.5
225.98	-10.5
226.215	10.5
226.449	22.5
226.683	20.5
226.918	24.5
227.152	38.5
227.387	35.5
227.621	43.5
227.856	38.5
228.09	51.5
228.324	38.5
228.559	40.5
228.793	66.5
229.027	88.5
229.262	93.5
229.496	108.5
229.73	117.5
229.964	137.5
230.199	130.5
230.433	116.5
230.667	116.5
230.901	95.5
231.136	93.5
231.37	113.5
231.604	116.5
231.838	118.5
232.072	101.5
232.306	118.5
232.541	124.5
232.775	125.5
233.009	118.5
233.243	103.5
233.477	121.5
233.711	114.5
233.945	107.5
234.179	115.5
234.413	123.5
234.647	113.5
234.881	101.5
235.115	128.5
235.349	125.5
235.583	124.5
235.817	122.5
236.051	127.5
236.285	119.5
236.519	139.5
236.753	121.5
236.987	124.5
237.221	170.5
237.455	190.5
237.689	179.5
237.922	128.5
238.156	142.5
238.39	116.5
238.624	131.5
238.858	130.5
239.091	118.5
239.325	108.5
239.559	126.5
239.793	129.5
240.027	128.5
240.26	128.5
240.494	136.5
240.728	139.5
240.961	138.5
241.195	127.5
241.429	143.5
241.662	131.5
241.896	129.5
242.13	118.5
242.363	135.5
242.597	137.5
242.83	145.5
243.064	131.5
243.298	139.5
243.531	131.5
243.765	133.5
243.998	148.5
244.232	150.5
244.465	137.5
244.699	148.5
244.932	145.5
245.166	136.5
245.399	135.5
245.633	147.5
245.866	139.5
246.099	137.5
246.333	149.5
246.566	143.5
246.8	158.5
247.033	163.5
247.266	144.5
247.5	162.5
247.733	147.5
247.966	159.5
248.2	174.5
248.433	150.5
248.666	171.5
248.899	188.5
249.133	178.5
249.366	198.5
249.599	182.5
249.832	175.5
250.066	177.5
250.299	186.5
250.532	194.5
250.765	213.5
250.998	207.5
251.231	211.5
251.465	192.5
251.698	198.5
251.931	190.5
252.164	194.5
252.397	187.5
252.63	190.5
252.863	211.5
253.096	196.5
253.329	200.5
253.562	222.5
253.795	212.5
254.028	193.5
254.261	209.5
254.494	224.5
254.727	232.5
254.96	266.5
255.193	272.5
255.426	221.5
255.659	226.5
255.892	212.5
256.124	212.5
256.357	238.5
256.59	205.5
256.823	191.5
257.056	187.5
257.289	198.5
257.521	207.5
257.754	204.5
257.987	209.5
258.22	207.5
258.452	206.5
258.685	207.5
258.918	205.5
259.151	218.5
259.383	224.5
259.616	218.5
259.849	239.5
260.081	215.5
260.314	238.5
260.547	224.5
260.779	232.5
261.012	217.5
261.244	218.5
261.477	214.5
261.71	215.5
261.942	199.5
262.175	213.5
262.407	206.5
262.64	223.5
262.872	222.5
263.105	212.5
263.337	214.5
263.57	219.5
263.802	212.5
264.035	213.5
264.267	226.5
264.499	199.5
264.732	210.5
264.964	221.5
265.197	220.5
265.429	224.5
265.661	213.5
265.894	224.5
266.126	201.5
266.358	229.5
266.591	226.5
266.823	222.5
267.055	230.5
267.287	222.5
267.52	241.5
267.752	215.5
267.984	249.5
268.216	252.5
268.448	259.5
268.681	253.5
268.913	243.5
269.145	247.5
269.377	282.5
269.609	260.5
269.841	261.5
270.073	265.5
270.306	285.5
270.538	299.5
270.77	296.5
271.002	280.5
271.234	285.5
271.466	317.5
271.698	292.5
271.93	311.5
272.162	304.5
272.394	287.5
272.626	275.5
272.858	291.5
273.09	266.5
273.322	264.5
273.553	269.5
273.785	262.5
274.017	250.5
274.249	246.5
274.481	265.5
274.713	254.5
274.945	264.5
275.176	276.5
275.408	242.5
275.64	271.5
275.872	266.5
276.104	259.5
276.335	261.5
276.567	251.5
276.799	280.5
277.031	299.5
277.262	295.5
277.494	306.5
277.726	296.5
277.957	281.5
278.189	284.5
278.421	267.5
278.652	294.5
278.884	270.5
279.115	273.5
279.347	281.5
279.579	268.5
279.81	274.5
280.042	271.5
280.273	275.5
280.505	263.5
280.736	271.5
280.968	272.5
281.199	272.5
281.431	268.5
281.662	280.5
281.894	291.5
282.125	290.5
282.356	312.5
282.588	298.5
282.819	307.5
283.051	270.5
283.282	269.5
283.513	285.5
283.745	282.5
283.976	295.5
284.207	288.5
284.439	287.5
284.67	280.5
284.901	295.5
285.132	283.5
285.364	294.5
285.595	293.5
285.826	284.5
286.057	302.5
286.288	295.5
286.52	299.5
286.751	295.5
286.982	320.5
287.213	306.5
287.444	283.5
287.675	303.5
287.906	306.5
288.138	320.5
288.369	296.5
288.6	303.5
288.831	292.5
289.062	310.5
289.293	299.5
289.524	286.5
289.755	288.5
289.986	278.5
290.217	306.5
290.448	299.5
290.679	303.5
290.91	325.5
291.141	312.5
291.371	299.5
291.602	308.5
291.833	307.5
292.064	316.5
292.295	299.5
292.526	310.5
292.757	326.5
292.987	315.5
293.218	298.5
293.449	299.5
293.68	314.5
293.91	297.5
294.141	296.5
294.372	310.5
294.603	311.5
294.833	307.5
295.064	333.5
295.295	307.5
295.525	309.5
295.756	304.5
295.987	322.5
296.217	332.5
296.448	330.5
296.679	307.5
296.909	324.5
297.14	320.5
297.37	319.5
297.601	313.5
297.831	292.5
298.062	313.5
298.292	323.5
298.523	326.5
298.753	328.5
298.984	326.5
299.214	311.5
299.445	326.5
299.675	341.5
299.905	317.5
300.136	302.5
300.366	330.5
300.597	331.5
300.827	342.5
301.057	336.5
301.288	341.5
301.518	332.5
301.748	314.5
301.979	340.5
302.209	329.5
302.439	327.5
302.669	337.5
302.9	342.5
303.13	355.5
303.36	340.5
303.59	338.5
303.82	345.5
304.051	353.5
304.281	342.5
304.511	348.5
304.741	349.5
304.971	340.5
305.201	355.5
305.431	350.5
305.661	347.5
305.891	332.5
306.121	336.5
306.352	351.5
306.582	344.5
306.812	358.5
307.042	322.5
307.272	345.5
307.502	351.5
307.731	345.5
307.961	347.5
308.191	352.5
308.421	336.5
308.651	349.5
308.881	360.5
309.111	344.5
309.341	360.5
309.571	361.5
309.8	365.5
310.03	367.5
310.26	350.5
310.49	375.5
310.72	381.5
310.949	374.5
311.179	370.5
311.409	379.5
311.639	380.5
311.868	377.5
312.098	379.5
312.328	393.5
312.557	378.5
312.787	398.5
313.017	364.5
313.246	378.5
313.476	383.5
313.706	358.5
313.935	388.5
314.165	386.5
314.394	399.5
314.624	393.5
314.853	384.5
315.083	390.5
315.312	378.5
315.542	390.5
315.771	391.5
316.001	363.5
316.23	366.5
316.46	385.5
316.689	391.5
316.919	403.5
317.148	380.5
317.377	403.5
317.607	395.5
317.836	377.5
318.065	386.5
318.295	365.5
318.524	378.5
318.753	373.5
318.983	389.5
319.212	396.5
319.441	394.5
319.67	403.5
319.9	385.5
320.129	357.5
320.358	390.5
320.587	378.5
320.816	396.5
321.046	392.5
321.275	380.5
321.504	394.5
321.733	388.5
321.962	419.5
322.191	417.5
322.42	419.5
322.649	431.5
322.878	438.5
323.108	437.5
323.337	442.5
323.566	467.5
323.795	470.5
324.024	503.5
324.253	595.5
324.482	784.5
324.71	1143.5
324.939	1586.5
325.168	1364.5
325.397	748.5
325.626	563.5
325.855	496.5
326.084	476.5
326.313	472.5
326.542	457.5
326.77	498.5
326.999	569.5
327.228	748.5
327.457	1035.5
327.686	1199.5
327.914	834.5
328.143	586.5
328.372	525.5
328.6	509.5
328.829	505.5
329.058	514.5
329.287	503.5
329.515	489.5
329.744	469.5
329.972	459.5
330.201	483.5
330.43	495.5
330.658	520.5
330.887	542.5
331.115	505.5
331.344	485.5
331.572	465.5
331.801	457.5
332.03	467.5
332.258	460.5
332.486	455.5
332.715	448.5
332.943	443.5
333.172	452.5
333.4	470.5
333.629	475.5
333.857	471.5
334.085	508.5
334.314	486.5
334.542	502.5
334.771	512.5
334.999	494.5
335.227	459.5
335.455	476.5
335.684	454.5
335.912	454.5
336.14	448.5
336.369	448.5
336.597	462.5
336.825	459.5
337.053	447.5
337.281	437.5
337.51	467.5
337.738	439.5
337.966	420.5
338.194	425.5
338.422	433.5
338.65	427.5
338.878	429.5
339.106	437.5
339.334	430.5
339.562	406.5
339.79	439.5
340.018	436.5
340.246	422.5
340.474	438.5
340.702	417.5
340.93	414.5
341.158	419.5
341.386	434.5
341.614	444.5
341.842	429.5
342.07	410.5
342.298	412.5
342.526	406.5
342.754	401.5
342.981	400.5
343.209	430.5
343.437	427.5
343.665	423.5
343.893	426.5
344.12	451.5
344.348	438.5
344.576	463.5
344.804	440.5
345.031	444.5
345.259	434.5
345.487	418.5
345.714	446.5
345.942	407.5
346.17	415.5
346.397	413.5
346.625	405.5
346.853	404.5
347.08	416.5
347.308	411.5
347.535	408.5
347.763	412.5
347.99	414.5
348.218	425.5
348.445	400.5
348.673	402.5
348.9	396.5
349.128	390.5
349.355	408.5
349.583	356.5
349.81	396.5
350.037	418.5
350.265	383.5
350.492	386.5
350.72	404.5
350.947	399.5
351.174	419.5
351.402	409.5
351.629	410.5
351.856	399.5
352.083	405.5
352.311	388.5
352.538	441.5
352.765	393.5
352.992	384.5
353.22	403.5
353.447	384.5
353.674	388.5
353.901	380.5
354.128	378.5
354.355	393.5
354.583	396.5
354.81	394.5
355.037	372.5
355.264	372.5
355.491	364.5
355.718	392.5
355.945	386.5
356.172	375.5
356.399	360.5
356.626	365.5
356.853	379.5
357.08	386.5
357.307	366.5
357.534	365.5
357.761	378.5
357.988	399.5
358.215	387.5
358.441	388.5
358.668	391.5
358.895	379.5
359.122	401.5
359.349	396.5
359.576	396.5
359.802	415.5
360.029	442.5
360.256	422.5
360.483	406.5
360.709	401.5
360.936	410.5
361.163	380.5
361.39	387.5
361.616	411.5
361.843	404.5
362.07	371.5
362.296	391.5
362.523	389.5
362.749	394.5
362.976	380.5
363.203	383.5
363.429	377.5
363.656	396.5
363.882	376.5
364.109	375.5
364.335	386.5
364.562	387.5
364.788	396.5
365.015	389.5
365.241	380.5
365.468	379.5
365.694	382.5
365.92	358.5
366.147	376.5
366.373	370.5
366.599	384.5
366.826	389.5
367.052	384.5
367.278	373.5
367.505	375.5
367.731	391.5
367.957	375.5
368.184	356.5
368.41	380.5
368.636	383.5
368.862	389.5
369.089	376.5
369.315	363.5
369.541	367.5
369.767	378.5
369.993	384.5
370.219	387.5
370.445	382.5
370.672	373.5
370.898	377.5
371.124	394.5
371.35	386.5
371.576	381.5
371.802	404.5
372.028	386.5
372.254	366.5
372.48	377.5
372.706	392.5
372.932	379.5
373.158	372.5
373.384	383.5
373.61	378.5
373.835	378.5
374.061	368.5
374.287	386.5
374.513	382.5
374.739	398.5
374.965	385.5
375.191	379.5
375.416	395.5
375.642	389.5
375.868	401.5
376.094	363.5
376.319	392.5
376.545	388.5
376.771	356.5
376.997	378.5
377.222	406.5
377.448	361.5
377.674	378.5
377.899	381.5
378.125	364.5
378.35	374.5
378.576	376.5
378.802	369.5
379.027	354.5
379.253	371.5
379.478	357.5
379.704	372.5
379.929	400.5
380.155	350.5
380.38	379.5
380.606	387.5
380.831	377.5
381.057	386.5
381.282	362.5
381.507	375.5
381.733	397.5
381.958	391.5
382.184	375.5
382.409	383.5
382.634	402.5
382.86	385.5
383.085	393.5
383.31	384.5
383.535	397.5
383.761	392.5
383.986	394.5
384.211	402.5
384.436	408.5
384.662	414.5
384.887	404.5
385.112	398.5
385.337	400.5
385.562	390.5
385.787	415.5
386.013	438.5
386.238	422.5
386.463	412.5
386.688	405.5
386.913	420.5
387.138	404.5
387.363	413.5
387.588	404.5
387.813	422.5
388.038	419.5
388.263	419.5
388.488	416.5
388.713	410.5
388.938	404.5
389.163	423.5
389.387	424.5
389.612	420.5
389.837	411.5
390.062	414.5
390.287	406.5
390.512	387.5
390.736	394.5
390.961	425.5
391.186	420.5
391.411	406.5
391.636	423.5
391.86	425.5
392.085	435.5
392.31	432.5
392.534	422.5
392.759	428.5
392.984	414.5
393.208	410.5
393.433	409.5
393.658	428.5
393.882	422.5
394.107	423.5
394.331	414.5
394.556	401.5
394.78	414.5
395.005	413.5
395.229	418.5
395.454	414.5
395.678	458.5
395.903	445.5
396.127	427.5
396.352	449.5
396.576	440.5
396.801	428.5
397.025	438.5
397.249	440.5
397.474	453.5
397.698	427.5
397.922	458.5
398.147	446.5
398.371	461.5
398.595	485.5
398.82	462.5
399.044	478.5
399.268	522.5
399.492	509.5
399.717	559.5
399.941	592.5
400.165	611.5
400.389	578.5
400.613	556.5
400.837	510.5
401.062	513.5
401.286	459.5
401.51	450.5
401.734	472.5
401.958	491.5
402.182	476.5
402.406	477.5
402.63	478.5
402.854	476.5
403.078	467.5
403.302	504.5
403.526	514.5
403.75	515.5
403.974	496.5
404.198	508.5
404.422	498.5
404.645	479.5
404.869	510.5
405.093	516.5
405.317	541.5
405.541	580.5
405.765	516.5
405.988	497.5
406.212	516.5
406.436	504.5
406.66	529.5
406.883	543.5
407.107	548.5
407.331	570.5
407.555	638.5
407.778	630.5
408.002	577.5
408.226	546.5
408.449	536.5
408.673	542.5
408.896	551.5
409.12	565.5
409.344	540.5
409.567	515.5
409.791	493.5
410.014	493.5
410.238	477.5
410.461	480.5
410.685	491.5
410.908	524.5
411.132	526.5
411.355	559.5
411.578	535.5
411.802	493.5
412.025	504.5
412.249	486.5
412.472	490.5
412.695	536.5
412.919	491.5
413.142	473.5
413.365	479.5
413.589	482.5
413.812	463.5
414.035	450.5
414.258	460.5
414.482	450.5
414.705	450.5
414.928	462.5
415.151	458.5
415.374	447.5
415.597	468.5
415.821	450.5
416.044	479.5
416.267	462.5
416.49	470.5
416.713	455.5
416.936	472.5
417.159	440.5
417.382	440.5
417.605	476.5
417.828	459.5
418.051	483.5
418.274	478.5
418.497	438.5
418.72	454.5
418.943	468.5
419.166	486.5
419.389	483.5
419.611	485.5
419.834	482.5
420.057	472.5
420.28	472.5
420.503	436.5
420.726	476.5
420.948	469.5
421.171	517.5
421.394	528.5
421.617	474.5
421.839	450.5
422.062	482.5
422.285	487.5
422.507	541.5
422.73	567.5
422.953	572.5
423.175	489.5
423.398	490.5
423.621	482.5
423.843	507.5
424.066	488.5
424.288	491.5
424.511	518.5
424.733	548.5
424.956	626.5
425.178	588.5
425.401	572.5
425.623	612.5
425.846	516.5
426.068	508.5
426.291	499.5
426.513	487.5
426.735	487.5
426.958	522.5
427.18	603.5
427.402	694.5
427.625	722.5
427.847	636.5
428.069	573.5
428.292	514.5
428.514	489.5
428.736	469.5
428.958	462.5
429.181	454.5
429.403	464.5
429.625	463.5
429.847	482.5
430.069	522.5
430.292	534.5
430.514	450.5
430.736	429.5
430.958	444.5
431.18	426.5
431.402	447.5
431.624	427.5
431.846	442.5
432.068	423.5
432.29	428.5
432.512	431.5
432.734	445.5
432.956	441.5
433.178	449.5
433.4	439.5
433.622	450.5
433.844	418.5
434.066	428.5
434.287	430.5
434.509	439.5
434.731	454.5
434.953	474.5
435.175	479.5
435.397	483.5
435.618	494.5
435.84	517.5
436.062	584.5
436.284	617.5
436.505	528.5
436.727	469.5
436.949	466.5
437.17	445.5
437.392	456.5
437.614	468.5
437.835	485.5
438.057	537.5
438.278	633.5
438.5	611.5
438.721	672.5
438.943	644.5
439.165	543.5
439.386	513.5
439.608	471.5
439.829	475.5
440.05	504.5
440.272	536.5
440.493	513.5
440.715	475.5
440.936	432.5
441.158	443.5
441.379	455.5
441.6	468.5
441.822	472.5
442.043	493.5
442.264	556.5
442.486	599.5
442.707	518.5
442.928	496.5
443.149	503.5
443.371	516.5
443.592	556.5
443.813	591.5
444.034	655.5
444.255	557.5
444.476	507.5
444.698	500.5
444.919	501.5
445.14	589.5
445.361	524.5
445.582	510.5
445.803	544.5
446.024	643.5
446.245	639.5
446.466	606.5
446.687	496.5
446.908	473.5
447.129	452.5
447.35	435.5
447.571	436.5
447.792	422.5
448.013	432.5
448.234	453.5
448.455	501.5
448.675	592.5
448.896	651.5
449.117	582.5
449.338	510.5
449.559	641.5
449.779	706.5
450	560.5
450.221	478.5
450.442	421.5
450.662	428.5
450.883	425.5
451.104	441.5
451.324	426.5
451.545	419.5
451.766	400.5
451.986	400.5
452.207	390.5
452.428	391.5
452.648	403.5
452.869	398.5
453.089	422.5
453.31	420.5
453.53	415.5
453.751	382.5
453.971	414.5
454.192	402.5
454.412	387.5
454.633	394.5
454.853	397.5
455.073	384.5
455.294	400.5
455.514	443.5
455.734	437.5
455.955	406.5
456.175	390.5
456.395	356.5
456.616	375.5
456.836	379.5
457.056	372.5
457.276	383.5
457.497	389.5
457.717	384.5
457.937	380.5
458.157	386.5
458.377	393.5
458.598	425.5
458.818	446.5
459.038	508.5
459.258	523.5
459.478	457.5
459.698	437.5
459.918	447.5
460.138	445.5
460.358	434.5
460.578	457.5
460.798	431.5
461.018	450.5
461.238	450.5
461.458	436.5
461.678	450.5
461.898	445.5
462.118	446.5
462.338	455.5
462.558	484.5
462.777	469.5
462.997	482.5
463.217	507.5
463.437	498.5
463.657	490.5
463.876	468.5
464.096	470.5
464.316	487.5
464.536	493.5
464.755	448.5
464.975	467.5
465.195	488.5
465.414	509.5
465.634	448.5
465.854	458.5
466.073	444.5
466.293	418.5
466.512	423.5
466.732	390.5
466.951	407.5
467.171	415.5
467.391	408.5
467.61	404.5
467.829	406.5
468.049	412.5
468.268	407.5
468.488	399.5
468.707	408.5
468.927	392.5
469.146	393.5
469.365	394.5
469.585	403.5
469.804	406.5
470.023	403.5
470.243	416.5
470.462	451.5
470.681	412.5
470.901	423.5
471.12	420.5
471.339	412.5
471.558	402.5
471.777	420.5
471.997	398.5
472.216	423.5
472.435	414.5
472.654	422.5
472.873	398.5
473.092	409.5
473.311	412.5
473.53	378.5
473.749	424.5
473.968	437.5
474.187	532.5
474.406	527.5
474.625	447.5
474.844	428.5
475.063	425.5
475.282	411.5
475.501	408.5
475.72	419.5
475.939	411.5
476.158	402.5
476.377	419.5
476.596	423.5
476.814	441.5
477.033	407.5
477.252	434.5
477.471	427.5
477.69	445.5
477.908	444.5
478.127	453.5
478.346	460.5
478.564	468.5
478.783	455.5
479.002	482.5
479.22	480.5
479.439	481.5
479.658	506.5
479.876	498.5
480.095	502.5
480.313	515.5
480.532	520.5
480.751	521.5
480.969	512.5
481.188	550.5
481.406	530.5
481.624	503.5
481.843	493.5
482.061	489.5
482.28	483.5
482.498	486.5
482.717	464.5
482.935	477.5
483.153	462.5
483.372	480.5
483.59	478.5
483.808	470.5
484.027	477.5
484.245	467.5
484.463	462.5
484.681	480.5
484.9	470.5
485.118	465.5
485.336	474.5
485.554	488.5
485.772	474.5
485.99	502.5
486.209	468.5
486.427	468.5
486.645	494.5
486.863	510.5
487.081	502.5
487.299	497.5
487.517	505.5
487.735	501.5
487.953	503.5
488.171	506.5
488.389	514.5
488.607	502.5
488.825	494.5
489.043	515.5
489.261	522.5
489.479	499.5
489.696	503.5
489.914	525.5
490.132	514.5
490.35	518.5
490.568	527.5
490.786	526.5
491.003	518.5
491.221	554.5
491.439	549.5
491.657	540.5
491.874	554.5
492.092	534.5
492.31	565.5
492.527	543.5
492.745	572.5
492.963	580.5
493.18	573.5
493.398	556.5
493.615	561.5
493.833	571.5
494.05	565.5
494.268	554.5
494.485	595.5
494.703	568.5
494.92	610.5
495.138	589.5
495.355	580.5
495.573	599.5
495.79	569.5
496.008	589.5
496.225	576.5
496.442	583.5
496.66	588.5
496.877	583.5
497.094	598.5
497.312	577.5
497.529	615.5
497.746	635.5
497.963	624.5
498.181	660.5
498.398	653.5
498.615	639.5
498.832	677.5
499.049	687.5
499.267	729.5
499.484	745.5
499.701	775.5
499.918	822.5
500.135	865.5
500.352	938.5
500.569	893.5
500.786	910.5
501.003	911.5
501.22	869.5
501.437	832.5
501.654	802.5
501.871	774.5
502.088	752.5
502.305	703.5
502.522	686.5
502.739	688.5
502.956	644.5
503.172	644.5
503.389	639.5
503.606	638.5
503.823	602.5
504.04	613.5
504.256	612.5
504.473	595.5
504.69	593.5
504.907	597.5
505.123	600.5
505.34	580.5
505.557	590.5
505.773	589.5
505.99	581.5
506.207	542.5
506.423	548.5
506.64	554.5
506.856	566.5
507.073	539.5
507.289	529.5
507.506	549.5
507.722	540.5
507.939	535.5
508.155	520.5
508.372	542.5
508.588	518.5
508.805	536.5
509.021	515.5
509.238	542.5
509.454	532.5
509.67	520.5
509.887	524.5
510.103	532.5
510.319	525.5
510.536	568.5
510.752	826.5
510.968	680.5
511.184	508.5
511.401	515.5
511.617	520.5
511.833	491.5
512.049	485.5
512.265	480.5
512.481	511.5
512.698	490.5
512.914	491.5
513.13	468.5
513.346	496.5
513.562	500.5
513.778	494.5
513.994	470.5
514.21	513.5
514.426	511.5
514.642	525.5
514.858	549.5
515.074	573.5
515.29	649.5
515.506	842.5
515.721	696.5
515.937	562.5
516.153	541.5
516.369	542.5
516.585	534.5
516.801	525.5
517.016	526.5
517.232	524.5
517.448	548.5
517.664	530.5
517.879	518.5
518.095	534.5
518.311	531.5
518.527	541.5
518.742	517.5
518.958	522.5
519.173	500.5
519.389	518.5
519.605	488.5
519.82	520.5
