Data from 1977.PennyLincolnUp.Lamp.En5.5.200Scan.071719.P1_HRD10591_16-06-02-864.txt Node
Date: Thu Jul 18 16:06:02 EDT 2019
User: cochatt
Spectrometer: HR+D1059
Trigger mode: 1
Integration Time (sec): 1.000000E-1
Scans to average: 1
Electric dark correction enabled: true
Nonlinearity correction enabled: false
Boxcar width: 0
XAxis mode: Wavelengths
Number of Pixels in Spectrum: 2048
>>>>>Begin Spectral Data<<<<<
223.165	-12.25
223.4	-12.25
223.635	-12.25
223.869	-25.25
224.104	-17.25
224.338	-14.25
224.573	-18.25
224.808	-1.25
225.042	-8.25
225.277	-2.25
225.511	-7.25
225.746	3.75
225.98	2.75
226.215	16.75
226.449	9.75
226.683	20.75
226.918	29.75
227.152	22.75
227.387	37.75
227.621	37.75
227.856	43.75
228.09	41.75
228.324	49.75
228.559	68.75
228.793	61.75
229.027	83.75
229.262	79.75
229.496	94.75
229.73	116.75
229.964	138.75
230.199	114.75
230.433	102.75
230.667	86.75
230.901	107.75
231.136	88.75
231.37	98.75
231.604	122.75
231.838	103.75
232.072	116.75
232.306	122.75
232.541	126.75
232.775	116.75
233.009	123.75
233.243	106.75
233.477	106.75
233.711	118.75
233.945	94.75
234.179	117.75
234.413	120.75
234.647	121.75
234.881	114.75
235.115	108.75
235.349	122.75
235.583	107.75
235.817	114.75
236.051	117.75
236.285	112.75
236.519	128.75
236.753	124.75
236.987	137.75
237.221	164.75
237.455	177.75
237.689	173.75
237.922	134.75
238.156	123.75
238.39	124.75
238.624	120.75
238.858	120.75
239.091	125.75
239.325	124.75
239.559	119.75
239.793	142.75
240.027	120.75
240.26	134.75
240.494	133.75
240.728	137.75
240.961	140.75
241.195	150.75
241.429	126.75
241.662	122.75
241.896	127.75
242.13	129.75
242.363	129.75
242.597	140.75
242.83	134.75
243.064	149.75
243.298	136.75
243.531	148.75
243.765	142.75
243.998	133.75
244.232	145.75
244.465	141.75
244.699	155.75
244.932	146.75
245.166	138.75
245.399	137.75
245.633	142.75
245.866	142.75
246.099	138.75
246.333	147.75
246.566	149.75
246.8	143.75
247.033	152.75
247.266	152.75
247.5	151.75
247.733	157.75
247.966	153.75
248.2	153.75
248.433	163.75
248.666	169.75
248.899	169.75
249.133	180.75
249.366	180.75
249.599	183.75
249.832	174.75
250.066	166.75
250.299	182.75
250.532	199.75
250.765	199.75
250.998	207.75
251.231	202.75
251.465	201.75
251.698	192.75
251.931	189.75
252.164	196.75
252.397	195.75
252.63	186.75
252.863	202.75
253.096	206.75
253.329	209.75
253.562	229.75
253.795	190.75
254.028	206.75
254.261	207.75
254.494	222.75
254.727	236.75
254.96	259.75
255.193	260.75
255.426	242.75
255.659	213.75
255.892	219.75
256.124	198.75
256.357	223.75
256.59	224.75
256.823	204.75
257.056	180.75
257.289	207.75
257.521	206.75
257.754	201.75
257.987	203.75
258.22	213.75
258.452	221.75
258.685	213.75
258.918	201.75
259.151	219.75
259.383	229.75
259.616	240.75
259.849	240.75
260.081	224.75
260.314	219.75
260.547	248.75
260.779	251.75
261.012	217.75
261.244	223.75
261.477	231.75
261.71	206.75
261.942	220.75
262.175	217.75
262.407	219.75
262.64	217.75
262.872	211.75
263.105	210.75
263.337	200.75
263.57	223.75
263.802	222.75
264.035	202.75
264.267	229.75
264.499	221.75
264.732	227.75
264.964	211.75
265.197	210.75
265.429	226.75
265.661	220.75
265.894	226.75
266.126	221.75
266.358	227.75
266.591	223.75
266.823	231.75
267.055	235.75
267.287	236.75
267.52	224.75
267.752	221.75
267.984	230.75
268.216	227.75
268.448	236.75
268.681	242.75
268.913	242.75
269.145	266.75
269.377	278.75
269.609	266.75
269.841	238.75
270.073	271.75
270.306	280.75
270.538	305.75
270.77	305.75
271.002	295.75
271.234	291.75
271.466	304.75
271.698	286.75
271.93	312.75
272.162	316.75
272.394	294.75
272.626	297.75
272.858	277.75
273.09	296.75
273.322	296.75
273.553	276.75
273.785	269.75
274.017	262.75
274.249	282.75
274.481	292.75
274.713	264.75
274.945	275.75
275.176	275.75
275.408	270.75
275.64	272.75
275.872	254.75
276.104	275.75
276.335	269.75
276.567	271.75
276.799	283.75
277.031	294.75
277.262	310.75
277.494	331.75
277.726	307.75
277.957	302.75
278.189	291.75
278.421	282.75
278.652	280.75
278.884	282.75
279.115	282.75
279.347	275.75
279.579	292.75
279.81	290.75
280.042	273.75
280.273	289.75
280.505	289.75
280.736	280.75
280.968	279.75
281.199	273.75
281.431	273.75
281.662	275.75
281.894	279.75
282.125	286.75
282.356	295.75
282.588	316.75
282.819	304.75
283.051	293.75
283.282	285.75
283.513	299.75
283.745	297.75
283.976	285.75
284.207	294.75
284.439	307.75
284.67	293.75
284.901	289.75
285.132	296.75
285.364	308.75
285.595	294.75
285.826	289.75
286.057	297.75
286.288	310.75
286.52	308.75
286.751	311.75
286.982	301.75
287.213	296.75
287.444	308.75
287.675	306.75
287.906	305.75
288.138	326.75
288.369	314.75
288.6	335.75
288.831	312.75
289.062	297.75
289.293	316.75
289.524	313.75
289.755	308.75
289.986	318.75
290.217	279.75
290.448	308.75
290.679	301.75
290.91	312.75
291.141	288.75
291.371	298.75
291.602	305.75
291.833	300.75
292.064	303.75
292.295	313.75
292.526	320.75
292.757	318.75
292.987	314.75
293.218	317.75
293.449	318.75
293.68	321.75
293.91	317.75
294.141	318.75
294.372	321.75
294.603	310.75
294.833	329.75
295.064	335.75
295.295	321.75
295.525	302.75
295.756	302.75
295.987	317.75
296.217	320.75
296.448	324.75
296.679	315.75
296.909	321.75
297.14	318.75
297.37	309.75
297.601	315.75
297.831	324.75
298.062	329.75
298.292	325.75
298.523	336.75
298.753	326.75
298.984	346.75
299.214	336.75
299.445	314.75
299.675	331.75
299.905	344.75
300.136	346.75
300.366	323.75
300.597	335.75
300.827	360.75
301.057	338.75
301.288	349.75
301.518	331.75
301.748	326.75
301.979	359.75
302.209	359.75
302.439	354.75
302.669	341.75
302.9	339.75
303.13	359.75
303.36	352.75
303.59	364.75
303.82	355.75
304.051	348.75
304.281	359.75
304.511	349.75
304.741	359.75
304.971	359.75
305.201	354.75
305.431	348.75
305.661	356.75
305.891	352.75
306.121	355.75
306.352	360.75
306.582	351.75
306.812	368.75
307.042	354.75
307.272	342.75
307.502	362.75
307.731	345.75
307.961	356.75
308.191	359.75
308.421	365.75
308.651	356.75
308.881	379.75
309.111	365.75
309.341	355.75
309.571	360.75
309.8	374.75
310.03	384.75
310.26	371.75
310.49	377.75
310.72	380.75
310.949	396.75
311.179	395.75
311.409	392.75
311.639	388.75
311.868	384.75
312.098	384.75
312.328	409.75
312.557	404.75
312.787	408.75
313.017	399.75
313.246	396.75
313.476	388.75
313.706	392.75
313.935	402.75
314.165	403.75
314.394	404.75
314.624	402.75
314.853	404.75
315.083	392.75
315.312	393.75
315.542	386.75
315.771	387.75
316.001	381.75
316.23	393.75
316.46	377.75
316.689	379.75
316.919	376.75
317.148	378.75
317.377	405.75
317.607	405.75
317.836	392.75
318.065	388.75
318.295	388.75
318.524	394.75
318.753	390.75
318.983	390.75
319.212	403.75
319.441	403.75
319.67	413.75
319.9	389.75
320.129	389.75
320.358	419.75
320.587	399.75
320.816	400.75
321.046	418.75
321.275	425.75
321.504	397.75
321.733	406.75
321.962	426.75
322.191	430.75
322.42	434.75
322.649	456.75
322.878	449.75
323.108	425.75
323.337	463.75
323.566	483.75
323.795	491.75
324.024	517.75
324.253	602.75
324.482	832.75
324.71	1206.75
324.939	1674.75
325.168	1420.75
325.397	770.75
325.626	589.75
325.855	510.75
326.084	485.75
326.313	459.75
326.542	489.75
326.77	510.75
326.999	588.75
327.228	765.75
327.457	1068.75
327.686	1234.75
327.914	860.75
328.143	592.75
328.372	560.75
328.6	527.75
328.829	508.75
329.058	525.75
329.287	528.75
329.515	498.75
329.744	488.75
329.972	461.75
330.201	498.75
330.43	501.75
330.658	517.75
330.887	539.75
331.115	543.75
331.344	512.75
331.572	461.75
331.801	481.75
332.03	470.75
332.258	466.75
332.486	454.75
332.715	467.75
332.943	461.75
333.172	470.75
333.4	485.75
333.629	485.75
333.857	504.75
334.085	503.75
334.314	515.75
334.542	512.75
334.771	518.75
334.999	510.75
335.227	473.75
335.455	477.75
335.684	467.75
335.912	462.75
336.14	451.75
336.369	462.75
336.597	472.75
336.825	458.75
337.053	481.75
337.281	438.75
337.51	443.75
337.738	481.75
337.966	456.75
338.194	454.75
338.422	452.75
338.65	433.75
338.878	434.75
339.106	438.75
339.334	445.75
339.562	444.75
339.79	444.75
340.018	442.75
340.246	450.75
340.474	443.75
340.702	413.75
340.93	418.75
341.158	438.75
341.386	428.75
341.614	437.75
341.842	437.75
342.07	445.75
342.298	437.75
342.526	435.75
342.754	428.75
342.981	428.75
343.209	451.75
343.437	452.75
343.665	441.75
343.893	452.75
344.12	476.75
344.348	453.75
344.576	454.75
344.804	451.75
345.031	468.75
345.259	447.75
345.487	439.75
345.714	429.75
345.942	429.75
346.17	441.75
346.397	436.75
346.625	421.75
346.853	411.75
347.08	394.75
347.308	406.75
347.535	431.75
347.763	423.75
347.99	428.75
348.218	428.75
348.445	440.75
348.673	405.75
348.9	406.75
349.128	408.75
349.355	423.75
349.583	401.75
349.81	405.75
350.037	391.75
350.265	395.75
350.492	398.75
350.72	408.75
350.947	398.75
351.174	409.75
351.402	424.75
351.629	396.75
351.856	374.75
352.083	428.75
352.311	404.75
352.538	420.75
352.765	408.75
352.992	421.75
353.22	434.75
353.447	391.75
353.674	384.75
353.901	402.75
354.128	379.75
354.355	376.75
354.583	387.75
354.81	404.75
355.037	390.75
355.264	392.75
355.491	376.75
355.718	394.75
355.945	388.75
356.172	377.75
356.399	392.75
356.626	394.75
356.853	381.75
357.08	403.75
357.307	398.75
357.534	382.75
357.761	384.75
357.988	394.75
358.215	381.75
358.441	395.75
358.668	372.75
358.895	407.75
359.122	394.75
359.349	418.75
359.576	396.75
359.802	422.75
360.029	417.75
360.256	421.75
360.483	419.75
360.709	410.75
360.936	406.75
361.163	408.75
361.39	410.75
361.616	406.75
361.843	397.75
362.07	386.75
362.296	420.75
362.523	408.75
362.749	394.75
362.976	364.75
363.203	404.75
363.429	404.75
363.656	387.75
363.882	420.75
364.109	377.75
364.335	382.75
364.562	392.75
364.788	392.75
365.015	386.75
365.241	363.75
365.468	396.75
365.694	390.75
365.92	398.75
366.147	392.75
366.373	395.75
366.599	407.75
366.826	398.75
367.052	382.75
367.278	385.75
367.505	388.75
367.731	387.75
367.957	396.75
368.184	387.75
368.41	402.75
368.636	416.75
368.862	382.75
369.089	378.75
369.315	380.75
369.541	400.75
369.767	396.75
369.993	389.75
370.219	377.75
370.445	390.75
370.672	381.75
370.898	385.75
371.124	404.75
371.35	384.75
371.576	390.75
371.802	374.75
372.028	388.75
372.254	401.75
372.48	378.75
372.706	390.75
372.932	403.75
373.158	400.75
373.384	397.75
373.61	404.75
373.835	413.75
374.061	395.75
374.287	404.75
374.513	407.75
374.739	390.75
374.965	401.75
375.191	405.75
375.416	406.75
375.642	393.75
375.868	400.75
376.094	382.75
376.319	390.75
376.545	393.75
376.771	392.75
376.997	385.75
377.222	409.75
377.448	394.75
377.674	376.75
377.899	381.75
378.125	381.75
378.35	372.75
378.576	393.75
378.802	396.75
379.027	390.75
379.253	378.75
379.478	394.75
379.704	389.75
379.929	390.75
380.155	393.75
380.38	397.75
380.606	390.75
380.831	384.75
381.057	385.75
381.282	381.75
381.507	388.75
381.733	386.75
381.958	380.75
382.184	372.75
382.409	389.75
382.634	406.75
382.86	400.75
383.085	398.75
383.31	376.75
383.535	398.75
383.761	400.75
383.986	397.75
384.211	416.75
384.436	415.75
384.662	425.75
384.887	425.75
385.112	406.75
385.337	428.75
385.562	417.75
385.787	419.75
386.013	438.75
386.238	424.75
386.463	440.75
386.688	423.75
386.913	430.75
387.138	436.75
387.363	437.75
387.588	411.75
387.813	440.75
388.038	414.75
388.263	429.75
388.488	413.75
388.713	391.75
388.938	421.75
389.163	439.75
389.387	424.75
389.612	414.75
389.837	426.75
390.062	437.75
390.287	421.75
390.512	416.75
390.736	404.75
390.961	425.75
391.186	435.75
391.411	422.75
391.636	444.75
391.86	438.75
392.085	454.75
392.31	435.75
392.534	462.75
392.759	452.75
392.984	436.75
393.208	419.75
393.433	416.75
393.658	429.75
393.882	436.75
394.107	433.75
394.331	448.75
394.556	424.75
394.78	409.75
395.005	438.75
395.229	432.75
395.454	455.75
395.678	434.75
395.903	444.75
396.127	475.75
396.352	477.75
396.576	467.75
396.801	425.75
397.025	450.75
397.249	439.75
397.474	454.75
397.698	440.75
397.922	462.75
398.147	449.75
398.371	471.75
398.595	486.75
398.82	499.75
399.044	512.75
399.268	511.75
399.492	552.75
399.717	580.75
399.941	592.75
400.165	594.75
400.389	577.75
400.613	529.75
400.837	511.75
401.062	484.75
401.286	512.75
401.51	503.75
401.734	488.75
401.958	502.75
402.182	496.75
402.406	498.75
402.63	518.75
402.854	505.75
403.078	492.75
403.302	500.75
403.526	494.75
403.75	509.75
403.974	499.75
404.198	514.75
404.422	513.75
404.645	506.75
404.869	514.75
405.093	545.75
405.317	570.75
405.541	562.75
405.765	555.75
405.988	526.75
406.212	528.75
406.436	530.75
406.66	524.75
406.883	535.75
407.107	556.75
407.331	600.75
407.555	643.75
407.778	640.75
408.002	656.75
408.226	577.75
408.449	547.75
408.673	537.75
408.896	566.75
409.12	577.75
409.344	548.75
409.567	503.75
409.791	527.75
410.014	509.75
410.238	493.75
410.461	477.75
410.685	529.75
410.908	509.75
411.132	514.75
411.355	554.75
411.578	532.75
411.802	491.75
412.025	497.75
412.249	503.75
412.472	516.75
412.695	510.75
412.919	533.75
413.142	497.75
413.365	491.75
413.589	498.75
413.812	481.75
414.035	464.75
414.258	461.75
414.482	443.75
414.705	467.75
414.928	478.75
415.151	468.75
415.374	466.75
415.597	462.75
415.821	470.75
416.044	479.75
416.267	482.75
416.49	456.75
416.713	471.75
416.936	468.75
417.159	437.75
417.382	466.75
417.605	461.75
417.828	473.75
418.051	487.75
418.274	472.75
418.497	460.75
418.72	444.75
418.943	439.75
419.166	468.75
419.389	517.75
419.611	509.75
419.834	513.75
420.057	482.75
420.28	492.75
420.503	468.75
420.726	489.75
420.948	486.75
421.171	525.75
421.394	554.75
421.617	495.75
421.839	493.75
422.062	475.75
422.285	494.75
422.507	544.75
422.73	612.75
422.953	577.75
423.175	512.75
423.398	498.75
423.621	523.75
423.843	504.75
424.066	515.75
424.288	514.75
424.511	533.75
424.733	586.75
424.956	648.75
425.178	605.75
425.401	586.75
425.623	617.75
425.846	530.75
426.068	538.75
426.291	495.75
426.513	487.75
426.735	484.75
426.958	530.75
427.18	614.75
427.402	708.75
427.625	782.75
427.847	633.75
428.069	567.75
428.292	546.75
428.514	494.75
428.736	473.75
428.958	450.75
429.181	454.75
429.403	469.75
429.625	481.75
429.847	481.75
430.069	517.75
430.292	520.75
430.514	482.75
430.736	471.75
430.958	480.75
431.18	466.75
431.402	452.75
431.624	445.75
431.846	433.75
432.068	423.75
432.29	448.75
432.512	441.75
432.734	450.75
432.956	443.75
433.178	453.75
433.4	458.75
433.622	453.75
433.844	441.75
434.066	429.75
434.287	443.75
434.509	438.75
434.731	469.75
434.953	506.75
435.175	472.75
435.397	493.75
435.618	503.75
435.84	496.75
436.062	590.75
436.284	640.75
436.505	532.75
436.727	483.75
436.949	460.75
437.17	452.75
437.392	467.75
437.614	481.75
437.835	503.75
438.057	554.75
438.278	650.75
438.5	644.75
438.721	702.75
438.943	677.75
439.165	551.75
439.386	508.75
439.608	500.75
439.829	477.75
440.05	506.75
440.272	554.75
440.493	499.75
440.715	474.75
440.936	448.75
441.158	450.75
441.379	460.75
441.6	499.75
441.822	503.75
442.043	519.75
442.264	590.75
442.486	624.75
442.707	538.75
442.928	526.75
443.149	521.75
443.371	528.75
443.592	586.75
443.813	635.75
444.034	684.75
444.255	578.75
444.476	519.75
444.698	530.75
444.919	524.75
445.14	602.75
445.361	570.75
445.582	533.75
445.803	571.75
446.024	641.75
446.245	668.75
446.466	615.75
446.687	533.75
446.908	490.75
447.129	472.75
447.35	470.75
447.571	449.75
447.792	443.75
448.013	459.75
448.234	475.75
448.455	513.75
448.675	602.75
448.896	688.75
449.117	572.75
449.338	557.75
449.559	634.75
449.779	715.75
450	571.75
450.221	481.75
450.442	462.75
450.662	432.75
450.883	445.75
451.104	459.75
451.324	423.75
451.545	421.75
451.766	419.75
451.986	396.75
452.207	418.75
452.428	389.75
452.648	391.75
452.869	424.75
453.089	414.75
453.31	421.75
453.53	389.75
453.751	390.75
453.971	384.75
454.192	393.75
454.412	408.75
454.633	390.75
454.853	402.75
455.073	400.75
455.294	426.75
455.514	468.75
455.734	466.75
455.955	407.75
456.175	399.75
456.395	380.75
456.616	374.75
456.836	412.75
457.056	376.75
457.276	364.75
457.497	379.75
457.717	380.75
457.937	402.75
458.157	414.75
458.377	419.75
458.598	424.75
458.818	441.75
459.038	498.75
459.258	520.75
459.478	478.75
459.698	453.75
459.918	438.75
460.138	460.75
460.358	444.75
460.578	458.75
460.798	452.75
461.018	468.75
461.238	458.75
461.458	478.75
461.678	466.75
461.898	464.75
462.118	454.75
462.338	468.75
462.558	487.75
462.777	480.75
462.997	517.75
463.217	513.75
463.437	484.75
463.657	512.75
463.876	488.75
464.096	525.75
464.316	488.75
464.536	497.75
464.755	508.75
464.975	475.75
465.195	511.75
465.414	520.75
465.634	491.75
465.854	474.75
466.073	453.75
466.293	440.75
466.512	428.75
466.732	417.75
466.951	409.75
467.171	418.75
467.391	437.75
467.61	427.75
467.829	426.75
468.049	440.75
468.268	430.75
468.488	406.75
468.707	398.75
468.927	405.75
469.146	400.75
469.365	414.75
469.585	404.75
469.804	397.75
470.023	425.75
470.243	444.75
470.462	420.75
470.681	418.75
470.901	440.75
471.12	407.75
471.339	424.75
471.558	432.75
471.777	409.75
471.997	412.75
472.216	420.75
472.435	440.75
472.654	430.75
472.873	412.75
473.092	410.75
473.311	426.75
473.53	420.75
473.749	420.75
473.968	464.75
474.187	518.75
474.406	573.75
474.625	455.75
474.844	440.75
475.063	435.75
475.282	420.75
475.501	430.75
475.72	429.75
475.939	439.75
476.158	422.75
476.377	438.75
476.596	444.75
476.814	428.75
477.033	436.75
477.252	470.75
477.471	444.75
477.69	473.75
477.908	455.75
478.127	467.75
478.346	464.75
478.564	468.75
478.783	469.75
479.002	464.75
479.22	468.75
479.439	476.75
479.658	500.75
479.876	500.75
480.095	500.75
480.313	532.75
480.532	524.75
480.751	519.75
480.969	534.75
481.188	560.75
481.406	548.75
481.624	524.75
481.843	490.75
482.061	484.75
482.28	484.75
482.498	496.75
482.717	488.75
482.935	490.75
483.153	496.75
483.372	482.75
483.59	486.75
483.808	478.75
484.027	502.75
484.245	478.75
484.463	498.75
484.681	513.75
484.9	498.75
485.118	486.75
485.336	491.75
485.554	499.75
485.772	490.75
485.99	497.75
486.209	512.75
486.427	519.75
486.645	518.75
486.863	530.75
487.081	522.75
487.299	517.75
487.517	516.75
487.735	519.75
487.953	518.75
488.171	529.75
488.389	503.75
488.607	516.75
488.825	515.75
489.043	497.75
489.261	528.75
489.479	515.75
489.696	520.75
489.914	519.75
490.132	544.75
490.35	516.75
490.568	532.75
490.786	537.75
491.003	563.75
491.221	574.75
491.439	559.75
491.657	567.75
491.874	551.75
492.092	578.75
492.31	583.75
492.527	578.75
492.745	578.75
492.963	581.75
493.18	572.75
493.398	593.75
493.615	583.75
493.833	588.75
494.05	593.75
494.268	590.75
494.485	583.75
494.703	581.75
494.92	622.75
495.138	590.75
495.355	580.75
495.573	584.75
495.79	595.75
496.008	619.75
496.225	615.75
496.442	592.75
496.66	594.75
496.877	598.75
497.094	611.75
497.312	632.75
497.529	630.75
497.746	633.75
497.963	650.75
498.181	663.75
498.398	663.75
498.615	704.75
498.832	697.75
499.049	718.75
499.267	749.75
499.484	782.75
499.701	805.75
499.918	847.75
500.135	896.75
500.352	908.75
500.569	954.75
500.786	946.75
501.003	961.75
501.22	928.75
501.437	882.75
501.654	832.75
501.871	800.75
502.088	787.75
