Data from 1977.PennyLincolnUp.Lamp.En5.5.200Scan.071719.P1_HRD10591_16-06-55-864.txt Node
Date: Thu Jul 18 16:06:55 EDT 2019
User: cochatt
Spectrometer: HR+D1059
Trigger mode: 1
Integration Time (sec): 1.000000E-1
Scans to average: 1
Electric dark correction enabled: true
Nonlinearity correction enabled: false
Boxcar width: 0
XAxis mode: Wavelengths
Number of Pixels in Spectrum: 2048
>>>>>Begin Spectral Data<<<<<
223.165	-9.19
223.4	-9.19
223.635	-9.19
223.869	-14.19
224.104	-7.19
224.338	-13.19
224.573	-23.19
224.808	-9.19
225.042	-5.19
225.277	-11.19
225.511	-19.19
225.746	6.81
225.98	10.81
226.215	17.81
226.449	26.81
226.683	15.81
226.918	19.81
227.152	13.81
227.387	39.81
227.621	44.81
227.856	46.81
228.09	44.81
228.324	42.81
228.559	61.81
228.793	77.81
229.027	98.81
229.262	104.81
229.496	100.81
229.73	125.81
229.964	145.81
230.199	127.81
230.433	122.81
230.667	106.81
230.901	115.81
231.136	100.81
231.37	105.81
231.604	116.81
231.838	102.81
232.072	106.81
232.306	118.81
232.541	121.81
232.775	95.81
233.009	120.81
233.243	121.81
233.477	120.81
233.711	116.81
233.945	119.81
234.179	100.81
234.413	133.81
234.647	114.81
234.881	102.81
235.115	115.81
235.349	125.81
235.583	131.81
235.817	130.81
236.051	125.81
236.285	129.81
236.519	101.81
236.753	135.81
236.987	153.81
237.221	171.81
237.455	210.81
237.689	194.81
237.922	132.81
238.156	128.81
238.39	113.81
238.624	135.81
238.858	129.81
239.091	130.81
239.325	123.81
239.559	131.81
239.793	129.81
240.027	131.81
240.26	137.81
240.494	150.81
240.728	144.81
240.961	141.81
241.195	140.81
241.429	134.81
241.662	122.81
241.896	133.81
242.13	130.81
242.363	156.81
242.597	134.81
242.83	141.81
243.064	131.81
243.298	133.81
243.531	140.81
243.765	158.81
243.998	150.81
244.232	136.81
244.465	119.81
244.699	131.81
244.932	139.81
245.166	159.81
245.399	141.81
245.633	138.81
245.866	125.81
246.099	158.81
246.333	153.81
246.566	147.81
246.8	148.81
247.033	155.81
247.266	143.81
247.5	164.81
247.733	187.81
247.966	171.81
248.2	164.81
248.433	170.81
248.666	181.81
248.899	186.81
249.133	195.81
249.366	215.81
249.599	197.81
249.832	181.81
250.066	169.81
250.299	199.81
250.532	195.81
250.765	210.81
250.998	203.81
251.231	217.81
251.465	226.81
251.698	205.81
251.931	218.81
252.164	188.81
252.397	207.81
252.63	211.81
252.863	204.81
253.096	219.81
253.329	211.81
253.562	195.81
253.795	214.81
254.028	229.81
254.261	212.81
254.494	222.81
254.727	246.81
254.96	266.81
255.193	275.81
255.426	259.81
255.659	232.81
255.892	229.81
256.124	242.81
256.357	225.81
256.59	227.81
256.823	206.81
257.056	215.81
257.289	206.81
257.521	217.81
257.754	210.81
257.987	220.81
258.22	216.81
258.452	220.81
258.685	213.81
258.918	227.81
259.151	213.81
259.383	238.81
259.616	223.81
259.849	222.81
260.081	238.81
260.314	255.81
260.547	259.81
260.779	267.81
261.012	240.81
261.244	245.81
261.477	233.81
261.71	234.81
261.942	226.81
262.175	221.81
262.407	237.81
262.64	217.81
262.872	225.81
263.105	232.81
263.337	225.81
263.57	250.81
263.802	207.81
264.035	212.81
264.267	219.81
264.499	214.81
264.732	218.81
264.964	222.81
265.197	220.81
265.429	233.81
265.661	219.81
265.894	223.81
266.126	230.81
266.358	232.81
266.591	226.81
266.823	238.81
267.055	241.81
267.287	245.81
267.52	232.81
267.752	222.81
267.984	232.81
268.216	255.81
268.448	261.81
268.681	243.81
268.913	256.81
269.145	267.81
269.377	288.81
269.609	270.81
269.841	269.81
270.073	281.81
270.306	294.81
270.538	326.81
270.77	327.81
271.002	316.81
271.234	283.81
271.466	307.81
271.698	314.81
271.93	311.81
272.162	320.81
272.394	338.81
272.626	292.81
272.858	279.81
273.09	282.81
273.322	265.81
273.553	261.81
273.785	295.81
274.017	263.81
274.249	270.81
274.481	270.81
274.713	293.81
274.945	271.81
275.176	286.81
275.408	263.81
275.64	264.81
275.872	288.81
276.104	283.81
276.335	292.81
276.567	280.81
276.799	305.81
277.031	301.81
277.262	330.81
277.494	317.81
277.726	294.81
277.957	298.81
278.189	290.81
278.421	293.81
278.652	284.81
278.884	271.81
279.115	295.81
279.347	285.81
279.579	283.81
279.81	281.81
280.042	281.81
280.273	285.81
280.505	305.81
280.736	277.81
280.968	291.81
281.199	292.81
281.431	280.81
281.662	289.81
281.894	301.81
282.125	280.81
282.356	324.81
282.588	309.81
282.819	328.81
283.051	298.81
283.282	283.81
283.513	295.81
283.745	301.81
283.976	310.81
284.207	305.81
284.439	307.81
284.67	303.81
284.901	295.81
285.132	316.81
285.364	310.81
285.595	301.81
285.826	307.81
286.057	307.81
286.288	293.81
286.52	294.81
286.751	308.81
286.982	311.81
287.213	316.81
287.444	324.81
287.675	317.81
287.906	309.81
288.138	315.81
288.369	318.81
288.6	327.81
288.831	322.81
289.062	319.81
289.293	329.81
289.524	334.81
289.755	322.81
289.986	322.81
290.217	324.81
290.448	321.81
290.679	321.81
290.91	314.81
291.141	316.81
291.371	310.81
291.602	330.81
291.833	307.81
292.064	321.81
292.295	336.81
292.526	320.81
292.757	313.81
292.987	317.81
293.218	318.81
293.449	328.81
293.68	322.81
293.91	312.81
294.141	317.81
294.372	312.81
294.603	319.81
294.833	315.81
295.064	322.81
295.295	311.81
295.525	310.81
295.756	318.81
295.987	317.81
296.217	341.81
296.448	358.81
296.679	355.81
296.909	321.81
297.14	320.81
297.37	340.81
297.601	331.81
297.831	335.81
298.062	340.81
298.292	329.81
298.523	345.81
298.753	330.81
298.984	342.81
299.214	350.81
299.445	328.81
299.675	323.81
299.905	348.81
300.136	352.81
300.366	344.81
300.597	343.81
300.827	354.81
301.057	360.81
301.288	369.81
301.518	358.81
301.748	344.81
301.979	356.81
302.209	370.81
302.439	361.81
302.669	358.81
302.9	372.81
303.13	370.81
303.36	364.81
303.59	376.81
303.82	341.81
304.051	380.81
304.281	350.81
304.511	360.81
304.741	344.81
304.971	358.81
305.201	364.81
305.431	361.81
305.661	362.81
305.891	373.81
306.121	367.81
306.352	366.81
306.582	354.81
306.812	358.81
307.042	356.81
307.272	354.81
307.502	373.81
307.731	371.81
307.961	367.81
308.191	358.81
308.421	370.81
308.651	375.81
308.881	383.81
309.111	375.81
309.341	354.81
309.571	345.81
309.8	382.81
310.03	393.81
310.26	379.81
310.49	371.81
310.72	388.81
310.949	411.81
311.179	393.81
311.409	402.81
311.639	407.81
311.868	388.81
312.098	397.81
312.328	418.81
312.557	431.81
312.787	416.81
313.017	410.81
313.246	418.81
313.476	388.81
313.706	385.81
313.935	409.81
314.165	428.81
314.394	417.81
314.624	396.81
314.853	408.81
315.083	419.81
315.312	407.81
315.542	395.81
315.771	395.81
316.001	402.81
316.23	389.81
316.46	397.81
316.689	399.81
316.919	421.81
317.148	436.81
317.377	413.81
317.607	391.81
317.836	402.81
318.065	412.81
318.295	414.81
318.524	402.81
318.753	414.81
318.983	399.81
319.212	384.81
319.441	403.81
319.67	401.81
319.9	405.81
320.129	402.81
320.358	391.81
320.587	407.81
320.816	412.81
321.046	420.81
321.275	414.81
321.504	415.81
321.733	439.81
321.962	429.81
322.191	433.81
322.42	449.81
322.649	443.81
322.878	445.81
323.108	452.81
323.337	477.81
323.566	487.81
323.795	530.81
324.024	554.81
324.253	645.81
324.482	891.81
324.71	1314.81
324.939	1788.81
325.168	1527.81
325.397	843.81
325.626	602.81
325.855	566.81
326.084	526.81
326.313	492.81
326.542	504.81
326.77	524.81
326.999	603.81
327.228	789.81
327.457	1131.81
327.686	1345.81
327.914	916.81
328.143	657.81
328.372	592.81
328.6	593.81
328.829	543.81
329.058	562.81
329.287	574.81
329.515	541.81
329.744	521.81
329.972	534.81
330.201	509.81
330.43	526.81
330.658	569.81
330.887	572.81
331.115	559.81
331.344	510.81
331.572	506.81
331.801	504.81
332.03	501.81
332.258	486.81
332.486	496.81
332.715	484.81
332.943	468.81
333.172	486.81
333.4	488.81
333.629	497.81
333.857	492.81
334.085	500.81
334.314	537.81
334.542	543.81
334.771	531.81
334.999	534.81
335.227	504.81
335.455	499.81
335.684	494.81
335.912	485.81
336.14	471.81
336.369	466.81
336.597	483.81
336.825	485.81
337.053	457.81
337.281	441.81
337.51	464.81
337.738	475.81
337.966	443.81
338.194	485.81
338.422	473.81
338.65	441.81
338.878	455.81
339.106	446.81
339.334	454.81
339.562	441.81
339.79	451.81
340.018	460.81
340.246	439.81
340.474	441.81
340.702	436.81
340.93	465.81
341.158	444.81
341.386	437.81
341.614	453.81
341.842	452.81
342.07	434.81
342.298	445.81
342.526	436.81
342.754	436.81
342.981	439.81
343.209	438.81
343.437	446.81
343.665	442.81
343.893	459.81
344.12	488.81
344.348	476.81
344.576	477.81
344.804	447.81
345.031	452.81
345.259	477.81
345.487	452.81
345.714	430.81
345.942	444.81
346.17	453.81
346.397	418.81
346.625	428.81
346.853	430.81
347.08	406.81
347.308	442.81
347.535	432.81
347.763	455.81
347.99	457.81
348.218	423.81
348.445	442.81
348.673	462.81
348.9	419.81
349.128	443.81
349.355	423.81
349.583	415.81
349.81	440.81
350.037	430.81
350.265	390.81
350.492	415.81
350.72	385.81
350.947	407.81
351.174	405.81
351.402	424.81
351.629	410.81
351.856	420.81
352.083	416.81
352.311	423.81
352.538	437.81
352.765	413.81
352.992	429.81
353.22	427.81
353.447	414.81
353.674	412.81
353.901	405.81
354.128	405.81
354.355	409.81
354.583	414.81
354.81	401.81
355.037	409.81
355.264	406.81
355.491	415.81
355.718	398.81
355.945	407.81
356.172	414.81
356.399	382.81
356.626	407.81
356.853	405.81
357.08	395.81
357.307	389.81
357.534	395.81
357.761	389.81
357.988	398.81
358.215	393.81
358.441	412.81
358.668	389.81
358.895	410.81
359.122	413.81
359.349	420.81
359.576	424.81
359.802	458.81
360.029	470.81
360.256	461.81
360.483	421.81
360.709	409.81
360.936	423.81
361.163	418.81
361.39	422.81
361.616	402.81
361.843	424.81
362.07	402.81
362.296	410.81
362.523	427.81
362.749	421.81
362.976	409.81
363.203	395.81
363.429	390.81
363.656	404.81
363.882	391.81
364.109	408.81
364.335	386.81
364.562	391.81
364.788	395.81
365.015	381.81
365.241	388.81
365.468	406.81
365.694	393.81
365.92	397.81
366.147	401.81
366.373	402.81
366.599	391.81
366.826	383.81
367.052	393.81
367.278	395.81
367.505	399.81
367.731	392.81
367.957	396.81
368.184	403.81
368.41	396.81
368.636	416.81
368.862	413.81
369.089	412.81
369.315	384.81
369.541	392.81
369.767	400.81
369.993	393.81
370.219	387.81
370.445	402.81
370.672	406.81
370.898	400.81
371.124	398.81
371.35	393.81
371.576	389.81
371.802	404.81
372.028	387.81
372.254	387.81
372.48	391.81
372.706	399.81
372.932	409.81
373.158	418.81
373.384	398.81
373.61	393.81
373.835	385.81
374.061	409.81
374.287	418.81
374.513	386.81
374.739	411.81
374.965	414.81
375.191	411.81
375.416	392.81
375.642	410.81
375.868	431.81
376.094	400.81
376.319	385.81
376.545	398.81
376.771	395.81
376.997	383.81
377.222	385.81
377.448	391.81
377.674	388.81
377.899	388.81
378.125	383.81
378.35	382.81
378.576	396.81
378.802	387.81
379.027	385.81
379.253	393.81
379.478	371.81
379.704	390.81
379.929	387.81
380.155	398.81
380.38	388.81
380.606	403.81
380.831	402.81
381.057	417.81
381.282	392.81
381.507	386.81
381.733	421.81
381.958	389.81
382.184	376.81
382.409	414.81
382.634	403.81
382.86	418.81
383.085	395.81
383.31	421.81
383.535	417.81
383.761	419.81
383.986	410.81
384.211	411.81
384.436	429.81
384.662	412.81
384.887	436.81
385.112	439.81
385.337	449.81
385.562	436.81
385.787	428.81
386.013	441.81
386.238	441.81
386.463	436.81
386.688	426.81
386.913	412.81
387.138	442.81
387.363	436.81
387.588	435.81
387.813	447.81
388.038	414.81
388.263	406.81
388.488	445.81
388.713	418.81
388.938	452.81
389.163	423.81
389.387	428.81
389.612	452.81
389.837	437.81
390.062	423.81
390.287	419.81
390.512	423.81
390.736	419.81
390.961	441.81
391.186	443.81
391.411	446.81
391.636	440.81
391.86	455.81
392.085	463.81
392.31	461.81
392.534	469.81
392.759	452.81
392.984	441.81
393.208	427.81
393.433	427.81
393.658	435.81
393.882	447.81
394.107	421.81
394.331	403.81
394.556	441.81
394.78	437.81
395.005	437.81
395.229	436.81
395.454	450.81
395.678	446.81
395.903	458.81
396.127	487.81
396.352	462.81
396.576	471.81
396.801	453.81
397.025	448.81
397.249	443.81
397.474	451.81
397.698	454.81
397.922	464.81
398.147	480.81
398.371	487.81
398.595	500.81
398.82	483.81
399.044	506.81
399.268	517.81
399.492	582.81
399.717	602.81
399.941	626.81
400.165	618.81
400.389	617.81
400.613	565.81
400.837	540.81
401.062	530.81
401.286	502.81
401.51	501.81
401.734	489.81
401.958	495.81
402.182	512.81
402.406	525.81
402.63	515.81
402.854	516.81
403.078	497.81
403.302	513.81
403.526	518.81
403.75	503.81
403.974	526.81
404.198	521.81
404.422	505.81
404.645	524.81
404.869	530.81
405.093	551.81
405.317	581.81
405.541	601.81
405.765	551.81
405.988	519.81
406.212	541.81
406.436	542.81
406.66	562.81
406.883	569.81
407.107	574.81
407.331	606.81
407.555	667.81
407.778	648.81
408.002	587.81
408.226	568.81
408.449	593.81
408.673	558.81
408.896	569.81
409.12	597.81
409.344	593.81
409.567	527.81
409.791	497.81
410.014	508.81
410.238	533.81
410.461	517.81
410.685	505.81
410.908	542.81
411.132	556.81
411.355	592.81
411.578	570.81
411.802	532.81
412.025	511.81
412.249	508.81
412.472	554.81
412.695	548.81
412.919	553.81
413.142	511.81
413.365	506.81
413.589	492.81
413.812	513.81
414.035	484.81
414.258	480.81
414.482	488.81
414.705	497.81
414.928	481.81
415.151	468.81
415.374	478.81
415.597	486.81
415.821	458.81
416.044	473.81
416.267	481.81
416.49	468.81
416.713	441.81
416.936	469.81
417.159	462.81
417.382	478.81
417.605	476.81
417.828	473.81
418.051	491.81
418.274	510.81
418.497	490.81
418.72	499.81
418.943	483.81
419.166	488.81
419.389	507.81
419.611	533.81
419.834	514.81
420.057	501.81
420.28	509.81
420.503	510.81
420.726	483.81
420.948	489.81
421.171	526.81
421.394	549.81
421.617	517.81
421.839	495.81
422.062	499.81
422.285	521.81
422.507	573.81
422.73	590.81
422.953	590.81
423.175	519.81
423.398	510.81
423.621	507.81
423.843	537.81
424.066	549.81
424.288	524.81
424.511	557.81
424.733	584.81
424.956	639.81
425.178	633.81
425.401	611.81
425.623	645.81
425.846	551.81
426.068	515.81
426.291	502.81
426.513	498.81
426.735	524.81
426.958	556.81
427.18	603.81
427.402	717.81
427.625	782.81
427.847	678.81
428.069	583.81
428.292	543.81
428.514	490.81
428.736	513.81
428.958	488.81
429.181	485.81
429.403	474.81
429.625	485.81
429.847	511.81
430.069	567.81
430.292	562.81
430.514	491.81
430.736	487.81
430.958	479.81
431.18	476.81
431.402	474.81
431.624	465.81
431.846	450.81
432.068	438.81
432.29	446.81
432.512	461.81
432.734	455.81
432.956	453.81
433.178	453.81
433.4	469.81
433.622	461.81
433.844	482.81
434.066	462.81
434.287	429.81
434.509	451.81
434.731	477.81
434.953	474.81
435.175	483.81
435.397	500.81
435.618	518.81
435.84	553.81
436.062	634.81
436.284	677.81
436.505	569.81
436.727	523.81
436.949	466.81
437.17	467.81
437.392	464.81
437.614	481.81
437.835	491.81
438.057	577.81
438.278	671.81
438.5	684.81
438.721	740.81
438.943	688.81
439.165	564.81
439.386	536.81
439.608	514.81
439.829	520.81
440.05	539.81
440.272	555.81
440.493	540.81
440.715	523.81
440.936	478.81
441.158	482.81
441.379	474.81
441.6	516.81
441.822	490.81
442.043	539.81
442.264	614.81
442.486	656.81
442.707	559.81
442.928	507.81
443.149	533.81
443.371	543.81
443.592	570.81
443.813	654.81
444.034	723.81
444.255	612.81
444.476	521.81
444.698	535.81
444.919	520.81
445.14	621.81
445.361	568.81
445.582	540.81
445.803	609.81
446.024	651.81
446.245	683.81
446.466	608.81
446.687	545.81
446.908	514.81
447.129	498.81
447.35	492.81
447.571	475.81
447.792	460.81
448.013	451.81
448.234	475.81
448.455	521.81
448.675	629.81
448.896	701.81
449.117	607.81
449.338	565.81
449.559	666.81
449.779	756.81
450	606.81
450.221	528.81
450.442	462.81
450.662	463.81
450.883	462.81
451.104	446.81
451.324	437.81
451.545	440.81
451.766	434.81
451.986	410.81
452.207	419.81
452.428	426.81
452.648	415.81
452.869	418.81
453.089	441.81
453.31	433.81
453.53	439.81
453.751	430.81
453.971	428.81
454.192	425.81
454.412	431.81
454.633	412.81
454.853	413.81
455.073	409.81
455.294	442.81
455.514	493.81
455.734	473.81
455.955	426.81
456.175	409.81
456.395	388.81
456.616	400.81
456.836	390.81
457.056	383.81
457.276	394.81
457.497	411.81
457.717	394.81
457.937	411.81
458.157	406.81
458.377	421.81
458.598	429.81
458.818	464.81
459.038	535.81
459.258	559.81
459.478	477.81
459.698	443.81
459.918	470.81
460.138	457.81
460.358	481.81
460.578	475.81
460.798	475.81
461.018	460.81
461.238	472.81
461.458	484.81
461.678	464.81
461.898	458.81
462.118	460.81
462.338	470.81
462.558	497.81
462.777	473.81
462.997	503.81
463.217	533.81
463.437	530.81
463.657	516.81
463.876	511.81
464.096	515.81
464.316	501.81
464.536	518.81
464.755	524.81
464.975	499.81
465.195	522.81
465.414	535.81
465.634	502.81
465.854	465.81
466.073	445.81
466.293	447.81
466.512	449.81
466.732	429.81
466.951	447.81
467.171	436.81
467.391	448.81
467.61	430.81
467.829	450.81
468.049	446.81
468.268	442.81
468.488	421.81
468.707	439.81
468.927	416.81
469.146	408.81
469.365	420.81
469.585	436.81
469.804	434.81
470.023	444.81
470.243	418.81
470.462	437.81
470.681	459.81
470.901	449.81
471.12	434.81
471.339	435.81
471.558	434.81
471.777	437.81
471.997	434.81
472.216	431.81
472.435	463.81
472.654	425.81
472.873	440.81
473.092	430.81
473.311	431.81
473.53	441.81
473.749	444.81
473.968	482.81
474.187	554.81
474.406	549.81
474.625	463.81
474.844	450.81
475.063	435.81
475.282	437.81
475.501	448.81
475.72	443.81
475.939	440.81
476.158	450.81
476.377	454.81
476.596	438.81
476.814	438.81
477.033	441.81
477.252	460.81
477.471	472.81
477.69	471.81
477.908	478.81
478.127	474.81
478.346	469.81
478.564	479.81
478.783	484.81
479.002	480.81
479.22	480.81
479.439	501.81
479.658	504.81
479.876	528.81
480.095	495.81
480.313	569.81
480.532	523.81
480.751	520.81
480.969	538.81
481.188	575.81
481.406	546.81
481.624	535.81
481.843	507.81
482.061	525.81
482.28	508.81
482.498	490.81
482.717	492.81
482.935	513.81
483.153	521.81
483.372	501.81
483.59	503.81
483.808	490.81
484.027	487.81
484.245	479.81
484.463	484.81
484.681	493.81
484.9	490.81
485.118	520.81
485.336	509.81
485.554	512.81
485.772	506.81
485.99	525.81
486.209	519.81
486.427	532.81
486.645	541.81
486.863	529.81
487.081	514.81
487.299	547.81
487.517	518.81
487.735	528.81
487.953	524.81
488.171	553.81
488.389	538.81
488.607	540.81
488.825	538.81
489.043	509.81
489.261	537.81
489.479	529.81
489.696	536.81
489.914	536.81
490.132	531.81
490.35	559.81
490.568	548.81
490.786	549.81
491.003	573.81
491.221	569.81
491.439	596.81
491.657	581.81
491.874	595.81
492.092	594.81
492.31	590.81
492.527	579.81
492.745	600.81
492.963	614.81
493.18	616.81
493.398	604.81
493.615	611.81
493.833	617.81
494.05	622.81
494.268	600.81
494.485	609.81
494.703	615.81
494.92	599.81
495.138	597.81
495.355	609.81
495.573	639.81
495.79	604.81
496.008	619.81
496.225	606.81
496.442	606.81
496.66	620.81
496.877	629.81
497.094	617.81
497.312	641.81
497.529	652.81
497.746	659.81
497.963	686.81
498.181	693.81
498.398	691.81
498.615	714.81
498.832	725.81
499.049	779.81
499.267	772.81
499.484	771.81
499.701	829.81
499.918	862.81
500.135	935.81
500.352	965.81
500.569	987.81
500.786	1010.81
501.003	964.81
501.22	952.81
501.437	894.81
501.654	869.81
501.871	823.81
