Data from 1977.PennyLincolnUp.Lamp.En5.5.200Scan.071719.P1_HRD10591_16-07-19-864.txt Node
Date: Thu Jul 18 16:07:19 EDT 2019
User: cochatt
Spectrometer: HR+D1059
Trigger mode: 1
Integration Time (sec): 1.000000E-1
Scans to average: 1
Electric dark correction enabled: true
Nonlinearity correction enabled: false
Boxcar width: 0
XAxis mode: Wavelengths
Number of Pixels in Spectrum: 2048
>>>>>Begin Spectral Data<<<<<
223.165	-19.19
223.4	-19.19
223.635	-19.19
223.869	-17.19
224.104	-16.19
224.338	-13.19
224.573	-15.19
224.808	-17.19
225.042	-3.19
225.277	6.81
225.511	-6.19
225.746	7.81
225.98	-0.19
226.215	12.81
226.449	10.81
226.683	10.81
226.918	15.81
227.152	42.81
227.387	38.81
227.621	33.81
227.856	44.81
228.09	50.81
228.324	45.81
228.559	57.81
228.793	75.81
229.027	96.81
229.262	96.81
229.496	112.81
229.73	116.81
229.964	138.81
230.199	131.81
230.433	110.81
230.667	95.81
230.901	113.81
231.136	108.81
231.37	115.81
231.604	90.81
231.838	112.81
232.072	101.81
232.306	118.81
232.541	103.81
232.775	118.81
233.009	120.81
233.243	130.81
233.477	118.81
233.711	115.81
233.945	120.81
234.179	119.81
234.413	118.81
234.647	117.81
234.881	126.81
235.115	110.81
235.349	119.81
235.583	111.81
235.817	123.81
236.051	123.81
236.285	126.81
236.519	139.81
236.753	127.81
236.987	162.81
237.221	168.81
237.455	206.81
237.689	164.81
237.922	128.81
238.156	132.81
238.39	134.81
238.624	129.81
238.858	99.81
239.091	122.81
239.325	122.81
239.559	128.81
239.793	135.81
240.027	115.81
240.26	141.81
240.494	158.81
240.728	143.81
240.961	145.81
241.195	139.81
241.429	128.81
241.662	130.81
241.896	131.81
242.13	132.81
242.363	112.81
242.597	125.81
242.83	137.81
243.064	151.81
243.298	148.81
243.531	127.81
243.765	128.81
243.998	138.81
244.232	139.81
244.465	154.81
244.699	144.81
244.932	149.81
245.166	132.81
245.399	141.81
245.633	157.81
245.866	161.81
246.099	155.81
246.333	151.81
246.566	164.81
246.8	155.81
247.033	171.81
247.266	166.81
247.5	159.81
247.733	161.81
247.966	160.81
248.2	178.81
248.433	156.81
248.666	164.81
248.899	193.81
249.133	190.81
249.366	207.81
249.599	194.81
249.832	182.81
250.066	169.81
250.299	184.81
250.532	189.81
250.765	200.81
250.998	212.81
251.231	214.81
251.465	205.81
251.698	191.81
251.931	192.81
252.164	200.81
252.397	194.81
252.63	196.81
252.863	179.81
253.096	198.81
253.329	225.81
253.562	205.81
253.795	224.81
254.028	194.81
254.261	211.81
254.494	219.81
254.727	233.81
254.96	263.81
255.193	260.81
255.426	237.81
255.659	239.81
255.892	206.81
256.124	201.81
256.357	242.81
256.59	215.81
256.823	212.81
257.056	198.81
257.289	202.81
257.521	199.81
257.754	210.81
257.987	203.81
258.22	200.81
258.452	195.81
258.685	220.81
258.918	214.81
259.151	208.81
259.383	234.81
259.616	207.81
259.849	218.81
260.081	221.81
260.314	244.81
260.547	262.81
260.779	243.81
261.012	232.81
261.244	226.81
261.477	227.81
261.71	206.81
261.942	228.81
262.175	228.81
262.407	224.81
262.64	220.81
262.872	197.81
263.105	216.81
263.337	212.81
263.57	205.81
263.802	217.81
264.035	198.81
264.267	181.81
264.499	195.81
264.732	217.81
264.964	206.81
265.197	212.81
265.429	223.81
265.661	219.81
265.894	222.81
266.126	227.81
266.358	218.81
266.591	230.81
266.823	225.81
267.055	244.81
267.287	238.81
267.52	237.81
267.752	222.81
267.984	221.81
268.216	229.81
268.448	228.81
268.681	247.81
268.913	248.81
269.145	266.81
269.377	277.81
269.609	278.81
269.841	276.81
270.073	277.81
270.306	284.81
270.538	322.81
270.77	294.81
271.002	290.81
271.234	293.81
271.466	270.81
271.698	292.81
271.93	322.81
272.162	309.81
272.394	304.81
272.626	293.81
272.858	293.81
273.09	288.81
273.322	271.81
273.553	278.81
273.785	272.81
274.017	270.81
274.249	266.81
274.481	287.81
274.713	267.81
274.945	289.81
275.176	273.81
275.408	266.81
275.64	266.81
275.872	259.81
276.104	262.81
276.335	261.81
276.567	270.81
276.799	276.81
277.031	299.81
277.262	298.81
277.494	314.81
277.726	285.81
277.957	291.81
278.189	288.81
278.421	280.81
278.652	276.81
278.884	284.81
279.115	281.81
279.347	280.81
279.579	256.81
279.81	288.81
280.042	271.81
280.273	280.81
280.505	276.81
280.736	285.81
280.968	270.81
281.199	286.81
281.431	278.81
281.662	270.81
281.894	270.81
282.125	280.81
282.356	308.81
282.588	316.81
282.819	283.81
283.051	278.81
283.282	260.81
283.513	295.81
283.745	292.81
283.976	302.81
284.207	290.81
284.439	303.81
284.67	300.81
284.901	284.81
285.132	292.81
285.364	285.81
285.595	291.81
285.826	298.81
286.057	302.81
286.288	302.81
286.52	296.81
286.751	289.81
286.982	311.81
287.213	311.81
287.444	300.81
287.675	322.81
287.906	314.81
288.138	330.81
288.369	343.81
288.6	320.81
288.831	301.81
289.062	310.81
289.293	329.81
289.524	298.81
289.755	287.81
289.986	300.81
290.217	301.81
290.448	310.81
290.679	316.81
290.91	302.81
291.141	287.81
291.371	316.81
291.602	324.81
291.833	326.81
292.064	290.81
292.295	313.81
292.526	310.81
292.757	313.81
292.987	324.81
293.218	312.81
293.449	308.81
293.68	318.81
293.91	293.81
294.141	332.81
294.372	306.81
294.603	307.81
294.833	321.81
295.064	331.81
295.295	322.81
295.525	325.81
295.756	325.81
295.987	294.81
296.217	334.81
296.448	342.81
296.679	303.81
296.909	325.81
297.14	310.81
297.37	326.81
297.601	325.81
297.831	335.81
298.062	306.81
298.292	314.81
298.523	342.81
298.753	314.81
298.984	342.81
299.214	341.81
299.445	317.81
299.675	348.81
299.905	327.81
300.136	312.81
300.366	312.81
300.597	333.81
300.827	338.81
301.057	351.81
301.288	353.81
301.518	324.81
301.748	330.81
301.979	337.81
302.209	354.81
302.439	377.81
302.669	345.81
302.9	350.81
303.13	324.81
303.36	340.81
303.59	335.81
303.82	356.81
304.051	355.81
304.281	333.81
304.511	349.81
304.741	351.81
304.971	366.81
305.201	339.81
305.431	338.81
305.661	344.81
305.891	340.81
306.121	364.81
306.352	373.81
306.582	324.81
306.812	351.81
307.042	372.81
307.272	353.81
307.502	363.81
307.731	351.81
307.961	349.81
308.191	330.81
308.421	361.81
308.651	359.81
308.881	368.81
309.111	377.81
309.341	382.81
309.571	360.81
309.8	367.81
310.03	359.81
310.26	377.81
310.49	370.81
310.72	390.81
310.949	415.81
311.179	381.81
311.409	372.81
311.639	378.81
311.868	364.81
312.098	369.81
312.328	374.81
312.557	398.81
312.787	411.81
313.017	404.81
313.246	404.81
313.476	397.81
313.706	386.81
313.935	379.81
314.165	392.81
314.394	400.81
314.624	398.81
314.853	387.81
315.083	382.81
315.312	390.81
315.542	382.81
315.771	391.81
316.001	394.81
316.23	380.81
316.46	394.81
316.689	391.81
316.919	400.81
317.148	421.81
317.377	394.81
317.607	386.81
317.836	397.81
318.065	386.81
318.295	390.81
318.524	380.81
318.753	377.81
318.983	397.81
319.212	373.81
319.441	403.81
319.67	400.81
319.9	405.81
320.129	380.81
320.358	395.81
320.587	404.81
320.816	409.81
321.046	401.81
321.275	407.81
321.504	413.81
321.733	398.81
321.962	417.81
322.191	438.81
322.42	414.81
322.649	420.81
322.878	450.81
323.108	470.81
323.337	462.81
323.566	498.81
323.795	493.81
324.024	550.81
324.253	639.81
324.482	868.81
324.71	1307.81
324.939	1823.81
325.168	1513.81
325.397	819.81
325.626	568.81
325.855	527.81
326.084	484.81
326.313	480.81
326.542	477.81
326.77	539.81
326.999	602.81
327.228	815.81
327.457	1146.81
327.686	1337.81
327.914	906.81
328.143	639.81
328.372	574.81
328.6	554.81
328.829	528.81
329.058	534.81
329.287	519.81
329.515	514.81
329.744	508.81
329.972	474.81
330.201	498.81
330.43	531.81
330.658	542.81
330.887	557.81
331.115	535.81
331.344	501.81
331.572	476.81
331.801	489.81
332.03	488.81
332.258	475.81
332.486	467.81
332.715	447.81
332.943	471.81
333.172	468.81
333.4	473.81
333.629	486.81
333.857	510.81
334.085	516.81
334.314	542.81
334.542	520.81
334.771	524.81
334.999	492.81
335.227	472.81
335.455	469.81
335.684	466.81
335.912	454.81
336.14	444.81
336.369	454.81
336.597	466.81
336.825	454.81
337.053	461.81
337.281	455.81
337.51	447.81
337.738	445.81
337.966	451.81
338.194	438.81
338.422	452.81
338.65	428.81
338.878	424.81
339.106	435.81
339.334	425.81
339.562	434.81
339.79	426.81
340.018	438.81
340.246	448.81
340.474	452.81
340.702	442.81
340.93	444.81
341.158	458.81
341.386	446.81
341.614	427.81
341.842	431.81
342.07	422.81
342.298	428.81
342.526	428.81
342.754	414.81
342.981	414.81
343.209	429.81
343.437	442.81
343.665	426.81
343.893	453.81
344.12	448.81
344.348	457.81
344.576	446.81
344.804	439.81
345.031	450.81
345.259	469.81
345.487	463.81
345.714	455.81
345.942	400.81
346.17	436.81
346.397	418.81
346.625	402.81
346.853	424.81
347.08	434.81
347.308	409.81
347.535	413.81
347.763	410.81
347.99	427.81
348.218	437.81
348.445	419.81
348.673	400.81
348.9	410.81
349.128	422.81
349.355	404.81
349.583	408.81
349.81	390.81
350.037	393.81
350.265	424.81
350.492	413.81
350.72	414.81
350.947	394.81
351.174	401.81
351.402	406.81
351.629	397.81
351.856	420.81
352.083	411.81
352.311	439.81
352.538	418.81
352.765	426.81
352.992	412.81
353.22	398.81
353.447	414.81
353.674	402.81
353.901	392.81
354.128	382.81
354.355	380.81
354.583	385.81
354.81	390.81
355.037	404.81
355.264	385.81
355.491	380.81
355.718	384.81
355.945	384.81
356.172	396.81
356.399	382.81
356.626	392.81
356.853	396.81
357.08	401.81
357.307	387.81
357.534	412.81
357.761	367.81
357.988	393.81
358.215	382.81
358.441	382.81
358.668	398.81
358.895	380.81
359.122	388.81
359.349	396.81
359.576	400.81
359.802	390.81
360.029	445.81
360.256	440.81
360.483	418.81
360.709	402.81
360.936	415.81
361.163	404.81
361.39	416.81
361.616	401.81
361.843	404.81
362.07	398.81
362.296	412.81
362.523	414.81
362.749	391.81
362.976	408.81
363.203	404.81
363.429	383.81
363.656	411.81
363.882	391.81
364.109	398.81
364.335	381.81
364.562	383.81
364.788	420.81
365.015	384.81
365.241	378.81
365.468	365.81
365.694	380.81
365.92	382.81
366.147	386.81
366.373	386.81
366.599	389.81
366.826	377.81
367.052	393.81
367.278	398.81
367.505	381.81
367.731	379.81
367.957	401.81
368.184	387.81
368.41	373.81
368.636	400.81
368.862	398.81
369.089	396.81
369.315	388.81
369.541	379.81
369.767	373.81
369.993	388.81
370.219	367.81
370.445	389.81
370.672	379.81
370.898	400.81
371.124	395.81
371.35	375.81
371.576	395.81
371.802	371.81
372.028	370.81
372.254	400.81
372.48	384.81
372.706	393.81
372.932	404.81
373.158	380.81
373.384	395.81
373.61	400.81
373.835	398.81
374.061	387.81
374.287	393.81
374.513	381.81
374.739	404.81
374.965	372.81
375.191	401.81
375.416	398.81
375.642	407.81
375.868	404.81
376.094	383.81
376.319	378.81
376.545	387.81
376.771	384.81
376.997	375.81
377.222	383.81
377.448	394.81
377.674	388.81
377.899	381.81
378.125	373.81
378.35	380.81
378.576	393.81
378.802	390.81
379.027	379.81
379.253	386.81
379.478	386.81
379.704	380.81
379.929	390.81
380.155	384.81
380.38	381.81
380.606	387.81
380.831	390.81
381.057	384.81
381.282	372.81
381.507	380.81
381.733	395.81
381.958	406.81
382.184	384.81
382.409	367.81
382.634	374.81
382.86	413.81
383.085	396.81
383.31	393.81
383.535	390.81
383.761	401.81
383.986	395.81
384.211	373.81
384.436	405.81
384.662	411.81
384.887	422.81
385.112	395.81
385.337	398.81
385.562	426.81
385.787	404.81
386.013	431.81
386.238	420.81
386.463	421.81
386.688	424.81
386.913	423.81
387.138	405.81
387.363	423.81
387.588	429.81
387.813	402.81
388.038	426.81
388.263	408.81
388.488	438.81
388.713	392.81
388.938	399.81
389.163	414.81
389.387	423.81
389.612	415.81
389.837	397.81
390.062	423.81
390.287	402.81
390.512	419.81
390.736	427.81
390.961	407.81
391.186	441.81
391.411	434.81
391.636	429.81
391.86	434.81
392.085	442.81
392.31	436.81
392.534	443.81
392.759	427.81
392.984	429.81
393.208	411.81
393.433	406.81
393.658	427.81
393.882	413.81
394.107	421.81
394.331	438.81
394.556	410.81
394.78	424.81
395.005	420.81
395.229	426.81
395.454	453.81
395.678	412.81
395.903	471.81
396.127	435.81
396.352	459.81
396.576	444.81
396.801	428.81
397.025	444.81
397.249	435.81
397.474	446.81
397.698	447.81
397.922	463.81
398.147	478.81
398.371	473.81
398.595	455.81
398.82	475.81
399.044	489.81
399.268	518.81
399.492	550.81
399.717	563.81
399.941	614.81
400.165	607.81
400.389	578.81
400.613	534.81
400.837	506.81
401.062	494.81
401.286	485.81
401.51	489.81
401.734	471.81
401.958	455.81
402.182	479.81
402.406	484.81
402.63	500.81
402.854	474.81
403.078	488.81
403.302	505.81
403.526	512.81
403.75	503.81
403.974	496.81
404.198	486.81
404.422	507.81
404.645	512.81
404.869	521.81
405.093	543.81
405.317	547.81
405.541	576.81
405.765	555.81
405.988	549.81
406.212	523.81
406.436	546.81
406.66	534.81
406.883	544.81
407.107	545.81
407.331	607.81
407.555	656.81
407.778	642.81
408.002	606.81
408.226	560.81
408.449	531.81
408.673	562.81
408.896	573.81
409.12	602.81
409.344	562.81
409.567	528.81
409.791	499.81
410.014	492.81
410.238	499.81
410.461	486.81
410.685	484.81
410.908	507.81
411.132	546.81
411.355	546.81
411.578	558.81
411.802	482.81
412.025	475.81
412.249	511.81
412.472	506.81
412.695	535.81
412.919	543.81
413.142	476.81
413.365	478.81
413.589	482.81
413.812	485.81
414.035	483.81
414.258	471.81
414.482	459.81
414.705	481.81
414.928	475.81
415.151	469.81
415.374	463.81
415.597	445.81
415.821	435.81
416.044	456.81
416.267	447.81
416.49	452.81
416.713	452.81
416.936	438.81
417.159	467.81
417.382	471.81
417.605	467.81
417.828	462.81
418.051	491.81
418.274	456.81
418.497	446.81
418.72	456.81
418.943	459.81
419.166	481.81
419.389	502.81
419.611	498.81
419.834	506.81
420.057	479.81
420.28	454.81
420.503	470.81
420.726	471.81
420.948	488.81
421.171	498.81
421.394	538.81
421.617	481.81
421.839	460.81
422.062	491.81
422.285	482.81
422.507	556.81
422.73	590.81
422.953	594.81
423.175	528.81
423.398	525.81
423.621	476.81
423.843	539.81
424.066	528.81
424.288	514.81
424.511	520.81
424.733	548.81
424.956	630.81
425.178	605.81
425.401	631.81
425.623	640.81
425.846	542.81
426.068	492.81
426.291	495.81
426.513	504.81
426.735	518.81
426.958	555.81
427.18	607.81
427.402	737.81
427.625	780.81
427.847	674.81
428.069	602.81
428.292	525.81
428.514	482.81
428.736	483.81
428.958	483.81
429.181	474.81
429.403	460.81
429.625	454.81
429.847	510.81
430.069	547.81
430.292	519.81
430.514	476.81
430.736	444.81
430.958	468.81
431.18	454.81
431.402	448.81
431.624	418.81
431.846	440.81
432.068	447.81
432.29	437.81
432.512	465.81
432.734	455.81
432.956	439.81
433.178	461.81
433.4	441.81
433.622	456.81
433.844	455.81
434.066	440.81
434.287	460.81
434.509	454.81
434.731	451.81
434.953	474.81
435.175	488.81
435.397	502.81
435.618	492.81
435.84	510.81
436.062	608.81
436.284	675.81
436.505	558.81
436.727	516.81
436.949	468.81
437.17	470.81
437.392	473.81
437.614	485.81
437.835	500.81
438.057	574.81
438.278	636.81
438.5	658.81
438.721	716.81
438.943	675.81
439.165	552.81
439.386	478.81
439.608	508.81
439.829	514.81
440.05	536.81
440.272	553.81
440.493	522.81
440.715	482.81
440.936	469.81
441.158	472.81
441.379	481.81
441.6	497.81
441.822	498.81
442.043	524.81
442.264	602.81
442.486	616.81
442.707	542.81
442.928	502.81
443.149	491.81
443.371	532.81
443.592	564.81
443.813	638.81
444.034	683.81
444.255	575.81
444.476	534.81
444.698	519.81
444.919	527.81
445.14	623.81
445.361	563.81
445.582	538.81
445.803	594.81
446.024	662.81
446.245	687.81
446.466	612.81
446.687	506.81
446.908	506.81
447.129	456.81
447.35	463.81
447.571	475.81
447.792	439.81
448.013	444.81
448.234	473.81
448.455	511.81
448.675	601.81
448.896	671.81
449.117	596.81
449.338	537.81
449.559	649.81
449.779	733.81
450	600.81
450.221	487.81
450.442	455.81
450.662	453.81
450.883	439.81
451.104	430.81
451.324	417.81
451.545	422.81
451.766	415.81
451.986	415.81
452.207	413.81
452.428	381.81
452.648	380.81
452.869	388.81
453.089	421.81
453.31	411.81
453.53	421.81
453.751	392.81
453.971	421.81
454.192	401.81
454.412	406.81
454.633	388.81
454.853	391.81
455.073	408.81
455.294	436.81
455.514	461.81
455.734	471.81
455.955	429.81
456.175	408.81
456.395	412.81
456.616	381.81
456.836	382.81
457.056	379.81
457.276	383.81
457.497	384.81
457.717	385.81
457.937	394.81
458.157	382.81
458.377	408.81
458.598	426.81
458.818	452.81
459.038	495.81
459.258	536.81
459.478	451.81
459.698	428.81
459.918	457.81
460.138	430.81
460.358	454.81
460.578	449.81
460.798	434.81
461.018	461.81
461.238	434.81
461.458	447.81
461.678	442.81
461.898	452.81
462.118	448.81
462.338	470.81
462.558	460.81
462.777	483.81
462.997	498.81
463.217	524.81
463.437	507.81
463.657	512.81
463.876	466.81
464.096	474.81
464.316	472.81
464.536	499.81
464.755	491.81
464.975	496.81
465.195	487.81
465.414	527.81
465.634	492.81
465.854	473.81
466.073	459.81
466.293	429.81
466.512	411.81
466.732	425.81
466.951	406.81
467.171	406.81
467.391	416.81
467.61	410.81
467.829	412.81
468.049	409.81
468.268	407.81
468.488	401.81
468.707	422.81
468.927	402.81
469.146	420.81
469.365	393.81
469.585	403.81
469.804	402.81
470.023	400.81
470.243	422.81
470.462	414.81
470.681	443.81
470.901	418.81
471.12	405.81
471.339	414.81
471.558	402.81
471.777	422.81
471.997	427.81
472.216	426.81
472.435	422.81
472.654	409.81
472.873	393.81
473.092	410.81
473.311	410.81
473.53	410.81
473.749	429.81
473.968	469.81
474.187	534.81
474.406	538.81
474.625	453.81
474.844	439.81
475.063	414.81
475.282	424.81
475.501	425.81
475.72	431.81
475.939	435.81
476.158	460.81
476.377	420.81
476.596	421.81
476.814	448.81
477.033	438.81
477.252	453.81
477.471	448.81
477.69	460.81
477.908	448.81
478.127	464.81
478.346	450.81
478.564	473.81
478.783	470.81
479.002	474.81
479.22	464.81
479.439	492.81
479.658	488.81
479.876	491.81
480.095	503.81
480.313	513.81
480.532	520.81
480.751	515.81
480.969	502.81
481.188	554.81
481.406	575.81
481.624	536.81
481.843	490.81
482.061	499.81
482.28	485.81
482.498	491.81
482.717	481.81
482.935	474.81
483.153	478.81
483.372	458.81
483.59	469.81
483.808	463.81
484.027	482.81
484.245	482.81
484.463	470.81
484.681	473.81
484.9	498.81
485.118	488.81
485.336	488.81
485.554	498.81
485.772	489.81
485.99	481.81
486.209	508.81
486.427	512.81
486.645	506.81
486.863	517.81
487.081	529.81
487.299	501.81
487.517	504.81
487.735	506.81
487.953	514.81
488.171	526.81
488.389	541.81
488.607	497.81
488.825	533.81
489.043	502.81
489.261	518.81
489.479	529.81
489.696	512.81
489.914	516.81
490.132	533.81
490.35	514.81
490.568	550.81
490.786	535.81
491.003	546.81
491.221	535.81
491.439	566.81
491.657	569.81
491.874	554.81
492.092	582.81
492.31	570.81
492.527	571.81
492.745	580.81
492.963	566.81
493.18	577.81
493.398	601.81
493.615	599.81
493.833	616.81
494.05	620.81
494.268	588.81
494.485	590.81
494.703	580.81
494.92	594.81
495.138	582.81
495.355	586.81
495.573	592.81
495.79	610.81
496.008	618.81
496.225	600.81
496.442	605.81
496.66	604.81
496.877	603.81
497.094	622.81
497.312	604.81
497.529	615.81
497.746	641.81
497.963	628.81
498.181	679.81
498.398	661.81
498.615	675.81
498.832	706.81
499.049	712.81
499.267	759.81
499.484	750.81
499.701	828.81
499.918	840.81
500.135	856.81
500.352	922.81
500.569	926.81
500.786	935.81
501.003	900.81
501.22	900.81
501.437	851.81
501.654	855.81
501.871	811.81
502.088	772.81
