Data from 1977.PennyLincolnUp.Lamp.En5.5.200Scan.071719.P1_HRD10591_16-04-56-863.txt Node
Date: Thu Jul 18 16:04:56 EDT 2019
User: cochatt
Spectrometer: HR+D1059
Trigger mode: 1
Integration Time (sec): 1.000000E-1
Scans to average: 1
Electric dark correction enabled: true
Nonlinearity correction enabled: false
Boxcar width: 0
XAxis mode: Wavelengths
Number of Pixels in Spectrum: 2048
>>>>>Begin Spectral Data<<<<<
223.165	5.81
223.4	5.81
223.635	5.81
223.869	-28.19
224.104	-16.19
224.338	-17.19
224.573	-16.19
224.808	-20.19
225.042	-9.19
225.277	-12.19
225.511	0.81
225.746	8.81
225.98	-8.19
226.215	8.81
226.449	14.81
226.683	16.81
226.918	33.81
227.152	37.81
227.387	28.81
227.621	38.81
227.856	46.81
228.09	54.81
228.324	46.81
228.559	50.81
228.793	64.81
229.027	95.81
229.262	85.81
229.496	88.81
229.73	112.81
229.964	111.81
230.199	112.81
230.433	110.81
230.667	86.81
230.901	105.81
231.136	104.81
231.37	94.81
231.604	97.81
231.838	104.81
232.072	101.81
232.306	107.81
232.541	111.81
232.775	102.81
233.009	115.81
233.243	108.81
233.477	102.81
233.711	105.81
233.945	96.81
234.179	122.81
234.413	107.81
234.647	102.81
234.881	91.81
235.115	107.81
235.349	115.81
235.583	123.81
235.817	119.81
236.051	118.81
236.285	123.81
236.519	126.81
236.753	119.81
236.987	108.81
237.221	138.81
237.455	174.81
237.689	126.81
237.922	127.81
238.156	104.81
238.39	123.81
238.624	101.81
238.858	107.81
239.091	122.81
239.325	107.81
239.559	112.81
239.793	121.81
240.027	116.81
240.26	116.81
240.494	137.81
240.728	140.81
240.961	132.81
241.195	118.81
241.429	131.81
241.662	118.81
241.896	122.81
242.13	130.81
242.363	136.81
242.597	109.81
242.83	111.81
243.064	118.81
243.298	132.81
243.531	119.81
243.765	131.81
243.998	119.81
244.232	126.81
244.465	135.81
244.699	135.81
244.932	124.81
245.166	131.81
245.399	134.81
245.633	143.81
245.866	146.81
246.099	132.81
246.333	140.81
246.566	142.81
246.8	132.81
247.033	146.81
247.266	142.81
247.5	149.81
247.733	151.81
247.966	141.81
248.2	151.81
248.433	167.81
248.666	150.81
248.899	148.81
249.133	157.81
249.366	173.81
249.599	164.81
249.832	162.81
250.066	155.81
250.299	150.81
250.532	150.81
250.765	171.81
250.998	192.81
251.231	176.81
251.465	169.81
251.698	181.81
251.931	157.81
252.164	185.81
252.397	183.81
252.63	181.81
252.863	172.81
253.096	191.81
253.329	185.81
253.562	180.81
253.795	184.81
254.028	171.81
254.261	176.81
254.494	183.81
254.727	201.81
254.96	211.81
255.193	215.81
255.426	202.81
255.659	181.81
255.892	177.81
256.124	181.81
256.357	180.81
256.59	174.81
256.823	186.81
257.056	186.81
257.289	185.81
257.521	178.81
257.754	185.81
257.987	178.81
258.22	174.81
258.452	185.81
258.685	169.81
258.918	180.81
259.151	192.81
259.383	179.81
259.616	178.81
259.849	189.81
260.081	194.81
260.314	205.81
260.547	208.81
260.779	196.81
261.012	198.81
261.244	190.81
261.477	206.81
261.71	208.81
261.942	203.81
262.175	187.81
262.407	208.81
262.64	195.81
262.872	192.81
263.105	198.81
263.337	195.81
263.57	188.81
263.802	200.81
264.035	189.81
264.267	183.81
264.499	179.81
264.732	194.81
264.964	204.81
265.197	202.81
265.429	199.81
265.661	213.81
265.894	206.81
266.126	206.81
266.358	189.81
266.591	203.81
266.823	203.81
267.055	192.81
267.287	197.81
267.52	197.81
267.752	208.81
267.984	208.81
268.216	214.81
268.448	225.81
268.681	225.81
268.913	221.81
269.145	217.81
269.377	223.81
269.609	229.81
269.841	232.81
270.073	226.81
270.306	239.81
270.538	261.81
270.77	249.81
271.002	247.81
271.234	261.81
271.466	252.81
271.698	235.81
271.93	250.81
272.162	238.81
272.394	247.81
272.626	242.81
272.858	231.81
273.09	225.81
273.322	242.81
273.553	243.81
273.785	226.81
274.017	220.81
274.249	220.81
274.481	214.81
274.713	219.81
274.945	242.81
275.176	238.81
275.408	215.81
275.64	231.81
275.872	230.81
276.104	239.81
276.335	220.81
276.567	224.81
276.799	233.81
277.031	259.81
277.262	266.81
277.494	255.81
277.726	271.81
277.957	245.81
278.189	259.81
278.421	259.81
278.652	245.81
278.884	243.81
279.115	242.81
279.347	248.81
279.579	254.81
279.81	254.81
280.042	252.81
280.273	248.81
280.505	245.81
280.736	243.81
280.968	242.81
281.199	261.81
281.431	231.81
281.662	250.81
281.894	247.81
282.125	244.81
282.356	267.81
282.588	261.81
282.819	265.81
283.051	264.81
283.282	247.81
283.513	254.81
283.745	263.81
283.976	272.81
284.207	257.81
284.439	253.81
284.67	263.81
284.901	263.81
285.132	280.81
285.364	278.81
285.595	268.81
285.826	238.81
286.057	278.81
286.288	261.81
286.52	250.81
286.751	263.81
286.982	276.81
287.213	259.81
287.444	245.81
287.675	262.81
287.906	261.81
288.138	270.81
288.369	271.81
288.6	275.81
288.831	270.81
289.062	278.81
289.293	276.81
289.524	270.81
289.755	274.81
289.986	272.81
290.217	265.81
290.448	269.81
290.679	262.81
290.91	282.81
291.141	272.81
291.371	272.81
291.602	263.81
291.833	270.81
292.064	279.81
292.295	272.81
292.526	266.81
292.757	283.81
292.987	274.81
293.218	287.81
293.449	279.81
293.68	290.81
293.91	273.81
294.141	283.81
294.372	287.81
294.603	266.81
294.833	274.81
295.064	278.81
295.295	285.81
295.525	283.81
295.756	287.81
295.987	283.81
296.217	291.81
296.448	302.81
296.679	278.81
296.909	278.81
297.14	287.81
297.37	297.81
297.601	277.81
297.831	269.81
298.062	293.81
298.292	283.81
298.523	300.81
298.753	293.81
298.984	287.81
299.214	291.81
299.445	293.81
299.675	278.81
299.905	292.81
300.136	283.81
300.366	296.81
300.597	307.81
300.827	291.81
301.057	313.81
301.288	295.81
301.518	317.81
301.748	304.81
301.979	307.81
302.209	314.81
302.439	290.81
302.669	315.81
302.9	308.81
303.13	318.81
303.36	318.81
303.59	314.81
303.82	311.81
304.051	292.81
304.281	325.81
304.511	295.81
304.741	298.81
304.971	320.81
305.201	309.81
305.431	312.81
305.661	308.81
305.891	306.81
306.121	312.81
306.352	315.81
306.582	288.81
306.812	308.81
307.042	311.81
307.272	317.81
307.502	303.81
307.731	328.81
307.961	296.81
308.191	309.81
308.421	293.81
308.651	303.81
308.881	311.81
309.111	300.81
309.341	327.81
309.571	310.81
309.8	320.81
310.03	318.81
310.26	328.81
310.49	305.81
310.72	332.81
310.949	328.81
311.179	327.81
311.409	335.81
311.639	331.81
311.868	318.81
312.098	336.81
312.328	344.81
312.557	345.81
312.787	343.81
313.017	328.81
313.246	342.81
313.476	335.81
313.706	339.81
313.935	322.81
314.165	336.81
314.394	340.81
314.624	349.81
314.853	346.81
315.083	360.81
315.312	336.81
315.542	340.81
315.771	327.81
316.001	316.81
316.23	316.81
316.46	343.81
316.689	341.81
316.919	341.81
317.148	353.81
317.377	365.81
317.607	349.81
317.836	325.81
318.065	336.81
318.295	333.81
318.524	330.81
318.753	335.81
318.983	338.81
319.212	342.81
319.441	348.81
319.67	331.81
319.9	350.81
320.129	339.81
320.358	343.81
320.587	351.81
320.816	340.81
321.046	350.81
321.275	356.81
321.504	335.81
321.733	342.81
321.962	343.81
322.191	351.81
322.42	364.81
322.649	387.81
322.878	372.81
323.108	358.81
323.337	378.81
323.566	386.81
323.795	399.81
324.024	410.81
324.253	461.81
324.482	598.81
324.71	834.81
324.939	1115.81
325.168	980.81
325.397	549.81
325.626	440.81
325.855	394.81
326.084	386.81
326.313	401.81
326.542	386.81
326.77	415.81
326.999	457.81
327.228	565.81
327.457	737.81
327.686	844.81
327.914	631.81
328.143	460.81
328.372	416.81
328.6	402.81
328.829	404.81
329.058	415.81
329.287	399.81
329.515	414.81
329.744	380.81
329.972	381.81
330.201	390.81
330.43	404.81
330.658	406.81
330.887	424.81
331.115	423.81
331.344	404.81
331.572	411.81
331.801	402.81
332.03	408.81
332.258	402.81
332.486	386.81
332.715	387.81
332.943	380.81
333.172	409.81
333.4	401.81
333.629	426.81
333.857	410.81
334.085	420.81
334.314	422.81
334.542	438.81
334.771	444.81
334.999	416.81
335.227	392.81
335.455	443.81
335.684	418.81
335.912	419.81
336.14	407.81
336.369	380.81
336.597	413.81
336.825	386.81
337.053	396.81
337.281	395.81
337.51	402.81
337.738	418.81
337.966	397.81
338.194	392.81
338.422	379.81
338.65	393.81
338.878	398.81
339.106	365.81
339.334	359.81
339.562	386.81
339.79	374.81
340.018	381.81
340.246	391.81
340.474	382.81
340.702	363.81
340.93	386.81
341.158	382.81
341.386	374.81
341.614	382.81
341.842	363.81
342.07	362.81
342.298	373.81
342.526	380.81
342.754	360.81
342.981	370.81
343.209	364.81
343.437	367.81
343.665	390.81
343.893	390.81
344.12	404.81
344.348	408.81
344.576	378.81
344.804	390.81
345.031	388.81
345.259	420.81
345.487	406.81
345.714	380.81
345.942	366.81
346.17	367.81
346.397	355.81
346.625	357.81
346.853	375.81
347.08	372.81
347.308	366.81
347.535	366.81
347.763	360.81
347.99	351.81
348.218	362.81
348.445	365.81
348.673	374.81
348.9	365.81
349.128	357.81
349.355	347.81
349.583	344.81
349.81	358.81
350.037	332.81
350.265	354.81
350.492	359.81
350.72	367.81
350.947	349.81
351.174	347.81
351.402	361.81
351.629	360.81
351.856	358.81
352.083	352.81
352.311	352.81
352.538	344.81
352.765	342.81
352.992	351.81
353.22	363.81
353.447	362.81
353.674	354.81
353.901	334.81
354.128	369.81
354.355	352.81
354.583	338.81
354.81	339.81
355.037	342.81
355.264	338.81
355.491	348.81
355.718	346.81
355.945	336.81
356.172	362.81
356.399	317.81
356.626	347.81
356.853	341.81
357.08	359.81
357.307	329.81
357.534	338.81
357.761	344.81
357.988	340.81
358.215	342.81
358.441	336.81
358.668	336.81
358.895	339.81
359.122	350.81
359.349	346.81
359.576	363.81
359.802	341.81
360.029	353.81
360.256	359.81
360.483	356.81
360.709	357.81
360.936	357.81
361.163	363.81
361.39	360.81
361.616	363.81
361.843	364.81
362.07	356.81
362.296	358.81
362.523	363.81
362.749	339.81
362.976	330.81
363.203	342.81
363.429	328.81
363.656	348.81
363.882	343.81
364.109	359.81
364.335	357.81
364.562	349.81
364.788	335.81
365.015	344.81
365.241	334.81
365.468	342.81
365.694	328.81
365.92	333.81
366.147	349.81
366.373	350.81
366.599	342.81
366.826	340.81
367.052	335.81
367.278	363.81
367.505	350.81
367.731	338.81
367.957	323.81
368.184	359.81
368.41	350.81
368.636	348.81
368.862	349.81
369.089	343.81
369.315	343.81
369.541	359.81
369.767	343.81
369.993	345.81
370.219	335.81
370.445	347.81
370.672	352.81
370.898	350.81
371.124	344.81
371.35	349.81
371.576	359.81
371.802	355.81
372.028	348.81
372.254	353.81
372.48	359.81
372.706	332.81
372.932	339.81
373.158	347.81
373.384	344.81
373.61	364.81
373.835	344.81
374.061	348.81
374.287	359.81
374.513	358.81
374.739	351.81
374.965	358.81
375.191	363.81
375.416	378.81
375.642	361.81
375.868	370.81
376.094	356.81
376.319	349.81
376.545	355.81
376.771	328.81
376.997	328.81
377.222	344.81
377.448	330.81
377.674	334.81
377.899	336.81
378.125	344.81
378.35	347.81
378.576	339.81
378.802	351.81
379.027	358.81
379.253	344.81
379.478	351.81
379.704	326.81
379.929	323.81
380.155	318.81
380.38	349.81
380.606	351.81
380.831	314.81
381.057	327.81
381.282	335.81
381.507	359.81
381.733	341.81
381.958	370.81
382.184	369.81
382.409	358.81
382.634	350.81
382.86	339.81
383.085	342.81
383.31	358.81
383.535	371.81
383.761	388.81
383.986	354.81
384.211	365.81
384.436	386.81
384.662	391.81
384.887	372.81
385.112	388.81
385.337	385.81
385.562	392.81
385.787	398.81
386.013	394.81
386.238	401.81
386.463	399.81
386.688	396.81
386.913	360.81
387.138	365.81
387.363	379.81
387.588	390.81
387.813	380.81
388.038	393.81
388.263	392.81
388.488	410.81
388.713	392.81
388.938	390.81
389.163	405.81
389.387	372.81
389.612	383.81
389.837	383.81
390.062	385.81
390.287	375.81
390.512	376.81
390.736	387.81
390.961	376.81
391.186	370.81
391.411	394.81
391.636	413.81
391.86	410.81
392.085	406.81
392.31	401.81
392.534	384.81
392.759	388.81
392.984	377.81
393.208	406.81
393.433	398.81
393.658	384.81
393.882	384.81
394.107	366.81
394.331	380.81
394.556	381.81
394.78	396.81
395.005	372.81
395.229	380.81
395.454	411.81
395.678	399.81
395.903	434.81
396.127	422.81
396.352	407.81
396.576	401.81
396.801	403.81
397.025	401.81
397.249	384.81
397.474	404.81
397.698	393.81
397.922	410.81
398.147	426.81
398.371	431.81
398.595	415.81
398.82	420.81
399.044	452.81
399.268	463.81
399.492	479.81
399.717	515.81
399.941	528.81
400.165	561.81
400.389	547.81
400.613	502.81
400.837	469.81
401.062	464.81
401.286	443.81
401.51	428.81
401.734	431.81
401.958	436.81
402.182	440.81
402.406	423.81
402.63	445.81
402.854	434.81
403.078	431.81
403.302	449.81
403.526	446.81
403.75	442.81
403.974	442.81
404.198	444.81
404.422	458.81
404.645	440.81
404.869	443.81
405.093	452.81
405.317	483.81
405.541	487.81
405.765	456.81
405.988	449.81
406.212	447.81
406.436	462.81
406.66	467.81
406.883	470.81
407.107	481.81
407.331	516.81
407.555	544.81
407.778	556.81
408.002	523.81
408.226	515.81
408.449	491.81
408.673	483.81
408.896	495.81
409.12	530.81
409.344	482.81
409.567	450.81
409.791	454.81
410.014	448.81
410.238	429.81
410.461	429.81
410.685	442.81
410.908	448.81
411.132	462.81
411.355	465.81
411.578	463.81
411.802	438.81
412.025	426.81
412.249	434.81
412.472	435.81
412.695	471.81
412.919	460.81
413.142	444.81
413.365	437.81
413.589	450.81
413.812	425.81
414.035	412.81
414.258	432.81
414.482	415.81
414.705	405.81
414.928	410.81
415.151	410.81
415.374	411.81
415.597	413.81
415.821	403.81
416.044	418.81
416.267	424.81
416.49	431.81
416.713	409.81
416.936	407.81
417.159	396.81
417.382	416.81
417.605	423.81
417.828	413.81
418.051	422.81
418.274	422.81
418.497	396.81
418.72	426.81
418.943	418.81
419.166	436.81
419.389	469.81
419.611	435.81
419.834	431.81
420.057	420.81
420.28	434.81
420.503	420.81
420.726	434.81
420.948	406.81
421.171	448.81
421.394	475.81
421.617	420.81
421.839	431.81
422.062	422.81
422.285	445.81
422.507	468.81
422.73	503.81
422.953	503.81
423.175	431.81
423.398	436.81
423.621	432.81
423.843	434.81
424.066	452.81
424.288	415.81
424.511	431.81
424.733	471.81
424.956	532.81
425.178	491.81
425.401	498.81
425.623	522.81
425.846	450.81
426.068	421.81
426.291	414.81
426.513	430.81
426.735	431.81
426.958	463.81
427.18	507.81
427.402	594.81
427.625	635.81
427.847	540.81
428.069	485.81
428.292	439.81
428.514	422.81
428.736	424.81
428.958	403.81
429.181	392.81
429.403	394.81
429.625	402.81
429.847	429.81
430.069	482.81
430.292	469.81
430.514	403.81
430.736	399.81
430.958	391.81
431.18	398.81
431.402	393.81
431.624	386.81
431.846	370.81
432.068	386.81
432.29	397.81
432.512	383.81
432.734	416.81
432.956	410.81
433.178	400.81
433.4	390.81
433.622	399.81
433.844	386.81
434.066	389.81
434.287	374.81
434.509	411.81
434.731	397.81
434.953	397.81
435.175	435.81
435.397	418.81
435.618	452.81
435.84	453.81
436.062	528.81
436.284	544.81
436.505	473.81
436.727	444.81
436.949	431.81
437.17	387.81
437.392	407.81
437.614	401.81
437.835	393.81
438.057	463.81
438.278	548.81
438.5	550.81
438.721	584.81
438.943	557.81
439.165	468.81
439.386	434.81
439.608	431.81
439.829	437.81
440.05	422.81
440.272	439.81
440.493	427.81
440.715	416.81
440.936	438.81
441.158	401.81
441.379	408.81
441.6	425.81
441.822	422.81
442.043	453.81
442.264	499.81
442.486	514.81
442.707	467.81
442.928	434.81
443.149	435.81
443.371	442.81
443.592	471.81
443.813	530.81
444.034	580.81
444.255	477.81
444.476	456.81
444.698	460.81
444.919	463.81
445.14	553.81
445.361	496.81
445.582	462.81
445.803	489.81
446.024	547.81
446.245	540.81
446.466	493.81
446.687	424.81
446.908	422.81
447.129	413.81
447.35	399.81
447.571	397.81
447.792	399.81
448.013	382.81
448.234	402.81
448.455	430.81
448.675	501.81
448.896	558.81
449.117	504.81
449.338	460.81
449.559	526.81
449.779	604.81
450	479.81
450.221	440.81
450.442	384.81
450.662	377.81
450.883	386.81
451.104	384.81
451.324	363.81
451.545	371.81
451.766	372.81
451.986	346.81
452.207	340.81
452.428	362.81
452.648	361.81
452.869	339.81
453.089	351.81
453.31	375.81
453.53	353.81
453.751	362.81
453.971	350.81
454.192	347.81
454.412	348.81
454.633	360.81
454.853	370.81
455.073	336.81
455.294	349.81
455.514	386.81
455.734	382.81
455.955	352.81
456.175	332.81
456.395	343.81
456.616	345.81
456.836	347.81
457.056	366.81
457.276	334.81
457.497	340.81
457.717	346.81
457.937	348.81
458.157	374.81
458.377	370.81
458.598	377.81
458.818	378.81
459.038	435.81
459.258	443.81
459.478	390.81
459.698	386.81
459.918	388.81
460.138	387.81
460.358	406.81
460.578	400.81
460.798	396.81
461.018	403.81
461.238	406.81
461.458	412.81
461.678	404.81
461.898	415.81
462.118	405.81
462.338	422.81
462.558	414.81
462.777	426.81
462.997	440.81
463.217	472.81
463.437	495.81
463.657	451.81
463.876	440.81
464.096	440.81
464.316	448.81
464.536	447.81
464.755	440.81
464.975	436.81
465.195	420.81
465.414	440.81
465.634	406.81
465.854	394.81
466.073	403.81
466.293	390.81
466.512	361.81
466.732	368.81
466.951	373.81
467.171	378.81
467.391	370.81
467.61	377.81
467.829	366.81
468.049	381.81
468.268	371.81
468.488	354.81
468.707	354.81
468.927	361.81
469.146	360.81
469.365	365.81
469.585	368.81
469.804	382.81
470.023	358.81
470.243	378.81
470.462	376.81
470.681	380.81
470.901	381.81
471.12	365.81
471.339	395.81
471.558	372.81
471.777	388.81
471.997	387.81
472.216	378.81
472.435	375.81
472.654	373.81
472.873	376.81
473.092	371.81
473.311	359.81
473.53	382.81
473.749	386.81
473.968	382.81
474.187	454.81
474.406	436.81
474.625	401.81
474.844	394.81
475.063	371.81
475.282	368.81
475.501	395.81
475.72	384.81
475.939	391.81
476.158	378.81
476.377	374.81
476.596	372.81
476.814	385.81
477.033	403.81
477.252	382.81
477.471	407.81
477.69	407.81
477.908	416.81
478.127	426.81
478.346	410.81
478.564	418.81
478.783	415.81
479.002	415.81
479.22	426.81
479.439	435.81
479.658	460.81
479.876	424.81
480.095	465.81
480.313	466.81
480.532	482.81
480.751	470.81
480.969	442.81
481.188	471.81
481.406	479.81
481.624	444.81
481.843	454.81
482.061	436.81
482.28	431.81
482.498	397.81
482.717	413.81
482.935	434.81
483.153	429.81
483.372	442.81
483.59	433.81
483.808	436.81
484.027	434.81
484.245	436.81
484.463	420.81
484.681	440.81
484.9	444.81
485.118	427.81
485.336	443.81
485.554	427.81
485.772	445.81
485.99	430.81
486.209	434.81
486.427	440.81
486.645	417.81
486.863	457.81
487.081	447.81
487.299	438.81
487.517	468.81
487.735	439.81
487.953	447.81
488.171	461.81
488.389	440.81
488.607	438.81
488.825	460.81
489.043	459.81
489.261	458.81
489.479	463.81
489.696	464.81
489.914	453.81
490.132	462.81
490.35	469.81
490.568	470.81
490.786	455.81
491.003	472.81
491.221	474.81
491.439	460.81
491.657	487.81
491.874	498.81
492.092	482.81
492.31	495.81
492.527	499.81
492.745	511.81
492.963	492.81
493.18	509.81
493.398	501.81
493.615	476.81
493.833	517.81
494.05	506.81
494.268	502.81
494.485	527.81
494.703	502.81
494.92	511.81
495.138	507.81
495.355	506.81
495.573	530.81
495.79	527.81
496.008	514.81
496.225	500.81
496.442	518.81
496.66	517.81
496.877	527.81
497.094	540.81
497.312	531.81
497.529	542.81
497.746	538.81
497.963	560.81
498.181	560.81
498.398	565.81
498.615	618.81
498.832	614.81
499.049	640.81
499.267	681.81
499.484	684.81
499.701	711.81
499.918	743.81
500.135	807.81
500.352	830.81
500.569	850.81
500.786	886.81
501.003	830.81
501.22	793.81
501.437	770.81
501.654	744.81
501.871	698.81
502.088	644.81
