Data from 1977.PennyLincolnUp.Lamp.En5.5.200Scan.071719.P1_HRD10591_16-05-21-864.txt Node
Date: Thu Jul 18 16:05:21 EDT 2019
User: cochatt
Spectrometer: HR+D1059
Trigger mode: 1
Integration Time (sec): 1.000000E-1
Scans to average: 1
Electric dark correction enabled: true
Nonlinearity correction enabled: false
Boxcar width: 0
XAxis mode: Wavelengths
Number of Pixels in Spectrum: 2048
>>>>>Begin Spectral Data<<<<<
223.165	-20.88
223.4	-20.88
223.635	-20.88
223.869	-9.88
224.104	2.12
224.338	-13.88
224.573	-24.88
224.808	-18.88
225.042	-9.88
225.277	-9.88
225.511	-9.88
225.746	2.12
225.98	13.12
226.215	15.12
226.449	14.12
226.683	26.12
226.918	21.12
227.152	24.12
227.387	25.12
227.621	42.12
227.856	45.12
228.09	44.12
228.324	50.12
228.559	54.12
228.793	67.12
229.027	84.12
229.262	107.12
229.496	101.12
229.73	108.12
229.964	124.12
230.199	102.12
230.433	108.12
230.667	113.12
230.901	97.12
231.136	108.12
231.37	104.12
231.604	98.12
231.838	95.12
232.072	111.12
232.306	105.12
232.541	101.12
232.775	111.12
233.009	109.12
233.243	109.12
233.477	115.12
233.711	116.12
233.945	100.12
234.179	112.12
234.413	122.12
234.647	107.12
234.881	115.12
235.115	126.12
235.349	121.12
235.583	122.12
235.817	109.12
236.051	120.12
236.285	126.12
236.519	107.12
236.753	111.12
236.987	125.12
237.221	167.12
237.455	182.12
237.689	146.12
237.922	126.12
238.156	138.12
238.39	125.12
238.624	132.12
238.858	129.12
239.091	108.12
239.325	111.12
239.559	106.12
239.793	119.12
240.027	119.12
240.26	132.12
240.494	141.12
240.728	130.12
240.961	121.12
241.195	126.12
241.429	126.12
241.662	131.12
241.896	116.12
242.13	140.12
242.363	131.12
242.597	143.12
242.83	132.12
243.064	129.12
243.298	127.12
243.531	125.12
243.765	137.12
243.998	148.12
244.232	150.12
244.465	144.12
244.699	147.12
244.932	132.12
245.166	137.12
245.399	139.12
245.633	152.12
245.866	146.12
246.099	141.12
246.333	138.12
246.566	137.12
246.8	142.12
247.033	150.12
247.266	156.12
247.5	148.12
247.733	161.12
247.966	170.12
248.2	175.12
248.433	161.12
248.666	164.12
248.899	164.12
249.133	182.12
249.366	190.12
249.599	172.12
249.832	169.12
250.066	165.12
250.299	162.12
250.532	169.12
250.765	166.12
250.998	175.12
251.231	198.12
251.465	183.12
251.698	190.12
251.931	193.12
252.164	186.12
252.397	179.12
252.63	184.12
252.863	191.12
253.096	197.12
253.329	208.12
253.562	207.12
253.795	217.12
254.028	194.12
254.261	193.12
254.494	194.12
254.727	206.12
254.96	230.12
255.193	206.12
255.426	224.12
255.659	206.12
255.892	210.12
256.124	200.12
256.357	228.12
256.59	231.12
256.823	192.12
257.056	211.12
257.289	198.12
257.521	195.12
257.754	209.12
257.987	213.12
258.22	196.12
258.452	201.12
258.685	194.12
258.918	210.12
259.151	203.12
259.383	210.12
259.616	217.12
259.849	211.12
260.081	208.12
260.314	228.12
260.547	234.12
260.779	230.12
261.012	215.12
261.244	223.12
261.477	211.12
261.71	205.12
261.942	198.12
262.175	220.12
262.407	208.12
262.64	216.12
262.872	202.12
263.105	198.12
263.337	199.12
263.57	196.12
263.802	201.12
264.035	212.12
264.267	208.12
264.499	204.12
264.732	203.12
264.964	204.12
265.197	211.12
265.429	204.12
265.661	210.12
265.894	205.12
266.126	210.12
266.358	222.12
266.591	208.12
266.823	238.12
267.055	221.12
267.287	210.12
267.52	225.12
267.752	236.12
267.984	214.12
268.216	228.12
268.448	220.12
268.681	226.12
268.913	237.12
269.145	246.12
269.377	250.12
269.609	236.12
269.841	244.12
270.073	252.12
270.306	266.12
270.538	271.12
270.77	292.12
271.002	279.12
271.234	285.12
271.466	263.12
271.698	273.12
271.93	287.12
272.162	286.12
272.394	284.12
272.626	260.12
272.858	267.12
273.09	271.12
273.322	271.12
273.553	251.12
273.785	237.12
274.017	238.12
274.249	266.12
274.481	262.12
274.713	251.12
274.945	262.12
275.176	256.12
275.408	283.12
275.64	265.12
275.872	270.12
276.104	263.12
276.335	268.12
276.567	272.12
276.799	260.12
277.031	290.12
277.262	291.12
277.494	297.12
277.726	288.12
277.957	277.12
278.189	278.12
278.421	276.12
278.652	267.12
278.884	288.12
279.115	272.12
279.347	268.12
279.579	268.12
279.81	273.12
280.042	275.12
280.273	258.12
280.505	283.12
280.736	261.12
280.968	282.12
281.199	267.12
281.431	273.12
281.662	288.12
281.894	263.12
282.125	275.12
282.356	284.12
282.588	302.12
282.819	304.12
283.051	286.12
283.282	287.12
283.513	263.12
283.745	280.12
283.976	282.12
284.207	284.12
284.439	292.12
284.67	282.12
284.901	279.12
285.132	293.12
285.364	285.12
285.595	294.12
285.826	275.12
286.057	283.12
286.288	295.12
286.52	298.12
286.751	278.12
286.982	295.12
287.213	281.12
287.444	295.12
287.675	275.12
287.906	326.12
288.138	307.12
288.369	290.12
288.6	314.12
288.831	296.12
289.062	302.12
289.293	290.12
289.524	303.12
289.755	295.12
289.986	288.12
290.217	290.12
290.448	296.12
290.679	288.12
290.91	292.12
291.141	294.12
291.371	296.12
291.602	304.12
291.833	323.12
292.064	308.12
292.295	289.12
292.526	297.12
292.757	303.12
292.987	291.12
293.218	290.12
293.449	301.12
293.68	299.12
293.91	316.12
294.141	309.12
294.372	308.12
294.603	306.12
294.833	297.12
295.064	296.12
295.295	292.12
295.525	290.12
295.756	302.12
295.987	313.12
296.217	306.12
296.448	298.12
296.679	307.12
296.909	318.12
297.14	318.12
297.37	318.12
297.601	315.12
297.831	318.12
298.062	307.12
298.292	326.12
298.523	322.12
298.753	320.12
298.984	303.12
299.214	319.12
299.445	325.12
299.675	322.12
299.905	317.12
300.136	319.12
300.366	333.12
300.597	321.12
300.827	332.12
301.057	310.12
301.288	308.12
301.518	344.12
301.748	332.12
301.979	334.12
302.209	332.12
302.439	339.12
302.669	346.12
302.9	346.12
303.13	336.12
303.36	352.12
303.59	308.12
303.82	340.12
304.051	315.12
304.281	347.12
304.511	327.12
304.741	315.12
304.971	346.12
305.201	351.12
305.431	335.12
305.661	317.12
305.891	363.12
306.121	358.12
306.352	343.12
306.582	326.12
306.812	328.12
307.042	329.12
307.272	318.12
307.502	346.12
307.731	342.12
307.961	340.12
308.191	347.12
308.421	339.12
308.651	348.12
308.881	328.12
309.111	365.12
309.341	348.12
309.571	356.12
309.8	366.12
310.03	362.12
310.26	363.12
310.49	351.12
310.72	373.12
310.949	366.12
311.179	379.12
311.409	376.12
311.639	354.12
311.868	386.12
312.098	367.12
312.328	356.12
312.557	380.12
312.787	370.12
313.017	355.12
313.246	362.12
313.476	354.12
313.706	371.12
313.935	370.12
314.165	367.12
314.394	365.12
314.624	387.12
314.853	382.12
315.083	378.12
315.312	383.12
315.542	392.12
315.771	355.12
316.001	374.12
316.23	387.12
316.46	388.12
316.689	376.12
316.919	371.12
317.148	384.12
317.377	400.12
317.607	376.12
317.836	381.12
318.065	381.12
318.295	367.12
318.524	368.12
318.753	380.12
318.983	352.12
319.212	376.12
319.441	382.12
319.67	380.12
319.9	359.12
320.129	378.12
320.358	378.12
320.587	374.12
320.816	386.12
321.046	392.12
321.275	369.12
321.504	364.12
321.733	378.12
321.962	390.12
322.191	389.12
322.42	392.12
322.649	394.12
322.878	416.12
323.108	415.12
323.337	415.12
323.566	438.12
323.795	459.12
324.024	463.12
324.253	552.12
324.482	721.12
324.71	1014.12
324.939	1372.12
325.168	1180.12
325.397	679.12
325.626	510.12
325.855	463.12
326.084	455.12
326.313	441.12
326.542	453.12
326.77	481.12
326.999	548.12
327.228	681.12
327.457	911.12
327.686	1045.12
327.914	715.12
328.143	538.12
328.372	479.12
328.6	456.12
328.829	455.12
329.058	484.12
329.287	490.12
329.515	469.12
329.744	445.12
329.972	441.12
330.201	472.12
330.43	469.12
330.658	478.12
330.887	493.12
331.115	488.12
331.344	453.12
331.572	453.12
331.801	451.12
332.03	438.12
332.258	435.12
332.486	422.12
332.715	440.12
332.943	439.12
333.172	462.12
333.4	442.12
333.629	437.12
333.857	471.12
334.085	507.12
334.314	475.12
334.542	486.12
334.771	491.12
334.999	475.12
335.227	468.12
335.455	461.12
335.684	457.12
335.912	448.12
336.14	439.12
336.369	450.12
336.597	457.12
336.825	439.12
337.053	439.12
337.281	451.12
337.51	432.12
337.738	431.12
337.966	432.12
338.194	413.12
338.422	420.12
338.65	429.12
338.878	416.12
339.106	411.12
339.334	440.12
339.562	410.12
339.79	414.12
340.018	404.12
340.246	420.12
340.474	426.12
340.702	416.12
340.93	404.12
341.158	422.12
341.386	421.12
341.614	418.12
341.842	425.12
342.07	412.12
342.298	395.12
342.526	428.12
342.754	418.12
342.981	404.12
343.209	405.12
343.437	410.12
343.665	422.12
343.893	431.12
344.12	439.12
344.348	426.12
344.576	440.12
344.804	444.12
345.031	456.12
345.259	424.12
345.487	415.12
345.714	399.12
345.942	410.12
346.17	427.12
346.397	397.12
346.625	404.12
346.853	373.12
347.08	404.12
347.308	395.12
347.535	388.12
347.763	393.12
347.99	382.12
348.218	402.12
348.445	413.12
348.673	406.12
348.9	393.12
349.128	391.12
349.355	374.12
349.583	394.12
349.81	383.12
350.037	382.12
350.265	383.12
350.492	388.12
350.72	388.12
350.947	371.12
351.174	396.12
351.402	394.12
351.629	400.12
351.856	395.12
352.083	408.12
352.311	404.12
352.538	396.12
352.765	386.12
352.992	391.12
353.22	397.12
353.447	385.12
353.674	367.12
353.901	373.12
354.128	371.12
354.355	376.12
354.583	374.12
354.81	387.12
355.037	354.12
355.264	360.12
355.491	387.12
355.718	379.12
355.945	374.12
356.172	363.12
356.399	372.12
356.626	377.12
356.853	393.12
357.08	370.12
357.307	367.12
357.534	365.12
357.761	361.12
357.988	389.12
358.215	365.12
358.441	366.12
358.668	379.12
358.895	379.12
359.122	381.12
359.349	392.12
359.576	377.12
359.802	400.12
360.029	413.12
360.256	409.12
360.483	406.12
360.709	386.12
360.936	394.12
361.163	373.12
361.39	396.12
361.616	381.12
361.843	388.12
362.07	370.12
362.296	389.12
362.523	376.12
362.749	375.12
362.976	395.12
363.203	389.12
363.429	376.12
363.656	391.12
363.882	387.12
364.109	393.12
364.335	358.12
364.562	366.12
364.788	371.12
365.015	370.12
365.241	392.12
365.468	378.12
365.694	378.12
365.92	369.12
366.147	368.12
366.373	360.12
366.599	371.12
366.826	386.12
367.052	351.12
367.278	377.12
367.505	359.12
367.731	370.12
367.957	375.12
368.184	378.12
368.41	377.12
368.636	380.12
368.862	375.12
369.089	372.12
369.315	376.12
369.541	371.12
369.767	386.12
369.993	371.12
370.219	378.12
370.445	376.12
370.672	388.12
370.898	380.12
371.124	374.12
371.35	391.12
371.576	386.12
371.802	385.12
372.028	386.12
372.254	368.12
372.48	351.12
372.706	394.12
372.932	378.12
373.158	374.12
373.384	392.12
373.61	364.12
373.835	381.12
374.061	396.12
374.287	374.12
374.513	381.12
374.739	361.12
374.965	392.12
375.191	384.12
375.416	380.12
375.642	375.12
375.868	389.12
376.094	395.12
376.319	390.12
376.545	395.12
376.771	355.12
376.997	359.12
377.222	380.12
377.448	364.12
377.674	376.12
377.899	375.12
378.125	376.12
378.35	391.12
378.576	370.12
378.802	364.12
379.027	382.12
379.253	378.12
379.478	394.12
379.704	383.12
379.929	365.12
380.155	363.12
380.38	375.12
380.606	400.12
380.831	366.12
381.057	391.12
381.282	361.12
381.507	372.12
381.733	376.12
381.958	382.12
382.184	378.12
382.409	383.12
382.634	393.12
382.86	390.12
383.085	413.12
383.31	389.12
383.535	386.12
383.761	414.12
383.986	396.12
384.211	381.12
384.436	404.12
384.662	404.12
384.887	427.12
385.112	406.12
385.337	416.12
385.562	411.12
385.787	407.12
386.013	427.12
386.238	433.12
386.463	441.12
386.688	397.12
386.913	403.12
387.138	419.12
387.363	406.12
387.588	407.12
387.813	421.12
388.038	418.12
388.263	408.12
388.488	410.12
388.713	410.12
388.938	416.12
389.163	404.12
389.387	401.12
389.612	402.12
389.837	431.12
390.062	416.12
390.287	411.12
390.512	423.12
390.736	412.12
390.961	404.12
391.186	395.12
391.411	412.12
391.636	422.12
391.86	427.12
392.085	420.12
392.31	430.12
392.534	412.12
392.759	438.12
392.984	411.12
393.208	403.12
393.433	434.12
393.658	406.12
393.882	410.12
394.107	425.12
394.331	431.12
394.556	408.12
394.78	431.12
395.005	425.12
395.229	422.12
395.454	426.12
395.678	410.12
395.903	435.12
396.127	427.12
396.352	450.12
396.576	439.12
396.801	436.12
397.025	435.12
397.249	447.12
397.474	421.12
397.698	449.12
397.922	451.12
398.147	456.12
398.371	474.12
398.595	464.12
398.82	456.12
399.044	489.12
399.268	498.12
399.492	527.12
399.717	565.12
399.941	584.12
400.165	579.12
400.389	573.12
400.613	503.12
400.837	520.12
401.062	511.12
401.286	494.12
401.51	475.12
401.734	468.12
401.958	483.12
402.182	475.12
402.406	473.12
402.63	467.12
402.854	479.12
403.078	484.12
403.302	480.12
403.526	488.12
403.75	494.12
403.974	484.12
404.198	512.12
404.422	492.12
404.645	495.12
404.869	502.12
405.093	520.12
405.317	550.12
405.541	547.12
405.765	517.12
405.988	494.12
406.212	510.12
406.436	514.12
406.66	515.12
406.883	513.12
407.107	539.12
407.331	575.12
407.555	634.12
407.778	602.12
408.002	564.12
408.226	533.12
408.449	514.12
408.673	528.12
408.896	539.12
409.12	578.12
409.344	544.12
409.567	506.12
409.791	482.12
410.014	495.12
410.238	472.12
410.461	492.12
410.685	486.12
410.908	485.12
411.132	503.12
411.355	538.12
411.578	532.12
411.802	482.12
412.025	474.12
412.249	483.12
412.472	486.12
412.695	507.12
412.919	508.12
413.142	494.12
413.365	486.12
413.589	479.12
413.812	459.12
414.035	465.12
414.258	447.12
414.482	444.12
414.705	467.12
414.928	458.12
415.151	474.12
415.374	443.12
415.597	442.12
415.821	442.12
416.044	430.12
416.267	458.12
416.49	464.12
416.713	447.12
416.936	450.12
417.159	454.12
417.382	457.12
417.605	431.12
417.828	464.12
418.051	483.12
418.274	459.12
418.497	451.12
418.72	451.12
418.943	451.12
419.166	470.12
419.389	486.12
419.611	481.12
419.834	467.12
420.057	460.12
420.28	479.12
420.503	458.12
420.726	463.12
420.948	471.12
421.171	486.12
421.394	506.12
421.617	479.12
421.839	456.12
422.062	466.12
422.285	455.12
422.507	516.12
422.73	538.12
422.953	543.12
423.175	485.12
423.398	501.12
423.621	492.12
423.843	487.12
424.066	489.12
424.288	488.12
424.511	495.12
424.733	534.12
424.956	582.12
425.178	560.12
425.401	577.12
425.623	575.12
425.846	503.12
426.068	483.12
426.291	461.12
426.513	477.12
426.735	479.12
426.958	515.12
427.18	572.12
427.402	656.12
427.625	720.12
427.847	583.12
428.069	536.12
428.292	497.12
428.514	469.12
428.736	436.12
428.958	442.12
429.181	447.12
429.403	458.12
429.625	440.12
429.847	466.12
430.069	503.12
430.292	511.12
430.514	458.12
430.736	428.12
430.958	419.12
431.18	436.12
431.402	416.12
431.624	401.12
431.846	423.12
432.068	430.12
432.29	417.12
432.512	452.12
432.734	444.12
432.956	420.12
433.178	414.12
433.4	436.12
433.622	436.12
433.844	440.12
434.066	430.12
434.287	431.12
434.509	453.12
434.731	440.12
434.953	439.12
435.175	463.12
435.397	466.12
435.618	495.12
435.84	499.12
436.062	564.12
436.284	615.12
436.505	529.12
436.727	462.12
436.949	462.12
437.17	463.12
437.392	430.12
437.614	424.12
437.835	478.12
438.057	521.12
438.278	580.12
438.5	586.12
438.721	656.12
438.943	632.12
439.165	497.12
439.386	463.12
439.608	490.12
439.829	452.12
440.05	483.12
440.272	505.12
440.493	476.12
440.715	465.12
440.936	443.12
441.158	444.12
441.379	447.12
441.6	446.12
441.822	471.12
442.043	494.12
442.264	568.12
442.486	594.12
442.707	524.12
442.928	463.12
443.149	478.12
443.371	508.12
443.592	518.12
443.813	603.12
444.034	644.12
444.255	536.12
444.476	493.12
444.698	478.12
444.919	483.12
445.14	588.12
445.361	524.12
445.582	490.12
445.803	562.12
446.024	620.12
446.245	611.12
446.466	565.12
446.687	476.12
446.908	448.12
447.129	442.12
447.35	444.12
447.571	437.12
447.792	419.12
448.013	429.12
448.234	441.12
448.455	492.12
448.675	559.12
448.896	615.12
449.117	542.12
449.338	512.12
449.559	600.12
449.779	685.12
450	546.12
450.221	460.12
450.442	422.12
450.662	425.12
450.883	419.12
451.104	428.12
451.324	393.12
451.545	386.12
451.766	408.12
451.986	390.12
452.207	391.12
452.428	381.12
452.648	388.12
452.869	387.12
453.089	389.12
453.31	398.12
453.53	377.12
453.751	390.12
453.971	361.12
454.192	394.12
454.412	382.12
454.633	384.12
454.853	389.12
455.073	393.12
455.294	395.12
455.514	448.12
455.734	434.12
455.955	386.12
456.175	378.12
456.395	370.12
456.616	372.12
456.836	394.12
457.056	366.12
457.276	337.12
457.497	375.12
457.717	381.12
457.937	378.12
458.157	374.12
458.377	367.12
458.598	403.12
458.818	414.12
459.038	453.12
459.258	493.12
459.478	432.12
459.698	424.12
459.918	417.12
460.138	416.12
460.358	422.12
460.578	445.12
460.798	444.12
461.018	445.12
461.238	424.12
461.458	455.12
461.678	437.12
461.898	435.12
462.118	453.12
462.338	426.12
462.558	450.12
462.777	459.12
462.997	494.12
463.217	515.12
463.437	511.12
463.657	473.12
463.876	469.12
464.096	480.12
464.316	476.12
464.536	482.12
464.755	485.12
464.975	456.12
465.195	472.12
465.414	482.12
465.634	457.12
465.854	430.12
466.073	419.12
466.293	406.12
466.512	410.12
466.732	414.12
466.951	388.12
467.171	407.12
467.391	404.12
467.61	408.12
467.829	409.12
468.049	405.12
468.268	394.12
468.488	394.12
468.707	404.12
468.927	388.12
469.146	386.12
469.365	388.12
469.585	392.12
469.804	412.12
470.023	414.12
470.243	417.12
470.462	408.12
470.681	415.12
470.901	423.12
471.12	422.12
471.339	407.12
471.558	421.12
471.777	400.12
471.997	410.12
472.216	405.12
472.435	415.12
472.654	407.12
472.873	413.12
473.092	414.12
473.311	403.12
473.53	412.12
473.749	428.12
473.968	425.12
474.187	512.12
474.406	494.12
474.625	438.12
474.844	414.12
475.063	429.12
475.282	407.12
475.501	430.12
475.72	397.12
475.939	406.12
476.158	414.12
476.377	436.12
476.596	411.12
476.814	416.12
477.033	425.12
477.252	450.12
477.471	452.12
477.69	431.12
477.908	453.12
478.127	436.12
478.346	435.12
478.564	434.12
478.783	459.12
479.002	473.12
479.22	482.12
479.439	465.12
479.658	465.12
479.876	491.12
480.095	496.12
480.313	496.12
480.532	512.12
480.751	494.12
480.969	521.12
481.188	514.12
481.406	508.12
481.624	481.12
481.843	492.12
482.061	480.12
482.28	445.12
482.498	472.12
482.717	460.12
482.935	442.12
483.153	452.12
483.372	445.12
483.59	459.12
483.808	465.12
484.027	473.12
484.245	480.12
484.463	474.12
484.681	483.12
484.9	463.12
485.118	454.12
485.336	466.12
485.554	474.12
485.772	455.12
485.99	468.12
486.209	480.12
486.427	475.12
486.645	489.12
486.863	488.12
487.081	497.12
487.299	495.12
487.517	493.12
487.735	495.12
487.953	480.12
488.171	493.12
488.389	492.12
488.607	487.12
488.825	468.12
489.043	507.12
489.261	513.12
489.479	490.12
489.696	515.12
489.914	500.12
490.132	529.12
490.35	507.12
490.568	505.12
490.786	514.12
491.003	534.12
491.221	535.12
491.439	548.12
491.657	567.12
491.874	545.12
492.092	530.12
492.31	544.12
492.527	558.12
492.745	540.12
492.963	556.12
493.18	528.12
493.398	561.12
493.615	558.12
493.833	564.12
494.05	549.12
494.268	568.12
494.485	564.12
494.703	555.12
494.92	570.12
495.138	568.12
495.355	551.12
495.573	582.12
495.79	558.12
496.008	579.12
496.225	530.12
496.442	542.12
496.66	577.12
496.877	578.12
497.094	574.12
497.312	556.12
497.529	591.12
497.746	619.12
497.963	610.12
498.181	624.12
498.398	637.12
498.615	646.12
498.832	663.12
499.049	689.12
499.267	711.12
499.484	740.12
499.701	778.12
499.918	805.12
500.135	863.12
500.352	907.12
500.569	920.12
500.786	939.12
501.003	924.12
501.22	869.12
501.437	811.12
501.654	811.12
501.871	762.12
502.088	732.12
