Data from 1977.PennyLincolnUp.Lamp.En5.5.200Scan.071719.P1_HRD10591_16-07-43-866.txt Node
Date: Thu Jul 18 16:07:43 EDT 2019
User: cochatt
Spectrometer: HR+D1059
Trigger mode: 1
Integration Time (sec): 1.000000E-1
Scans to average: 1
Electric dark correction enabled: true
Nonlinearity correction enabled: false
Boxcar width: 0
XAxis mode: Wavelengths
Number of Pixels in Spectrum: 2048
>>>>>Begin Spectral Data<<<<<
223.165	-27.75
223.4	-27.75
223.635	-27.75
223.869	-11.75
224.104	-23.75
224.338	-13.75
224.573	-17.75
224.808	-12.75
225.042	-5.75
225.277	7.25
225.511	-8.75
225.746	4.25
225.98	11.25
226.215	3.25
226.449	27.25
226.683	23.25
226.918	20.25
227.152	25.25
227.387	48.25
227.621	40.25
227.856	40.25
228.09	27.25
228.324	45.25
228.559	53.25
228.793	77.25
229.027	91.25
229.262	103.25
229.496	107.25
229.73	120.25
229.964	140.25
230.199	124.25
230.433	101.25
230.667	103.25
230.901	116.25
231.136	108.25
231.37	120.25
231.604	107.25
231.838	118.25
232.072	111.25
232.306	114.25
232.541	123.25
232.775	120.25
233.009	109.25
233.243	102.25
233.477	101.25
233.711	114.25
233.945	108.25
234.179	120.25
234.413	124.25
234.647	120.25
234.881	122.25
235.115	99.25
235.349	108.25
235.583	119.25
235.817	145.25
236.051	117.25
236.285	116.25
236.519	128.25
236.753	134.25
236.987	140.25
237.221	179.25
237.455	196.25
237.689	177.25
237.922	144.25
238.156	133.25
238.39	124.25
238.624	108.25
238.858	124.25
239.091	123.25
239.325	125.25
239.559	122.25
239.793	148.25
240.027	142.25
240.26	139.25
240.494	159.25
240.728	146.25
240.961	144.25
241.195	159.25
241.429	132.25
241.662	148.25
241.896	139.25
242.13	135.25
242.363	129.25
242.597	145.25
242.83	137.25
243.064	129.25
243.298	135.25
243.531	149.25
243.765	133.25
243.998	137.25
244.232	149.25
244.465	135.25
244.699	150.25
244.932	139.25
245.166	142.25
245.399	151.25
245.633	152.25
245.866	147.25
246.099	159.25
246.333	153.25
246.566	162.25
246.8	145.25
247.033	154.25
247.266	143.25
247.5	153.25
247.733	169.25
247.966	171.25
248.2	171.25
248.433	170.25
248.666	191.25
248.899	192.25
249.133	195.25
249.366	186.25
249.599	194.25
249.832	198.25
250.066	186.25
250.299	185.25
250.532	193.25
250.765	196.25
250.998	196.25
251.231	217.25
251.465	220.25
251.698	196.25
251.931	203.25
252.164	192.25
252.397	196.25
252.63	199.25
252.863	194.25
253.096	217.25
253.329	233.25
253.562	224.25
253.795	213.25
254.028	236.25
254.261	207.25
254.494	215.25
254.727	258.25
254.96	281.25
255.193	281.25
255.426	247.25
255.659	242.25
255.892	228.25
256.124	224.25
256.357	259.25
256.59	219.25
256.823	223.25
257.056	211.25
257.289	210.25
257.521	203.25
257.754	203.25
257.987	212.25
258.22	207.25
258.452	202.25
258.685	224.25
258.918	225.25
259.151	237.25
259.383	237.25
259.616	205.25
259.849	220.25
260.081	231.25
260.314	243.25
260.547	269.25
260.779	250.25
261.012	229.25
261.244	247.25
261.477	239.25
261.71	219.25
261.942	240.25
262.175	247.25
262.407	225.25
262.64	226.25
262.872	212.25
263.105	229.25
263.337	241.25
263.57	220.25
263.802	218.25
264.035	222.25
264.267	219.25
264.499	220.25
264.732	231.25
264.964	223.25
265.197	220.25
265.429	226.25
265.661	230.25
265.894	211.25
266.126	204.25
266.358	215.25
266.591	232.25
266.823	239.25
267.055	223.25
267.287	248.25
267.52	243.25
267.752	241.25
267.984	261.25
268.216	239.25
268.448	251.25
268.681	257.25
268.913	269.25
269.145	267.25
269.377	285.25
269.609	266.25
269.841	280.25
270.073	291.25
270.306	290.25
270.538	312.25
270.77	328.25
271.002	301.25
271.234	292.25
271.466	325.25
271.698	318.25
271.93	329.25
272.162	320.25
272.394	321.25
272.626	316.25
272.858	291.25
273.09	276.25
273.322	295.25
273.553	295.25
273.785	289.25
274.017	282.25
274.249	271.25
274.481	264.25
274.713	273.25
274.945	283.25
275.176	271.25
275.408	293.25
275.64	252.25
275.872	265.25
276.104	289.25
276.335	270.25
276.567	268.25
276.799	310.25
277.031	332.25
277.262	332.25
277.494	317.25
277.726	306.25
277.957	314.25
278.189	311.25
278.421	288.25
278.652	290.25
278.884	273.25
279.115	286.25
279.347	286.25
279.579	304.25
279.81	283.25
280.042	295.25
280.273	287.25
280.505	277.25
280.736	285.25
280.968	281.25
281.199	298.25
281.431	287.25
281.662	297.25
281.894	306.25
282.125	291.25
282.356	295.25
282.588	329.25
282.819	326.25
283.051	286.25
283.282	301.25
283.513	313.25
283.745	310.25
283.976	309.25
284.207	324.25
284.439	303.25
284.67	305.25
284.901	296.25
285.132	296.25
285.364	295.25
285.595	297.25
285.826	294.25
286.057	305.25
286.288	311.25
286.52	299.25
286.751	321.25
286.982	311.25
287.213	313.25
287.444	305.25
287.675	331.25
287.906	328.25
288.138	332.25
288.369	334.25
288.6	322.25
288.831	315.25
289.062	329.25
289.293	342.25
289.524	308.25
289.755	322.25
289.986	315.25
290.217	316.25
290.448	319.25
290.679	339.25
290.91	312.25
291.141	313.25
291.371	316.25
291.602	315.25
291.833	308.25
292.064	321.25
292.295	320.25
292.526	323.25
292.757	313.25
292.987	305.25
293.218	338.25
293.449	316.25
293.68	321.25
293.91	295.25
294.141	327.25
294.372	321.25
294.603	311.25
294.833	319.25
295.064	319.25
295.295	331.25
295.525	330.25
295.756	353.25
295.987	332.25
296.217	338.25
296.448	339.25
296.679	323.25
296.909	323.25
297.14	329.25
297.37	313.25
297.601	326.25
297.831	337.25
298.062	329.25
298.292	338.25
298.523	345.25
298.753	331.25
298.984	338.25
299.214	348.25
299.445	354.25
299.675	341.25
299.905	358.25
300.136	327.25
300.366	334.25
300.597	340.25
300.827	336.25
301.057	344.25
301.288	365.25
301.518	361.25
301.748	348.25
301.979	350.25
302.209	353.25
302.439	346.25
302.669	351.25
302.9	352.25
303.13	348.25
303.36	367.25
303.59	369.25
303.82	360.25
304.051	394.25
304.281	369.25
304.511	357.25
304.741	335.25
304.971	352.25
305.201	358.25
305.431	338.25
305.661	353.25
305.891	347.25
306.121	361.25
306.352	344.25
306.582	354.25
306.812	379.25
307.042	377.25
307.272	364.25
307.502	377.25
307.731	370.25
307.961	368.25
308.191	367.25
308.421	370.25
308.651	368.25
308.881	365.25
309.111	368.25
309.341	369.25
309.571	380.25
309.8	400.25
310.03	371.25
310.26	398.25
310.49	380.25
310.72	397.25
310.949	407.25
311.179	407.25
311.409	408.25
311.639	388.25
311.868	403.25
312.098	411.25
312.328	409.25
312.557	415.25
312.787	416.25
313.017	421.25
313.246	416.25
313.476	428.25
313.706	381.25
313.935	396.25
314.165	406.25
314.394	405.25
314.624	397.25
314.853	420.25
315.083	425.25
315.312	415.25
315.542	397.25
315.771	405.25
316.001	396.25
316.23	403.25
316.46	399.25
316.689	394.25
316.919	405.25
317.148	436.25
317.377	422.25
317.607	419.25
317.836	437.25
318.065	395.25
318.295	420.25
318.524	408.25
318.753	395.25
318.983	410.25
319.212	405.25
319.441	415.25
319.67	433.25
319.9	389.25
320.129	417.25
320.358	421.25
320.587	403.25
320.816	417.25
321.046	423.25
321.275	420.25
321.504	399.25
321.733	411.25
321.962	432.25
322.191	429.25
322.42	454.25
322.649	481.25
322.878	477.25
323.108	444.25
323.337	474.25
323.566	498.25
323.795	499.25
324.024	559.25
324.253	659.25
324.482	921.25
324.71	1371.25
324.939	1877.25
325.168	1606.25
325.397	859.25
325.626	625.25
325.855	546.25
326.084	521.25
326.313	502.25
326.542	497.25
326.77	529.25
326.999	629.25
327.228	833.25
327.457	1224.25
327.686	1411.25
327.914	970.25
328.143	651.25
328.372	596.25
328.6	547.25
328.829	552.25
329.058	578.25
329.287	571.25
329.515	522.25
329.744	485.25
329.972	511.25
330.201	534.25
330.43	529.25
330.658	567.25
330.887	576.25
331.115	539.25
331.344	521.25
331.572	497.25
331.801	524.25
332.03	490.25
332.258	500.25
332.486	456.25
332.715	481.25
332.943	473.25
333.172	484.25
333.4	486.25
333.629	483.25
333.857	503.25
334.085	523.25
334.314	528.25
334.542	535.25
334.771	535.25
334.999	521.25
335.227	508.25
335.455	483.25
335.684	481.25
335.912	492.25
336.14	479.25
336.369	487.25
336.597	497.25
336.825	477.25
337.053	476.25
337.281	459.25
337.51	468.25
337.738	469.25
337.966	453.25
338.194	482.25
338.422	466.25
338.65	484.25
338.878	466.25
339.106	453.25
339.334	461.25
339.562	459.25
339.79	448.25
340.018	467.25
340.246	441.25
340.474	436.25
340.702	466.25
340.93	457.25
341.158	444.25
341.386	445.25
341.614	446.25
341.842	437.25
342.07	445.25
342.298	461.25
342.526	452.25
342.754	433.25
342.981	447.25
343.209	436.25
343.437	427.25
343.665	449.25
343.893	483.25
344.12	480.25
344.348	484.25
344.576	461.25
344.804	452.25
345.031	456.25
345.259	456.25
345.487	466.25
345.714	462.25
345.942	438.25
346.17	440.25
346.397	442.25
346.625	437.25
346.853	432.25
347.08	442.25
347.308	438.25
347.535	442.25
347.763	445.25
347.99	439.25
348.218	434.25
348.445	459.25
348.673	435.25
348.9	424.25
349.128	425.25
349.355	405.25
349.583	428.25
349.81	408.25
350.037	409.25
350.265	414.25
350.492	408.25
350.72	396.25
350.947	409.25
351.174	411.25
351.402	451.25
351.629	449.25
351.856	443.25
352.083	433.25
352.311	432.25
352.538	433.25
352.765	440.25
352.992	431.25
353.22	439.25
353.447	427.25
353.674	428.25
353.901	419.25
354.128	416.25
354.355	418.25
354.583	412.25
354.81	411.25
355.037	381.25
355.264	403.25
355.491	394.25
355.718	379.25
355.945	395.25
356.172	399.25
356.399	381.25
356.626	381.25
356.853	410.25
357.08	380.25
357.307	385.25
357.534	398.25
357.761	394.25
357.988	411.25
358.215	396.25
358.441	405.25
358.668	398.25
358.895	411.25
359.122	383.25
359.349	412.25
359.576	407.25
359.802	416.25
360.029	448.25
360.256	449.25
360.483	436.25
360.709	418.25
360.936	425.25
361.163	391.25
361.39	399.25
361.616	411.25
361.843	416.25
362.07	416.25
362.296	412.25
362.523	413.25
362.749	388.25
362.976	377.25
363.203	431.25
363.429	398.25
363.656	400.25
363.882	424.25
364.109	396.25
364.335	387.25
364.562	388.25
364.788	402.25
365.015	387.25
365.241	384.25
365.468	414.25
365.694	394.25
365.92	422.25
366.147	418.25
366.373	405.25
366.599	407.25
366.826	401.25
367.052	407.25
367.278	411.25
367.505	426.25
367.731	409.25
367.957	391.25
368.184	403.25
368.41	392.25
368.636	409.25
368.862	423.25
369.089	391.25
369.315	394.25
369.541	427.25
369.767	399.25
369.993	415.25
370.219	392.25
370.445	394.25
370.672	401.25
370.898	407.25
371.124	395.25
371.35	393.25
371.576	409.25
371.802	397.25
372.028	409.25
372.254	437.25
372.48	402.25
372.706	399.25
372.932	391.25
373.158	409.25
373.384	392.25
373.61	432.25
373.835	421.25
374.061	404.25
374.287	389.25
374.513	411.25
374.739	408.25
374.965	411.25
375.191	398.25
375.416	401.25
375.642	413.25
375.868	416.25
376.094	389.25
376.319	399.25
376.545	386.25
376.771	394.25
376.997	396.25
377.222	388.25
377.448	413.25
377.674	390.25
377.899	389.25
378.125	408.25
378.35	411.25
378.576	407.25
378.802	380.25
379.027	385.25
379.253	406.25
379.478	410.25
379.704	409.25
379.929	401.25
380.155	404.25
380.38	408.25
380.606	392.25
380.831	373.25
381.057	393.25
381.282	401.25
381.507	390.25
381.733	404.25
381.958	380.25
382.184	390.25
382.409	404.25
382.634	415.25
382.86	400.25
383.085	407.25
383.31	425.25
383.535	411.25
383.761	420.25
383.986	410.25
384.211	430.25
384.436	435.25
384.662	408.25
384.887	437.25
385.112	453.25
385.337	445.25
385.562	435.25
385.787	433.25
386.013	441.25
386.238	421.25
386.463	439.25
386.688	455.25
386.913	441.25
387.138	412.25
387.363	428.25
387.588	447.25
387.813	444.25
388.038	434.25
388.263	421.25
388.488	431.25
388.713	443.25
388.938	431.25
389.163	405.25
389.387	451.25
389.612	421.25
389.837	427.25
390.062	435.25
390.287	425.25
390.512	424.25
390.736	435.25
390.961	442.25
391.186	460.25
391.411	447.25
391.636	459.25
391.86	449.25
392.085	448.25
392.31	462.25
392.534	450.25
392.759	450.25
392.984	444.25
393.208	437.25
393.433	453.25
393.658	413.25
393.882	437.25
394.107	442.25
394.331	426.25
394.556	449.25
394.78	456.25
395.005	441.25
395.229	452.25
395.454	449.25
395.678	459.25
395.903	461.25
396.127	479.25
396.352	491.25
396.576	487.25
396.801	458.25
397.025	463.25
397.249	461.25
397.474	451.25
397.698	477.25
397.922	470.25
398.147	473.25
398.371	488.25
398.595	476.25
398.82	477.25
399.044	520.25
399.268	541.25
399.492	572.25
399.717	583.25
399.941	610.25
400.165	627.25
400.389	615.25
400.613	571.25
400.837	556.25
401.062	532.25
401.286	523.25
401.51	493.25
401.734	489.25
401.958	501.25
402.182	496.25
402.406	514.25
402.63	473.25
402.854	495.25
403.078	509.25
403.302	511.25
403.526	544.25
403.75	515.25
403.974	503.25
404.198	504.25
404.422	536.25
404.645	517.25
404.869	540.25
405.093	547.25
405.317	591.25
405.541	617.25
405.765	545.25
405.988	538.25
406.212	526.25
406.436	574.25
406.66	584.25
406.883	560.25
407.107	563.25
407.331	599.25
407.555	649.25
407.778	665.25
408.002	598.25
408.226	563.25
408.449	565.25
408.673	556.25
408.896	562.25
409.12	633.25
409.344	568.25
409.567	540.25
409.791	530.25
410.014	528.25
410.238	503.25
410.461	519.25
410.685	522.25
410.908	515.25
411.132	563.25
411.355	568.25
411.578	551.25
411.802	525.25
412.025	516.25
412.249	522.25
412.472	527.25
412.695	559.25
412.919	572.25
413.142	527.25
413.365	479.25
413.589	509.25
413.812	480.25
414.035	487.25
414.258	482.25
414.482	480.25
414.705	474.25
414.928	488.25
415.151	508.25
415.374	489.25
415.597	472.25
415.821	482.25
416.044	481.25
416.267	471.25
416.49	485.25
416.713	473.25
416.936	464.25
417.159	464.25
417.382	457.25
417.605	487.25
417.828	485.25
418.051	508.25
418.274	484.25
418.497	503.25
418.72	485.25
418.943	475.25
419.166	486.25
419.389	520.25
419.611	521.25
419.834	500.25
420.057	525.25
420.28	513.25
420.503	498.25
420.726	474.25
420.948	512.25
421.171	524.25
421.394	564.25
421.617	500.25
421.839	498.25
422.062	511.25
422.285	501.25
422.507	539.25
422.73	603.25
422.953	612.25
423.175	534.25
423.398	513.25
423.621	520.25
423.843	532.25
424.066	530.25
424.288	545.25
424.511	550.25
424.733	593.25
424.956	651.25
425.178	647.25
425.401	589.25
425.623	647.25
425.846	565.25
426.068	523.25
426.291	545.25
426.513	529.25
426.735	542.25
426.958	553.25
427.18	619.25
427.402	755.25
427.625	820.25
427.847	699.25
428.069	597.25
428.292	543.25
428.514	529.25
428.736	484.25
428.958	500.25
429.181	464.25
429.403	490.25
429.625	500.25
429.847	541.25
430.069	603.25
430.292	564.25
430.514	492.25
430.736	479.25
430.958	459.25
431.18	460.25
431.402	457.25
431.624	471.25
431.846	429.25
432.068	456.25
432.29	460.25
432.512	445.25
432.734	471.25
432.956	452.25
433.178	474.25
433.4	476.25
433.622	474.25
433.844	459.25
434.066	465.25
434.287	451.25
434.509	473.25
434.731	470.25
434.953	506.25
435.175	499.25
435.397	532.25
435.618	535.25
435.84	551.25
436.062	626.25
436.284	684.25
436.505	575.25
436.727	531.25
436.949	499.25
437.17	487.25
437.392	484.25
437.614	467.25
437.835	490.25
438.057	567.25
438.278	674.25
438.5	687.25
438.721	725.25
438.943	712.25
439.165	565.25
439.386	524.25
439.608	523.25
439.829	504.25
440.05	513.25
440.272	539.25
440.493	565.25
440.715	522.25
440.936	477.25
441.158	472.25
441.379	486.25
441.6	496.25
441.822	525.25
442.043	552.25
442.264	633.25
442.486	640.25
442.707	550.25
442.928	531.25
443.149	550.25
443.371	549.25
443.592	599.25
443.813	675.25
444.034	718.25
444.255	605.25
444.476	564.25
444.698	545.25
444.919	538.25
445.14	662.25
445.361	607.25
445.582	544.25
445.803	589.25
446.024	683.25
446.245	682.25
446.466	620.25
446.687	570.25
446.908	496.25
447.129	480.25
447.35	471.25
447.571	476.25
447.792	468.25
448.013	454.25
448.234	492.25
448.455	537.25
448.675	643.25
448.896	729.25
449.117	623.25
449.338	587.25
449.559	673.25
449.779	771.25
450	633.25
450.221	510.25
450.442	476.25
450.662	460.25
450.883	460.25
451.104	471.25
451.324	473.25
451.545	450.25
451.766	416.25
451.986	429.25
452.207	415.25
452.428	432.25
452.648	418.25
452.869	411.25
453.089	420.25
453.31	433.25
453.53	417.25
453.751	417.25
453.971	419.25
454.192	435.25
454.412	415.25
454.633	407.25
454.853	403.25
455.073	406.25
455.294	434.25
455.514	497.25
455.734	497.25
455.955	428.25
456.175	412.25
456.395	400.25
456.616	410.25
456.836	404.25
457.056	391.25
457.276	381.25
457.497	407.25
457.717	405.25
457.937	405.25
458.157	408.25
458.377	402.25
458.598	434.25
458.818	483.25
459.038	518.25
459.258	555.25
459.478	482.25
459.698	455.25
459.918	452.25
460.138	478.25
460.358	462.25
460.578	453.25
460.798	467.25
461.018	468.25
461.238	468.25
461.458	475.25
461.678	470.25
461.898	493.25
462.118	471.25
462.338	499.25
462.558	474.25
462.777	500.25
462.997	529.25
463.217	552.25
463.437	525.25
463.657	501.25
463.876	506.25
464.096	499.25
464.316	517.25
464.536	503.25
464.755	500.25
464.975	514.25
465.195	530.25
465.414	543.25
465.634	497.25
465.854	465.25
466.073	471.25
466.293	428.25
466.512	467.25
466.732	445.25
466.951	450.25
467.171	433.25
467.391	436.25
467.61	445.25
467.829	438.25
468.049	450.25
468.268	440.25
468.488	413.25
468.707	419.25
468.927	423.25
469.146	429.25
469.365	422.25
469.585	417.25
469.804	422.25
470.023	445.25
470.243	408.25
470.462	443.25
470.681	431.25
470.901	455.25
471.12	425.25
471.339	427.25
471.558	429.25
471.777	451.25
471.997	432.25
472.216	419.25
472.435	441.25
472.654	445.25
472.873	447.25
473.092	435.25
473.311	421.25
473.53	421.25
473.749	435.25
473.968	490.25
474.187	547.25
474.406	568.25
474.625	478.25
474.844	426.25
475.063	421.25
475.282	418.25
475.501	456.25
475.72	443.25
475.939	452.25
476.158	456.25
476.377	442.25
476.596	461.25
476.814	458.25
477.033	443.25
477.252	460.25
477.471	454.25
477.69	474.25
477.908	474.25
478.127	475.25
478.346	472.25
478.564	476.25
478.783	467.25
479.002	509.25
479.22	511.25
479.439	501.25
479.658	499.25
479.876	517.25
480.095	537.25
480.313	567.25
480.532	547.25
480.751	539.25
480.969	538.25
481.188	572.25
481.406	589.25
481.624	536.25
481.843	532.25
482.061	525.25
482.28	515.25
482.498	486.25
482.717	501.25
482.935	483.25
483.153	497.25
483.372	501.25
483.59	505.25
483.808	488.25
484.027	502.25
484.245	496.25
484.463	522.25
484.681	511.25
484.9	491.25
485.118	505.25
485.336	507.25
485.554	509.25
485.772	513.25
485.99	507.25
486.209	530.25
486.427	522.25
486.645	531.25
486.863	559.25
487.081	528.25
487.299	534.25
487.517	523.25
487.735	539.25
487.953	512.25
488.171	529.25
488.389	521.25
488.607	533.25
488.825	553.25
489.043	523.25
489.261	555.25
489.479	535.25
489.696	543.25
489.914	541.25
490.132	539.25
490.35	523.25
490.568	545.25
490.786	557.25
491.003	586.25
491.221	583.25
491.439	593.25
491.657	582.25
491.874	580.25
492.092	603.25
492.31	615.25
492.527	606.25
492.745	625.25
492.963	620.25
493.18	635.25
493.398	620.25
493.615	615.25
493.833	624.25
494.05	619.25
494.268	617.25
494.485	606.25
494.703	625.25
494.92	635.25
495.138	624.25
495.355	613.25
495.573	631.25
495.79	625.25
496.008	639.25
496.225	608.25
496.442	649.25
496.66	633.25
496.877	635.25
497.094	635.25
497.312	637.25
497.529	650.25
497.746	652.25
497.963	676.25
498.181	711.25
498.398	706.25
498.615	721.25
498.832	741.25
499.049	777.25
499.267	768.25
499.484	803.25
499.701	837.25
499.918	856.25
500.135	920.25
500.352	977.25
500.569	997.25
500.786	988.25
501.003	972.25
501.22	936.25
501.437	895.25
501.654	855.25
501.871	817.25
