Data from 1977.PennyLincolnUp.Lamp.En5.5.200Scan.071719.P1_HRD10591_16-06-23-864.txt Node
Date: Thu Jul 18 16:06:23 EDT 2019
User: cochatt
Spectrometer: HR+D1059
Trigger mode: 1
Integration Time (sec): 1.000000E-1
Scans to average: 1
Electric dark correction enabled: true
Nonlinearity correction enabled: false
Boxcar width: 0
XAxis mode: Wavelengths
Number of Pixels in Spectrum: 2048
>>>>>Begin Spectral Data<<<<<
223.165	3.44
223.4	3.44
223.635	3.44
223.869	-1.56
224.104	-24.56
224.338	-12.56
224.573	-12.56
224.808	-2.56
225.042	-23.56
225.277	5.44
225.511	-1.56
225.746	-0.56
225.98	-3.56
226.215	5.44
226.449	4.44
226.683	21.44
226.918	22.44
227.152	20.44
227.387	30.44
227.621	45.44
227.856	50.44
228.09	43.44
228.324	47.44
228.559	50.44
228.793	74.44
229.027	75.44
229.262	96.44
229.496	105.44
229.73	117.44
229.964	129.44
230.199	124.44
230.433	109.44
230.667	116.44
230.901	109.44
231.136	97.44
231.37	110.44
231.604	105.44
231.838	113.44
232.072	101.44
232.306	121.44
232.541	112.44
232.775	108.44
233.009	109.44
233.243	121.44
233.477	108.44
233.711	113.44
233.945	125.44
234.179	103.44
234.413	126.44
234.647	114.44
234.881	104.44
235.115	107.44
235.349	108.44
235.583	112.44
235.817	123.44
236.051	129.44
236.285	136.44
236.519	111.44
236.753	131.44
236.987	143.44
237.221	154.44
237.455	200.44
237.689	175.44
237.922	134.44
238.156	124.44
238.39	121.44
238.624	124.44
238.858	127.44
239.091	130.44
239.325	126.44
239.559	128.44
239.793	122.44
240.027	131.44
240.26	127.44
240.494	146.44
240.728	149.44
240.961	150.44
241.195	123.44
241.429	128.44
241.662	150.44
241.896	140.44
242.13	137.44
242.363	132.44
242.597	132.44
242.83	146.44
243.064	149.44
243.298	131.44
243.531	142.44
243.765	126.44
243.998	141.44
244.232	142.44
244.465	146.44
244.699	127.44
244.932	137.44
245.166	157.44
245.399	153.44
245.633	129.44
245.866	141.44
246.099	129.44
246.333	138.44
246.566	144.44
246.8	143.44
247.033	157.44
247.266	157.44
247.5	158.44
247.733	162.44
247.966	170.44
248.2	154.44
248.433	166.44
248.666	169.44
248.899	186.44
249.133	183.44
249.366	191.44
249.599	180.44
249.832	180.44
250.066	178.44
250.299	178.44
250.532	191.44
250.765	217.44
250.998	205.44
251.231	209.44
251.465	193.44
251.698	187.44
251.931	204.44
252.164	190.44
252.397	205.44
252.63	183.44
252.863	198.44
253.096	187.44
253.329	207.44
253.562	218.44
253.795	202.44
254.028	195.44
254.261	196.44
254.494	222.44
254.727	230.44
254.96	270.44
255.193	254.44
255.426	221.44
255.659	232.44
255.892	229.44
256.124	229.44
256.357	231.44
256.59	212.44
256.823	227.44
257.056	198.44
257.289	214.44
257.521	195.44
257.754	198.44
257.987	210.44
258.22	215.44
258.452	198.44
258.685	218.44
258.918	213.44
259.151	203.44
259.383	200.44
259.616	190.44
259.849	216.44
260.081	257.44
260.314	255.44
260.547	256.44
260.779	223.44
261.012	218.44
261.244	244.44
261.477	215.44
261.71	223.44
261.942	240.44
262.175	216.44
262.407	245.44
262.64	222.44
262.872	215.44
263.105	219.44
263.337	214.44
263.57	205.44
263.802	215.44
264.035	205.44
264.267	219.44
264.499	228.44
264.732	215.44
264.964	222.44
265.197	229.44
265.429	234.44
265.661	243.44
265.894	206.44
266.126	215.44
266.358	237.44
266.591	228.44
266.823	246.44
267.055	246.44
267.287	231.44
267.52	232.44
267.752	232.44
267.984	228.44
268.216	213.44
268.448	237.44
268.681	271.44
268.913	235.44
269.145	261.44
269.377	274.44
269.609	283.44
269.841	270.44
270.073	280.44
270.306	287.44
270.538	311.44
270.77	307.44
271.002	305.44
271.234	280.44
271.466	294.44
271.698	317.44
271.93	307.44
272.162	313.44
272.394	326.44
272.626	309.44
272.858	273.44
273.09	284.44
273.322	268.44
273.553	261.44
273.785	272.44
274.017	271.44
274.249	275.44
274.481	257.44
274.713	261.44
274.945	278.44
275.176	269.44
275.408	276.44
275.64	278.44
275.872	253.44
276.104	267.44
276.335	267.44
276.567	276.44
276.799	277.44
277.031	303.44
277.262	317.44
277.494	310.44
277.726	286.44
277.957	282.44
278.189	284.44
278.421	292.44
278.652	290.44
278.884	296.44
279.115	281.44
279.347	266.44
279.579	276.44
279.81	278.44
280.042	296.44
280.273	296.44
280.505	262.44
280.736	285.44
280.968	265.44
281.199	297.44
281.431	294.44
281.662	291.44
281.894	281.44
282.125	282.44
282.356	284.44
282.588	297.44
282.819	305.44
283.051	285.44
283.282	292.44
283.513	283.44
283.745	286.44
283.976	291.44
284.207	299.44
284.439	306.44
284.67	307.44
284.901	296.44
285.132	290.44
285.364	291.44
285.595	300.44
285.826	285.44
286.057	298.44
286.288	296.44
286.52	285.44
286.751	294.44
286.982	317.44
287.213	301.44
287.444	312.44
287.675	314.44
287.906	319.44
288.138	317.44
288.369	314.44
288.6	300.44
288.831	310.44
289.062	314.44
289.293	294.44
289.524	311.44
289.755	316.44
289.986	309.44
290.217	309.44
290.448	310.44
290.679	301.44
290.91	314.44
291.141	310.44
291.371	300.44
291.602	300.44
291.833	297.44
292.064	294.44
292.295	301.44
292.526	310.44
292.757	315.44
292.987	330.44
293.218	291.44
293.449	326.44
293.68	295.44
293.91	327.44
294.141	291.44
294.372	327.44
294.603	306.44
294.833	317.44
295.064	319.44
295.295	321.44
295.525	331.44
295.756	339.44
295.987	301.44
296.217	331.44
296.448	347.44
296.679	314.44
296.909	299.44
297.14	318.44
297.37	325.44
297.601	330.44
297.831	328.44
298.062	311.44
298.292	344.44
298.523	345.44
298.753	336.44
298.984	341.44
299.214	337.44
299.445	307.44
299.675	357.44
299.905	331.44
300.136	357.44
300.366	330.44
300.597	332.44
300.827	339.44
301.057	333.44
301.288	348.44
301.518	345.44
301.748	346.44
301.979	345.44
302.209	350.44
302.439	353.44
302.669	351.44
302.9	366.44
303.13	363.44
303.36	363.44
303.59	365.44
303.82	377.44
304.051	357.44
304.281	346.44
304.511	356.44
304.741	354.44
304.971	353.44
305.201	345.44
305.431	349.44
305.661	342.44
305.891	365.44
306.121	350.44
306.352	357.44
306.582	354.44
306.812	342.44
307.042	351.44
307.272	348.44
307.502	359.44
307.731	333.44
307.961	365.44
308.191	344.44
308.421	365.44
308.651	354.44
308.881	359.44
309.111	357.44
309.341	343.44
309.571	359.44
309.8	372.44
310.03	379.44
310.26	382.44
310.49	383.44
310.72	389.44
310.949	389.44
311.179	397.44
311.409	393.44
311.639	396.44
311.868	399.44
312.098	393.44
312.328	402.44
312.557	389.44
312.787	395.44
313.017	396.44
313.246	406.44
313.476	395.44
313.706	379.44
313.935	394.44
314.165	419.44
314.394	415.44
314.624	409.44
314.853	409.44
315.083	380.44
315.312	390.44
315.542	376.44
315.771	388.44
316.001	406.44
316.23	384.44
316.46	390.44
316.689	390.44
316.919	402.44
317.148	407.44
317.377	403.44
317.607	399.44
317.836	390.44
318.065	391.44
318.295	402.44
318.524	383.44
318.753	391.44
318.983	406.44
319.212	390.44
319.441	399.44
319.67	403.44
319.9	382.44
320.129	380.44
320.358	397.44
320.587	375.44
320.816	422.44
321.046	411.44
321.275	419.44
321.504	397.44
321.733	406.44
321.962	405.44
322.191	418.44
322.42	445.44
322.649	441.44
322.878	447.44
323.108	483.44
323.337	456.44
323.566	488.44
323.795	471.44
324.024	545.44
324.253	618.44
324.482	844.44
324.71	1211.44
324.939	1725.44
325.168	1436.44
325.397	784.44
325.626	593.44
325.855	492.44
326.084	499.44
326.313	491.44
326.542	479.44
326.77	534.44
326.999	606.44
327.228	780.44
327.457	1111.44
327.686	1272.44
327.914	894.44
328.143	627.44
328.372	564.44
328.6	554.44
328.829	497.44
329.058	537.44
329.287	549.44
329.515	505.44
329.744	486.44
329.972	484.44
330.201	514.44
330.43	524.44
330.658	536.44
330.887	543.44
331.115	538.44
331.344	510.44
331.572	488.44
331.801	475.44
332.03	470.44
332.258	445.44
332.486	453.44
332.715	470.44
332.943	482.44
333.172	457.44
333.4	480.44
333.629	482.44
333.857	493.44
334.085	515.44
334.314	522.44
334.542	524.44
334.771	514.44
334.999	517.44
335.227	502.44
335.455	478.44
335.684	465.44
335.912	481.44
336.14	472.44
336.369	473.44
336.597	464.44
336.825	461.44
337.053	471.44
337.281	449.44
337.51	429.44
337.738	447.44
337.966	463.44
338.194	461.44
338.422	462.44
338.65	451.44
338.878	425.44
339.106	417.44
339.334	426.44
339.562	447.44
339.79	429.44
340.018	454.44
340.246	443.44
340.474	425.44
340.702	430.44
340.93	438.44
341.158	431.44
341.386	436.44
341.614	458.44
341.842	437.44
342.07	427.44
342.298	430.44
342.526	437.44
342.754	415.44
342.981	441.44
343.209	441.44
343.437	442.44
343.665	442.44
343.893	454.44
344.12	454.44
344.348	454.44
344.576	459.44
344.804	463.44
345.031	431.44
345.259	440.44
345.487	445.44
345.714	451.44
345.942	418.44
346.17	419.44
346.397	423.44
346.625	410.44
346.853	406.44
347.08	428.44
347.308	427.44
347.535	429.44
347.763	439.44
347.99	443.44
348.218	425.44
348.445	422.44
348.673	438.44
348.9	432.44
349.128	414.44
349.355	388.44
349.583	408.44
349.81	388.44
350.037	408.44
350.265	405.44
350.492	399.44
350.72	393.44
350.947	417.44
351.174	423.44
351.402	427.44
351.629	434.44
351.856	426.44
352.083	413.44
352.311	409.44
352.538	409.44
352.765	428.44
352.992	412.44
353.22	407.44
353.447	406.44
353.674	405.44
353.901	407.44
354.128	390.44
354.355	401.44
354.583	403.44
354.81	389.44
355.037	397.44
355.264	386.44
355.491	409.44
355.718	408.44
355.945	393.44
356.172	398.44
356.399	385.44
356.626	373.44
356.853	391.44
357.08	369.44
357.307	374.44
357.534	382.44
357.761	388.44
357.988	405.44
358.215	364.44
358.441	385.44
358.668	390.44
358.895	380.44
359.122	407.44
359.349	405.44
359.576	404.44
359.802	437.44
360.029	422.44
360.256	443.44
360.483	427.44
360.709	397.44
360.936	401.44
361.163	400.44
361.39	418.44
361.616	393.44
361.843	399.44
362.07	396.44
362.296	405.44
362.523	407.44
362.749	405.44
362.976	409.44
363.203	402.44
363.429	391.44
363.656	386.44
363.882	388.44
364.109	390.44
364.335	394.44
364.562	398.44
364.788	378.44
365.015	382.44
365.241	393.44
365.468	397.44
365.694	376.44
365.92	400.44
366.147	382.44
366.373	393.44
366.599	373.44
366.826	393.44
367.052	380.44
367.278	397.44
367.505	383.44
367.731	405.44
367.957	373.44
368.184	389.44
368.41	384.44
368.636	393.44
368.862	399.44
369.089	417.44
369.315	389.44
369.541	397.44
369.767	398.44
369.993	407.44
370.219	390.44
370.445	387.44
370.672	403.44
370.898	400.44
371.124	389.44
371.35	395.44
371.576	399.44
371.802	385.44
372.028	393.44
372.254	392.44
372.48	404.44
372.706	381.44
372.932	409.44
373.158	390.44
373.384	401.44
373.61	412.44
373.835	383.44
374.061	378.44
374.287	398.44
374.513	400.44
374.739	410.44
374.965	398.44
375.191	400.44
375.416	413.44
375.642	389.44
375.868	401.44
376.094	397.44
376.319	396.44
376.545	387.44
376.771	405.44
376.997	391.44
377.222	397.44
377.448	413.44
377.674	395.44
377.899	380.44
378.125	395.44
378.35	402.44
378.576	379.44
378.802	382.44
379.027	370.44
379.253	393.44
379.478	388.44
379.704	369.44
379.929	390.44
380.155	370.44
380.38	391.44
380.606	394.44
380.831	386.44
381.057	392.44
381.282	413.44
381.507	390.44
381.733	369.44
381.958	387.44
382.184	397.44
382.409	384.44
382.634	400.44
382.86	404.44
383.085	390.44
383.31	404.44
383.535	395.44
383.761	397.44
383.986	402.44
384.211	398.44
384.436	417.44
384.662	411.44
384.887	428.44
385.112	418.44
385.337	442.44
385.562	417.44
385.787	429.44
386.013	440.44
386.238	439.44
386.463	431.44
386.688	425.44
386.913	435.44
387.138	428.44
387.363	425.44
387.588	419.44
387.813	415.44
388.038	426.44
388.263	442.44
388.488	417.44
388.713	416.44
388.938	441.44
389.163	425.44
389.387	416.44
389.612	406.44
389.837	425.44
390.062	439.44
390.287	424.44
390.512	419.44
390.736	392.44
390.961	428.44
391.186	435.44
391.411	433.44
391.636	422.44
391.86	429.44
392.085	450.44
392.31	443.44
392.534	438.44
392.759	433.44
392.984	452.44
393.208	417.44
393.433	436.44
393.658	419.44
393.882	452.44
394.107	429.44
394.331	433.44
394.556	418.44
394.78	419.44
395.005	413.44
395.229	444.44
395.454	451.44
395.678	443.44
395.903	453.44
396.127	457.44
396.352	451.44
396.576	443.44
396.801	458.44
397.025	444.44
397.249	442.44
397.474	450.44
397.698	446.44
397.922	456.44
398.147	459.44
398.371	488.44
398.595	479.44
398.82	505.44
399.044	488.44
399.268	499.44
399.492	567.44
399.717	587.44
399.941	599.44
400.165	618.44
400.389	595.44
400.613	557.44
400.837	517.44
401.062	525.44
401.286	501.44
401.51	489.44
401.734	494.44
401.958	488.44
402.182	509.44
402.406	502.44
402.63	492.44
402.854	513.44
403.078	505.44
403.302	520.44
403.526	519.44
403.75	506.44
403.974	496.44
404.198	514.44
404.422	533.44
404.645	507.44
404.869	511.44
405.093	541.44
405.317	562.44
405.541	606.44
405.765	549.44
405.988	537.44
406.212	525.44
406.436	561.44
406.66	539.44
406.883	521.44
407.107	563.44
407.331	592.44
407.555	628.44
407.778	646.44
408.002	617.44
408.226	567.44
408.449	559.44
408.673	557.44
408.896	565.44
409.12	593.44
409.344	577.44
409.567	533.44
409.791	529.44
410.014	535.44
410.238	518.44
410.461	508.44
410.685	505.44
410.908	497.44
411.132	534.44
411.355	568.44
411.578	535.44
411.802	529.44
412.025	474.44
412.249	502.44
412.472	520.44
412.695	544.44
412.919	534.44
413.142	492.44
413.365	491.44
413.589	501.44
413.812	462.44
414.035	470.44
414.258	478.44
414.482	474.44
414.705	447.44
414.928	458.44
415.151	454.44
415.374	463.44
415.597	456.44
415.821	453.44
416.044	470.44
416.267	476.44
416.49	462.44
416.713	469.44
416.936	467.44
417.159	470.44
417.382	449.44
417.605	460.44
417.828	482.44
418.051	473.44
418.274	513.44
418.497	473.44
418.72	481.44
418.943	485.44
419.166	470.44
419.389	493.44
419.611	509.44
419.834	493.44
420.057	481.44
420.28	473.44
420.503	482.44
420.726	471.44
420.948	506.44
421.171	543.44
421.394	547.44
421.617	494.44
421.839	478.44
422.062	473.44
422.285	504.44
422.507	537.44
422.73	583.44
422.953	585.44
423.175	517.44
423.398	534.44
423.621	502.44
423.843	535.44
424.066	478.44
424.288	522.44
424.511	530.44
424.733	543.44
424.956	625.44
425.178	595.44
425.401	610.44
425.623	637.44
425.846	539.44
426.068	506.44
426.291	501.44
426.513	511.44
426.735	513.44
426.958	524.44
427.18	621.44
427.402	719.44
427.625	788.44
427.847	661.44
428.069	565.44
428.292	528.44
428.514	497.44
428.736	481.44
428.958	466.44
429.181	465.44
429.403	445.44
429.625	466.44
429.847	502.44
430.069	562.44
430.292	524.44
430.514	481.44
430.736	483.44
430.958	458.44
431.18	445.44
431.402	449.44
431.624	448.44
431.846	448.44
432.068	448.44
432.29	450.44
432.512	430.44
432.734	431.44
432.956	487.44
433.178	458.44
433.4	473.44
433.622	446.44
433.844	472.44
434.066	449.44
434.287	451.44
434.509	471.44
434.731	459.44
434.953	466.44
435.175	474.44
435.397	517.44
435.618	526.44
435.84	550.44
436.062	595.44
436.284	662.44
436.505	529.44
436.727	510.44
436.949	470.44
437.17	473.44
437.392	451.44
437.614	484.44
437.835	485.44
438.057	573.44
438.278	639.44
438.5	638.44
438.721	691.44
438.943	675.44
439.165	541.44
439.386	500.44
439.608	493.44
439.829	510.44
440.05	505.44
440.272	556.44
440.493	505.44
440.715	491.44
440.936	470.44
441.158	456.44
441.379	443.44
441.6	465.44
441.822	519.44
442.043	559.44
442.264	592.44
442.486	609.44
442.707	547.44
442.928	507.44
443.149	497.44
443.371	534.44
443.592	571.44
443.813	636.44
444.034	691.44
444.255	596.44
444.476	513.44
444.698	539.44
444.919	512.44
445.14	625.44
445.361	558.44
445.582	543.44
445.803	601.44
446.024	648.44
446.245	662.44
446.466	606.44
446.687	542.44
446.908	478.44
447.129	488.44
447.35	459.44
447.571	452.44
447.792	424.44
448.013	470.44
448.234	472.44
448.455	501.44
448.675	581.44
448.896	684.44
449.117	591.44
449.338	561.44
449.559	647.44
449.779	715.44
450	602.44
450.221	497.44
450.442	466.44
450.662	457.44
450.883	443.44
451.104	450.44
451.324	456.44
451.545	417.44
451.766	421.44
451.986	422.44
452.207	418.44
452.428	398.44
452.648	420.44
452.869	416.44
453.089	403.44
453.31	406.44
453.53	413.44
453.751	405.44
453.971	422.44
454.192	431.44
454.412	404.44
454.633	407.44
454.853	412.44
455.073	399.44
455.294	417.44
455.514	468.44
455.734	457.44
455.955	400.44
456.175	379.44
456.395	397.44
456.616	378.44
456.836	395.44
457.056	396.44
457.276	393.44
457.497	386.44
457.717	395.44
457.937	385.44
458.157	401.44
458.377	410.44
458.598	420.44
458.818	461.44
459.038	483.44
459.258	523.44
459.478	469.44
459.698	457.44
459.918	438.44
460.138	450.44
460.358	474.44
460.578	457.44
460.798	465.44
461.018	453.44
461.238	474.44
461.458	463.44
461.678	463.44
461.898	472.44
462.118	447.44
462.338	491.44
462.558	478.44
462.777	493.44
462.997	505.44
463.217	491.44
463.437	518.44
463.657	494.44
463.876	499.44
464.096	501.44
464.316	512.44
464.536	513.44
464.755	490.44
464.975	505.44
465.195	516.44
465.414	539.44
465.634	484.44
465.854	467.44
466.073	437.44
466.293	454.44
466.512	429.44
466.732	416.44
466.951	421.44
467.171	413.44
467.391	427.44
467.61	425.44
467.829	403.44
468.049	429.44
468.268	418.44
468.488	388.44
468.707	394.44
468.927	404.44
469.146	398.44
469.365	420.44
469.585	409.44
469.804	431.44
470.023	427.44
470.243	423.44
470.462	433.44
470.681	453.44
470.901	452.44
471.12	420.44
471.339	443.44
471.558	441.44
471.777	435.44
471.997	419.44
472.216	405.44
472.435	442.44
472.654	419.44
472.873	429.44
473.092	421.44
473.311	408.44
473.53	411.44
473.749	429.44
473.968	463.44
474.187	534.44
474.406	546.44
474.625	462.44
474.844	445.44
475.063	419.44
475.282	414.44
475.501	429.44
475.72	426.44
475.939	431.44
476.158	428.44
476.377	439.44
476.596	426.44
476.814	425.44
477.033	446.44
477.252	426.44
477.471	461.44
477.69	469.44
477.908	452.44
478.127	491.44
478.346	475.44
478.564	465.44
478.783	473.44
479.002	480.44
479.22	489.44
479.439	489.44
479.658	510.44
479.876	499.44
480.095	527.44
480.313	537.44
480.532	526.44
480.751	507.44
480.969	524.44
481.188	540.44
481.406	553.44
481.624	522.44
481.843	521.44
482.061	487.44
482.28	497.44
482.498	500.44
482.717	514.44
482.935	512.44
483.153	484.44
483.372	461.44
483.59	500.44
483.808	484.44
484.027	498.44
484.245	509.44
484.463	498.44
484.681	509.44
484.9	511.44
485.118	522.44
485.336	510.44
485.554	499.44
485.772	489.44
485.99	499.44
486.209	505.44
486.427	512.44
486.645	527.44
486.863	506.44
487.081	506.44
487.299	501.44
487.517	517.44
487.735	527.44
487.953	506.44
488.171	524.44
488.389	525.44
488.607	527.44
488.825	514.44
489.043	530.44
489.261	550.44
489.479	519.44
489.696	535.44
489.914	549.44
490.132	533.44
490.35	536.44
490.568	551.44
490.786	557.44
491.003	565.44
491.221	569.44
491.439	561.44
491.657	574.44
491.874	583.44
492.092	583.44
492.31	602.44
492.527	608.44
492.745	569.44
492.963	581.44
493.18	610.44
493.398	608.44
493.615	593.44
493.833	603.44
494.05	600.44
494.268	587.44
494.485	577.44
494.703	593.44
494.92	613.44
495.138	602.44
495.355	598.44
495.573	592.44
495.79	629.44
496.008	591.44
496.225	584.44
496.442	620.44
496.66	607.44
496.877	609.44
497.094	611.44
497.312	607.44
497.529	639.44
497.746	634.44
497.963	661.44
498.181	721.44
498.398	670.44
498.615	686.44
498.832	718.44
499.049	734.44
499.267	762.44
499.484	783.44
499.701	804.44
499.918	845.44
500.135	887.44
500.352	945.44
500.569	952.44
500.786	966.44
501.003	963.44
501.22	899.44
501.437	861.44
501.654	829.44
501.871	821.44
502.088	793.44
