Data from 1977.PennyLincolnUp.Lamp.En5.5.200Scan.071719.P1_HRD10591_16-05-31-863.txt Node
Date: Thu Jul 18 16:05:31 EDT 2019
User: cochatt
Spectrometer: HR+D1059
Trigger mode: 1
Integration Time (sec): 1.000000E-1
Scans to average: 1
Electric dark correction enabled: true
Nonlinearity correction enabled: false
Boxcar width: 0
XAxis mode: Wavelengths
Number of Pixels in Spectrum: 2048
>>>>>Begin Spectral Data<<<<<
223.165	-20.19
223.4	-20.19
223.635	-20.19
223.869	-17.19
224.104	-13.19
224.338	-11.19
224.573	-17.19
224.808	-10.19
225.042	-5.19
225.277	-3.19
225.511	2.81
225.746	13.81
225.98	2.81
226.215	13.81
226.449	10.81
226.683	15.81
226.918	22.81
227.152	14.81
227.387	34.81
227.621	42.81
227.856	43.81
228.09	45.81
228.324	46.81
228.559	58.81
228.793	64.81
229.027	102.81
229.262	89.81
229.496	98.81
229.73	115.81
229.964	136.81
230.199	114.81
230.433	102.81
230.667	108.81
230.901	103.81
231.136	115.81
231.37	102.81
231.604	106.81
231.838	109.81
232.072	102.81
232.306	115.81
232.541	97.81
232.775	111.81
233.009	110.81
233.243	109.81
233.477	99.81
233.711	106.81
233.945	94.81
234.179	117.81
234.413	134.81
234.647	123.81
234.881	126.81
235.115	110.81
235.349	112.81
235.583	123.81
235.817	126.81
236.051	121.81
236.285	111.81
236.519	107.81
236.753	134.81
236.987	131.81
237.221	151.81
237.455	190.81
237.689	149.81
237.922	136.81
238.156	114.81
238.39	111.81
238.624	120.81
238.858	106.81
239.091	128.81
239.325	128.81
239.559	124.81
239.793	132.81
240.027	114.81
240.26	144.81
240.494	149.81
240.728	138.81
240.961	139.81
241.195	135.81
241.429	138.81
241.662	120.81
241.896	138.81
242.13	134.81
242.363	141.81
242.597	117.81
242.83	120.81
243.064	130.81
243.298	130.81
243.531	137.81
243.765	134.81
243.998	127.81
244.232	130.81
244.465	148.81
244.699	151.81
244.932	147.81
245.166	131.81
245.399	144.81
245.633	145.81
245.866	150.81
246.099	159.81
246.333	142.81
246.566	150.81
246.8	154.81
247.033	164.81
247.266	143.81
247.5	152.81
247.733	157.81
247.966	171.81
248.2	164.81
248.433	168.81
248.666	161.81
248.899	165.81
249.133	184.81
249.366	202.81
249.599	170.81
249.832	191.81
250.066	182.81
250.299	164.81
250.532	184.81
250.765	188.81
250.998	190.81
251.231	215.81
251.465	191.81
251.698	183.81
251.931	198.81
252.164	191.81
252.397	168.81
252.63	170.81
252.863	195.81
253.096	203.81
253.329	205.81
253.562	216.81
253.795	194.81
254.028	200.81
254.261	211.81
254.494	198.81
254.727	222.81
254.96	245.81
255.193	239.81
255.426	217.81
255.659	196.81
255.892	219.81
256.124	220.81
256.357	211.81
256.59	204.81
256.823	198.81
257.056	194.81
257.289	184.81
257.521	194.81
257.754	213.81
257.987	191.81
258.22	209.81
258.452	213.81
258.685	193.81
258.918	187.81
259.151	189.81
259.383	208.81
259.616	220.81
259.849	210.81
260.081	215.81
260.314	235.81
260.547	221.81
260.779	212.81
261.012	217.81
261.244	229.81
261.477	199.81
261.71	216.81
261.942	208.81
262.175	214.81
262.407	217.81
262.64	205.81
262.872	204.81
263.105	220.81
263.337	200.81
263.57	213.81
263.802	206.81
264.035	195.81
264.267	204.81
264.499	204.81
264.732	230.81
264.964	220.81
265.197	213.81
265.429	213.81
265.661	211.81
265.894	203.81
266.126	219.81
266.358	212.81
266.591	228.81
266.823	226.81
267.055	237.81
267.287	212.81
267.52	211.81
267.752	216.81
267.984	228.81
268.216	248.81
268.448	232.81
268.681	225.81
268.913	243.81
269.145	245.81
269.377	263.81
269.609	256.81
269.841	265.81
270.073	273.81
270.306	264.81
270.538	285.81
270.77	281.81
271.002	292.81
271.234	281.81
271.466	270.81
271.698	279.81
271.93	311.81
272.162	284.81
272.394	296.81
272.626	297.81
272.858	280.81
273.09	260.81
273.322	263.81
273.553	262.81
273.785	268.81
274.017	256.81
274.249	251.81
274.481	258.81
274.713	274.81
274.945	265.81
275.176	249.81
275.408	262.81
275.64	247.81
275.872	251.81
276.104	234.81
276.335	259.81
276.567	267.81
276.799	271.81
277.031	282.81
277.262	303.81
277.494	315.81
277.726	305.81
277.957	293.81
278.189	262.81
278.421	276.81
278.652	277.81
278.884	288.81
279.115	287.81
279.347	269.81
279.579	265.81
279.81	270.81
280.042	279.81
280.273	286.81
280.505	274.81
280.736	266.81
280.968	272.81
281.199	284.81
281.431	292.81
281.662	277.81
281.894	263.81
282.125	283.81
282.356	285.81
282.588	316.81
282.819	291.81
283.051	272.81
283.282	286.81
283.513	280.81
283.745	261.81
283.976	273.81
284.207	289.81
284.439	273.81
284.67	285.81
284.901	302.81
285.132	285.81
285.364	286.81
285.595	282.81
285.826	275.81
286.057	287.81
286.288	292.81
286.52	301.81
286.751	292.81
286.982	285.81
287.213	292.81
287.444	303.81
287.675	300.81
287.906	309.81
288.138	297.81
288.369	310.81
288.6	278.81
288.831	278.81
289.062	313.81
289.293	300.81
289.524	311.81
289.755	294.81
289.986	302.81
290.217	339.81
290.448	309.81
290.679	297.81
290.91	310.81
291.141	313.81
291.371	313.81
291.602	296.81
291.833	293.81
292.064	294.81
292.295	306.81
292.526	295.81
292.757	304.81
292.987	320.81
293.218	303.81
293.449	338.81
293.68	326.81
293.91	295.81
294.141	307.81
294.372	316.81
294.603	307.81
294.833	297.81
295.064	310.81
295.295	298.81
295.525	297.81
295.756	316.81
295.987	308.81
296.217	308.81
296.448	316.81
296.679	331.81
296.909	307.81
297.14	326.81
297.37	318.81
297.601	339.81
297.831	312.81
298.062	314.81
298.292	304.81
298.523	331.81
298.753	322.81
298.984	302.81
299.214	316.81
299.445	337.81
299.675	317.81
299.905	315.81
300.136	340.81
300.366	302.81
300.597	322.81
300.827	327.81
301.057	332.81
301.288	324.81
301.518	342.81
301.748	330.81
301.979	343.81
302.209	339.81
302.439	343.81
302.669	339.81
302.9	328.81
303.13	322.81
303.36	326.81
303.59	356.81
303.82	339.81
304.051	355.81
304.281	342.81
304.511	318.81
304.741	326.81
304.971	333.81
305.201	341.81
305.431	336.81
305.661	347.81
305.891	334.81
306.121	341.81
306.352	353.81
306.582	361.81
306.812	342.81
307.042	346.81
307.272	333.81
307.502	354.81
307.731	342.81
307.961	349.81
308.191	338.81
308.421	341.81
308.651	364.81
308.881	360.81
309.111	350.81
309.341	349.81
309.571	373.81
309.8	356.81
310.03	358.81
310.26	343.81
310.49	352.81
310.72	359.81
310.949	375.81
311.179	389.81
311.409	378.81
311.639	365.81
311.868	374.81
312.098	361.81
312.328	378.81
312.557	385.81
312.787	381.81
313.017	385.81
313.246	370.81
313.476	378.81
313.706	377.81
313.935	374.81
314.165	396.81
314.394	382.81
314.624	390.81
314.853	383.81
315.083	378.81
315.312	374.81
315.542	366.81
315.771	369.81
316.001	387.81
316.23	376.81
316.46	384.81
316.689	377.81
316.919	390.81
317.148	392.81
317.377	375.81
317.607	362.81
317.836	371.81
318.065	362.81
318.295	386.81
318.524	381.81
318.753	383.81
318.983	363.81
319.212	365.81
319.441	359.81
319.67	377.81
319.9	387.81
320.129	394.81
320.358	388.81
320.587	380.81
320.816	381.81
321.046	398.81
321.275	392.81
321.504	387.81
321.733	392.81
321.962	395.81
322.191	401.81
322.42	421.81
322.649	408.81
322.878	410.81
323.108	418.81
323.337	427.81
323.566	427.81
323.795	474.81
324.024	516.81
324.253	548.81
324.482	754.81
324.71	1084.81
324.939	1456.81
325.168	1282.81
325.397	708.81
325.626	525.81
325.855	457.81
326.084	440.81
326.313	450.81
326.542	452.81
326.77	487.81
326.999	558.81
327.228	693.81
327.457	970.81
327.686	1161.81
327.914	752.81
328.143	564.81
328.372	530.81
328.6	507.81
328.829	482.81
329.058	494.81
329.287	502.81
329.515	489.81
329.744	483.81
329.972	464.81
330.201	472.81
330.43	483.81
330.658	507.81
330.887	500.81
331.115	490.81
331.344	473.81
331.572	436.81
331.801	473.81
332.03	445.81
332.258	452.81
332.486	434.81
332.715	438.81
332.943	454.81
333.172	457.81
333.4	473.81
333.629	463.81
333.857	494.81
334.085	487.81
334.314	490.81
334.542	495.81
334.771	489.81
334.999	479.81
335.227	455.81
335.455	442.81
335.684	428.81
335.912	452.81
336.14	467.81
336.369	457.81
336.597	438.81
336.825	451.81
337.053	425.81
337.281	432.81
337.51	448.81
337.738	447.81
337.966	412.81
338.194	420.81
338.422	439.81
338.65	430.81
338.878	419.81
339.106	435.81
339.334	444.81
339.562	419.81
339.79	413.81
340.018	431.81
340.246	419.81
340.474	418.81
340.702	446.81
340.93	422.81
341.158	412.81
341.386	427.81
341.614	420.81
341.842	434.81
342.07	416.81
342.298	415.81
342.526	412.81
342.754	399.81
342.981	405.81
343.209	429.81
343.437	432.81
343.665	429.81
343.893	435.81
344.12	439.81
344.348	453.81
344.576	443.81
344.804	436.81
345.031	424.81
345.259	438.81
345.487	422.81
345.714	410.81
345.942	394.81
346.17	415.81
346.397	400.81
346.625	393.81
346.853	389.81
347.08	418.81
347.308	412.81
347.535	396.81
347.763	408.81
347.99	419.81
348.218	410.81
348.445	404.81
348.673	397.81
348.9	398.81
349.128	395.81
349.355	399.81
349.583	390.81
349.81	409.81
350.037	408.81
350.265	385.81
350.492	387.81
350.72	387.81
350.947	380.81
351.174	399.81
351.402	411.81
351.629	405.81
351.856	397.81
352.083	384.81
352.311	384.81
352.538	389.81
352.765	382.81
352.992	386.81
353.22	378.81
353.447	387.81
353.674	386.81
353.901	372.81
354.128	389.81
354.355	364.81
354.583	390.81
354.81	364.81
355.037	368.81
355.264	388.81
355.491	359.81
355.718	370.81
355.945	366.81
356.172	374.81
356.399	378.81
356.626	386.81
356.853	379.81
357.08	386.81
357.307	374.81
357.534	374.81
357.761	365.81
357.988	353.81
358.215	370.81
358.441	375.81
358.668	372.81
358.895	379.81
359.122	387.81
359.349	399.81
359.576	375.81
359.802	386.81
360.029	405.81
360.256	416.81
360.483	395.81
360.709	374.81
360.936	383.81
361.163	382.81
361.39	413.81
361.616	383.81
361.843	384.81
362.07	373.81
362.296	381.81
362.523	356.81
362.749	399.81
362.976	382.81
363.203	383.81
363.429	378.81
363.656	364.81
363.882	379.81
364.109	378.81
364.335	382.81
364.562	371.81
364.788	368.81
365.015	400.81
365.241	361.81
365.468	377.81
365.694	392.81
365.92	382.81
366.147	382.81
366.373	371.81
366.599	366.81
366.826	358.81
367.052	389.81
367.278	391.81
367.505	375.81
367.731	373.81
367.957	373.81
368.184	383.81
368.41	383.81
368.636	362.81
368.862	367.81
369.089	374.81
369.315	354.81
369.541	382.81
369.767	398.81
369.993	365.81
370.219	378.81
370.445	386.81
370.672	384.81
370.898	379.81
371.124	380.81
371.35	411.81
371.576	370.81
371.802	383.81
372.028	379.81
372.254	377.81
372.48	379.81
372.706	390.81
372.932	380.81
373.158	393.81
373.384	381.81
373.61	404.81
373.835	381.81
374.061	385.81
374.287	393.81
374.513	395.81
374.739	379.81
374.965	391.81
375.191	400.81
375.416	409.81
375.642	406.81
375.868	393.81
376.094	396.81
376.319	381.81
376.545	386.81
376.771	376.81
376.997	383.81
377.222	362.81
377.448	379.81
377.674	358.81
377.899	380.81
378.125	355.81
378.35	372.81
378.576	365.81
378.802	351.81
379.027	368.81
379.253	395.81
379.478	382.81
379.704	380.81
379.929	379.81
380.155	362.81
380.38	383.81
380.606	370.81
380.831	377.81
381.057	373.81
381.282	381.81
381.507	386.81
381.733	387.81
381.958	392.81
382.184	399.81
382.409	398.81
382.634	400.81
382.86	392.81
383.085	387.81
383.31	398.81
383.535	399.81
383.761	396.81
383.986	393.81
384.211	393.81
384.436	397.81
384.662	419.81
384.887	442.81
385.112	411.81
385.337	398.81
385.562	420.81
385.787	417.81
386.013	421.81
386.238	413.81
386.463	405.81
386.688	419.81
386.913	410.81
387.138	416.81
387.363	413.81
387.588	399.81
387.813	396.81
388.038	421.81
388.263	402.81
388.488	421.81
388.713	416.81
388.938	407.81
389.163	409.81
389.387	396.81
389.612	430.81
389.837	380.81
390.062	406.81
390.287	406.81
390.512	391.81
390.736	384.81
390.961	425.81
391.186	405.81
391.411	428.81
391.636	412.81
391.86	422.81
392.085	414.81
392.31	421.81
392.534	431.81
392.759	414.81
392.984	401.81
393.208	423.81
393.433	416.81
393.658	426.81
393.882	410.81
394.107	389.81
394.331	424.81
394.556	427.81
394.78	414.81
395.005	422.81
395.229	418.81
395.454	441.81
395.678	420.81
395.903	446.81
396.127	453.81
396.352	444.81
396.576	427.81
396.801	431.81
397.025	417.81
397.249	443.81
397.474	448.81
397.698	443.81
397.922	450.81
398.147	482.81
398.371	476.81
398.595	454.81
398.82	462.81
399.044	484.81
399.268	489.81
399.492	540.81
399.717	579.81
399.941	587.81
400.165	603.81
400.389	576.81
400.613	520.81
400.837	511.81
401.062	490.81
401.286	490.81
401.51	467.81
401.734	481.81
401.958	471.81
402.182	468.81
402.406	472.81
402.63	484.81
402.854	471.81
403.078	485.81
403.302	504.81
403.526	487.81
403.75	504.81
403.974	491.81
404.198	487.81
404.422	488.81
404.645	498.81
404.869	498.81
405.093	504.81
405.317	529.81
405.541	568.81
405.765	536.81
405.988	492.81
406.212	488.81
406.436	519.81
406.66	532.81
406.883	514.81
407.107	542.81
407.331	568.81
407.555	633.81
407.778	613.81
408.002	580.81
408.226	535.81
408.449	532.81
408.673	514.81
408.896	541.81
409.12	559.81
409.344	548.81
409.567	512.81
409.791	480.81
410.014	510.81
410.238	464.81
410.461	491.81
410.685	489.81
410.908	482.81
411.132	504.81
411.355	543.81
411.578	528.81
411.802	490.81
412.025	506.81
412.249	495.81
412.472	491.81
412.695	510.81
412.919	512.81
413.142	483.81
413.365	469.81
413.589	476.81
413.812	459.81
414.035	470.81
414.258	453.81
414.482	447.81
414.705	436.81
414.928	446.81
415.151	455.81
415.374	460.81
415.597	443.81
415.821	446.81
416.044	458.81
416.267	446.81
416.49	463.81
416.713	461.81
416.936	472.81
417.159	462.81
417.382	449.81
417.605	453.81
417.828	454.81
418.051	464.81
418.274	454.81
418.497	445.81
418.72	439.81
418.943	461.81
419.166	457.81
419.389	491.81
419.611	477.81
419.834	482.81
420.057	480.81
420.28	467.81
420.503	450.81
420.726	472.81
420.948	482.81
421.171	510.81
421.394	526.81
421.617	470.81
421.839	466.81
422.062	459.81
422.285	492.81
422.507	508.81
422.73	583.81
422.953	567.81
423.175	502.81
423.398	486.81
423.621	460.81
423.843	492.81
424.066	491.81
424.288	483.81
424.511	508.81
424.733	549.81
424.956	583.81
425.178	565.81
425.401	569.81
425.623	593.81
425.846	519.81
426.068	491.81
426.291	477.81
426.513	472.81
426.735	482.81
426.958	522.81
427.18	580.81
427.402	690.81
427.625	729.81
427.847	640.81
428.069	557.81
428.292	522.81
428.514	466.81
428.736	450.81
428.958	468.81
429.181	462.81
429.403	446.81
429.625	437.81
429.847	474.81
430.069	526.81
430.292	522.81
430.514	475.81
430.736	434.81
430.958	455.81
431.18	445.81
431.402	408.81
431.624	429.81
431.846	419.81
432.068	399.81
432.29	419.81
432.512	458.81
432.734	436.81
432.956	411.81
433.178	448.81
433.4	432.81
433.622	427.81
433.844	421.81
434.066	426.81
434.287	427.81
434.509	430.81
434.731	455.81
434.953	462.81
435.175	468.81
435.397	482.81
435.618	486.81
435.84	499.81
436.062	568.81
436.284	619.81
436.505	538.81
436.727	469.81
436.949	466.81
437.17	430.81
437.392	454.81
437.614	452.81
437.835	470.81
438.057	544.81
438.278	598.81
438.5	623.81
438.721	648.81
438.943	656.81
439.165	515.81
439.386	476.81
439.608	462.81
439.829	467.81
440.05	482.81
440.272	510.81
440.493	482.81
440.715	436.81
440.936	466.81
441.158	448.81
441.379	459.81
441.6	464.81
441.822	466.81
442.043	528.81
442.264	583.81
442.486	583.81
442.707	515.81
442.928	488.81
443.149	491.81
443.371	488.81
443.592	530.81
443.813	590.81
444.034	647.81
444.255	557.81
444.476	512.81
444.698	483.81
444.919	486.81
445.14	592.81
445.361	534.81
445.582	504.81
445.803	544.81
446.024	626.81
446.245	612.81
446.466	576.81
446.687	480.81
446.908	476.81
447.129	438.81
447.35	439.81
447.571	456.81
447.792	443.81
448.013	447.81
448.234	453.81
448.455	471.81
448.675	552.81
448.896	662.81
449.117	550.81
449.338	544.81
449.559	616.81
449.779	698.81
450	541.81
450.221	463.81
450.442	423.81
450.662	406.81
450.883	431.81
451.104	426.81
451.324	426.81
451.545	402.81
451.766	408.81
451.986	407.81
452.207	415.81
452.428	372.81
452.648	368.81
452.869	395.81
453.089	379.81
453.31	407.81
453.53	388.81
453.751	387.81
453.971	391.81
454.192	391.81
454.412	382.81
454.633	387.81
454.853	398.81
455.073	374.81
455.294	413.81
455.514	463.81
455.734	443.81
455.955	407.81
456.175	386.81
456.395	401.81
456.616	380.81
456.836	386.81
457.056	366.81
457.276	371.81
457.497	358.81
457.717	372.81
457.937	373.81
458.157	412.81
458.377	397.81
458.598	410.81
458.818	459.81
459.038	490.81
459.258	500.81
459.478	446.81
459.698	420.81
459.918	412.81
460.138	436.81
460.358	416.81
460.578	432.81
460.798	441.81
461.018	460.81
461.238	433.81
461.458	456.81
461.678	453.81
461.898	446.81
462.118	457.81
462.338	450.81
462.558	476.81
462.777	468.81
462.997	483.81
463.217	502.81
463.437	499.81
463.657	498.81
463.876	485.81
464.096	491.81
464.316	459.81
464.536	480.81
464.755	478.81
464.975	486.81
465.195	471.81
465.414	510.81
465.634	464.81
465.854	440.81
466.073	431.81
466.293	413.81
466.512	407.81
466.732	426.81
466.951	413.81
467.171	389.81
467.391	406.81
467.61	406.81
467.829	422.81
468.049	392.81
468.268	396.81
468.488	403.81
468.707	407.81
468.927	399.81
469.146	394.81
469.365	380.81
469.585	400.81
469.804	419.81
470.023	415.81
470.243	431.81
470.462	425.81
470.681	418.81
470.901	422.81
471.12	412.81
471.339	420.81
471.558	415.81
471.777	406.81
471.997	403.81
472.216	409.81
472.435	422.81
472.654	420.81
472.873	407.81
473.092	406.81
473.311	397.81
473.53	419.81
473.749	408.81
473.968	427.81
474.187	493.81
474.406	498.81
474.625	450.81
474.844	415.81
475.063	408.81
475.282	408.81
475.501	401.81
475.72	438.81
475.939	430.81
476.158	425.81
476.377	421.81
476.596	421.81
476.814	423.81
477.033	426.81
477.252	437.81
477.471	430.81
477.69	446.81
477.908	439.81
478.127	439.81
478.346	450.81
478.564	466.81
478.783	471.81
479.002	473.81
479.22	499.81
479.439	457.81
479.658	473.81
479.876	495.81
480.095	487.81
480.313	508.81
480.532	495.81
480.751	511.81
480.969	501.81
481.188	506.81
481.406	534.81
481.624	511.81
481.843	484.81
482.061	478.81
482.28	475.81
482.498	464.81
482.717	494.81
482.935	463.81
483.153	487.81
483.372	486.81
483.59	460.81
483.808	455.81
484.027	476.81
484.245	474.81
484.463	474.81
484.681	472.81
484.9	475.81
485.118	478.81
485.336	452.81
485.554	468.81
485.772	469.81
485.99	478.81
486.209	469.81
486.427	482.81
486.645	511.81
486.863	492.81
487.081	508.81
487.299	490.81
487.517	485.81
487.735	501.81
487.953	484.81
488.171	504.81
488.389	484.81
488.607	483.81
488.825	517.81
489.043	505.81
489.261	512.81
489.479	535.81
489.696	499.81
489.914	511.81
490.132	521.81
490.35	532.81
490.568	510.81
490.786	522.81
491.003	531.81
491.221	537.81
491.439	531.81
491.657	548.81
491.874	549.81
492.092	543.81
492.31	575.81
492.527	547.81
492.745	536.81
492.963	572.81
493.18	572.81
493.398	573.81
493.615	570.81
493.833	553.81
494.05	573.81
494.268	568.81
494.485	570.81
494.703	566.81
494.92	575.81
495.138	581.81
495.355	588.81
495.573	547.81
495.79	570.81
496.008	589.81
496.225	602.81
496.442	587.81
496.66	583.81
496.877	573.81
497.094	610.81
497.312	596.81
497.529	599.81
497.746	609.81
497.963	614.81
498.181	645.81
498.398	647.81
498.615	666.81
498.832	665.81
499.049	706.81
499.267	717.81
499.484	746.81
499.701	788.81
499.918	830.81
500.135	863.81
500.352	906.81
500.569	910.81
500.786	942.81
501.003	908.81
501.22	843.81
501.437	843.81
501.654	775.81
501.871	741.81
502.088	743.81
