Data from 1977.PennyLincolnUp.Lamp.En5.5.200Scan.071719.P1_HRD10591_16-07-38-865.txt Node
Date: Thu Jul 18 16:07:38 EDT 2019
User: cochatt
Spectrometer: HR+D1059
Trigger mode: 1
Integration Time (sec): 1.000000E-1
Scans to average: 1
Electric dark correction enabled: true
Nonlinearity correction enabled: false
Boxcar width: 0
XAxis mode: Wavelengths
Number of Pixels in Spectrum: 2048
>>>>>Begin Spectral Data<<<<<
223.165	-19.88
223.4	-19.88
223.635	-19.88
223.869	-15.88
224.104	-17.88
224.338	-20.88
224.573	-19.88
224.808	-0.88
225.042	-2.88
225.277	-7.88
225.511	0.12
225.746	-1.88
225.98	3.12
226.215	-0.88
226.449	24.12
226.683	18.12
226.918	32.12
227.152	31.12
227.387	32.12
227.621	41.12
227.856	42.12
228.09	44.12
228.324	43.12
228.559	63.12
228.793	57.12
229.027	80.12
229.262	96.12
229.496	119.12
229.73	112.12
229.964	127.12
230.199	128.12
230.433	102.12
230.667	96.12
230.901	122.12
231.136	106.12
231.37	102.12
231.604	102.12
231.838	126.12
232.072	104.12
232.306	113.12
232.541	121.12
232.775	111.12
233.009	123.12
233.243	130.12
233.477	101.12
233.711	120.12
233.945	117.12
234.179	110.12
234.413	111.12
234.647	110.12
234.881	120.12
235.115	117.12
235.349	120.12
235.583	131.12
235.817	135.12
236.051	124.12
236.285	129.12
236.519	127.12
236.753	131.12
236.987	145.12
237.221	149.12
237.455	200.12
237.689	182.12
237.922	126.12
238.156	137.12
238.39	138.12
238.624	120.12
238.858	143.12
239.091	131.12
239.325	123.12
239.559	125.12
239.793	141.12
240.027	132.12
240.26	126.12
240.494	162.12
240.728	143.12
240.961	131.12
241.195	148.12
241.429	119.12
241.662	127.12
241.896	119.12
242.13	144.12
242.363	127.12
242.597	139.12
242.83	145.12
243.064	151.12
243.298	144.12
243.531	135.12
243.765	140.12
243.998	146.12
244.232	141.12
244.465	143.12
244.699	146.12
244.932	164.12
245.166	132.12
245.399	129.12
245.633	129.12
245.866	144.12
246.099	143.12
246.333	166.12
246.566	154.12
246.8	146.12
247.033	155.12
247.266	154.12
247.5	161.12
247.733	161.12
247.966	173.12
248.2	181.12
248.433	186.12
248.666	172.12
248.899	177.12
249.133	206.12
249.366	187.12
249.599	197.12
249.832	178.12
250.066	176.12
250.299	163.12
250.532	198.12
250.765	184.12
250.998	205.12
251.231	218.12
251.465	213.12
251.698	192.12
251.931	202.12
252.164	200.12
252.397	200.12
252.63	187.12
252.863	201.12
253.096	227.12
253.329	191.12
253.562	213.12
253.795	200.12
254.028	203.12
254.261	222.12
254.494	252.12
254.727	272.12
254.96	284.12
255.193	253.12
255.426	222.12
255.659	228.12
255.892	200.12
256.124	240.12
256.357	220.12
256.59	230.12
256.823	219.12
257.056	212.12
257.289	215.12
257.521	194.12
257.754	197.12
257.987	209.12
258.22	214.12
258.452	213.12
258.685	197.12
258.918	225.12
259.151	208.12
259.383	208.12
259.616	219.12
259.849	226.12
260.081	235.12
260.314	263.12
260.547	250.12
260.779	240.12
261.012	236.12
261.244	224.12
261.477	218.12
261.71	213.12
261.942	230.12
262.175	214.12
262.407	208.12
262.64	221.12
262.872	220.12
263.105	228.12
263.337	209.12
263.57	219.12
263.802	221.12
264.035	204.12
264.267	212.12
264.499	224.12
264.732	221.12
264.964	244.12
265.197	234.12
265.429	240.12
265.661	228.12
265.894	241.12
266.126	222.12
266.358	231.12
266.591	234.12
266.823	223.12
267.055	231.12
267.287	244.12
267.52	231.12
267.752	237.12
267.984	238.12
268.216	241.12
268.448	248.12
268.681	255.12
268.913	263.12
269.145	255.12
269.377	266.12
269.609	298.12
269.841	278.12
270.073	273.12
270.306	279.12
270.538	319.12
270.77	311.12
271.002	320.12
271.234	305.12
271.466	294.12
271.698	301.12
271.93	324.12
272.162	323.12
272.394	335.12
272.626	300.12
272.858	301.12
273.09	273.12
273.322	294.12
273.553	279.12
273.785	280.12
274.017	279.12
274.249	271.12
274.481	266.12
274.713	255.12
274.945	278.12
275.176	279.12
275.408	289.12
275.64	276.12
275.872	282.12
276.104	269.12
276.335	270.12
276.567	272.12
276.799	299.12
277.031	310.12
277.262	327.12
277.494	321.12
277.726	303.12
277.957	304.12
278.189	277.12
278.421	268.12
278.652	270.12
278.884	289.12
279.115	286.12
279.347	271.12
279.579	277.12
279.81	283.12
280.042	278.12
280.273	289.12
280.505	282.12
280.736	262.12
280.968	279.12
281.199	276.12
281.431	291.12
281.662	280.12
281.894	266.12
282.125	287.12
282.356	316.12
282.588	294.12
282.819	331.12
283.051	293.12
283.282	286.12
283.513	285.12
283.745	290.12
283.976	307.12
284.207	302.12
284.439	309.12
284.67	293.12
284.901	308.12
285.132	300.12
285.364	304.12
285.595	322.12
285.826	299.12
286.057	302.12
286.288	312.12
286.52	293.12
286.751	298.12
286.982	303.12
287.213	299.12
287.444	320.12
287.675	297.12
287.906	299.12
288.138	322.12
288.369	312.12
288.6	313.12
288.831	318.12
289.062	302.12
289.293	310.12
289.524	323.12
289.755	312.12
289.986	309.12
290.217	331.12
290.448	307.12
290.679	319.12
290.91	316.12
291.141	310.12
291.371	334.12
291.602	324.12
291.833	307.12
292.064	295.12
292.295	298.12
292.526	307.12
292.757	297.12
292.987	288.12
293.218	311.12
293.449	316.12
293.68	318.12
293.91	333.12
294.141	329.12
294.372	309.12
294.603	304.12
294.833	321.12
295.064	315.12
295.295	312.12
295.525	315.12
295.756	326.12
295.987	321.12
296.217	326.12
296.448	323.12
296.679	331.12
296.909	317.12
297.14	308.12
297.37	307.12
297.601	347.12
297.831	304.12
298.062	327.12
298.292	319.12
298.523	316.12
298.753	331.12
298.984	325.12
299.214	343.12
299.445	345.12
299.675	335.12
299.905	336.12
300.136	340.12
300.366	345.12
300.597	344.12
300.827	337.12
301.057	351.12
301.288	331.12
301.518	352.12
301.748	355.12
301.979	355.12
302.209	348.12
302.439	354.12
302.669	347.12
302.9	330.12
303.13	339.12
303.36	341.12
303.59	359.12
303.82	358.12
304.051	356.12
304.281	357.12
304.511	335.12
304.741	319.12
304.971	340.12
305.201	345.12
305.431	350.12
305.661	365.12
305.891	352.12
306.121	348.12
306.352	362.12
306.582	357.12
306.812	361.12
307.042	357.12
307.272	359.12
307.502	372.12
307.731	360.12
307.961	363.12
308.191	330.12
308.421	348.12
308.651	345.12
308.881	367.12
309.111	343.12
309.341	376.12
309.571	345.12
309.8	373.12
310.03	387.12
310.26	378.12
310.49	379.12
310.72	382.12
310.949	405.12
311.179	388.12
311.409	399.12
311.639	404.12
311.868	377.12
312.098	390.12
312.328	394.12
312.557	406.12
312.787	400.12
313.017	403.12
313.246	399.12
313.476	387.12
313.706	384.12
313.935	413.12
314.165	405.12
314.394	412.12
314.624	408.12
314.853	398.12
315.083	392.12
315.312	401.12
315.542	391.12
315.771	380.12
316.001	379.12
316.23	388.12
316.46	387.12
316.689	391.12
316.919	402.12
317.148	401.12
317.377	412.12
317.607	407.12
317.836	380.12
318.065	387.12
318.295	383.12
318.524	376.12
318.753	398.12
318.983	395.12
319.212	391.12
319.441	408.12
319.67	409.12
319.9	381.12
320.129	398.12
320.358	390.12
320.587	410.12
320.816	412.12
321.046	403.12
321.275	396.12
321.504	405.12
321.733	439.12
321.962	395.12
322.191	400.12
322.42	427.12
322.649	439.12
322.878	424.12
323.108	428.12
323.337	482.12
323.566	463.12
323.795	503.12
324.024	529.12
324.253	643.12
324.482	873.12
324.71	1289.12
324.939	1785.12
325.168	1552.12
325.397	827.12
325.626	613.12
325.855	509.12
326.084	473.12
326.313	467.12
326.542	487.12
326.77	528.12
326.999	607.12
327.228	787.12
327.457	1159.12
327.686	1345.12
327.914	906.12
328.143	645.12
328.372	549.12
328.6	558.12
328.829	529.12
329.058	553.12
329.287	538.12
329.515	499.12
329.744	505.12
329.972	486.12
330.201	511.12
330.43	546.12
330.658	541.12
330.887	547.12
331.115	548.12
331.344	475.12
331.572	468.12
331.801	486.12
332.03	473.12
332.258	481.12
332.486	493.12
332.715	479.12
332.943	457.12
333.172	479.12
333.4	465.12
333.629	481.12
333.857	484.12
334.085	499.12
334.314	499.12
334.542	521.12
334.771	554.12
334.999	486.12
335.227	484.12
335.455	473.12
335.684	474.12
335.912	469.12
336.14	469.12
336.369	469.12
336.597	472.12
336.825	472.12
337.053	453.12
337.281	451.12
337.51	443.12
337.738	429.12
337.966	453.12
338.194	439.12
338.422	439.12
338.65	437.12
338.878	429.12
339.106	445.12
339.334	429.12
339.562	427.12
339.79	439.12
340.018	444.12
340.246	428.12
340.474	453.12
340.702	446.12
340.93	429.12
341.158	444.12
341.386	447.12
341.614	431.12
341.842	430.12
342.07	420.12
342.298	424.12
342.526	419.12
342.754	428.12
342.981	432.12
343.209	434.12
343.437	424.12
343.665	446.12
343.893	449.12
344.12	442.12
344.348	457.12
344.576	438.12
344.804	460.12
345.031	453.12
345.259	469.12
345.487	452.12
345.714	460.12
345.942	425.12
346.17	427.12
346.397	436.12
346.625	417.12
346.853	419.12
347.08	406.12
347.308	427.12
347.535	401.12
347.763	425.12
347.99	425.12
348.218	408.12
348.445	407.12
348.673	425.12
348.9	401.12
349.128	401.12
349.355	416.12
349.583	411.12
349.81	404.12
350.037	399.12
350.265	411.12
350.492	415.12
350.72	414.12
350.947	410.12
351.174	404.12
351.402	427.12
351.629	397.12
351.856	416.12
352.083	420.12
352.311	436.12
352.538	435.12
352.765	404.12
352.992	403.12
353.22	412.12
353.447	421.12
353.674	393.12
353.901	399.12
354.128	401.12
354.355	366.12
354.583	399.12
354.81	399.12
355.037	386.12
355.264	389.12
355.491	397.12
355.718	391.12
355.945	397.12
356.172	389.12
356.399	390.12
356.626	371.12
356.853	383.12
357.08	399.12
357.307	393.12
357.534	385.12
357.761	392.12
357.988	385.12
358.215	375.12
358.441	401.12
358.668	400.12
358.895	383.12
359.122	378.12
359.349	364.12
359.576	405.12
359.802	431.12
360.029	439.12
360.256	464.12
360.483	413.12
360.709	414.12
360.936	407.12
361.163	408.12
361.39	401.12
361.616	407.12
361.843	389.12
362.07	411.12
362.296	400.12
362.523	400.12
362.749	416.12
362.976	399.12
363.203	394.12
363.429	399.12
363.656	388.12
363.882	378.12
364.109	396.12
364.335	387.12
364.562	367.12
364.788	377.12
365.015	405.12
365.241	389.12
365.468	391.12
365.694	405.12
365.92	401.12
366.147	363.12
366.373	379.12
366.599	395.12
366.826	388.12
367.052	388.12
367.278	380.12
367.505	374.12
367.731	405.12
367.957	384.12
368.184	376.12
368.41	379.12
368.636	392.12
368.862	401.12
369.089	409.12
369.315	392.12
369.541	393.12
369.767	385.12
369.993	395.12
370.219	397.12
370.445	379.12
370.672	411.12
370.898	388.12
371.124	399.12
371.35	379.12
371.576	405.12
371.802	395.12
372.028	373.12
372.254	383.12
372.48	380.12
372.706	406.12
372.932	413.12
373.158	396.12
373.384	382.12
373.61	394.12
373.835	398.12
374.061	387.12
374.287	391.12
374.513	395.12
374.739	426.12
374.965	393.12
375.191	399.12
375.416	399.12
375.642	401.12
375.868	396.12
376.094	388.12
376.319	384.12
376.545	399.12
376.771	393.12
376.997	373.12
377.222	407.12
377.448	389.12
377.674	375.12
377.899	361.12
378.125	384.12
378.35	384.12
378.576	387.12
378.802	383.12
379.027	393.12
379.253	383.12
379.478	384.12
379.704	388.12
379.929	378.12
380.155	388.12
380.38	407.12
380.606	384.12
380.831	378.12
381.057	383.12
381.282	383.12
381.507	393.12
381.733	396.12
381.958	379.12
382.184	377.12
382.409	384.12
382.634	381.12
382.86	409.12
383.085	391.12
383.31	399.12
383.535	404.12
383.761	422.12
383.986	396.12
384.211	413.12
384.436	402.12
384.662	414.12
384.887	408.12
385.112	415.12
385.337	424.12
385.562	404.12
385.787	413.12
386.013	427.12
386.238	438.12
386.463	455.12
386.688	424.12
386.913	414.12
387.138	422.12
387.363	426.12
387.588	414.12
387.813	407.12
388.038	435.12
388.263	431.12
388.488	414.12
388.713	422.12
388.938	416.12
389.163	433.12
389.387	430.12
389.612	419.12
389.837	417.12
390.062	413.12
390.287	439.12
390.512	415.12
390.736	417.12
390.961	411.12
391.186	437.12
391.411	429.12
391.636	426.12
391.86	433.12
392.085	438.12
392.31	437.12
392.534	440.12
392.759	434.12
392.984	457.12
393.208	423.12
393.433	412.12
393.658	448.12
393.882	432.12
394.107	421.12
394.331	439.12
394.556	407.12
394.78	428.12
395.005	416.12
395.229	432.12
395.454	438.12
395.678	433.12
395.903	448.12
396.127	469.12
396.352	476.12
396.576	461.12
396.801	451.12
397.025	433.12
397.249	453.12
397.474	437.12
397.698	452.12
397.922	456.12
398.147	492.12
398.371	499.12
398.595	484.12
398.82	478.12
399.044	497.12
399.268	508.12
399.492	537.12
399.717	571.12
399.941	591.12
400.165	585.12
400.389	596.12
400.613	558.12
400.837	519.12
401.062	506.12
401.286	489.12
401.51	470.12
401.734	485.12
401.958	493.12
402.182	473.12
402.406	478.12
402.63	501.12
402.854	492.12
403.078	479.12
403.302	493.12
403.526	493.12
403.75	499.12
403.974	498.12
404.198	508.12
404.422	492.12
404.645	511.12
404.869	484.12
405.093	526.12
405.317	567.12
405.541	596.12
405.765	541.12
405.988	537.12
406.212	540.12
406.436	543.12
406.66	556.12
406.883	546.12
407.107	561.12
407.331	599.12
407.555	654.12
407.778	635.12
408.002	603.12
408.226	551.12
408.449	548.12
408.673	544.12
408.896	555.12
409.12	581.12
409.344	550.12
409.567	527.12
409.791	512.12
410.014	483.12
410.238	483.12
410.461	483.12
410.685	490.12
410.908	488.12
411.132	547.12
411.355	543.12
411.578	554.12
411.802	495.12
412.025	483.12
412.249	505.12
412.472	488.12
412.695	537.12
412.919	548.12
413.142	494.12
413.365	469.12
413.589	478.12
413.812	460.12
414.035	485.12
414.258	476.12
414.482	475.12
414.705	457.12
414.928	444.12
415.151	464.12
415.374	466.12
415.597	459.12
415.821	449.12
416.044	460.12
416.267	473.12
416.49	451.12
416.713	440.12
416.936	444.12
417.159	447.12
417.382	488.12
417.605	442.12
417.828	453.12
418.051	485.12
418.274	474.12
418.497	460.12
418.72	454.12
418.943	478.12
419.166	485.12
419.389	523.12
419.611	466.12
419.834	488.12
420.057	493.12
420.28	475.12
420.503	487.12
420.726	468.12
420.948	487.12
421.171	528.12
421.394	571.12
421.617	508.12
421.839	485.12
422.062	447.12
422.285	483.12
422.507	545.12
422.73	562.12
422.953	586.12
423.175	507.12
423.398	485.12
423.621	495.12
423.843	505.12
424.066	524.12
424.288	501.12
424.511	535.12
424.733	561.12
424.956	621.12
425.178	612.12
425.401	602.12
425.623	623.12
425.846	553.12
426.068	506.12
426.291	502.12
426.513	492.12
426.735	505.12
426.958	558.12
427.18	601.12
427.402	705.12
427.625	745.12
427.847	705.12
428.069	601.12
428.292	522.12
428.514	465.12
428.736	485.12
428.958	470.12
429.181	469.12
429.403	477.12
429.625	471.12
429.847	488.12
430.069	583.12
430.292	550.12
430.514	468.12
430.736	472.12
430.958	451.12
431.18	462.12
431.402	452.12
431.624	451.12
431.846	435.12
432.068	444.12
432.29	451.12
432.512	428.12
432.734	445.12
432.956	460.12
433.178	437.12
433.4	460.12
433.622	440.12
433.844	439.12
434.066	435.12
434.287	443.12
434.509	458.12
434.731	464.12
434.953	469.12
435.175	505.12
435.397	484.12
435.618	501.12
435.84	529.12
436.062	616.12
436.284	696.12
436.505	568.12
436.727	510.12
436.949	483.12
437.17	460.12
437.392	459.12
437.614	470.12
437.835	515.12
438.057	591.12
438.278	659.12
438.5	661.12
438.721	707.12
438.943	703.12
439.165	545.12
439.386	503.12
439.608	517.12
439.829	513.12
440.05	513.12
440.272	577.12
440.493	540.12
440.715	490.12
440.936	486.12
441.158	465.12
441.379	460.12
441.6	479.12
441.822	504.12
442.043	516.12
442.264	598.12
442.486	651.12
442.707	541.12
442.928	512.12
443.149	506.12
443.371	517.12
443.592	561.12
443.813	636.12
444.034	705.12
444.255	561.12
444.476	537.12
444.698	537.12
444.919	521.12
445.14	633.12
445.361	583.12
445.582	543.12
445.803	583.12
446.024	654.12
446.245	658.12
446.466	603.12
446.687	542.12
446.908	465.12
447.129	461.12
447.35	452.12
447.571	461.12
447.792	444.12
448.013	467.12
448.234	463.12
448.455	517.12
448.675	603.12
448.896	709.12
449.117	601.12
449.338	545.12
449.559	653.12
449.779	732.12
450	616.12
450.221	505.12
450.442	462.12
450.662	440.12
450.883	437.12
451.104	462.12
451.324	425.12
451.545	419.12
451.766	422.12
451.986	399.12
452.207	399.12
452.428	389.12
452.648	403.12
452.869	422.12
453.089	440.12
453.31	415.12
453.53	401.12
453.751	407.12
453.971	402.12
454.192	418.12
454.412	413.12
454.633	395.12
454.853	385.12
455.073	383.12
455.294	444.12
455.514	475.12
455.734	471.12
455.955	419.12
456.175	409.12
456.395	396.12
456.616	394.12
456.836	368.12
457.056	385.12
457.276	391.12
457.497	380.12
457.717	374.12
457.937	397.12
458.157	407.12
458.377	392.12
458.598	421.12
458.818	449.12
459.038	504.12
459.258	535.12
459.478	484.12
459.698	440.12
459.918	448.12
460.138	429.12
460.358	440.12
460.578	443.12
460.798	451.12
461.018	450.12
461.238	474.12
461.458	449.12
461.678	445.12
461.898	435.12
462.118	449.12
462.338	480.12
462.558	461.12
462.777	497.12
462.997	478.12
463.217	489.12
463.437	528.12
463.657	455.12
463.876	478.12
464.096	484.12
464.316	475.12
464.536	480.12
464.755	478.12
464.975	489.12
465.195	481.12
465.414	520.12
465.634	503.12
465.854	465.12
466.073	441.12
466.293	431.12
466.512	425.12
466.732	408.12
466.951	404.12
467.171	421.12
467.391	426.12
467.61	422.12
467.829	423.12
468.049	405.12
468.268	411.12
468.488	391.12
468.707	426.12
468.927	423.12
469.146	398.12
469.365	386.12
469.585	405.12
469.804	425.12
470.023	423.12
470.243	414.12
470.462	454.12
470.681	450.12
470.901	420.12
471.12	417.12
471.339	424.12
471.558	398.12
471.777	424.12
471.997	420.12
472.216	429.12
472.435	446.12
472.654	438.12
472.873	415.12
473.092	399.12
473.311	417.12
473.53	407.12
473.749	414.12
473.968	454.12
474.187	545.12
474.406	575.12
474.625	460.12
474.844	422.12
475.063	429.12
475.282	437.12
475.501	423.12
475.72	419.12
475.939	432.12
476.158	436.12
476.377	431.12
476.596	428.12
476.814	432.12
477.033	448.12
477.252	450.12
477.471	437.12
477.69	447.12
477.908	465.12
478.127	475.12
478.346	444.12
478.564	489.12
478.783	466.12
479.002	465.12
479.22	485.12
479.439	478.12
479.658	496.12
479.876	498.12
480.095	499.12
480.313	519.12
480.532	535.12
480.751	526.12
480.969	516.12
481.188	542.12
481.406	553.12
481.624	520.12
481.843	501.12
482.061	492.12
482.28	493.12
482.498	489.12
482.717	467.12
482.935	489.12
483.153	479.12
483.372	487.12
483.59	467.12
483.808	472.12
484.027	484.12
484.245	477.12
484.463	492.12
484.681	461.12
484.9	494.12
485.118	500.12
485.336	493.12
485.554	491.12
485.772	500.12
485.99	501.12
486.209	493.12
486.427	495.12
486.645	504.12
486.863	495.12
487.081	538.12
487.299	525.12
487.517	516.12
487.735	496.12
487.953	482.12
488.171	528.12
488.389	508.12
488.607	503.12
488.825	502.12
489.043	512.12
489.261	520.12
489.479	529.12
489.696	503.12
489.914	495.12
490.132	553.12
490.35	520.12
490.568	536.12
490.786	548.12
491.003	533.12
491.221	556.12
491.439	566.12
491.657	559.12
491.874	567.12
492.092	552.12
492.31	563.12
492.527	575.12
492.745	582.12
492.963	581.12
493.18	574.12
493.398	597.12
493.615	618.12
493.833	585.12
494.05	590.12
494.268	580.12
494.485	585.12
494.703	580.12
494.92	624.12
495.138	591.12
495.355	607.12
495.573	614.12
495.79	623.12
496.008	590.12
496.225	597.12
496.442	601.12
496.66	598.12
496.877	613.12
497.094	607.12
497.312	612.12
497.529	633.12
497.746	649.12
497.963	647.12
498.181	680.12
498.398	675.12
498.615	676.12
498.832	683.12
499.049	709.12
499.267	729.12
499.484	775.12
499.701	783.12
499.918	830.12
500.135	885.12
500.352	903.12
500.569	925.12
500.786	939.12
501.003	920.12
501.22	917.12
501.437	859.12
501.654	810.12
501.871	799.12
502.088	774.12
