Data from 1977.PennyLincolnUp.Lamp.En5.5.200Scan.071719.P1_HRD10591_16-07-58-865.txt Node
Date: Thu Jul 18 16:07:58 EDT 2019
User: cochatt
Spectrometer: HR+D1059
Trigger mode: 1
Integration Time (sec): 1.000000E-1
Scans to average: 1
Electric dark correction enabled: true
Nonlinearity correction enabled: false
Boxcar width: 0
XAxis mode: Wavelengths
Number of Pixels in Spectrum: 2048
>>>>>Begin Spectral Data<<<<<
223.165	-17.19
223.4	-17.19
223.635	-17.19
223.869	-13.19
224.104	-5.19
224.338	-20.19
224.573	-5.19
224.808	-14.19
225.042	2.81
225.277	-13.19
225.511	5.81
225.746	-23.19
225.98	3.81
226.215	1.81
226.449	17.81
226.683	23.81
226.918	34.81
227.152	20.81
227.387	39.81
227.621	51.81
227.856	58.81
228.09	40.81
228.324	39.81
228.559	57.81
228.793	68.81
229.027	92.81
229.262	112.81
229.496	98.81
229.73	121.81
229.964	155.81
230.199	129.81
230.433	122.81
230.667	102.81
230.901	111.81
231.136	96.81
231.37	109.81
231.604	116.81
231.838	112.81
232.072	111.81
232.306	124.81
232.541	111.81
232.775	107.81
233.009	100.81
233.243	126.81
233.477	97.81
233.711	108.81
233.945	111.81
234.179	123.81
234.413	110.81
234.647	129.81
234.881	115.81
235.115	107.81
235.349	135.81
235.583	118.81
235.817	128.81
236.051	116.81
236.285	125.81
236.519	119.81
236.753	127.81
236.987	140.81
237.221	183.81
237.455	197.81
237.689	163.81
237.922	127.81
238.156	140.81
238.39	135.81
238.624	133.81
238.858	125.81
239.091	128.81
239.325	111.81
239.559	127.81
239.793	129.81
240.027	145.81
240.26	145.81
240.494	151.81
240.728	142.81
240.961	159.81
241.195	145.81
241.429	151.81
241.662	136.81
241.896	119.81
242.13	143.81
242.363	135.81
242.597	138.81
242.83	127.81
243.064	138.81
243.298	131.81
243.531	134.81
243.765	151.81
243.998	143.81
244.232	139.81
244.465	141.81
244.699	157.81
244.932	125.81
245.166	147.81
245.399	142.81
245.633	142.81
245.866	149.81
246.099	135.81
246.333	155.81
246.566	151.81
246.8	151.81
247.033	151.81
247.266	163.81
247.5	172.81
247.733	152.81
247.966	155.81
248.2	170.81
248.433	167.81
248.666	172.81
248.899	176.81
249.133	193.81
249.366	202.81
249.599	187.81
249.832	190.81
250.066	182.81
250.299	187.81
250.532	167.81
250.765	204.81
250.998	221.81
251.231	220.81
251.465	212.81
251.698	204.81
251.931	199.81
252.164	195.81
252.397	212.81
252.63	201.81
252.863	184.81
253.096	211.81
253.329	227.81
253.562	216.81
253.795	208.81
254.028	211.81
254.261	207.81
254.494	217.81
254.727	237.81
254.96	288.81
255.193	262.81
255.426	232.81
255.659	232.81
255.892	245.81
256.124	223.81
256.357	239.81
256.59	216.81
256.823	212.81
257.056	217.81
257.289	213.81
257.521	220.81
257.754	209.81
257.987	212.81
258.22	211.81
258.452	203.81
258.685	223.81
258.918	224.81
259.151	219.81
259.383	211.81
259.616	224.81
259.849	227.81
260.081	224.81
260.314	243.81
260.547	258.81
260.779	238.81
261.012	243.81
261.244	236.81
261.477	240.81
261.71	214.81
261.942	245.81
262.175	238.81
262.407	238.81
262.64	219.81
262.872	228.81
263.105	228.81
263.337	204.81
263.57	229.81
263.802	225.81
264.035	227.81
264.267	236.81
264.499	233.81
264.732	228.81
264.964	234.81
265.197	216.81
265.429	224.81
265.661	223.81
265.894	205.81
266.126	231.81
266.358	229.81
266.591	240.81
266.823	237.81
267.055	233.81
267.287	228.81
267.52	225.81
267.752	248.81
267.984	227.81
268.216	240.81
268.448	256.81
268.681	245.81
268.913	263.81
269.145	271.81
269.377	273.81
269.609	304.81
269.841	279.81
270.073	286.81
270.306	295.81
270.538	331.81
270.77	314.81
271.002	322.81
271.234	300.81
271.466	301.81
271.698	298.81
271.93	334.81
272.162	316.81
272.394	315.81
272.626	293.81
272.858	302.81
273.09	298.81
273.322	293.81
273.553	273.81
273.785	282.81
274.017	285.81
274.249	284.81
274.481	286.81
274.713	279.81
274.945	311.81
275.176	287.81
275.408	288.81
275.64	288.81
275.872	276.81
276.104	288.81
276.335	287.81
276.567	268.81
276.799	293.81
277.031	317.81
277.262	327.81
277.494	319.81
277.726	324.81
277.957	285.81
278.189	303.81
278.421	269.81
278.652	282.81
278.884	283.81
279.115	303.81
279.347	285.81
279.579	276.81
279.81	276.81
280.042	293.81
280.273	293.81
280.505	270.81
280.736	286.81
280.968	284.81
281.199	292.81
281.431	296.81
281.662	287.81
281.894	313.81
282.125	297.81
282.356	284.81
282.588	313.81
282.819	313.81
283.051	304.81
283.282	283.81
283.513	279.81
283.745	299.81
283.976	298.81
284.207	295.81
284.439	297.81
284.67	312.81
284.901	314.81
285.132	309.81
285.364	300.81
285.595	293.81
285.826	299.81
286.057	292.81
286.288	301.81
286.52	307.81
286.751	297.81
286.982	281.81
287.213	298.81
287.444	329.81
287.675	299.81
287.906	331.81
288.138	319.81
288.369	318.81
288.6	335.81
288.831	320.81
289.062	301.81
289.293	314.81
289.524	321.81
289.755	304.81
289.986	310.81
290.217	308.81
290.448	302.81
290.679	335.81
290.91	297.81
291.141	329.81
291.371	327.81
291.602	326.81
291.833	295.81
292.064	311.81
292.295	309.81
292.526	295.81
292.757	299.81
292.987	307.81
293.218	311.81
293.449	323.81
293.68	332.81
293.91	331.81
294.141	313.81
294.372	307.81
294.603	319.81
294.833	304.81
295.064	300.81
295.295	311.81
295.525	317.81
295.756	336.81
295.987	319.81
296.217	348.81
296.448	359.81
296.679	336.81
296.909	325.81
297.14	312.81
297.37	350.81
297.601	339.81
297.831	320.81
298.062	327.81
298.292	337.81
298.523	329.81
298.753	328.81
298.984	329.81
299.214	326.81
299.445	322.81
299.675	356.81
299.905	357.81
300.136	329.81
300.366	324.81
300.597	344.81
300.827	348.81
301.057	336.81
301.288	332.81
301.518	340.81
301.748	357.81
301.979	334.81
302.209	359.81
302.439	344.81
302.669	369.81
302.9	338.81
303.13	355.81
303.36	363.81
303.59	365.81
303.82	352.81
304.051	361.81
304.281	347.81
304.511	344.81
304.741	339.81
304.971	347.81
305.201	360.81
305.431	364.81
305.661	349.81
305.891	348.81
306.121	355.81
306.352	374.81
306.582	357.81
306.812	355.81
307.042	336.81
307.272	352.81
307.502	367.81
307.731	334.81
307.961	346.81
308.191	374.81
308.421	360.81
308.651	377.81
308.881	355.81
309.111	360.81
309.341	364.81
309.571	372.81
309.8	373.81
310.03	385.81
310.26	382.81
310.49	391.81
310.72	383.81
310.949	404.81
311.179	389.81
311.409	383.81
311.639	383.81
311.868	402.81
312.098	389.81
312.328	398.81
312.557	421.81
312.787	400.81
313.017	405.81
313.246	393.81
313.476	396.81
313.706	375.81
313.935	403.81
314.165	399.81
314.394	403.81
314.624	427.81
314.853	409.81
315.083	408.81
315.312	388.81
315.542	397.81
315.771	403.81
316.001	417.81
316.23	386.81
316.46	411.81
316.689	405.81
316.919	406.81
317.148	402.81
317.377	408.81
317.607	407.81
317.836	410.81
318.065	401.81
318.295	395.81
318.524	397.81
318.753	406.81
318.983	397.81
319.212	408.81
319.441	409.81
319.67	414.81
319.9	417.81
320.129	402.81
320.358	410.81
320.587	404.81
320.816	401.81
321.046	423.81
321.275	411.81
321.504	405.81
321.733	414.81
321.962	414.81
322.191	426.81
322.42	443.81
322.649	441.81
322.878	462.81
323.108	440.81
323.337	459.81
323.566	489.81
323.795	518.81
324.024	547.81
324.253	663.81
324.482	929.81
324.71	1348.81
324.939	1871.81
325.168	1557.81
325.397	871.81
325.626	613.81
325.855	536.81
326.084	490.81
326.313	493.81
326.542	500.81
326.77	541.81
326.999	616.81
327.228	829.81
327.457	1211.81
327.686	1381.81
327.914	953.81
328.143	674.81
328.372	599.81
328.6	572.81
328.829	547.81
329.058	544.81
329.287	540.81
329.515	512.81
329.744	519.81
329.972	515.81
330.201	527.81
330.43	535.81
330.658	569.81
330.887	574.81
331.115	576.81
331.344	508.81
331.572	500.81
331.801	496.81
332.03	501.81
332.258	475.81
332.486	457.81
332.715	487.81
332.943	472.81
333.172	469.81
333.4	483.81
333.629	494.81
333.857	497.81
334.085	505.81
334.314	515.81
334.542	532.81
334.771	545.81
334.999	531.81
335.227	499.81
335.455	493.81
335.684	484.81
335.912	470.81
336.14	477.81
336.369	468.81
336.597	468.81
336.825	467.81
337.053	475.81
337.281	437.81
337.51	462.81
337.738	456.81
337.966	456.81
338.194	452.81
338.422	484.81
338.65	420.81
338.878	444.81
339.106	451.81
339.334	459.81
339.562	441.81
339.79	422.81
340.018	452.81
340.246	453.81
340.474	449.81
340.702	431.81
340.93	441.81
341.158	439.81
341.386	441.81
341.614	436.81
341.842	441.81
342.07	433.81
342.298	441.81
342.526	433.81
342.754	423.81
342.981	441.81
343.209	443.81
343.437	440.81
343.665	439.81
343.893	458.81
344.12	480.81
344.348	472.81
344.576	455.81
344.804	466.81
345.031	452.81
345.259	449.81
345.487	439.81
345.714	435.81
345.942	431.81
346.17	425.81
346.397	424.81
346.625	421.81
346.853	429.81
347.08	420.81
347.308	446.81
347.535	429.81
347.763	439.81
347.99	458.81
348.218	448.81
348.445	452.81
348.673	443.81
348.9	428.81
349.128	415.81
349.355	409.81
349.583	432.81
349.81	395.81
350.037	409.81
350.265	405.81
350.492	413.81
350.72	426.81
350.947	423.81
351.174	425.81
351.402	429.81
351.629	416.81
351.856	421.81
352.083	419.81
352.311	439.81
352.538	460.81
352.765	436.81
352.992	412.81
353.22	408.81
353.447	408.81
353.674	401.81
353.901	416.81
354.128	382.81
354.355	403.81
354.583	400.81
354.81	393.81
355.037	397.81
355.264	410.81
355.491	411.81
355.718	395.81
355.945	390.81
356.172	387.81
356.399	387.81
356.626	384.81
356.853	386.81
357.08	391.81
357.307	397.81
357.534	381.81
357.761	377.81
357.988	393.81
358.215	386.81
358.441	393.81
358.668	409.81
358.895	407.81
359.122	390.81
359.349	398.81
359.576	420.81
359.802	426.81
360.029	447.81
360.256	459.81
360.483	437.81
360.709	407.81
360.936	396.81
361.163	401.81
361.39	419.81
361.616	413.81
361.843	418.81
362.07	414.81
362.296	410.81
362.523	408.81
362.749	407.81
362.976	411.81
363.203	409.81
363.429	390.81
363.656	408.81
363.882	382.81
364.109	396.81
364.335	405.81
364.562	412.81
364.788	411.81
365.015	398.81
365.241	393.81
365.468	404.81
365.694	412.81
365.92	399.81
366.147	395.81
366.373	390.81
366.599	399.81
366.826	413.81
367.052	384.81
367.278	396.81
367.505	399.81
367.731	392.81
367.957	371.81
368.184	403.81
368.41	406.81
368.636	391.81
368.862	420.81
369.089	400.81
369.315	382.81
369.541	396.81
369.767	397.81
369.993	385.81
370.219	391.81
370.445	384.81
370.672	393.81
370.898	392.81
371.124	406.81
371.35	403.81
371.576	398.81
371.802	400.81
372.028	398.81
372.254	383.81
372.48	398.81
372.706	387.81
372.932	393.81
373.158	397.81
373.384	405.81
373.61	400.81
373.835	411.81
374.061	387.81
374.287	396.81
374.513	391.81
374.739	409.81
374.965	403.81
375.191	395.81
375.416	394.81
375.642	398.81
375.868	396.81
376.094	402.81
376.319	389.81
376.545	400.81
376.771	394.81
376.997	379.81
377.222	378.81
377.448	392.81
377.674	408.81
377.899	393.81
378.125	378.81
378.35	393.81
378.576	403.81
378.802	366.81
379.027	393.81
379.253	389.81
379.478	382.81
379.704	385.81
379.929	375.81
380.155	399.81
380.38	392.81
380.606	381.81
380.831	386.81
381.057	385.81
381.282	409.81
381.507	412.81
381.733	386.81
381.958	361.81
382.184	392.81
382.409	389.81
382.634	414.81
382.86	399.81
383.085	403.81
383.31	380.81
383.535	409.81
383.761	399.81
383.986	405.81
384.211	428.81
384.436	433.81
384.662	411.81
384.887	425.81
385.112	447.81
385.337	413.81
385.562	435.81
385.787	429.81
386.013	409.81
386.238	436.81
386.463	428.81
386.688	428.81
386.913	424.81
387.138	401.81
387.363	424.81
387.588	417.81
387.813	430.81
388.038	440.81
388.263	425.81
388.488	425.81
388.713	442.81
388.938	445.81
389.163	438.81
389.387	420.81
389.612	447.81
389.837	404.81
390.062	415.81
390.287	425.81
390.512	403.81
390.736	441.81
390.961	416.81
391.186	459.81
391.411	437.81
391.636	438.81
391.86	435.81
392.085	448.81
392.31	442.81
392.534	432.81
392.759	437.81
392.984	439.81
393.208	431.81
393.433	415.81
393.658	451.81
393.882	452.81
394.107	438.81
394.331	434.81
394.556	426.81
394.78	426.81
395.005	432.81
395.229	438.81
395.454	437.81
395.678	441.81
395.903	466.81
396.127	468.81
396.352	477.81
396.576	449.81
396.801	441.81
397.025	456.81
397.249	446.81
397.474	445.81
397.698	465.81
397.922	463.81
398.147	484.81
398.371	489.81
398.595	480.81
398.82	466.81
399.044	486.81
399.268	521.81
399.492	546.81
399.717	588.81
399.941	622.81
400.165	590.81
400.389	623.81
400.613	555.81
400.837	499.81
401.062	485.81
401.286	492.81
401.51	496.81
401.734	481.81
401.958	472.81
402.182	500.81
402.406	511.81
402.63	500.81
402.854	486.81
403.078	490.81
403.302	503.81
403.526	519.81
403.75	526.81
403.974	513.81
404.198	496.81
404.422	526.81
404.645	499.81
404.869	538.81
405.093	545.81
405.317	582.81
405.541	606.81
405.765	553.81
405.988	525.81
406.212	523.81
406.436	540.81
406.66	563.81
406.883	527.81
407.107	579.81
407.331	590.81
407.555	658.81
407.778	647.81
408.002	601.81
408.226	583.81
408.449	568.81
408.673	545.81
408.896	589.81
409.12	615.81
409.344	562.81
409.567	515.81
409.791	496.81
410.014	501.81
410.238	510.81
410.461	497.81
410.685	520.81
410.908	527.81
411.132	567.81
411.355	588.81
411.578	555.81
411.802	524.81
412.025	493.81
412.249	514.81
412.472	506.81
412.695	541.81
412.919	561.81
413.142	520.81
413.365	488.81
413.589	478.81
413.812	481.81
414.035	473.81
414.258	485.81
414.482	482.81
414.705	484.81
414.928	475.81
415.151	461.81
415.374	485.81
415.597	477.81
415.821	479.81
416.044	461.81
416.267	455.81
416.49	463.81
416.713	477.81
416.936	469.81
417.159	463.81
417.382	462.81
417.605	471.81
417.828	473.81
418.051	487.81
418.274	505.81
418.497	458.81
418.72	439.81
418.943	457.81
419.166	470.81
419.389	511.81
419.611	521.81
419.834	501.81
420.057	509.81
420.28	506.81
420.503	480.81
420.726	495.81
420.948	491.81
421.171	526.81
421.394	557.81
421.617	519.81
421.839	496.81
422.062	511.81
422.285	519.81
422.507	562.81
422.73	609.81
422.953	589.81
423.175	521.81
423.398	506.81
423.621	499.81
423.843	528.81
424.066	525.81
424.288	495.81
424.511	553.81
424.733	598.81
424.956	634.81
425.178	602.81
425.401	633.81
425.623	657.81
425.846	534.81
426.068	539.81
426.291	516.81
426.513	521.81
426.735	537.81
426.958	556.81
427.18	617.81
427.402	732.81
427.625	809.81
427.847	677.81
428.069	613.81
428.292	530.81
428.514	493.81
428.736	473.81
428.958	465.81
429.181	464.81
429.403	454.81
429.625	486.81
429.847	513.81
430.069	574.81
430.292	550.81
430.514	489.81
430.736	455.81
430.958	468.81
431.18	457.81
431.402	445.81
431.624	449.81
431.846	439.81
432.068	454.81
432.29	460.81
432.512	449.81
432.734	474.81
432.956	445.81
433.178	452.81
433.4	462.81
433.622	456.81
433.844	447.81
434.066	462.81
434.287	447.81
434.509	457.81
434.731	461.81
434.953	466.81
435.175	496.81
435.397	510.81
435.618	519.81
435.84	535.81
436.062	601.81
436.284	704.81
436.505	569.81
436.727	525.81
436.949	491.81
437.17	451.81
437.392	464.81
437.614	479.81
437.835	496.81
438.057	590.81
438.278	649.81
438.5	646.81
438.721	749.81
438.943	701.81
439.165	548.81
439.386	541.81
439.608	509.81
439.829	532.81
440.05	539.81
440.272	575.81
440.493	540.81
440.715	493.81
440.936	475.81
441.158	474.81
441.379	465.81
441.6	507.81
441.822	502.81
442.043	531.81
442.264	612.81
442.486	657.81
442.707	564.81
442.928	515.81
443.149	524.81
443.371	541.81
443.592	563.81
443.813	673.81
444.034	701.81
444.255	580.81
444.476	543.81
444.698	511.81
444.919	519.81
445.14	646.81
445.361	579.81
445.582	564.81
445.803	588.81
446.024	665.81
446.245	687.81
446.466	638.81
446.687	540.81
446.908	489.81
447.129	464.81
447.35	467.81
447.571	469.81
447.792	451.81
448.013	471.81
448.234	477.81
448.455	530.81
448.675	618.81
448.896	688.81
449.117	620.81
449.338	552.81
449.559	649.81
449.779	749.81
450	589.81
450.221	527.81
450.442	469.81
450.662	460.81
450.883	447.81
451.104	448.81
451.324	457.81
451.545	439.81
451.766	421.81
451.986	432.81
452.207	403.81
452.428	410.81
452.648	423.81
452.869	413.81
453.089	421.81
453.31	433.81
453.53	426.81
453.751	401.81
453.971	419.81
454.192	444.81
454.412	429.81
454.633	419.81
454.853	414.81
455.073	401.81
455.294	431.81
455.514	492.81
455.734	479.81
455.955	390.81
456.175	413.81
456.395	386.81
456.616	396.81
456.836	398.81
457.056	399.81
457.276	390.81
457.497	381.81
457.717	371.81
457.937	383.81
458.157	412.81
458.377	417.81
458.598	440.81
458.818	470.81
459.038	518.81
459.258	534.81
459.478	483.81
459.698	420.81
459.918	426.81
460.138	428.81
460.358	448.81
460.578	456.81
460.798	458.81
461.018	463.81
461.238	469.81
461.458	470.81
461.678	440.81
461.898	450.81
462.118	475.81
462.338	472.81
462.558	472.81
462.777	493.81
462.997	509.81
463.217	524.81
463.437	501.81
463.657	503.81
463.876	484.81
464.096	496.81
464.316	492.81
464.536	494.81
464.755	500.81
464.975	477.81
465.195	522.81
465.414	532.81
465.634	505.81
465.854	458.81
466.073	437.81
466.293	429.81
466.512	424.81
466.732	429.81
466.951	421.81
467.171	401.81
467.391	439.81
467.61	426.81
467.829	424.81
468.049	437.81
468.268	445.81
468.488	435.81
468.707	395.81
468.927	415.81
469.146	414.81
469.365	406.81
469.585	413.81
469.804	411.81
470.023	416.81
470.243	422.81
470.462	440.81
470.681	422.81
470.901	444.81
471.12	443.81
471.339	430.81
471.558	436.81
471.777	437.81
471.997	444.81
472.216	427.81
472.435	446.81
472.654	421.81
472.873	439.81
473.092	442.81
473.311	434.81
473.53	433.81
473.749	435.81
473.968	467.81
474.187	555.81
474.406	570.81
474.625	461.81
474.844	457.81
475.063	428.81
475.282	423.81
475.501	420.81
475.72	436.81
475.939	435.81
476.158	456.81
476.377	435.81
476.596	435.81
476.814	443.81
477.033	453.81
477.252	439.81
477.471	457.81
477.69	462.81
477.908	479.81
478.127	457.81
478.346	476.81
478.564	478.81
478.783	477.81
479.002	483.81
479.22	487.81
479.439	512.81
479.658	515.81
479.876	520.81
480.095	527.81
480.313	534.81
480.532	528.81
480.751	528.81
480.969	526.81
481.188	547.81
481.406	567.81
481.624	525.81
481.843	507.81
482.061	515.81
482.28	508.81
482.498	473.81
482.717	474.81
482.935	491.81
483.153	477.81
483.372	500.81
483.59	503.81
483.808	496.81
484.027	487.81
484.245	495.81
484.463	523.81
484.681	502.81
484.9	496.81
485.118	515.81
485.336	494.81
485.554	493.81
485.772	513.81
485.99	493.81
486.209	501.81
486.427	541.81
486.645	506.81
486.863	519.81
487.081	525.81
487.299	549.81
487.517	543.81
487.735	520.81
487.953	511.81
488.171	525.81
488.389	509.81
488.607	529.81
488.825	542.81
489.043	503.81
489.261	522.81
489.479	520.81
489.696	548.81
489.914	546.81
490.132	537.81
490.35	527.81
490.568	559.81
490.786	547.81
491.003	548.81
491.221	559.81
491.439	579.81
491.657	575.81
491.874	587.81
492.092	588.81
492.31	588.81
492.527	597.81
492.745	588.81
492.963	589.81
493.18	608.81
493.398	602.81
493.615	610.81
493.833	593.81
494.05	612.81
494.268	586.81
494.485	577.81
494.703	615.81
494.92	610.81
495.138	601.81
495.355	607.81
495.573	618.81
495.79	608.81
496.008	605.81
496.225	630.81
496.442	632.81
496.66	620.81
496.877	629.81
497.094	630.81
497.312	643.81
497.529	660.81
497.746	631.81
497.963	663.81
498.181	683.81
498.398	681.81
498.615	722.81
498.832	705.81
499.049	752.81
499.267	748.81
499.484	774.81
499.701	839.81
499.918	874.81
500.135	891.81
500.352	963.81
500.569	957.81
500.786	967.81
501.003	960.81
501.22	889.81
501.437	868.81
501.654	841.81
501.871	829.81
502.088	787.81
