Data from 1977.PennyLincolnUp.Lamp.En5.5.200Scan.071719.P1_HRD10591_16-07-53-864.txt Node
Date: Thu Jul 18 16:07:53 EDT 2019
User: cochatt
Spectrometer: HR+D1059
Trigger mode: 1
Integration Time (sec): 1.000000E-1
Scans to average: 1
Electric dark correction enabled: true
Nonlinearity correction enabled: false
Boxcar width: 0
XAxis mode: Wavelengths
Number of Pixels in Spectrum: 2048
>>>>>Begin Spectral Data<<<<<
223.165	-5.06
223.4	-5.06
223.635	-5.06
223.869	-16.06
224.104	-27.06
224.338	-25.06
224.573	-21.06
224.808	-22.06
225.042	-10.06
225.277	-1.06
225.511	-1.06
225.746	12.94
225.98	12.94
226.215	-0.06
226.449	17.94
226.683	23.94
226.918	20.94
227.152	39.94
227.387	29.94
227.621	44.94
227.856	39.94
228.09	31.94
228.324	38.94
228.559	59.94
228.793	63.94
229.027	83.94
229.262	94.94
229.496	106.94
229.73	119.94
229.964	143.94
230.199	126.94
230.433	114.94
230.667	108.94
230.901	126.94
231.136	115.94
231.37	104.94
231.604	112.94
231.838	114.94
232.072	111.94
232.306	114.94
232.541	122.94
232.775	113.94
233.009	103.94
233.243	120.94
233.477	114.94
233.711	128.94
233.945	141.94
234.179	115.94
234.413	115.94
234.647	114.94
234.881	131.94
235.115	117.94
235.349	123.94
235.583	123.94
235.817	124.94
236.051	132.94
236.285	128.94
236.519	131.94
236.753	115.94
236.987	136.94
237.221	170.94
237.455	219.94
237.689	175.94
237.922	139.94
238.156	127.94
238.39	145.94
238.624	126.94
238.858	122.94
239.091	120.94
239.325	134.94
239.559	124.94
239.793	132.94
240.027	127.94
240.26	135.94
240.494	144.94
240.728	144.94
240.961	146.94
241.195	143.94
241.429	145.94
241.662	157.94
241.896	142.94
242.13	146.94
242.363	138.94
242.597	149.94
242.83	130.94
243.064	148.94
243.298	127.94
243.531	134.94
243.765	145.94
243.998	142.94
244.232	142.94
244.465	151.94
244.699	141.94
244.932	140.94
245.166	159.94
245.399	158.94
245.633	136.94
245.866	155.94
246.099	151.94
246.333	151.94
246.566	151.94
246.8	151.94
247.033	154.94
247.266	169.94
247.5	148.94
247.733	180.94
247.966	163.94
248.2	178.94
248.433	152.94
248.666	173.94
248.899	183.94
249.133	191.94
249.366	205.94
249.599	206.94
249.832	176.94
250.066	182.94
250.299	186.94
250.532	202.94
250.765	205.94
250.998	206.94
251.231	236.94
251.465	220.94
251.698	197.94
251.931	192.94
252.164	202.94
252.397	214.94
252.63	195.94
252.863	211.94
253.096	213.94
253.329	215.94
253.562	228.94
253.795	213.94
254.028	224.94
254.261	222.94
254.494	214.94
254.727	247.94
254.96	271.94
255.193	263.94
255.426	247.94
255.659	231.94
255.892	231.94
256.124	235.94
256.357	226.94
256.59	229.94
256.823	213.94
257.056	207.94
257.289	209.94
257.521	227.94
257.754	213.94
257.987	217.94
258.22	204.94
258.452	203.94
258.685	221.94
258.918	220.94
259.151	212.94
259.383	214.94
259.616	235.94
259.849	245.94
260.081	223.94
260.314	246.94
260.547	270.94
260.779	230.94
261.012	232.94
261.244	228.94
261.477	224.94
261.71	232.94
261.942	251.94
262.175	229.94
262.407	231.94
262.64	225.94
262.872	231.94
263.105	208.94
263.337	219.94
263.57	217.94
263.802	213.94
264.035	230.94
264.267	251.94
264.499	216.94
264.732	237.94
264.964	220.94
265.197	218.94
265.429	215.94
265.661	235.94
265.894	222.94
266.126	251.94
266.358	222.94
266.591	226.94
266.823	227.94
267.055	230.94
267.287	244.94
267.52	260.94
267.752	238.94
267.984	234.94
268.216	234.94
268.448	241.94
268.681	254.94
268.913	243.94
269.145	272.94
269.377	280.94
269.609	278.94
269.841	287.94
270.073	285.94
270.306	286.94
270.538	322.94
270.77	329.94
271.002	307.94
271.234	296.94
271.466	307.94
271.698	329.94
271.93	338.94
272.162	328.94
272.394	339.94
272.626	313.94
272.858	312.94
273.09	297.94
273.322	296.94
273.553	248.94
273.785	282.94
274.017	285.94
274.249	283.94
274.481	290.94
274.713	296.94
274.945	299.94
275.176	280.94
275.408	290.94
275.64	278.94
275.872	298.94
276.104	271.94
276.335	291.94
276.567	291.94
276.799	296.94
277.031	305.94
277.262	330.94
277.494	329.94
277.726	311.94
277.957	284.94
278.189	292.94
278.421	283.94
278.652	287.94
278.884	282.94
279.115	279.94
279.347	272.94
279.579	293.94
279.81	283.94
280.042	278.94
280.273	287.94
280.505	304.94
280.736	295.94
280.968	288.94
281.199	290.94
281.431	295.94
281.662	293.94
281.894	293.94
282.125	291.94
282.356	307.94
282.588	306.94
282.819	317.94
283.051	288.94
283.282	299.94
283.513	285.94
283.745	323.94
283.976	286.94
284.207	319.94
284.439	304.94
284.67	322.94
284.901	335.94
285.132	316.94
285.364	295.94
285.595	288.94
285.826	325.94
286.057	308.94
286.288	306.94
286.52	319.94
286.751	333.94
286.982	287.94
287.213	312.94
287.444	313.94
287.675	318.94
287.906	320.94
288.138	315.94
288.369	316.94
288.6	322.94
288.831	341.94
289.062	332.94
289.293	352.94
289.524	322.94
289.755	315.94
289.986	318.94
290.217	320.94
290.448	294.94
290.679	289.94
290.91	328.94
291.141	331.94
291.371	324.94
291.602	309.94
291.833	309.94
292.064	306.94
292.295	326.94
292.526	320.94
292.757	308.94
292.987	316.94
293.218	310.94
293.449	324.94
293.68	328.94
293.91	342.94
294.141	318.94
294.372	324.94
294.603	311.94
294.833	342.94
295.064	336.94
295.295	321.94
295.525	329.94
295.756	318.94
295.987	332.94
296.217	349.94
296.448	354.94
296.679	317.94
296.909	322.94
297.14	318.94
297.37	347.94
297.601	319.94
297.831	345.94
298.062	321.94
298.292	333.94
298.523	344.94
298.753	345.94
298.984	328.94
299.214	332.94
299.445	333.94
299.675	326.94
299.905	329.94
300.136	362.94
300.366	348.94
300.597	347.94
300.827	344.94
301.057	362.94
301.288	364.94
301.518	358.94
301.748	360.94
301.979	345.94
302.209	348.94
302.439	365.94
302.669	366.94
302.9	358.94
303.13	362.94
303.36	351.94
303.59	354.94
303.82	375.94
304.051	378.94
304.281	372.94
304.511	366.94
304.741	374.94
304.971	384.94
305.201	351.94
305.431	341.94
305.661	343.94
305.891	342.94
306.121	365.94
306.352	370.94
306.582	378.94
306.812	374.94
307.042	358.94
307.272	376.94
307.502	354.94
307.731	377.94
307.961	373.94
308.191	347.94
308.421	353.94
308.651	367.94
308.881	372.94
309.111	367.94
309.341	362.94
309.571	392.94
309.8	388.94
310.03	401.94
310.26	405.94
310.49	393.94
310.72	396.94
310.949	415.94
311.179	404.94
311.409	393.94
311.639	391.94
311.868	400.94
312.098	398.94
312.328	410.94
312.557	418.94
312.787	405.94
313.017	412.94
313.246	416.94
313.476	401.94
313.706	406.94
313.935	405.94
314.165	411.94
314.394	407.94
314.624	421.94
314.853	395.94
315.083	414.94
315.312	415.94
315.542	414.94
315.771	405.94
316.001	398.94
316.23	406.94
316.46	384.94
316.689	413.94
316.919	412.94
317.148	400.94
317.377	415.94
317.607	403.94
317.836	410.94
318.065	408.94
318.295	408.94
318.524	410.94
318.753	400.94
318.983	399.94
319.212	399.94
319.441	401.94
319.67	411.94
319.9	409.94
320.129	409.94
320.358	419.94
320.587	419.94
320.816	424.94
321.046	438.94
321.275	409.94
321.504	420.94
321.733	412.94
321.962	429.94
322.191	431.94
322.42	451.94
322.649	450.94
322.878	458.94
323.108	467.94
323.337	485.94
323.566	501.94
323.795	508.94
324.024	574.94
324.253	673.94
324.482	924.94
324.71	1367.94
324.939	1910.94
325.168	1632.94
325.397	851.94
325.626	626.94
325.855	528.94
326.084	513.94
326.313	506.94
326.542	510.94
326.77	529.94
326.999	620.94
327.228	838.94
327.457	1230.94
327.686	1407.94
327.914	974.94
328.143	635.94
328.372	601.94
328.6	569.94
328.829	510.94
329.058	553.94
329.287	541.94
329.515	543.94
329.744	520.94
329.972	514.94
330.201	521.94
330.43	535.94
330.658	575.94
330.887	586.94
331.115	574.94
331.344	532.94
331.572	479.94
331.801	512.94
332.03	533.94
332.258	478.94
332.486	483.94
332.715	474.94
332.943	490.94
333.172	499.94
333.4	504.94
333.629	491.94
333.857	542.94
334.085	530.94
334.314	547.94
334.542	559.94
334.771	551.94
334.999	510.94
335.227	502.94
335.455	488.94
335.684	508.94
335.912	494.94
336.14	499.94
336.369	471.94
336.597	476.94
336.825	499.94
337.053	495.94
337.281	483.94
337.51	457.94
337.738	468.94
337.966	468.94
338.194	472.94
338.422	467.94
338.65	474.94
338.878	480.94
339.106	450.94
339.334	460.94
339.562	454.94
339.79	454.94
340.018	452.94
340.246	453.94
340.474	459.94
340.702	466.94
340.93	450.94
341.158	460.94
341.386	446.94
341.614	453.94
341.842	446.94
342.07	438.94
342.298	440.94
342.526	454.94
342.754	438.94
342.981	430.94
343.209	437.94
343.437	436.94
343.665	465.94
343.893	466.94
344.12	457.94
344.348	469.94
344.576	465.94
344.804	443.94
345.031	450.94
345.259	487.94
345.487	463.94
345.714	450.94
345.942	441.94
346.17	451.94
346.397	426.94
346.625	429.94
346.853	410.94
347.08	437.94
347.308	427.94
347.535	427.94
347.763	442.94
347.99	431.94
348.218	434.94
348.445	440.94
348.673	436.94
348.9	428.94
349.128	430.94
349.355	404.94
349.583	416.94
349.81	455.94
350.037	443.94
350.265	409.94
350.492	417.94
350.72	428.94
350.947	423.94
351.174	426.94
351.402	427.94
351.629	445.94
351.856	444.94
352.083	435.94
352.311	424.94
352.538	424.94
352.765	427.94
352.992	425.94
353.22	411.94
353.447	439.94
353.674	410.94
353.901	429.94
354.128	411.94
354.355	395.94
354.583	411.94
354.81	418.94
355.037	424.94
355.264	404.94
355.491	396.94
355.718	399.94
355.945	405.94
356.172	399.94
356.399	405.94
356.626	406.94
356.853	401.94
357.08	389.94
357.307	417.94
357.534	395.94
357.761	382.94
357.988	404.94
358.215	401.94
358.441	421.94
358.668	428.94
358.895	404.94
359.122	414.94
359.349	416.94
359.576	424.94
359.802	431.94
360.029	445.94
360.256	466.94
360.483	446.94
360.709	415.94
360.936	418.94
361.163	423.94
361.39	409.94
361.616	443.94
361.843	434.94
362.07	456.94
362.296	415.94
362.523	403.94
362.749	422.94
362.976	403.94
363.203	419.94
363.429	413.94
363.656	420.94
363.882	410.94
364.109	412.94
364.335	418.94
364.562	432.94
364.788	406.94
365.015	415.94
365.241	408.94
365.468	422.94
365.694	411.94
365.92	405.94
366.147	406.94
366.373	415.94
366.599	413.94
366.826	415.94
367.052	412.94
367.278	398.94
367.505	395.94
367.731	419.94
367.957	406.94
368.184	387.94
368.41	399.94
368.636	407.94
368.862	408.94
369.089	410.94
369.315	422.94
369.541	399.94
369.767	403.94
369.993	398.94
370.219	385.94
370.445	395.94
370.672	392.94
370.898	396.94
371.124	395.94
371.35	394.94
371.576	396.94
371.802	398.94
372.028	405.94
372.254	419.94
372.48	404.94
372.706	398.94
372.932	402.94
373.158	419.94
373.384	395.94
373.61	396.94
373.835	413.94
374.061	405.94
374.287	400.94
374.513	423.94
374.739	418.94
374.965	424.94
375.191	400.94
375.416	405.94
375.642	401.94
375.868	431.94
376.094	413.94
376.319	420.94
376.545	410.94
376.771	398.94
376.997	409.94
377.222	420.94
377.448	393.94
377.674	403.94
377.899	385.94
378.125	385.94
378.35	401.94
378.576	385.94
378.802	386.94
379.027	404.94
379.253	392.94
379.478	390.94
379.704	388.94
379.929	406.94
380.155	401.94
380.38	387.94
380.606	406.94
380.831	395.94
381.057	409.94
381.282	376.94
381.507	404.94
381.733	417.94
381.958	395.94
382.184	404.94
382.409	415.94
382.634	394.94
382.86	400.94
383.085	414.94
383.31	440.94
383.535	418.94
383.761	413.94
383.986	410.94
384.211	416.94
384.436	398.94
384.662	422.94
384.887	423.94
385.112	413.94
385.337	417.94
385.562	441.94
385.787	432.94
386.013	456.94
386.238	460.94
386.463	440.94
386.688	430.94
386.913	432.94
387.138	430.94
387.363	438.94
387.588	431.94
387.813	438.94
388.038	444.94
388.263	419.94
388.488	440.94
388.713	442.94
388.938	436.94
389.163	452.94
389.387	438.94
389.612	431.94
389.837	424.94
390.062	430.94
390.287	421.94
390.512	445.94
390.736	426.94
390.961	425.94
391.186	444.94
391.411	434.94
391.636	435.94
391.86	464.94
392.085	461.94
392.31	445.94
392.534	450.94
392.759	454.94
392.984	471.94
393.208	445.94
393.433	458.94
393.658	426.94
393.882	439.94
394.107	428.94
394.331	450.94
394.556	450.94
394.78	436.94
395.005	422.94
395.229	441.94
395.454	453.94
395.678	457.94
395.903	470.94
396.127	490.94
396.352	471.94
396.576	459.94
396.801	474.94
397.025	455.94
397.249	442.94
397.474	454.94
397.698	469.94
397.922	494.94
398.147	468.94
398.371	507.94
398.595	492.94
398.82	486.94
399.044	504.94
399.268	544.94
399.492	583.94
399.717	587.94
399.941	626.94
400.165	626.94
400.389	603.94
400.613	566.94
400.837	524.94
401.062	520.94
401.286	527.94
401.51	501.94
401.734	490.94
401.958	486.94
402.182	479.94
402.406	520.94
402.63	498.94
402.854	503.94
403.078	499.94
403.302	528.94
403.526	520.94
403.75	543.94
403.974	538.94
404.198	519.94
404.422	526.94
404.645	528.94
404.869	526.94
405.093	541.94
405.317	574.94
405.541	620.94
405.765	582.94
405.988	543.94
406.212	530.94
406.436	552.94
406.66	569.94
406.883	586.94
407.107	574.94
407.331	614.94
407.555	666.94
407.778	665.94
408.002	606.94
408.226	579.94
408.449	566.94
408.673	577.94
408.896	598.94
409.12	623.94
409.344	576.94
409.567	536.94
409.791	512.94
410.014	512.94
410.238	516.94
410.461	509.94
410.685	504.94
410.908	520.94
411.132	552.94
411.355	566.94
411.578	553.94
411.802	532.94
412.025	535.94
412.249	515.94
412.472	540.94
412.695	544.94
412.919	577.94
413.142	495.94
413.365	489.94
413.589	487.94
413.812	495.94
414.035	465.94
414.258	483.94
414.482	492.94
414.705	479.94
414.928	481.94
415.151	480.94
415.374	482.94
415.597	482.94
415.821	470.94
416.044	470.94
416.267	486.94
416.49	477.94
416.713	488.94
416.936	470.94
417.159	471.94
417.382	478.94
417.605	473.94
417.828	484.94
418.051	483.94
418.274	498.94
418.497	472.94
418.72	478.94
418.943	472.94
419.166	495.94
419.389	525.94
419.611	522.94
419.834	503.94
420.057	511.94
420.28	493.94
420.503	502.94
420.726	490.94
420.948	503.94
421.171	534.94
421.394	569.94
421.617	510.94
421.839	514.94
422.062	500.94
422.285	524.94
422.507	555.94
422.73	591.94
422.953	606.94
423.175	557.94
423.398	513.94
423.621	529.94
423.843	536.94
424.066	522.94
424.288	533.94
424.511	538.94
424.733	588.94
424.956	663.94
425.178	638.94
425.401	642.94
425.623	644.94
425.846	553.94
426.068	532.94
426.291	518.94
426.513	525.94
426.735	512.94
426.958	568.94
427.18	635.94
427.402	762.94
427.625	797.94
427.847	712.94
428.069	584.94
428.292	548.94
428.514	508.94
428.736	481.94
428.958	500.94
429.181	473.94
429.403	459.94
429.625	490.94
429.847	526.94
430.069	578.94
430.292	572.94
430.514	506.94
430.736	470.94
430.958	470.94
431.18	467.94
431.402	442.94
431.624	454.94
431.846	462.94
432.068	475.94
432.29	448.94
432.512	456.94
432.734	471.94
432.956	467.94
433.178	489.94
433.4	459.94
433.622	457.94
433.844	464.94
434.066	435.94
434.287	460.94
434.509	476.94
434.731	468.94
434.953	484.94
435.175	523.94
435.397	528.94
435.618	519.94
435.84	567.94
436.062	653.94
436.284	697.94
436.505	586.94
436.727	505.94
436.949	499.94
437.17	474.94
437.392	492.94
437.614	484.94
437.835	514.94
438.057	595.94
438.278	692.94
438.5	673.94
438.721	762.94
438.943	717.94
439.165	568.94
439.386	540.94
439.608	528.94
439.829	515.94
440.05	523.94
440.272	592.94
440.493	546.94
440.715	495.94
440.936	513.94
441.158	472.94
441.379	490.94
441.6	480.94
441.822	525.94
442.043	544.94
442.264	645.94
442.486	665.94
442.707	555.94
442.928	517.94
443.149	537.94
443.371	545.94
443.592	596.94
443.813	656.94
444.034	712.94
444.255	596.94
444.476	520.94
444.698	533.94
444.919	552.94
445.14	666.94
445.361	586.94
445.582	565.94
445.803	609.94
446.024	688.94
446.245	726.94
446.466	656.94
446.687	546.94
446.908	491.94
447.129	480.94
447.35	477.94
447.571	463.94
447.792	447.94
448.013	488.94
448.234	501.94
448.455	531.94
448.675	625.94
448.896	735.94
449.117	600.94
449.338	604.94
449.559	685.94
449.779	761.94
450	626.94
450.221	544.94
450.442	491.94
450.662	444.94
450.883	446.94
451.104	462.94
451.324	450.94
451.545	459.94
451.766	447.94
451.986	432.94
452.207	420.94
452.428	444.94
452.648	427.94
452.869	447.94
453.089	414.94
453.31	421.94
453.53	421.94
453.751	437.94
453.971	407.94
454.192	414.94
454.412	434.94
454.633	393.94
454.853	414.94
455.073	423.94
455.294	436.94
455.514	490.94
455.734	500.94
455.955	440.94
456.175	400.94
456.395	410.94
456.616	411.94
456.836	390.94
457.056	394.94
457.276	400.94
457.497	416.94
457.717	375.94
457.937	411.94
458.157	414.94
458.377	421.94
458.598	430.94
458.818	464.94
459.038	529.94
459.258	541.94
459.478	493.94
459.698	426.94
459.918	452.94
460.138	472.94
460.358	478.94
460.578	456.94
460.798	479.94
461.018	481.94
461.238	498.94
461.458	475.94
461.678	470.94
461.898	469.94
462.118	477.94
462.338	489.94
462.558	493.94
462.777	499.94
462.997	527.94
463.217	528.94
463.437	536.94
463.657	514.94
463.876	513.94
464.096	507.94
464.316	501.94
464.536	512.94
464.755	517.94
464.975	493.94
465.195	536.94
465.414	540.94
465.634	499.94
465.854	473.94
466.073	468.94
466.293	446.94
466.512	455.94
466.732	435.94
466.951	435.94
467.171	435.94
467.391	439.94
467.61	438.94
467.829	450.94
468.049	425.94
468.268	431.94
468.488	449.94
468.707	427.94
468.927	403.94
469.146	394.94
469.365	424.94
469.585	425.94
469.804	427.94
470.023	439.94
470.243	454.94
470.462	438.94
470.681	458.94
470.901	445.94
471.12	442.94
471.339	437.94
471.558	445.94
471.777	452.94
471.997	424.94
472.216	431.94
472.435	464.94
472.654	455.94
472.873	429.94
473.092	412.94
473.311	426.94
473.53	445.94
473.749	426.94
473.968	500.94
474.187	556.94
474.406	590.94
474.625	496.94
474.844	460.94
475.063	440.94
475.282	438.94
475.501	440.94
475.72	460.94
475.939	451.94
476.158	439.94
476.377	455.94
476.596	455.94
476.814	472.94
477.033	458.94
477.252	466.94
477.471	476.94
477.69	484.94
477.908	481.94
478.127	488.94
478.346	473.94
478.564	512.94
478.783	480.94
479.002	496.94
479.22	494.94
479.439	498.94
479.658	510.94
479.876	536.94
480.095	517.94
480.313	562.94
480.532	552.94
480.751	550.94
480.969	536.94
481.188	581.94
481.406	578.94
481.624	563.94
481.843	505.94
482.061	507.94
482.28	505.94
482.498	485.94
482.717	505.94
482.935	501.94
483.153	492.94
483.372	501.94
483.59	508.94
483.808	507.94
484.027	515.94
484.245	510.94
484.463	486.94
484.681	506.94
484.9	529.94
485.118	526.94
485.336	516.94
485.554	491.94
485.772	514.94
485.99	518.94
486.209	540.94
486.427	521.94
486.645	524.94
486.863	537.94
487.081	549.94
487.299	531.94
487.517	536.94
487.735	532.94
487.953	531.94
488.171	526.94
488.389	537.94
488.607	523.94
488.825	507.94
489.043	531.94
489.261	552.94
489.479	546.94
489.696	551.94
489.914	544.94
490.132	539.94
490.35	558.94
490.568	558.94
490.786	573.94
491.003	556.94
491.221	588.94
491.439	598.94
491.657	567.94
491.874	575.94
492.092	605.94
492.31	586.94
492.527	613.94
492.745	588.94
492.963	598.94
493.18	600.94
493.398	612.94
493.615	610.94
493.833	638.94
494.05	623.94
494.268	623.94
494.485	600.94
494.703	621.94
494.92	623.94
495.138	614.94
495.355	627.94
495.573	623.94
495.79	638.94
496.008	627.94
496.225	641.94
496.442	626.94
496.66	650.94
496.877	616.94
497.094	640.94
497.312	653.94
497.529	665.94
497.746	680.94
497.963	670.94
498.181	701.94
498.398	707.94
498.615	704.94
498.832	721.94
499.049	751.94
499.267	760.94
499.484	808.94
499.701	853.94
499.918	848.94
500.135	911.94
500.352	965.94
500.569	985.94
500.786	983.94
501.003	938.94
501.22	929.94
501.437	882.94
501.654	849.94
501.871	848.94
