Data from 1977.PennyLincolnUp.Lamp.En5.5.200Scan.071719.P1_HRD10591_16-06-18-864.txt Node
Date: Thu Jul 18 16:06:18 EDT 2019
User: cochatt
Spectrometer: HR+D1059
Trigger mode: 1
Integration Time (sec): 1.000000E-1
Scans to average: 1
Electric dark correction enabled: true
Nonlinearity correction enabled: false
Boxcar width: 0
XAxis mode: Wavelengths
Number of Pixels in Spectrum: 2048
>>>>>Begin Spectral Data<<<<<
223.165	-16.31
223.4	-16.31
223.635	-16.31
223.869	-14.31
224.104	-10.31
224.338	-20.31
224.573	-18.31
224.808	-12.31
225.042	-2.31
225.277	1.69
225.511	-10.31
225.746	-0.31
225.98	-3.31
226.215	3.69
226.449	18.69
226.683	24.69
226.918	26.69
227.152	32.69
227.387	19.69
227.621	51.69
227.856	42.69
228.09	39.69
228.324	52.69
228.559	52.69
228.793	69.69
229.027	97.69
229.262	99.69
229.496	107.69
229.73	119.69
229.964	106.69
230.199	108.69
230.433	123.69
230.667	111.69
230.901	92.69
231.136	119.69
231.37	101.69
231.604	99.69
231.838	108.69
232.072	106.69
232.306	121.69
232.541	101.69
232.775	113.69
233.009	101.69
233.243	101.69
233.477	112.69
233.711	113.69
233.945	111.69
234.179	120.69
234.413	118.69
234.647	114.69
234.881	112.69
235.115	106.69
235.349	110.69
235.583	113.69
235.817	107.69
236.051	112.69
236.285	114.69
236.519	120.69
236.753	117.69
236.987	151.69
237.221	159.69
237.455	200.69
237.689	160.69
237.922	123.69
238.156	125.69
238.39	123.69
238.624	122.69
238.858	117.69
239.091	130.69
239.325	117.69
239.559	127.69
239.793	127.69
240.027	132.69
240.26	131.69
240.494	132.69
240.728	139.69
240.961	134.69
241.195	146.69
241.429	127.69
241.662	123.69
241.896	128.69
242.13	143.69
242.363	131.69
242.597	122.69
242.83	143.69
243.064	130.69
243.298	127.69
243.531	124.69
243.765	127.69
243.998	135.69
244.232	134.69
244.465	154.69
244.699	123.69
244.932	139.69
245.166	134.69
245.399	140.69
245.633	145.69
245.866	142.69
246.099	131.69
246.333	145.69
246.566	132.69
246.8	143.69
247.033	141.69
247.266	152.69
247.5	151.69
247.733	149.69
247.966	160.69
248.2	164.69
248.433	160.69
248.666	172.69
248.899	157.69
249.133	179.69
249.366	195.69
249.599	170.69
249.832	162.69
250.066	167.69
250.299	180.69
250.532	193.69
250.765	188.69
250.998	211.69
251.231	197.69
251.465	188.69
251.698	183.69
251.931	190.69
252.164	185.69
252.397	168.69
252.63	181.69
252.863	203.69
253.096	218.69
253.329	212.69
253.562	215.69
253.795	195.69
254.028	199.69
254.261	200.69
254.494	206.69
254.727	231.69
254.96	244.69
255.193	234.69
255.426	239.69
255.659	205.69
255.892	211.69
256.124	223.69
256.357	221.69
256.59	194.69
256.823	207.69
257.056	193.69
257.289	198.69
257.521	227.69
257.754	194.69
257.987	199.69
258.22	197.69
258.452	188.69
258.685	212.69
258.918	195.69
259.151	194.69
259.383	223.69
259.616	225.69
259.849	201.69
260.081	233.69
260.314	240.69
260.547	245.69
260.779	226.69
261.012	215.69
261.244	230.69
261.477	220.69
261.71	216.69
261.942	228.69
262.175	237.69
262.407	214.69
262.64	197.69
262.872	204.69
263.105	208.69
263.337	194.69
263.57	229.69
263.802	204.69
264.035	223.69
264.267	223.69
264.499	205.69
264.732	202.69
264.964	202.69
265.197	210.69
265.429	230.69
265.661	220.69
265.894	219.69
266.126	218.69
266.358	201.69
266.591	225.69
266.823	212.69
267.055	219.69
267.287	239.69
267.52	226.69
267.752	211.69
267.984	230.69
268.216	233.69
268.448	241.69
268.681	236.69
268.913	254.69
269.145	264.69
269.377	261.69
269.609	269.69
269.841	259.69
270.073	252.69
270.306	278.69
270.538	290.69
270.77	300.69
271.002	294.69
271.234	273.69
271.466	274.69
271.698	309.69
271.93	300.69
272.162	301.69
272.394	328.69
272.626	297.69
272.858	295.69
273.09	274.69
273.322	281.69
273.553	263.69
273.785	273.69
274.017	257.69
274.249	253.69
274.481	259.69
274.713	241.69
274.945	278.69
275.176	267.69
275.408	261.69
275.64	272.69
275.872	273.69
276.104	264.69
276.335	280.69
276.567	278.69
276.799	296.69
277.031	325.69
277.262	309.69
277.494	295.69
277.726	303.69
277.957	273.69
278.189	281.69
278.421	285.69
278.652	258.69
278.884	279.69
279.115	280.69
279.347	256.69
279.579	264.69
279.81	268.69
280.042	282.69
280.273	273.69
280.505	268.69
280.736	296.69
280.968	276.69
281.199	281.69
281.431	261.69
281.662	277.69
281.894	280.69
282.125	279.69
282.356	283.69
282.588	293.69
282.819	307.69
283.051	299.69
283.282	281.69
283.513	288.69
283.745	283.69
283.976	288.69
284.207	298.69
284.439	277.69
284.67	284.69
284.901	300.69
285.132	288.69
285.364	291.69
285.595	299.69
285.826	284.69
286.057	294.69
286.288	307.69
286.52	283.69
286.751	284.69
286.982	289.69
287.213	291.69
287.444	285.69
287.675	299.69
287.906	296.69
288.138	305.69
288.369	308.69
288.6	312.69
288.831	299.69
289.062	293.69
289.293	291.69
289.524	297.69
289.755	306.69
289.986	289.69
290.217	291.69
290.448	307.69
290.679	303.69
290.91	297.69
291.141	274.69
291.371	295.69
291.602	313.69
291.833	280.69
292.064	323.69
292.295	311.69
292.526	305.69
292.757	302.69
292.987	308.69
293.218	299.69
293.449	328.69
293.68	309.69
293.91	304.69
294.141	298.69
294.372	295.69
294.603	299.69
294.833	295.69
295.064	289.69
295.295	303.69
295.525	319.69
295.756	312.69
295.987	311.69
296.217	336.69
296.448	323.69
296.679	305.69
296.909	305.69
297.14	307.69
297.37	321.69
297.601	318.69
297.831	309.69
298.062	307.69
298.292	326.69
298.523	328.69
298.753	318.69
298.984	323.69
299.214	335.69
299.445	316.69
299.675	339.69
299.905	323.69
300.136	333.69
300.366	314.69
300.597	323.69
300.827	331.69
301.057	337.69
301.288	335.69
301.518	324.69
301.748	319.69
301.979	321.69
302.209	332.69
302.439	342.69
302.669	341.69
302.9	337.69
303.13	358.69
303.36	353.69
303.59	354.69
303.82	355.69
304.051	338.69
304.281	333.69
304.511	359.69
304.741	334.69
304.971	353.69
305.201	339.69
305.431	342.69
305.661	324.69
305.891	329.69
306.121	320.69
306.352	330.69
306.582	347.69
306.812	355.69
307.042	334.69
307.272	335.69
307.502	340.69
307.731	345.69
307.961	347.69
308.191	342.69
308.421	332.69
308.651	346.69
308.881	338.69
309.111	358.69
309.341	345.69
309.571	356.69
309.8	368.69
310.03	351.69
310.26	365.69
310.49	382.69
310.72	377.69
310.949	371.69
311.179	392.69
311.409	379.69
311.639	373.69
311.868	388.69
312.098	387.69
312.328	391.69
312.557	386.69
312.787	389.69
313.017	411.69
313.246	383.69
313.476	370.69
313.706	387.69
313.935	384.69
314.165	408.69
314.394	389.69
314.624	400.69
314.853	391.69
315.083	390.69
315.312	385.69
315.542	363.69
315.771	373.69
316.001	364.69
316.23	372.69
316.46	389.69
316.689	379.69
316.919	394.69
317.148	404.69
317.377	395.69
317.607	411.69
317.836	386.69
318.065	409.69
318.295	368.69
318.524	372.69
318.753	389.69
318.983	379.69
319.212	370.69
319.441	381.69
319.67	398.69
319.9	376.69
320.129	387.69
320.358	395.69
320.587	394.69
320.816	395.69
321.046	393.69
321.275	397.69
321.504	394.69
321.733	410.69
321.962	400.69
322.191	396.69
322.42	434.69
322.649	436.69
322.878	423.69
323.108	449.69
323.337	452.69
323.566	445.69
323.795	481.69
324.024	518.69
324.253	596.69
324.482	811.69
324.71	1144.69
324.939	1635.69
325.168	1386.69
325.397	761.69
325.626	563.69
325.855	488.69
326.084	480.69
326.313	468.69
326.542	488.69
326.77	499.69
326.999	577.69
327.228	767.69
327.457	1055.69
327.686	1217.69
327.914	833.69
328.143	592.69
328.372	553.69
328.6	506.69
328.829	501.69
329.058	519.69
329.287	535.69
329.515	507.69
329.744	479.69
329.972	465.69
330.201	490.69
330.43	517.69
330.658	509.69
330.887	553.69
331.115	543.69
331.344	498.69
331.572	480.69
331.801	483.69
332.03	453.69
332.258	463.69
332.486	455.69
332.715	448.69
332.943	453.69
333.172	460.69
333.4	471.69
333.629	474.69
333.857	473.69
334.085	504.69
334.314	503.69
334.542	510.69
334.771	518.69
334.999	475.69
335.227	486.69
335.455	453.69
335.684	467.69
335.912	451.69
336.14	452.69
336.369	457.69
336.597	460.69
336.825	469.69
337.053	462.69
337.281	457.69
337.51	447.69
337.738	427.69
337.966	443.69
338.194	444.69
338.422	444.69
338.65	430.69
338.878	433.69
339.106	445.69
339.334	434.69
339.562	416.69
339.79	413.69
340.018	425.69
340.246	440.69
340.474	433.69
340.702	441.69
340.93	422.69
341.158	419.69
341.386	428.69
341.614	426.69
341.842	431.69
342.07	425.69
342.298	416.69
342.526	411.69
342.754	402.69
342.981	439.69
343.209	423.69
343.437	424.69
343.665	431.69
343.893	440.69
344.12	451.69
344.348	450.69
344.576	463.69
344.804	448.69
345.031	437.69
345.259	428.69
345.487	447.69
345.714	435.69
345.942	429.69
346.17	413.69
346.397	386.69
346.625	410.69
346.853	429.69
347.08	396.69
347.308	406.69
347.535	405.69
347.763	410.69
347.99	410.69
348.218	403.69
348.445	405.69
348.673	391.69
348.9	408.69
349.128	402.69
349.355	391.69
349.583	392.69
349.81	391.69
350.037	382.69
350.265	385.69
350.492	389.69
350.72	378.69
350.947	433.69
351.174	413.69
351.402	394.69
351.629	407.69
351.856	416.69
352.083	417.69
352.311	397.69
352.538	402.69
352.765	416.69
352.992	407.69
353.22	425.69
353.447	414.69
353.674	396.69
353.901	388.69
354.128	381.69
354.355	406.69
354.583	370.69
354.81	383.69
355.037	393.69
355.264	378.69
355.491	369.69
355.718	377.69
355.945	403.69
356.172	378.69
356.399	388.69
356.626	373.69
356.853	363.69
357.08	377.69
357.307	367.69
357.534	373.69
357.761	363.69
357.988	407.69
358.215	373.69
358.441	375.69
358.668	390.69
358.895	394.69
359.122	364.69
359.349	387.69
359.576	405.69
359.802	416.69
360.029	418.69
360.256	439.69
360.483	420.69
360.709	376.69
360.936	407.69
361.163	402.69
361.39	390.69
361.616	385.69
361.843	396.69
362.07	388.69
362.296	369.69
362.523	393.69
362.749	401.69
362.976	392.69
363.203	379.69
363.429	376.69
363.656	393.69
363.882	392.69
364.109	404.69
364.335	385.69
364.562	381.69
364.788	391.69
365.015	377.69
365.241	371.69
365.468	384.69
365.694	380.69
365.92	364.69
366.147	386.69
366.373	372.69
366.599	383.69
366.826	376.69
367.052	381.69
367.278	374.69
367.505	378.69
367.731	394.69
367.957	396.69
368.184	368.69
368.41	389.69
368.636	393.69
368.862	400.69
369.089	398.69
369.315	385.69
369.541	383.69
369.767	368.69
369.993	380.69
370.219	400.69
370.445	388.69
370.672	369.69
370.898	379.69
371.124	381.69
371.35	367.69
371.576	379.69
371.802	371.69
372.028	388.69
372.254	384.69
372.48	369.69
372.706	388.69
372.932	370.69
373.158	398.69
373.384	393.69
373.61	372.69
373.835	381.69
374.061	392.69
374.287	388.69
374.513	412.69
374.739	393.69
374.965	404.69
375.191	380.69
375.416	378.69
375.642	386.69
375.868	394.69
376.094	380.69
376.319	381.69
376.545	364.69
376.771	371.69
376.997	383.69
377.222	386.69
377.448	392.69
377.674	383.69
377.899	373.69
378.125	368.69
378.35	371.69
378.576	368.69
378.802	365.69
379.027	379.69
379.253	379.69
379.478	386.69
379.704	372.69
379.929	379.69
380.155	387.69
380.38	385.69
380.606	377.69
380.831	381.69
381.057	380.69
381.282	381.69
381.507	395.69
381.733	385.69
381.958	384.69
382.184	392.69
382.409	371.69
382.634	372.69
382.86	388.69
383.085	391.69
383.31	391.69
383.535	394.69
383.761	403.69
383.986	419.69
384.211	392.69
384.436	397.69
384.662	397.69
384.887	386.69
385.112	395.69
385.337	403.69
385.562	420.69
385.787	429.69
386.013	413.69
386.238	426.69
386.463	418.69
386.688	426.69
386.913	404.69
387.138	427.69
387.363	396.69
387.588	438.69
387.813	415.69
388.038	425.69
388.263	441.69
388.488	415.69
388.713	412.69
388.938	413.69
389.163	408.69
389.387	436.69
389.612	424.69
389.837	401.69
390.062	385.69
390.287	433.69
390.512	416.69
390.736	394.69
390.961	407.69
391.186	417.69
391.411	428.69
391.636	436.69
391.86	412.69
392.085	435.69
392.31	446.69
392.534	434.69
392.759	421.69
392.984	425.69
393.208	422.69
393.433	417.69
393.658	416.69
393.882	437.69
394.107	422.69
394.331	423.69
394.556	419.69
394.78	424.69
395.005	426.69
395.229	415.69
395.454	437.69
395.678	451.69
395.903	430.69
396.127	463.69
396.352	453.69
396.576	434.69
396.801	428.69
397.025	428.69
397.249	433.69
397.474	447.69
397.698	422.69
397.922	448.69
398.147	455.69
398.371	472.69
398.595	458.69
398.82	467.69
399.044	478.69
399.268	504.69
399.492	533.69
399.717	569.69
399.941	581.69
400.165	613.69
400.389	583.69
400.613	536.69
400.837	501.69
401.062	489.69
401.286	483.69
401.51	484.69
401.734	468.69
401.958	456.69
402.182	505.69
402.406	465.69
402.63	491.69
402.854	475.69
403.078	474.69
403.302	490.69
403.526	507.69
403.75	488.69
403.974	472.69
404.198	490.69
404.422	492.69
404.645	501.69
404.869	515.69
405.093	533.69
405.317	553.69
405.541	575.69
405.765	538.69
405.988	501.69
406.212	505.69
406.436	540.69
406.66	539.69
406.883	532.69
407.107	544.69
407.331	575.69
407.555	637.69
407.778	665.69
408.002	576.69
408.226	537.69
408.449	535.69
408.673	525.69
408.896	548.69
409.12	573.69
409.344	544.69
409.567	519.69
409.791	489.69
410.014	489.69
410.238	487.69
410.461	500.69
410.685	473.69
410.908	509.69
411.132	533.69
411.355	530.69
411.578	526.69
411.802	500.69
412.025	480.69
412.249	498.69
412.472	513.69
412.695	505.69
412.919	521.69
413.142	486.69
413.365	474.69
413.589	483.69
413.812	462.69
414.035	448.69
414.258	452.69
414.482	469.69
414.705	453.69
414.928	434.69
415.151	448.69
415.374	464.69
415.597	462.69
415.821	432.69
416.044	442.69
416.267	448.69
416.49	456.69
416.713	453.69
416.936	452.69
417.159	460.69
417.382	456.69
417.605	455.69
417.828	473.69
418.051	455.69
418.274	451.69
418.497	449.69
418.72	476.69
418.943	466.69
419.166	487.69
419.389	478.69
419.611	500.69
419.834	457.69
420.057	471.69
420.28	480.69
420.503	450.69
420.726	471.69
420.948	468.69
421.171	510.69
421.394	526.69
421.617	465.69
421.839	465.69
422.062	471.69
422.285	474.69
422.507	514.69
422.73	584.69
422.953	557.69
423.175	499.69
423.398	483.69
423.621	493.69
423.843	482.69
424.066	479.69
424.288	515.69
424.511	515.69
424.733	571.69
424.956	629.69
425.178	596.69
425.401	582.69
425.623	605.69
425.846	531.69
426.068	472.69
426.291	466.69
426.513	482.69
426.735	495.69
426.958	537.69
427.18	589.69
427.402	687.69
427.625	748.69
427.847	651.69
428.069	544.69
428.292	537.69
428.514	492.69
428.736	481.69
428.958	460.69
429.181	442.69
429.403	445.69
429.625	455.69
429.847	488.69
430.069	537.69
430.292	524.69
430.514	476.69
430.736	460.69
430.958	465.69
431.18	445.69
431.402	433.69
431.624	419.69
431.846	433.69
432.068	439.69
432.29	441.69
432.512	416.69
432.734	414.69
432.956	429.69
433.178	441.69
433.4	447.69
433.622	428.69
433.844	451.69
434.066	428.69
434.287	428.69
434.509	448.69
434.731	433.69
434.953	460.69
435.175	484.69
435.397	486.69
435.618	484.69
435.84	523.69
436.062	573.69
436.284	635.69
436.505	519.69
436.727	496.69
436.949	457.69
437.17	435.69
437.392	432.69
437.614	459.69
437.835	484.69
438.057	567.69
438.278	643.69
438.5	623.69
438.721	688.69
438.943	654.69
439.165	528.69
439.386	480.69
439.608	471.69
439.829	473.69
440.05	516.69
440.272	535.69
440.493	507.69
440.715	471.69
440.936	458.69
441.158	459.69
441.379	472.69
441.6	453.69
441.822	475.69
442.043	488.69
442.264	584.69
442.486	604.69
442.707	540.69
442.928	519.69
443.149	502.69
443.371	516.69
443.592	544.69
443.813	608.69
444.034	672.69
444.255	564.69
444.476	531.69
444.698	510.69
444.919	505.69
445.14	583.69
445.361	555.69
445.582	544.69
445.803	564.69
446.024	631.69
446.245	657.69
446.466	601.69
446.687	516.69
446.908	485.69
447.129	456.69
447.35	458.69
447.571	460.69
447.792	446.69
448.013	469.69
448.234	477.69
448.455	511.69
448.675	594.69
448.896	670.69
449.117	586.69
449.338	548.69
449.559	623.69
449.779	705.69
450	603.69
450.221	484.69
450.442	442.69
450.662	424.69
450.883	411.69
451.104	450.69
451.324	433.69
451.545	411.69
451.766	420.69
451.986	398.69
452.207	406.69
452.428	385.69
452.648	401.69
452.869	410.69
453.089	401.69
453.31	404.69
453.53	406.69
453.751	401.69
453.971	412.69
454.192	396.69
454.412	424.69
454.633	389.69
454.853	387.69
455.073	404.69
455.294	408.69
455.514	464.69
455.734	450.69
455.955	405.69
456.175	398.69
456.395	354.69
456.616	377.69
456.836	381.69
457.056	381.69
457.276	370.69
457.497	381.69
457.717	373.69
457.937	393.69
458.157	390.69
458.377	402.69
458.598	413.69
458.818	467.69
459.038	516.69
459.258	516.69
459.478	451.69
459.698	435.69
459.918	434.69
460.138	437.69
460.358	446.69
460.578	444.69
460.798	438.69
461.018	439.69
461.238	435.69
461.458	456.69
461.678	443.69
461.898	454.69
462.118	439.69
462.338	457.69
462.558	454.69
462.777	460.69
462.997	482.69
463.217	485.69
463.437	515.69
463.657	481.69
463.876	475.69
464.096	501.69
464.316	473.69
464.536	482.69
464.755	464.69
464.975	473.69
465.195	488.69
465.414	516.69
465.634	473.69
465.854	444.69
466.073	449.69
466.293	409.69
466.512	412.69
466.732	408.69
466.951	393.69
467.171	404.69
467.391	427.69
467.61	421.69
467.829	432.69
468.049	426.69
468.268	418.69
468.488	412.69
468.707	398.69
468.927	405.69
469.146	391.69
469.365	405.69
469.585	407.69
469.804	428.69
470.023	426.69
470.243	422.69
470.462	423.69
470.681	438.69
470.901	419.69
471.12	426.69
471.339	441.69
471.558	411.69
471.777	417.69
471.997	407.69
472.216	427.69
472.435	438.69
472.654	427.69
472.873	405.69
473.092	413.69
473.311	406.69
473.53	398.69
473.749	413.69
473.968	462.69
474.187	524.69
474.406	549.69
474.625	457.69
474.844	431.69
475.063	412.69
475.282	402.69
475.501	427.69
475.72	427.69
475.939	422.69
476.158	417.69
476.377	423.69
476.596	425.69
476.814	439.69
477.033	427.69
477.252	430.69
477.471	439.69
477.69	429.69
477.908	435.69
478.127	466.69
478.346	456.69
478.564	458.69
478.783	465.69
479.002	474.69
479.22	500.69
479.439	485.69
479.658	466.69
479.876	502.69
480.095	520.69
480.313	521.69
480.532	514.69
480.751	512.69
480.969	499.69
481.188	533.69
481.406	541.69
481.624	506.69
481.843	509.69
482.061	448.69
482.28	469.69
482.498	477.69
482.717	459.69
482.935	470.69
483.153	474.69
483.372	464.69
483.59	461.69
483.808	487.69
484.027	475.69
484.245	469.69
484.463	472.69
484.681	493.69
484.9	442.69
485.118	478.69
485.336	491.69
485.554	481.69
485.772	487.69
485.99	464.69
486.209	504.69
486.427	489.69
486.645	511.69
486.863	479.69
487.081	503.69
487.299	497.69
487.517	509.69
487.735	507.69
487.953	512.69
488.171	492.69
488.389	500.69
488.607	517.69
488.825	516.69
489.043	532.69
489.261	497.69
489.479	502.69
489.696	519.69
489.914	498.69
490.132	527.69
490.35	512.69
490.568	508.69
490.786	539.69
491.003	510.69
491.221	536.69
491.439	546.69
491.657	536.69
491.874	541.69
492.092	555.69
492.31	565.69
492.527	587.69
492.745	548.69
492.963	571.69
493.18	588.69
493.398	598.69
493.615	596.69
493.833	570.69
494.05	596.69
494.268	591.69
494.485	600.69
494.703	569.69
494.92	586.69
495.138	571.69
495.355	585.69
495.573	592.69
495.79	586.69
496.008	575.69
496.225	586.69
496.442	592.69
496.66	601.69
496.877	579.69
497.094	595.69
497.312	570.69
497.529	618.69
497.746	630.69
497.963	655.69
498.181	650.69
498.398	649.69
498.615	664.69
498.832	703.69
499.049	677.69
499.267	705.69
499.484	789.69
499.701	802.69
499.918	813.69
500.135	841.69
500.352	891.69
500.569	907.69
500.786	907.69
501.003	913.69
501.22	844.69
501.437	831.69
501.654	790.69
501.871	785.69
