Data from 1977.PennyLincolnUp.Lamp.En5.5.200Scan.071719.P1_HRD10591_16-06-31-864.txt Node
Date: Thu Jul 18 16:06:31 EDT 2019
User: cochatt
Spectrometer: HR+D1059
Trigger mode: 1
Integration Time (sec): 1.000000E-1
Scans to average: 1
Electric dark correction enabled: true
Nonlinearity correction enabled: false
Boxcar width: 0
XAxis mode: Wavelengths
Number of Pixels in Spectrum: 2048
>>>>>Begin Spectral Data<<<<<
223.165	-15.31
223.4	-15.31
223.635	-15.31
223.869	-23.31
224.104	-18.31
224.338	-14.31
224.573	-17.31
224.808	-9.31
225.042	-3.31
225.277	-10.31
225.511	-6.31
225.746	8.69
225.98	20.69
226.215	14.69
226.449	3.69
226.683	10.69
226.918	28.69
227.152	30.69
227.387	35.69
227.621	29.69
227.856	39.69
228.09	64.69
228.324	53.69
228.559	52.69
228.793	61.69
229.027	90.69
229.262	102.69
229.496	100.69
229.73	109.69
229.964	139.69
230.199	114.69
230.433	100.69
230.667	121.69
230.901	109.69
231.136	101.69
231.37	129.69
231.604	94.69
231.838	98.69
232.072	110.69
232.306	109.69
232.541	105.69
232.775	116.69
233.009	121.69
233.243	110.69
233.477	117.69
233.711	105.69
233.945	113.69
234.179	104.69
234.413	126.69
234.647	114.69
234.881	100.69
235.115	112.69
235.349	116.69
235.583	121.69
235.817	122.69
236.051	124.69
236.285	122.69
236.519	127.69
236.753	129.69
236.987	138.69
237.221	152.69
237.455	200.69
237.689	173.69
237.922	138.69
238.156	130.69
238.39	136.69
238.624	118.69
238.858	130.69
239.091	123.69
239.325	128.69
239.559	128.69
239.793	123.69
240.027	120.69
240.26	139.69
240.494	166.69
240.728	136.69
240.961	139.69
241.195	153.69
241.429	142.69
241.662	140.69
241.896	127.69
242.13	137.69
242.363	142.69
242.597	127.69
242.83	117.69
243.064	123.69
243.298	135.69
243.531	142.69
243.765	133.69
243.998	124.69
244.232	142.69
244.465	143.69
244.699	148.69
244.932	141.69
245.166	135.69
245.399	142.69
245.633	139.69
245.866	151.69
246.099	141.69
246.333	132.69
246.566	138.69
246.8	135.69
247.033	160.69
247.266	152.69
247.5	159.69
247.733	153.69
247.966	170.69
248.2	169.69
248.433	171.69
248.666	156.69
248.899	178.69
249.133	194.69
249.366	193.69
249.599	177.69
249.832	170.69
250.066	178.69
250.299	181.69
250.532	186.69
250.765	196.69
250.998	199.69
251.231	219.69
251.465	205.69
251.698	190.69
251.931	187.69
252.164	190.69
252.397	197.69
252.63	209.69
252.863	198.69
253.096	227.69
253.329	232.69
253.562	228.69
253.795	205.69
254.028	204.69
254.261	197.69
254.494	205.69
254.727	231.69
254.96	251.69
255.193	260.69
255.426	230.69
255.659	223.69
255.892	241.69
256.124	222.69
256.357	221.69
256.59	210.69
256.823	209.69
257.056	205.69
257.289	196.69
257.521	210.69
257.754	221.69
257.987	203.69
258.22	203.69
258.452	214.69
258.685	186.69
258.918	206.69
259.151	206.69
259.383	225.69
259.616	208.69
259.849	209.69
260.081	228.69
260.314	244.69
260.547	252.69
260.779	217.69
261.012	228.69
261.244	205.69
261.477	208.69
261.71	220.69
261.942	222.69
262.175	238.69
262.407	243.69
262.64	222.69
262.872	215.69
263.105	220.69
263.337	200.69
263.57	222.69
263.802	211.69
264.035	227.69
264.267	219.69
264.499	204.69
264.732	212.69
264.964	230.69
265.197	210.69
265.429	213.69
265.661	215.69
265.894	212.69
266.126	227.69
266.358	224.69
266.591	236.69
266.823	224.69
267.055	227.69
267.287	231.69
267.52	250.69
267.752	226.69
267.984	221.69
268.216	224.69
268.448	232.69
268.681	245.69
268.913	241.69
269.145	243.69
269.377	245.69
269.609	267.69
269.841	256.69
270.073	270.69
270.306	282.69
270.538	305.69
270.77	306.69
271.002	305.69
271.234	299.69
271.466	309.69
271.698	288.69
271.93	301.69
272.162	284.69
272.394	338.69
272.626	310.69
272.858	295.69
273.09	278.69
273.322	280.69
273.553	290.69
273.785	279.69
274.017	270.69
274.249	278.69
274.481	278.69
274.713	276.69
274.945	282.69
275.176	270.69
275.408	281.69
275.64	288.69
275.872	278.69
276.104	291.69
276.335	302.69
276.567	262.69
276.799	272.69
277.031	306.69
277.262	309.69
277.494	325.69
277.726	300.69
277.957	290.69
278.189	281.69
278.421	277.69
278.652	292.69
278.884	292.69
279.115	289.69
279.347	284.69
279.579	285.69
279.81	285.69
280.042	284.69
280.273	278.69
280.505	275.69
280.736	288.69
280.968	288.69
281.199	292.69
281.431	268.69
281.662	281.69
281.894	285.69
282.125	281.69
282.356	300.69
282.588	297.69
282.819	307.69
283.051	266.69
283.282	289.69
283.513	293.69
283.745	292.69
283.976	304.69
284.207	304.69
284.439	308.69
284.67	288.69
284.901	312.69
285.132	286.69
285.364	292.69
285.595	289.69
285.826	287.69
286.057	311.69
286.288	311.69
286.52	291.69
286.751	290.69
286.982	286.69
287.213	294.69
287.444	298.69
287.675	329.69
287.906	310.69
288.138	326.69
288.369	337.69
288.6	321.69
288.831	307.69
289.062	321.69
289.293	299.69
289.524	308.69
289.755	309.69
289.986	308.69
290.217	299.69
290.448	297.69
290.679	298.69
290.91	307.69
291.141	298.69
291.371	320.69
291.602	291.69
291.833	308.69
292.064	324.69
292.295	305.69
292.526	316.69
292.757	313.69
292.987	300.69
293.218	315.69
293.449	325.69
293.68	319.69
293.91	302.69
294.141	308.69
294.372	314.69
294.603	294.69
294.833	329.69
295.064	334.69
295.295	329.69
295.525	304.69
295.756	324.69
295.987	320.69
296.217	333.69
296.448	342.69
296.679	339.69
296.909	327.69
297.14	312.69
297.37	313.69
297.601	299.69
297.831	317.69
298.062	322.69
298.292	314.69
298.523	326.69
298.753	344.69
298.984	333.69
299.214	326.69
299.445	312.69
299.675	297.69
299.905	315.69
300.136	326.69
300.366	328.69
300.597	324.69
300.827	335.69
301.057	355.69
301.288	325.69
301.518	348.69
301.748	364.69
301.979	362.69
302.209	342.69
302.439	340.69
302.669	344.69
302.9	346.69
303.13	349.69
303.36	356.69
303.59	362.69
303.82	349.69
304.051	349.69
304.281	354.69
304.511	367.69
304.741	340.69
304.971	354.69
305.201	338.69
305.431	338.69
305.661	348.69
305.891	352.69
306.121	345.69
306.352	366.69
306.582	337.69
306.812	351.69
307.042	345.69
307.272	353.69
307.502	354.69
307.731	356.69
307.961	346.69
308.191	359.69
308.421	339.69
308.651	371.69
308.881	357.69
309.111	365.69
309.341	362.69
309.571	350.69
309.8	354.69
310.03	395.69
310.26	382.69
310.49	359.69
310.72	390.69
310.949	392.69
311.179	406.69
311.409	393.69
311.639	385.69
311.868	373.69
312.098	380.69
312.328	388.69
312.557	398.69
312.787	397.69
313.017	399.69
313.246	382.69
313.476	381.69
313.706	380.69
313.935	398.69
314.165	415.69
314.394	403.69
314.624	393.69
314.853	385.69
315.083	392.69
315.312	404.69
315.542	388.69
315.771	390.69
316.001	399.69
316.23	382.69
316.46	374.69
316.689	371.69
316.919	393.69
317.148	404.69
317.377	376.69
317.607	394.69
317.836	373.69
318.065	389.69
318.295	402.69
318.524	392.69
318.753	382.69
318.983	398.69
319.212	373.69
319.441	408.69
319.67	410.69
319.9	381.69
320.129	378.69
320.358	389.69
320.587	408.69
320.816	398.69
321.046	386.69
321.275	405.69
321.504	415.69
321.733	412.69
321.962	407.69
322.191	434.69
322.42	427.69
322.649	411.69
322.878	449.69
323.108	440.69
323.337	457.69
323.566	470.69
323.795	500.69
324.024	548.69
324.253	607.69
324.482	825.69
324.71	1200.69
324.939	1712.69
325.168	1423.69
325.397	778.69
325.626	583.69
325.855	519.69
326.084	499.69
326.313	484.69
326.542	475.69
326.77	513.69
326.999	574.69
327.228	777.69
327.457	1088.69
327.686	1264.69
327.914	867.69
328.143	615.69
328.372	534.69
328.6	533.69
328.829	515.69
329.058	552.69
329.287	552.69
329.515	494.69
329.744	489.69
329.972	489.69
330.201	502.69
330.43	519.69
330.658	524.69
330.887	552.69
331.115	532.69
331.344	494.69
331.572	466.69
331.801	475.69
332.03	482.69
332.258	462.69
332.486	470.69
332.715	462.69
332.943	465.69
333.172	467.69
333.4	463.69
333.629	475.69
333.857	468.69
334.085	490.69
334.314	507.69
334.542	536.69
334.771	520.69
334.999	499.69
335.227	489.69
335.455	494.69
335.684	488.69
335.912	490.69
336.14	489.69
336.369	470.69
336.597	471.69
336.825	473.69
337.053	449.69
337.281	442.69
337.51	457.69
337.738	469.69
337.966	452.69
338.194	464.69
338.422	473.69
338.65	453.69
338.878	433.69
339.106	455.69
339.334	464.69
339.562	446.69
339.79	434.69
340.018	434.69
340.246	435.69
340.474	452.69
340.702	425.69
340.93	444.69
341.158	453.69
341.386	430.69
341.614	457.69
341.842	429.69
342.07	448.69
342.298	444.69
342.526	410.69
342.754	419.69
342.981	419.69
343.209	421.69
343.437	436.69
343.665	435.69
343.893	453.69
344.12	477.69
344.348	453.69
344.576	446.69
344.804	456.69
345.031	455.69
345.259	445.69
345.487	461.69
345.714	419.69
345.942	427.69
346.17	404.69
346.397	423.69
346.625	425.69
346.853	403.69
347.08	408.69
347.308	395.69
347.535	426.69
347.763	423.69
347.99	429.69
348.218	412.69
348.445	419.69
348.673	426.69
348.9	414.69
349.128	419.69
349.355	408.69
349.583	401.69
349.81	406.69
350.037	401.69
350.265	384.69
350.492	412.69
350.72	406.69
350.947	407.69
351.174	414.69
351.402	409.69
351.629	391.69
351.856	408.69
352.083	395.69
352.311	401.69
352.538	411.69
352.765	412.69
352.992	420.69
353.22	401.69
353.447	388.69
353.674	384.69
353.901	385.69
354.128	407.69
354.355	391.69
354.583	416.69
354.81	391.69
355.037	387.69
355.264	401.69
355.491	395.69
355.718	403.69
355.945	379.69
356.172	384.69
356.399	378.69
356.626	401.69
356.853	374.69
357.08	401.69
357.307	377.69
357.534	382.69
357.761	401.69
357.988	368.69
358.215	375.69
358.441	384.69
358.668	378.69
358.895	388.69
359.122	381.69
359.349	390.69
359.576	412.69
359.802	403.69
360.029	424.69
360.256	418.69
360.483	408.69
360.709	401.69
360.936	389.69
361.163	410.69
361.39	379.69
361.616	393.69
361.843	410.69
362.07	396.69
362.296	410.69
362.523	406.69
362.749	394.69
362.976	397.69
363.203	397.69
363.429	389.69
363.656	392.69
363.882	370.69
364.109	379.69
364.335	398.69
364.562	380.69
364.788	386.69
365.015	399.69
365.241	382.69
365.468	389.69
365.694	406.69
365.92	397.69
366.147	376.69
366.373	388.69
366.599	382.69
366.826	388.69
367.052	363.69
367.278	384.69
367.505	388.69
367.731	398.69
367.957	385.69
368.184	402.69
368.41	378.69
368.636	382.69
368.862	402.69
369.089	407.69
369.315	384.69
369.541	378.69
369.767	398.69
369.993	393.69
370.219	392.69
370.445	378.69
370.672	376.69
370.898	385.69
371.124	380.69
371.35	404.69
371.576	394.69
371.802	406.69
372.028	394.69
372.254	403.69
372.48	389.69
372.706	394.69
372.932	389.69
373.158	386.69
373.384	388.69
373.61	413.69
373.835	392.69
374.061	389.69
374.287	396.69
374.513	386.69
374.739	403.69
374.965	393.69
375.191	418.69
375.416	393.69
375.642	392.69
375.868	393.69
376.094	404.69
376.319	398.69
376.545	396.69
376.771	392.69
376.997	391.69
377.222	396.69
377.448	394.69
377.674	383.69
377.899	371.69
378.125	363.69
378.35	376.69
378.576	376.69
378.802	376.69
379.027	387.69
379.253	394.69
379.478	380.69
379.704	386.69
379.929	397.69
380.155	384.69
380.38	394.69
380.606	388.69
380.831	384.69
381.057	374.69
381.282	368.69
381.507	370.69
381.733	388.69
381.958	374.69
382.184	388.69
382.409	410.69
382.634	377.69
382.86	395.69
383.085	400.69
383.31	395.69
383.535	401.69
383.761	400.69
383.986	417.69
384.211	400.69
384.436	417.69
384.662	408.69
384.887	425.69
385.112	409.69
385.337	439.69
385.562	411.69
385.787	414.69
386.013	427.69
386.238	428.69
386.463	432.69
386.688	432.69
386.913	433.69
387.138	412.69
387.363	422.69
387.588	410.69
387.813	433.69
388.038	430.69
388.263	435.69
388.488	428.69
388.713	424.69
388.938	418.69
389.163	416.69
389.387	428.69
389.612	419.69
389.837	420.69
390.062	434.69
390.287	407.69
390.512	430.69
390.736	425.69
390.961	416.69
391.186	438.69
391.411	443.69
391.636	430.69
391.86	454.69
392.085	442.69
392.31	423.69
392.534	414.69
392.759	423.69
392.984	445.69
393.208	436.69
393.433	433.69
393.658	421.69
393.882	419.69
394.107	419.69
394.331	442.69
394.556	432.69
394.78	454.69
395.005	422.69
395.229	454.69
395.454	455.69
395.678	443.69
395.903	454.69
396.127	481.69
396.352	456.69
396.576	458.69
396.801	446.69
397.025	448.69
397.249	444.69
397.474	423.69
397.698	464.69
397.922	461.69
398.147	467.69
398.371	493.69
398.595	497.69
398.82	466.69
399.044	503.69
399.268	493.69
399.492	534.69
399.717	576.69
399.941	614.69
400.165	598.69
400.389	606.69
400.613	550.69
400.837	496.69
401.062	496.69
401.286	478.69
401.51	488.69
401.734	486.69
401.958	491.69
402.182	512.69
402.406	482.69
402.63	500.69
402.854	495.69
403.078	509.69
403.302	501.69
403.526	499.69
403.75	498.69
403.974	505.69
404.198	530.69
404.422	496.69
404.645	520.69
404.869	515.69
405.093	517.69
405.317	560.69
405.541	601.69
405.765	552.69
405.988	545.69
406.212	541.69
406.436	541.69
406.66	560.69
406.883	548.69
407.107	552.69
407.331	598.69
407.555	666.69
407.778	669.69
408.002	590.69
408.226	554.69
408.449	568.69
408.673	549.69
408.896	580.69
409.12	595.69
409.344	565.69
409.567	527.69
409.791	512.69
410.014	512.69
410.238	493.69
410.461	473.69
410.685	505.69
410.908	503.69
411.132	551.69
411.355	560.69
411.578	535.69
411.802	498.69
412.025	462.69
412.249	489.69
412.472	515.69
412.695	555.69
412.919	547.69
413.142	525.69
413.365	492.69
413.589	487.69
413.812	480.69
414.035	493.69
414.258	470.69
414.482	467.69
414.705	471.69
414.928	471.69
415.151	476.69
415.374	458.69
415.597	457.69
415.821	450.69
416.044	457.69
416.267	440.69
416.49	459.69
416.713	457.69
416.936	470.69
417.159	455.69
417.382	451.69
417.605	482.69
417.828	466.69
418.051	488.69
418.274	500.69
418.497	475.69
418.72	462.69
418.943	453.69
419.166	491.69
419.389	500.69
419.611	506.69
419.834	514.69
420.057	512.69
420.28	481.69
420.503	474.69
420.726	474.69
420.948	493.69
421.171	502.69
421.394	552.69
421.617	508.69
421.839	483.69
422.062	474.69
422.285	484.69
422.507	536.69
422.73	599.69
422.953	583.69
423.175	488.69
423.398	530.69
423.621	503.69
423.843	515.69
424.066	520.69
424.288	523.69
424.511	523.69
424.733	563.69
424.956	628.69
425.178	607.69
425.401	600.69
425.623	602.69
425.846	548.69
426.068	516.69
426.291	481.69
426.513	484.69
426.735	513.69
426.958	536.69
427.18	593.69
427.402	684.69
427.625	778.69
427.847	671.69
428.069	561.69
428.292	532.69
428.514	482.69
428.736	469.69
428.958	469.69
429.181	456.69
429.403	479.69
429.625	470.69
429.847	503.69
430.069	540.69
430.292	524.69
430.514	470.69
430.736	461.69
430.958	463.69
431.18	461.69
431.402	434.69
431.624	438.69
431.846	449.69
432.068	454.69
432.29	420.69
432.512	447.69
432.734	463.69
432.956	440.69
433.178	476.69
433.4	454.69
433.622	446.69
433.844	451.69
434.066	446.69
434.287	462.69
434.509	449.69
434.731	462.69
434.953	458.69
435.175	482.69
435.397	497.69
435.618	502.69
435.84	545.69
436.062	602.69
436.284	644.69
436.505	554.69
436.727	480.69
436.949	479.69
437.17	480.69
437.392	460.69
437.614	457.69
437.835	497.69
438.057	558.69
438.278	613.69
438.5	661.69
438.721	700.69
438.943	692.69
439.165	539.69
439.386	480.69
439.608	491.69
439.829	479.69
440.05	509.69
440.272	540.69
440.493	527.69
440.715	497.69
440.936	482.69
441.158	456.69
441.379	441.69
441.6	476.69
441.822	499.69
442.043	521.69
442.264	576.69
442.486	624.69
442.707	524.69
442.928	504.69
443.149	498.69
443.371	518.69
443.592	575.69
443.813	621.69
444.034	657.69
444.255	588.69
444.476	536.69
444.698	533.69
444.919	523.69
445.14	581.69
445.361	562.69
445.582	535.69
445.803	584.69
446.024	638.69
446.245	648.69
446.466	578.69
446.687	530.69
446.908	494.69
447.129	476.69
447.35	472.69
447.571	440.69
447.792	434.69
448.013	445.69
448.234	482.69
448.455	504.69
448.675	597.69
448.896	674.69
449.117	561.69
449.338	548.69
449.559	643.69
449.779	740.69
450	595.69
450.221	476.69
450.442	474.69
450.662	434.69
450.883	420.69
451.104	421.69
451.324	453.69
451.545	435.69
451.766	421.69
451.986	387.69
452.207	434.69
452.428	394.69
452.648	427.69
452.869	402.69
453.089	422.69
453.31	414.69
453.53	398.69
453.751	398.69
453.971	403.69
454.192	409.69
454.412	398.69
454.633	389.69
454.853	389.69
455.073	406.69
455.294	417.69
455.514	484.69
455.734	482.69
455.955	412.69
456.175	396.69
456.395	398.69
456.616	382.69
456.836	404.69
457.056	392.69
457.276	377.69
457.497	378.69
457.717	384.69
457.937	379.69
458.157	403.69
458.377	412.69
458.598	417.69
458.818	446.69
459.038	522.69
459.258	516.69
459.478	455.69
459.698	438.69
459.918	440.69
460.138	435.69
460.358	465.69
460.578	452.69
460.798	457.69
461.018	475.69
461.238	463.69
461.458	457.69
461.678	447.69
461.898	458.69
462.118	444.69
462.338	481.69
462.558	472.69
462.777	505.69
462.997	514.69
463.217	519.69
463.437	526.69
463.657	516.69
463.876	489.69
464.096	487.69
464.316	510.69
464.536	486.69
464.755	486.69
464.975	483.69
465.195	493.69
465.414	541.69
465.634	501.69
465.854	462.69
466.073	450.69
466.293	415.69
466.512	426.69
466.732	420.69
466.951	433.69
467.171	419.69
467.391	419.69
467.61	422.69
467.829	430.69
468.049	411.69
468.268	420.69
468.488	406.69
468.707	392.69
468.927	409.69
469.146	420.69
469.365	406.69
469.585	410.69
469.804	426.69
470.023	437.69
470.243	445.69
470.462	436.69
470.681	433.69
470.901	433.69
471.12	430.69
471.339	412.69
471.558	425.69
471.777	418.69
471.997	420.69
472.216	420.69
472.435	444.69
472.654	421.69
472.873	421.69
473.092	405.69
473.311	407.69
473.53	412.69
473.749	426.69
473.968	453.69
474.187	527.69
474.406	561.69
474.625	485.69
474.844	432.69
475.063	426.69
475.282	433.69
475.501	432.69
475.72	429.69
475.939	423.69
476.158	446.69
476.377	433.69
476.596	426.69
476.814	451.69
477.033	429.69
477.252	454.69
477.471	455.69
477.69	450.69
477.908	475.69
478.127	471.69
478.346	454.69
478.564	452.69
478.783	471.69
479.002	480.69
479.22	473.69
479.439	484.69
479.658	504.69
479.876	537.69
480.095	501.69
480.313	520.69
480.532	520.69
480.751	519.69
480.969	535.69
481.188	548.69
481.406	541.69
481.624	523.69
481.843	507.69
482.061	488.69
482.28	496.69
482.498	479.69
482.717	512.69
482.935	484.69
483.153	496.69
483.372	491.69
483.59	484.69
483.808	477.69
484.027	461.69
484.245	494.69
484.463	495.69
484.681	488.69
484.9	488.69
485.118	471.69
485.336	508.69
485.554	498.69
485.772	506.69
485.99	497.69
486.209	485.69
486.427	505.69
486.645	516.69
486.863	529.69
487.081	515.69
487.299	516.69
487.517	521.69
487.735	504.69
487.953	524.69
488.171	527.69
488.389	507.69
488.607	534.69
488.825	529.69
489.043	503.69
489.261	517.69
489.479	530.69
489.696	534.69
489.914	531.69
490.132	512.69
490.35	558.69
490.568	545.69
490.786	545.69
491.003	563.69
491.221	548.69
491.439	572.69
491.657	593.69
491.874	572.69
492.092	580.69
492.31	596.69
492.527	590.69
492.745	600.69
492.963	602.69
493.18	574.69
493.398	603.69
493.615	597.69
493.833	583.69
494.05	569.69
494.268	589.69
494.485	584.69
494.703	600.69
494.92	601.69
495.138	606.69
495.355	600.69
495.573	605.69
495.79	594.69
496.008	619.69
496.225	606.69
496.442	598.69
496.66	610.69
496.877	595.69
497.094	603.69
497.312	635.69
497.529	613.69
497.746	639.69
497.963	654.69
498.181	663.69
498.398	667.69
498.615	691.69
498.832	707.69
499.049	721.69
499.267	732.69
499.484	784.69
499.701	834.69
499.918	852.69
500.135	895.69
500.352	939.69
500.569	980.69
500.786	926.69
501.003	935.69
501.22	894.69
501.437	859.69
501.654	846.69
501.871	803.69
