Data from 1977.PennyLincolnUp.Lamp.En5.5.200Scan.071719.P1_HRD10591_16-07-36-864.txt Node
Date: Thu Jul 18 16:07:36 EDT 2019
User: cochatt
Spectrometer: HR+D1059
Trigger mode: 1
Integration Time (sec): 1.000000E-1
Scans to average: 1
Electric dark correction enabled: true
Nonlinearity correction enabled: false
Boxcar width: 0
XAxis mode: Wavelengths
Number of Pixels in Spectrum: 2048
>>>>>Begin Spectral Data<<<<<
223.165	-14.38
223.4	-14.38
223.635	-14.38
223.869	-18.38
224.104	-8.38
224.338	4.62
224.573	-16.38
224.808	-11.38
225.042	-6.38
225.277	-23.38
225.511	-7.38
225.746	5.62
225.98	-7.38
226.215	14.62
226.449	12.62
226.683	18.62
226.918	17.62
227.152	39.62
227.387	41.62
227.621	33.62
227.856	37.62
228.09	38.62
228.324	57.62
228.559	57.62
228.793	71.62
229.027	81.62
229.262	114.62
229.496	114.62
229.73	135.62
229.964	142.62
230.199	127.62
230.433	109.62
230.667	96.62
230.901	109.62
231.136	121.62
231.37	107.62
231.604	122.62
231.838	103.62
232.072	121.62
232.306	102.62
232.541	120.62
232.775	113.62
233.009	118.62
233.243	132.62
233.477	113.62
233.711	118.62
233.945	121.62
234.179	98.62
234.413	116.62
234.647	122.62
234.881	122.62
235.115	116.62
235.349	125.62
235.583	133.62
235.817	105.62
236.051	101.62
236.285	116.62
236.519	113.62
236.753	130.62
236.987	131.62
237.221	172.62
237.455	212.62
237.689	162.62
237.922	126.62
238.156	132.62
238.39	136.62
238.624	122.62
238.858	117.62
239.091	118.62
239.325	128.62
239.559	128.62
239.793	126.62
240.027	130.62
240.26	143.62
240.494	149.62
240.728	146.62
240.961	151.62
241.195	141.62
241.429	144.62
241.662	128.62
241.896	139.62
242.13	144.62
242.363	129.62
242.597	132.62
242.83	120.62
243.064	134.62
243.298	154.62
243.531	141.62
243.765	142.62
243.998	138.62
244.232	153.62
244.465	147.62
244.699	146.62
244.932	137.62
245.166	138.62
245.399	147.62
245.633	140.62
245.866	152.62
246.099	155.62
246.333	161.62
246.566	157.62
246.8	153.62
247.033	152.62
247.266	162.62
247.5	176.62
247.733	174.62
247.966	155.62
248.2	152.62
248.433	168.62
248.666	194.62
248.899	177.62
249.133	201.62
249.366	197.62
249.599	192.62
249.832	180.62
250.066	200.62
250.299	186.62
250.532	183.62
250.765	192.62
250.998	223.62
251.231	212.62
251.465	215.62
251.698	203.62
251.931	180.62
252.164	185.62
252.397	163.62
252.63	211.62
252.863	203.62
253.096	210.62
253.329	219.62
253.562	210.62
253.795	222.62
254.028	223.62
254.261	220.62
254.494	227.62
254.727	239.62
254.96	254.62
255.193	247.62
255.426	225.62
255.659	232.62
255.892	237.62
256.124	201.62
256.357	220.62
256.59	218.62
256.823	214.62
257.056	205.62
257.289	206.62
257.521	218.62
257.754	220.62
257.987	204.62
258.22	209.62
258.452	202.62
258.685	214.62
258.918	215.62
259.151	215.62
259.383	233.62
259.616	211.62
259.849	216.62
260.081	251.62
260.314	252.62
260.547	256.62
260.779	240.62
261.012	237.62
261.244	228.62
261.477	244.62
261.71	208.62
261.942	220.62
262.175	214.62
262.407	231.62
262.64	210.62
262.872	222.62
263.105	232.62
263.337	230.62
263.57	214.62
263.802	226.62
264.035	209.62
264.267	202.62
264.499	215.62
264.732	210.62
264.964	211.62
265.197	216.62
265.429	225.62
265.661	205.62
265.894	223.62
266.126	234.62
266.358	221.62
266.591	225.62
266.823	223.62
267.055	216.62
267.287	233.62
267.52	246.62
267.752	246.62
267.984	231.62
268.216	215.62
268.448	244.62
268.681	246.62
268.913	256.62
269.145	262.62
269.377	269.62
269.609	282.62
269.841	260.62
270.073	271.62
270.306	292.62
270.538	319.62
270.77	294.62
271.002	302.62
271.234	277.62
271.466	287.62
271.698	308.62
271.93	310.62
272.162	308.62
272.394	313.62
272.626	293.62
272.858	292.62
273.09	265.62
273.322	264.62
273.553	270.62
273.785	274.62
274.017	244.62
274.249	271.62
274.481	273.62
274.713	269.62
274.945	268.62
275.176	271.62
275.408	269.62
275.64	271.62
275.872	259.62
276.104	274.62
276.335	271.62
276.567	291.62
276.799	292.62
277.031	309.62
277.262	330.62
277.494	316.62
277.726	302.62
277.957	295.62
278.189	281.62
278.421	265.62
278.652	278.62
278.884	275.62
279.115	287.62
279.347	287.62
279.579	277.62
279.81	276.62
280.042	285.62
280.273	299.62
280.505	280.62
280.736	269.62
280.968	294.62
281.199	289.62
281.431	289.62
281.662	280.62
281.894	284.62
282.125	271.62
282.356	300.62
282.588	305.62
282.819	313.62
283.051	300.62
283.282	271.62
283.513	291.62
283.745	274.62
283.976	291.62
284.207	282.62
284.439	282.62
284.67	287.62
284.901	287.62
285.132	297.62
285.364	284.62
285.595	283.62
285.826	289.62
286.057	314.62
286.288	270.62
286.52	290.62
286.751	291.62
286.982	295.62
287.213	318.62
287.444	308.62
287.675	310.62
287.906	302.62
288.138	312.62
288.369	308.62
288.6	310.62
288.831	310.62
289.062	310.62
289.293	327.62
289.524	304.62
289.755	308.62
289.986	304.62
290.217	305.62
290.448	323.62
290.679	297.62
290.91	305.62
291.141	289.62
291.371	309.62
291.602	310.62
291.833	306.62
292.064	304.62
292.295	324.62
292.526	302.62
292.757	297.62
292.987	305.62
293.218	308.62
293.449	315.62
293.68	310.62
293.91	288.62
294.141	294.62
294.372	302.62
294.603	313.62
294.833	328.62
295.064	308.62
295.295	304.62
295.525	333.62
295.756	326.62
295.987	335.62
296.217	347.62
296.448	328.62
296.679	314.62
296.909	318.62
297.14	329.62
297.37	316.62
297.601	332.62
297.831	326.62
298.062	333.62
298.292	319.62
298.523	319.62
298.753	330.62
298.984	350.62
299.214	318.62
299.445	333.62
299.675	346.62
299.905	338.62
300.136	330.62
300.366	337.62
300.597	323.62
300.827	331.62
301.057	348.62
301.288	352.62
301.518	354.62
301.748	349.62
301.979	343.62
302.209	340.62
302.439	350.62
302.669	339.62
302.9	355.62
303.13	344.62
303.36	365.62
303.59	348.62
303.82	368.62
304.051	360.62
304.281	362.62
304.511	337.62
304.741	363.62
304.971	344.62
305.201	343.62
305.431	337.62
305.661	341.62
305.891	338.62
306.121	362.62
306.352	349.62
306.582	354.62
306.812	341.62
307.042	368.62
307.272	334.62
307.502	340.62
307.731	361.62
307.961	351.62
308.191	356.62
308.421	351.62
308.651	360.62
308.881	357.62
309.111	362.62
309.341	352.62
309.571	359.62
309.8	376.62
310.03	368.62
310.26	374.62
310.49	360.62
310.72	383.62
310.949	384.62
311.179	382.62
311.409	384.62
311.639	382.62
311.868	377.62
312.098	380.62
312.328	391.62
312.557	393.62
312.787	408.62
313.017	385.62
313.246	377.62
313.476	400.62
313.706	395.62
313.935	390.62
314.165	394.62
314.394	384.62
314.624	410.62
314.853	393.62
315.083	399.62
315.312	388.62
315.542	382.62
315.771	400.62
316.001	377.62
316.23	378.62
316.46	396.62
316.689	394.62
316.919	375.62
317.148	396.62
317.377	411.62
317.607	388.62
317.836	393.62
318.065	386.62
318.295	376.62
318.524	366.62
318.753	388.62
318.983	382.62
319.212	384.62
319.441	390.62
319.67	401.62
319.9	390.62
320.129	411.62
320.358	400.62
320.587	400.62
320.816	394.62
321.046	399.62
321.275	399.62
321.504	443.62
321.733	415.62
321.962	405.62
322.191	424.62
322.42	444.62
322.649	458.62
322.878	436.62
323.108	446.62
323.337	466.62
323.566	484.62
323.795	508.62
324.024	528.62
324.253	648.62
324.482	855.62
324.71	1276.62
324.939	1791.62
325.168	1520.62
325.397	831.62
325.626	597.62
325.855	526.62
326.084	476.62
326.313	489.62
326.542	489.62
326.77	542.62
326.999	586.62
327.228	802.62
327.457	1116.62
327.686	1297.62
327.914	906.62
328.143	623.62
328.372	572.62
328.6	554.62
328.829	540.62
329.058	554.62
329.287	524.62
329.515	509.62
329.744	480.62
329.972	489.62
330.201	500.62
330.43	524.62
330.658	547.62
330.887	548.62
331.115	550.62
331.344	517.62
331.572	474.62
331.801	489.62
332.03	484.62
332.258	456.62
332.486	464.62
332.715	482.62
332.943	472.62
333.172	472.62
333.4	501.62
333.629	490.62
333.857	500.62
334.085	511.62
334.314	506.62
334.542	520.62
334.771	531.62
334.999	506.62
335.227	494.62
335.455	474.62
335.684	475.62
335.912	471.62
336.14	465.62
336.369	457.62
336.597	450.62
336.825	458.62
337.053	463.62
337.281	461.62
337.51	460.62
337.738	444.62
337.966	456.62
338.194	459.62
338.422	464.62
338.65	437.62
338.878	440.62
339.106	448.62
339.334	436.62
339.562	454.62
339.79	439.62
340.018	446.62
340.246	423.62
340.474	446.62
340.702	421.62
340.93	441.62
341.158	416.62
341.386	454.62
341.614	420.62
341.842	424.62
342.07	422.62
342.298	421.62
342.526	430.62
342.754	417.62
342.981	433.62
343.209	420.62
343.437	431.62
343.665	442.62
343.893	448.62
344.12	451.62
344.348	449.62
344.576	429.62
344.804	451.62
345.031	446.62
345.259	444.62
345.487	441.62
345.714	438.62
345.942	423.62
346.17	417.62
346.397	383.62
346.625	420.62
346.853	424.62
347.08	420.62
347.308	411.62
347.535	430.62
347.763	427.62
347.99	421.62
348.218	425.62
348.445	402.62
348.673	403.62
348.9	406.62
349.128	410.62
349.355	417.62
349.583	421.62
349.81	392.62
350.037	396.62
350.265	393.62
350.492	419.62
350.72	392.62
350.947	397.62
351.174	411.62
351.402	427.62
351.629	433.62
351.856	428.62
352.083	418.62
352.311	414.62
352.538	411.62
352.765	433.62
352.992	415.62
353.22	408.62
353.447	395.62
353.674	388.62
353.901	382.62
354.128	376.62
354.355	400.62
354.583	380.62
354.81	389.62
355.037	386.62
355.264	388.62
355.491	378.62
355.718	385.62
355.945	389.62
356.172	392.62
356.399	381.62
356.626	383.62
356.853	395.62
357.08	403.62
357.307	385.62
357.534	399.62
357.761	379.62
357.988	377.62
358.215	377.62
358.441	374.62
358.668	373.62
358.895	383.62
359.122	403.62
359.349	425.62
359.576	415.62
359.802	406.62
360.029	423.62
360.256	434.62
360.483	423.62
360.709	418.62
360.936	420.62
361.163	442.62
361.39	423.62
361.616	408.62
361.843	401.62
362.07	402.62
362.296	398.62
362.523	397.62
362.749	417.62
362.976	402.62
363.203	406.62
363.429	392.62
363.656	405.62
363.882	367.62
364.109	390.62
364.335	378.62
364.562	391.62
364.788	380.62
365.015	370.62
365.241	386.62
365.468	393.62
365.694	388.62
365.92	383.62
366.147	390.62
366.373	399.62
366.599	401.62
366.826	363.62
367.052	372.62
367.278	388.62
367.505	372.62
367.731	392.62
367.957	377.62
368.184	389.62
368.41	413.62
368.636	396.62
368.862	412.62
369.089	402.62
369.315	375.62
369.541	391.62
369.767	381.62
369.993	382.62
370.219	394.62
370.445	395.62
370.672	382.62
370.898	359.62
371.124	384.62
371.35	376.62
371.576	406.62
371.802	389.62
372.028	384.62
372.254	394.62
372.48	392.62
372.706	386.62
372.932	393.62
373.158	384.62
373.384	384.62
373.61	392.62
373.835	402.62
374.061	414.62
374.287	399.62
374.513	401.62
374.739	392.62
374.965	388.62
375.191	394.62
375.416	378.62
375.642	367.62
375.868	383.62
376.094	397.62
376.319	391.62
376.545	376.62
376.771	401.62
376.997	392.62
377.222	366.62
377.448	380.62
377.674	375.62
377.899	375.62
378.125	383.62
378.35	377.62
378.576	387.62
378.802	377.62
379.027	374.62
379.253	382.62
379.478	379.62
379.704	376.62
379.929	394.62
380.155	378.62
380.38	371.62
380.606	370.62
380.831	376.62
381.057	365.62
381.282	376.62
381.507	390.62
381.733	381.62
381.958	387.62
382.184	374.62
382.409	376.62
382.634	386.62
382.86	386.62
383.085	384.62
383.31	399.62
383.535	408.62
383.761	396.62
383.986	416.62
384.211	405.62
384.436	401.62
384.662	400.62
384.887	392.62
385.112	392.62
385.337	415.62
385.562	432.62
385.787	416.62
386.013	441.62
386.238	408.62
386.463	441.62
386.688	440.62
386.913	414.62
387.138	412.62
387.363	405.62
387.588	438.62
387.813	412.62
388.038	429.62
388.263	433.62
388.488	422.62
388.713	427.62
388.938	427.62
389.163	416.62
389.387	404.62
389.612	402.62
389.837	411.62
390.062	418.62
390.287	401.62
390.512	405.62
390.736	427.62
390.961	439.62
391.186	412.62
391.411	430.62
391.636	436.62
391.86	436.62
392.085	453.62
392.31	452.62
392.534	433.62
392.759	436.62
392.984	430.62
393.208	418.62
393.433	420.62
393.658	426.62
393.882	443.62
394.107	430.62
394.331	420.62
394.556	433.62
394.78	420.62
395.005	422.62
395.229	419.62
395.454	429.62
395.678	435.62
395.903	441.62
396.127	456.62
396.352	452.62
396.576	433.62
396.801	442.62
397.025	440.62
397.249	437.62
397.474	444.62
397.698	466.62
397.922	475.62
398.147	481.62
398.371	459.62
398.595	470.62
398.82	475.62
399.044	514.62
399.268	487.62
399.492	518.62
399.717	562.62
399.941	598.62
400.165	589.62
400.389	592.62
400.613	559.62
400.837	512.62
401.062	510.62
401.286	490.62
401.51	474.62
401.734	483.62
401.958	469.62
402.182	490.62
402.406	480.62
402.63	458.62
402.854	494.62
403.078	494.62
403.302	506.62
403.526	500.62
403.75	485.62
403.974	494.62
404.198	499.62
404.422	508.62
404.645	508.62
404.869	500.62
405.093	524.62
405.317	567.62
405.541	589.62
405.765	568.62
405.988	520.62
406.212	522.62
406.436	545.62
406.66	534.62
406.883	533.62
407.107	544.62
407.331	574.62
407.555	625.62
407.778	634.62
408.002	613.62
408.226	544.62
408.449	531.62
408.673	537.62
408.896	539.62
409.12	606.62
409.344	567.62
409.567	506.62
409.791	514.62
410.014	477.62
410.238	466.62
410.461	492.62
410.685	489.62
410.908	492.62
411.132	514.62
411.355	548.62
411.578	522.62
411.802	508.62
412.025	480.62
412.249	487.62
412.472	515.62
412.695	537.62
412.919	547.62
413.142	495.62
413.365	489.62
413.589	476.62
413.812	439.62
414.035	458.62
414.258	459.62
414.482	456.62
414.705	473.62
414.928	458.62
415.151	471.62
415.374	460.62
415.597	454.62
415.821	454.62
416.044	453.62
416.267	441.62
416.49	461.62
416.713	457.62
416.936	467.62
417.159	464.62
417.382	455.62
417.605	480.62
417.828	463.62
418.051	466.62
418.274	457.62
418.497	472.62
418.72	488.62
418.943	467.62
419.166	492.62
419.389	496.62
419.611	481.62
419.834	491.62
420.057	458.62
420.28	474.62
420.503	486.62
420.726	476.62
420.948	481.62
421.171	534.62
421.394	511.62
421.617	480.62
421.839	487.62
422.062	472.62
422.285	488.62
422.507	543.62
422.73	617.62
422.953	570.62
423.175	507.62
423.398	477.62
423.621	474.62
423.843	519.62
424.066	514.62
424.288	498.62
424.511	512.62
424.733	531.62
424.956	621.62
425.178	594.62
425.401	587.62
425.623	619.62
425.846	540.62
426.068	496.62
426.291	508.62
426.513	483.62
426.735	520.62
426.958	540.62
427.18	592.62
427.402	688.62
427.625	770.62
427.847	639.62
428.069	604.62
428.292	521.62
428.514	489.62
428.736	481.62
428.958	481.62
429.181	434.62
429.403	463.62
429.625	474.62
429.847	494.62
430.069	542.62
430.292	525.62
430.514	485.62
430.736	463.62
430.958	450.62
431.18	434.62
431.402	438.62
431.624	433.62
431.846	436.62
432.068	442.62
432.29	441.62
432.512	456.62
432.734	439.62
432.956	439.62
433.178	456.62
433.4	467.62
433.622	447.62
433.844	446.62
434.066	445.62
434.287	460.62
434.509	433.62
434.731	466.62
434.953	462.62
435.175	484.62
435.397	494.62
435.618	487.62
435.84	539.62
436.062	615.62
436.284	660.62
436.505	558.62
436.727	481.62
436.949	492.62
437.17	458.62
437.392	444.62
437.614	478.62
437.835	487.62
438.057	550.62
438.278	646.62
438.5	622.62
438.721	715.62
438.943	696.62
439.165	561.62
439.386	490.62
439.608	510.62
439.829	506.62
440.05	512.62
440.272	546.62
440.493	496.62
440.715	488.62
440.936	474.62
441.158	452.62
441.379	481.62
441.6	484.62
441.822	495.62
442.043	519.62
442.264	582.62
442.486	616.62
442.707	541.62
442.928	533.62
443.149	543.62
443.371	526.62
443.592	574.62
443.813	638.62
444.034	685.62
444.255	597.62
444.476	522.62
444.698	514.62
444.919	500.62
445.14	636.62
445.361	568.62
445.582	550.62
445.803	568.62
446.024	667.62
446.245	659.62
446.466	626.62
446.687	516.62
446.908	495.62
447.129	451.62
447.35	452.62
447.571	470.62
447.792	428.62
448.013	450.62
448.234	465.62
448.455	490.62
448.675	589.62
448.896	651.62
449.117	586.62
449.338	584.62
449.559	645.62
449.779	749.62
450	584.62
450.221	487.62
450.442	463.62
450.662	454.62
450.883	454.62
451.104	439.62
451.324	449.62
451.545	422.62
451.766	430.62
451.986	410.62
452.207	412.62
452.428	394.62
452.648	401.62
452.869	425.62
453.089	419.62
453.31	436.62
453.53	403.62
453.751	400.62
453.971	403.62
454.192	415.62
454.412	404.62
454.633	383.62
454.853	390.62
455.073	424.62
455.294	435.62
455.514	465.62
455.734	465.62
455.955	414.62
456.175	390.62
456.395	393.62
456.616	377.62
456.836	384.62
457.056	381.62
457.276	383.62
457.497	372.62
457.717	396.62
457.937	380.62
458.157	399.62
458.377	393.62
458.598	416.62
458.818	446.62
459.038	516.62
459.258	520.62
459.478	453.62
459.698	447.62
459.918	421.62
460.138	438.62
460.358	445.62
460.578	446.62
460.798	454.62
461.018	469.62
461.238	460.62
461.458	436.62
461.678	445.62
461.898	455.62
462.118	453.62
462.338	466.62
462.558	460.62
462.777	460.62
462.997	497.62
463.217	509.62
463.437	510.62
463.657	492.62
463.876	485.62
464.096	476.62
464.316	483.62
464.536	477.62
464.755	481.62
464.975	485.62
465.195	491.62
465.414	521.62
465.634	465.62
465.854	450.62
466.073	440.62
466.293	421.62
466.512	428.62
466.732	429.62
466.951	396.62
467.171	398.62
467.391	411.62
467.61	420.62
467.829	418.62
468.049	429.62
468.268	418.62
468.488	390.62
468.707	397.62
468.927	410.62
469.146	398.62
469.365	409.62
469.585	391.62
469.804	402.62
470.023	410.62
470.243	408.62
470.462	438.62
470.681	431.62
470.901	425.62
471.12	411.62
471.339	413.62
471.558	440.62
471.777	426.62
471.997	410.62
472.216	430.62
472.435	437.62
472.654	424.62
472.873	419.62
473.092	431.62
473.311	414.62
473.53	399.62
473.749	418.62
473.968	446.62
474.187	537.62
474.406	566.62
474.625	465.62
474.844	428.62
475.063	399.62
475.282	411.62
475.501	411.62
475.72	440.62
475.939	424.62
476.158	434.62
476.377	427.62
476.596	436.62
476.814	444.62
477.033	446.62
477.252	448.62
477.471	453.62
477.69	431.62
477.908	452.62
478.127	454.62
478.346	438.62
478.564	453.62
478.783	451.62
479.002	471.62
479.22	470.62
479.439	480.62
479.658	497.62
479.876	497.62
480.095	504.62
480.313	516.62
480.532	536.62
480.751	510.62
480.969	519.62
481.188	537.62
481.406	549.62
481.624	526.62
481.843	485.62
482.061	478.62
482.28	482.62
482.498	474.62
482.717	480.62
482.935	487.62
483.153	476.62
483.372	477.62
483.59	471.62
483.808	460.62
484.027	479.62
484.245	485.62
484.463	494.62
484.681	480.62
484.9	493.62
485.118	500.62
485.336	493.62
485.554	507.62
485.772	511.62
485.99	498.62
486.209	484.62
486.427	497.62
486.645	522.62
486.863	502.62
487.081	501.62
487.299	488.62
487.517	518.62
487.735	529.62
487.953	505.62
488.171	533.62
488.389	493.62
488.607	521.62
488.825	493.62
489.043	525.62
489.261	517.62
489.479	514.62
489.696	529.62
489.914	519.62
490.132	541.62
490.35	546.62
490.568	532.62
490.786	543.62
491.003	534.62
491.221	574.62
491.439	549.62
491.657	555.62
491.874	570.62
492.092	568.62
492.31	549.62
492.527	574.62
492.745	584.62
492.963	592.62
493.18	589.62
493.398	609.62
493.615	594.62
493.833	588.62
494.05	586.62
494.268	597.62
494.485	581.62
494.703	594.62
494.92	596.62
495.138	572.62
495.355	612.62
495.573	606.62
495.79	588.62
496.008	604.62
496.225	579.62
496.442	596.62
496.66	590.62
496.877	623.62
497.094	606.62
497.312	625.62
497.529	629.62
497.746	630.62
497.963	645.62
498.181	641.62
498.398	648.62
498.615	673.62
498.832	689.62
499.049	688.62
499.267	719.62
499.484	767.62
499.701	759.62
499.918	833.62
500.135	877.62
500.352	920.62
500.569	965.62
500.786	936.62
501.003	900.62
501.22	868.62
501.437	850.62
501.654	794.62
501.871	806.62
502.088	777.62
