Data from 1977.PennyLincolnUp.Lamp.En5.5.200Scan.071719.P1_HRD10591_16-07-20-864.txt Node
Date: Thu Jul 18 16:07:20 EDT 2019
User: cochatt
Spectrometer: HR+D1059
Trigger mode: 1
Integration Time (sec): 1.000000E-1
Scans to average: 1
Electric dark correction enabled: true
Nonlinearity correction enabled: false
Boxcar width: 0
XAxis mode: Wavelengths
Number of Pixels in Spectrum: 2048
>>>>>Begin Spectral Data<<<<<
223.165	-33.62
223.4	-33.62
223.635	-33.62
223.869	-22.62
224.104	-4.62
224.338	-7.62
224.573	-16.62
224.808	-23.62
225.042	-18.62
225.277	5.38
225.511	-16.62
225.746	8.38
225.98	10.38
226.215	14.38
226.449	19.38
226.683	25.38
226.918	25.38
227.152	35.38
227.387	32.38
227.621	22.38
227.856	43.38
228.09	46.38
228.324	50.38
228.559	51.38
228.793	73.38
229.027	87.38
229.262	112.38
229.496	114.38
229.73	138.38
229.964	140.38
230.199	116.38
230.433	112.38
230.667	101.38
230.901	112.38
231.136	100.38
231.37	119.38
231.604	118.38
231.838	93.38
232.072	105.38
232.306	89.38
232.541	127.38
232.775	117.38
233.009	120.38
233.243	123.38
233.477	114.38
233.711	124.38
233.945	132.38
234.179	136.38
234.413	126.38
234.647	105.38
234.881	120.38
235.115	109.38
235.349	113.38
235.583	108.38
235.817	122.38
236.051	132.38
236.285	128.38
236.519	134.38
236.753	128.38
236.987	144.38
237.221	160.38
237.455	208.38
237.689	168.38
237.922	139.38
238.156	134.38
238.39	119.38
238.624	134.38
238.858	119.38
239.091	122.38
239.325	114.38
239.559	125.38
239.793	132.38
240.027	136.38
240.26	132.38
240.494	149.38
240.728	151.38
240.961	157.38
241.195	144.38
241.429	141.38
241.662	130.38
241.896	150.38
242.13	126.38
242.363	122.38
242.597	144.38
242.83	143.38
243.064	140.38
243.298	134.38
243.531	140.38
243.765	146.38
243.998	141.38
244.232	139.38
244.465	141.38
244.699	152.38
244.932	145.38
245.166	152.38
245.399	146.38
245.633	150.38
245.866	154.38
246.099	141.38
246.333	135.38
246.566	142.38
246.8	152.38
247.033	159.38
247.266	142.38
247.5	163.38
247.733	162.38
247.966	175.38
248.2	195.38
248.433	171.38
248.666	173.38
248.899	186.38
249.133	174.38
249.366	189.38
249.599	188.38
249.832	174.38
250.066	169.38
250.299	170.38
250.532	190.38
250.765	191.38
250.998	218.38
251.231	222.38
251.465	207.38
251.698	202.38
251.931	192.38
252.164	192.38
252.397	199.38
252.63	201.38
252.863	208.38
253.096	210.38
253.329	203.38
253.562	224.38
253.795	214.38
254.028	202.38
254.261	212.38
254.494	212.38
254.727	244.38
254.96	284.38
255.193	271.38
255.426	245.38
255.659	242.38
255.892	248.38
256.124	240.38
256.357	233.38
256.59	217.38
256.823	224.38
257.056	216.38
257.289	195.38
257.521	207.38
257.754	206.38
257.987	202.38
258.22	203.38
258.452	207.38
258.685	199.38
258.918	220.38
259.151	211.38
259.383	219.38
259.616	223.38
259.849	218.38
260.081	219.38
260.314	231.38
260.547	245.38
260.779	239.38
261.012	221.38
261.244	229.38
261.477	229.38
261.71	213.38
261.942	214.38
262.175	233.38
262.407	221.38
262.64	222.38
262.872	238.38
263.105	205.38
263.337	215.38
263.57	222.38
263.802	210.38
264.035	222.38
264.267	209.38
264.499	215.38
264.732	212.38
264.964	230.38
265.197	209.38
265.429	207.38
265.661	205.38
265.894	223.38
266.126	235.38
266.358	223.38
266.591	225.38
266.823	226.38
267.055	231.38
267.287	249.38
267.52	237.38
267.752	220.38
267.984	231.38
268.216	242.38
268.448	250.38
268.681	234.38
268.913	230.38
269.145	239.38
269.377	270.38
269.609	272.38
269.841	270.38
270.073	288.38
270.306	304.38
270.538	298.38
270.77	325.38
271.002	295.38
271.234	304.38
271.466	308.38
271.698	303.38
271.93	332.38
272.162	288.38
272.394	306.38
272.626	313.38
272.858	290.38
273.09	296.38
273.322	280.38
273.553	275.38
273.785	278.38
274.017	276.38
274.249	258.38
274.481	272.38
274.713	245.38
274.945	254.38
275.176	269.38
275.408	281.38
275.64	284.38
275.872	286.38
276.104	266.38
276.335	271.38
276.567	288.38
276.799	286.38
277.031	308.38
277.262	323.38
277.494	319.38
277.726	312.38
277.957	319.38
278.189	293.38
278.421	269.38
278.652	296.38
278.884	296.38
279.115	280.38
279.347	283.38
279.579	281.38
279.81	275.38
280.042	264.38
280.273	274.38
280.505	278.38
280.736	292.38
280.968	282.38
281.199	262.38
281.431	276.38
281.662	278.38
281.894	308.38
282.125	293.38
282.356	309.38
282.588	316.38
282.819	328.38
283.051	291.38
283.282	289.38
283.513	277.38
283.745	295.38
283.976	299.38
284.207	300.38
284.439	287.38
284.67	304.38
284.901	292.38
285.132	301.38
285.364	307.38
285.595	304.38
285.826	292.38
286.057	303.38
286.288	300.38
286.52	306.38
286.751	271.38
286.982	300.38
287.213	302.38
287.444	310.38
287.675	298.38
287.906	315.38
288.138	316.38
288.369	325.38
288.6	323.38
288.831	312.38
289.062	310.38
289.293	308.38
289.524	304.38
289.755	290.38
289.986	307.38
290.217	332.38
290.448	317.38
290.679	303.38
290.91	320.38
291.141	308.38
291.371	283.38
291.602	328.38
291.833	298.38
292.064	320.38
292.295	311.38
292.526	317.38
292.757	297.38
292.987	294.38
293.218	314.38
293.449	318.38
293.68	327.38
293.91	329.38
294.141	318.38
294.372	309.38
294.603	308.38
294.833	294.38
295.064	324.38
295.295	324.38
295.525	342.38
295.756	334.38
295.987	324.38
296.217	336.38
296.448	359.38
296.679	322.38
296.909	302.38
297.14	313.38
297.37	322.38
297.601	328.38
297.831	331.38
298.062	325.38
298.292	312.38
298.523	323.38
298.753	332.38
298.984	334.38
299.214	336.38
299.445	328.38
299.675	328.38
299.905	341.38
300.136	311.38
300.366	330.38
300.597	340.38
300.827	335.38
301.057	348.38
301.288	344.38
301.518	344.38
301.748	335.38
301.979	336.38
302.209	350.38
302.439	340.38
302.669	358.38
302.9	354.38
303.13	349.38
303.36	363.38
303.59	356.38
303.82	346.38
304.051	363.38
304.281	362.38
304.511	354.38
304.741	331.38
304.971	336.38
305.201	368.38
305.431	357.38
305.661	338.38
305.891	344.38
306.121	351.38
306.352	340.38
306.582	360.38
306.812	367.38
307.042	349.38
307.272	351.38
307.502	342.38
307.731	351.38
307.961	371.38
308.191	346.38
308.421	359.38
308.651	370.38
308.881	354.38
309.111	360.38
309.341	375.38
309.571	372.38
309.8	372.38
310.03	381.38
310.26	360.38
310.49	388.38
310.72	365.38
310.949	380.38
311.179	413.38
311.409	382.38
311.639	388.38
311.868	401.38
312.098	388.38
312.328	403.38
312.557	417.38
312.787	398.38
313.017	406.38
313.246	387.38
313.476	409.38
313.706	395.38
313.935	396.38
314.165	403.38
314.394	421.38
314.624	396.38
314.853	400.38
315.083	382.38
315.312	399.38
315.542	398.38
315.771	389.38
316.001	382.38
316.23	380.38
316.46	397.38
316.689	390.38
316.919	402.38
317.148	420.38
317.377	411.38
317.607	417.38
317.836	387.38
318.065	390.38
318.295	403.38
318.524	380.38
318.753	379.38
318.983	390.38
319.212	379.38
319.441	380.38
319.67	411.38
319.9	408.38
320.129	392.38
320.358	408.38
320.587	390.38
320.816	415.38
321.046	418.38
321.275	386.38
321.504	409.38
321.733	401.38
321.962	398.38
322.191	444.38
322.42	428.38
322.649	444.38
322.878	458.38
323.108	436.38
323.337	460.38
323.566	488.38
323.795	530.38
324.024	539.38
324.253	651.38
324.482	875.38
324.71	1312.38
324.939	1839.38
325.168	1568.38
325.397	879.38
325.626	595.38
325.855	526.38
326.084	476.38
326.313	493.38
326.542	496.38
326.77	540.38
326.999	632.38
327.228	811.38
327.457	1197.38
327.686	1344.38
327.914	919.38
328.143	641.38
328.372	583.38
328.6	553.38
328.829	530.38
329.058	548.38
329.287	560.38
329.515	546.38
329.744	518.38
329.972	473.38
330.201	500.38
330.43	547.38
330.658	572.38
330.887	589.38
331.115	550.38
331.344	519.38
331.572	470.38
331.801	506.38
332.03	489.38
332.258	479.38
332.486	467.38
332.715	444.38
332.943	465.38
333.172	473.38
333.4	482.38
333.629	456.38
333.857	493.38
334.085	517.38
334.314	505.38
334.542	527.38
334.771	535.38
334.999	500.38
335.227	503.38
335.455	486.38
335.684	474.38
335.912	454.38
336.14	484.38
336.369	460.38
336.597	455.38
336.825	466.38
337.053	458.38
337.281	440.38
337.51	465.38
337.738	434.38
337.966	442.38
338.194	467.38
338.422	438.38
338.65	459.38
338.878	449.38
339.106	436.38
339.334	447.38
339.562	437.38
339.79	450.38
340.018	440.38
340.246	429.38
340.474	423.38
340.702	435.38
340.93	440.38
341.158	424.38
341.386	443.38
341.614	428.38
341.842	442.38
342.07	414.38
342.298	435.38
342.526	426.38
342.754	427.38
342.981	413.38
343.209	415.38
343.437	426.38
343.665	439.38
343.893	433.38
344.12	462.38
344.348	446.38
344.576	447.38
344.804	461.38
345.031	431.38
345.259	467.38
345.487	416.38
345.714	448.38
345.942	439.38
346.17	407.38
346.397	442.38
346.625	417.38
346.853	437.38
347.08	434.38
347.308	442.38
347.535	425.38
347.763	425.38
347.99	414.38
348.218	414.38
348.445	414.38
348.673	445.38
348.9	418.38
349.128	400.38
349.355	423.38
349.583	392.38
349.81	403.38
350.037	407.38
350.265	394.38
350.492	415.38
350.72	406.38
350.947	411.38
351.174	418.38
351.402	405.38
351.629	408.38
351.856	416.38
352.083	420.38
352.311	436.38
352.538	405.38
352.765	438.38
352.992	413.38
353.22	398.38
353.447	395.38
353.674	414.38
353.901	397.38
354.128	382.38
354.355	413.38
354.583	385.38
354.81	395.38
355.037	382.38
355.264	392.38
355.491	403.38
355.718	394.38
355.945	384.38
356.172	394.38
356.399	378.38
356.626	389.38
356.853	396.38
357.08	395.38
357.307	416.38
357.534	386.38
357.761	400.38
357.988	400.38
358.215	396.38
358.441	395.38
358.668	389.38
358.895	396.38
359.122	406.38
359.349	388.38
359.576	431.38
359.802	421.38
360.029	441.38
360.256	427.38
360.483	434.38
360.709	408.38
360.936	406.38
361.163	404.38
361.39	399.38
361.616	428.38
361.843	423.38
362.07	386.38
362.296	406.38
362.523	405.38
362.749	400.38
362.976	399.38
363.203	386.38
363.429	386.38
363.656	387.38
363.882	379.38
364.109	388.38
364.335	389.38
364.562	387.38
364.788	406.38
365.015	420.38
365.241	404.38
365.468	395.38
365.694	400.38
365.92	392.38
366.147	386.38
366.373	380.38
366.599	392.38
366.826	391.38
367.052	405.38
367.278	397.38
367.505	377.38
367.731	412.38
367.957	381.38
368.184	401.38
368.41	403.38
368.636	413.38
368.862	389.38
369.089	396.38
369.315	402.38
369.541	404.38
369.767	379.38
369.993	382.38
370.219	389.38
370.445	402.38
370.672	408.38
370.898	386.38
371.124	398.38
371.35	391.38
371.576	400.38
371.802	399.38
372.028	392.38
372.254	380.38
372.48	393.38
372.706	396.38
372.932	391.38
373.158	399.38
373.384	413.38
373.61	412.38
373.835	383.38
374.061	395.38
374.287	382.38
374.513	400.38
374.739	407.38
374.965	410.38
375.191	415.38
375.416	431.38
375.642	411.38
375.868	398.38
376.094	395.38
376.319	407.38
376.545	379.38
376.771	382.38
376.997	386.38
377.222	386.38
377.448	382.38
377.674	376.38
377.899	385.38
378.125	378.38
378.35	396.38
378.576	376.38
378.802	385.38
379.027	386.38
379.253	390.38
379.478	375.38
379.704	378.38
379.929	379.38
380.155	389.38
380.38	384.38
380.606	392.38
380.831	393.38
381.057	377.38
381.282	403.38
381.507	388.38
381.733	391.38
381.958	412.38
382.184	397.38
382.409	396.38
382.634	397.38
382.86	387.38
383.085	383.38
383.31	374.38
383.535	386.38
383.761	406.38
383.986	404.38
384.211	410.38
384.436	402.38
384.662	418.38
384.887	425.38
385.112	440.38
385.337	400.38
385.562	419.38
385.787	419.38
386.013	415.38
386.238	432.38
386.463	430.38
386.688	431.38
386.913	408.38
387.138	425.38
387.363	427.38
387.588	421.38
387.813	421.38
388.038	422.38
388.263	412.38
388.488	413.38
388.713	443.38
388.938	429.38
389.163	441.38
389.387	420.38
389.612	408.38
389.837	407.38
390.062	423.38
390.287	412.38
390.512	411.38
390.736	406.38
390.961	423.38
391.186	407.38
391.411	423.38
391.636	442.38
391.86	454.38
392.085	460.38
392.31	424.38
392.534	435.38
392.759	436.38
392.984	433.38
393.208	418.38
393.433	448.38
393.658	443.38
393.882	418.38
394.107	422.38
394.331	429.38
394.556	412.38
394.78	446.38
395.005	431.38
395.229	442.38
395.454	449.38
395.678	441.38
395.903	439.38
396.127	448.38
396.352	466.38
396.576	434.38
396.801	426.38
397.025	448.38
397.249	442.38
397.474	449.38
397.698	482.38
397.922	460.38
398.147	492.38
398.371	501.38
398.595	486.38
398.82	476.38
399.044	504.38
399.268	514.38
399.492	544.38
399.717	577.38
399.941	612.38
400.165	592.38
400.389	605.38
400.613	544.38
400.837	518.38
401.062	495.38
401.286	501.38
401.51	478.38
401.734	495.38
401.958	479.38
402.182	503.38
402.406	493.38
402.63	512.38
402.854	507.38
403.078	499.38
403.302	514.38
403.526	510.38
403.75	498.38
403.974	490.38
404.198	475.38
404.422	512.38
404.645	528.38
404.869	529.38
405.093	538.38
405.317	556.38
405.541	575.38
405.765	526.38
405.988	540.38
406.212	535.38
406.436	532.38
406.66	543.38
406.883	554.38
407.107	536.38
407.331	598.38
407.555	625.38
407.778	632.38
408.002	600.38
408.226	553.38
408.449	540.38
408.673	542.38
408.896	555.38
409.12	584.38
409.344	578.38
409.567	511.38
409.791	504.38
410.014	517.38
410.238	501.38
410.461	496.38
410.685	493.38
410.908	490.38
411.132	536.38
411.355	549.38
411.578	531.38
411.802	510.38
412.025	508.38
412.249	498.38
412.472	521.38
412.695	538.38
412.919	531.38
413.142	502.38
413.365	492.38
413.589	501.38
413.812	486.38
414.035	475.38
414.258	470.38
414.482	470.38
414.705	465.38
414.928	467.38
415.151	470.38
415.374	475.38
415.597	458.38
415.821	449.38
416.044	481.38
416.267	473.38
416.49	454.38
416.713	440.38
416.936	466.38
417.159	461.38
417.382	479.38
417.605	477.38
417.828	467.38
418.051	485.38
418.274	491.38
418.497	454.38
418.72	444.38
418.943	457.38
419.166	482.38
419.389	511.38
419.611	520.38
419.834	495.38
420.057	494.38
420.28	487.38
420.503	456.38
420.726	485.38
420.948	504.38
421.171	528.38
421.394	546.38
421.617	510.38
421.839	494.38
422.062	486.38
422.285	488.38
422.507	553.38
422.73	599.38
422.953	574.38
423.175	515.38
423.398	502.38
423.621	484.38
423.843	528.38
424.066	501.38
424.288	502.38
424.511	508.38
424.733	569.38
424.956	639.38
425.178	618.38
425.401	605.38
425.623	639.38
425.846	530.38
426.068	512.38
426.291	500.38
426.513	517.38
426.735	506.38
426.958	557.38
427.18	630.38
427.402	742.38
427.625	796.38
427.847	674.38
428.069	580.38
428.292	516.38
428.514	498.38
428.736	470.38
428.958	471.38
429.181	483.38
429.403	467.38
429.625	465.38
429.847	508.38
430.069	536.38
430.292	554.38
430.514	483.38
430.736	480.38
430.958	452.38
431.18	443.38
431.402	460.38
431.624	437.38
431.846	443.38
432.068	439.38
432.29	444.38
432.512	439.38
432.734	443.38
432.956	445.38
433.178	488.38
433.4	463.38
433.622	460.38
433.844	458.38
434.066	439.38
434.287	434.38
434.509	435.38
434.731	451.38
434.953	461.38
435.175	487.38
435.397	488.38
435.618	502.38
435.84	528.38
436.062	623.38
436.284	674.38
436.505	564.38
436.727	492.38
436.949	477.38
437.17	445.38
437.392	459.38
437.614	456.38
437.835	490.38
438.057	552.38
438.278	639.38
438.5	647.38
438.721	726.38
438.943	686.38
439.165	528.38
439.386	532.38
439.608	516.38
439.829	535.38
440.05	533.38
440.272	555.38
440.493	528.38
440.715	477.38
440.936	472.38
441.158	456.38
441.379	482.38
441.6	476.38
441.822	476.38
442.043	536.38
442.264	607.38
442.486	623.38
442.707	539.38
442.928	535.38
443.149	518.38
443.371	506.38
443.592	570.38
443.813	652.38
444.034	707.38
444.255	597.38
444.476	524.38
444.698	508.38
444.919	511.38
445.14	647.38
445.361	558.38
445.582	541.38
445.803	603.38
446.024	678.38
446.245	691.38
446.466	612.38
446.687	525.38
446.908	492.38
447.129	490.38
447.35	443.38
447.571	448.38
447.792	428.38
448.013	445.38
448.234	465.38
448.455	500.38
448.675	628.38
448.896	702.38
449.117	579.38
449.338	570.38
449.559	659.38
449.779	733.38
450	588.38
450.221	479.38
450.442	470.38
450.662	445.38
450.883	448.38
451.104	439.38
451.324	429.38
451.545	425.38
451.766	420.38
451.986	420.38
452.207	412.38
452.428	419.38
452.648	402.38
452.869	395.38
453.089	405.38
453.31	408.38
453.53	414.38
453.751	425.38
453.971	421.38
454.192	428.38
454.412	401.38
454.633	424.38
454.853	396.38
455.073	415.38
455.294	430.38
455.514	480.38
455.734	462.38
455.955	402.38
456.175	409.38
456.395	399.38
456.616	386.38
456.836	377.38
457.056	388.38
457.276	388.38
457.497	406.38
457.717	407.38
457.937	405.38
458.157	397.38
458.377	406.38
458.598	434.38
458.818	468.38
459.038	501.38
459.258	554.38
459.478	472.38
459.698	427.38
459.918	447.38
460.138	450.38
460.358	468.38
460.578	447.38
460.798	460.38
461.018	458.38
461.238	456.38
461.458	464.38
461.678	451.38
461.898	480.38
462.118	447.38
462.338	466.38
462.558	468.38
462.777	485.38
462.997	487.38
463.217	501.38
463.437	504.38
463.657	499.38
463.876	495.38
464.096	500.38
464.316	513.38
464.536	504.38
464.755	495.38
464.975	475.38
465.195	520.38
465.414	536.38
465.634	489.38
465.854	456.38
466.073	438.38
466.293	423.38
466.512	423.38
466.732	429.38
466.951	419.38
467.171	431.38
467.391	425.38
467.61	408.38
467.829	423.38
468.049	419.38
468.268	413.38
468.488	416.38
468.707	395.38
468.927	400.38
469.146	401.38
469.365	402.38
469.585	408.38
469.804	404.38
470.023	413.38
470.243	414.38
470.462	430.38
470.681	455.38
470.901	452.38
471.12	436.38
471.339	430.38
471.558	447.38
471.777	408.38
471.997	434.38
472.216	418.38
472.435	432.38
472.654	413.38
472.873	408.38
473.092	419.38
473.311	416.38
473.53	445.38
473.749	431.38
473.968	471.38
474.187	548.38
474.406	556.38
474.625	482.38
474.844	442.38
475.063	422.38
475.282	421.38
475.501	425.38
475.72	439.38
475.939	438.38
476.158	425.38
476.377	424.38
476.596	440.38
476.814	444.38
477.033	428.38
477.252	446.38
477.471	448.38
477.69	468.38
477.908	467.38
478.127	440.38
478.346	475.38
478.564	470.38
478.783	471.38
479.002	477.38
479.22	495.38
479.439	474.38
479.658	502.38
479.876	524.38
480.095	509.38
480.313	516.38
480.532	526.38
480.751	540.38
480.969	534.38
481.188	546.38
481.406	553.38
481.624	534.38
481.843	535.38
482.061	500.38
482.28	487.38
482.498	490.38
482.717	485.38
482.935	462.38
483.153	485.38
483.372	499.38
483.59	476.38
483.808	479.38
484.027	493.38
484.245	480.38
484.463	493.38
484.681	495.38
484.9	513.38
485.118	483.38
485.336	506.38
485.554	483.38
485.772	522.38
485.99	512.38
486.209	507.38
486.427	511.38
486.645	498.38
486.863	520.38
487.081	525.38
487.299	527.38
487.517	519.38
487.735	504.38
487.953	514.38
488.171	534.38
488.389	487.38
488.607	513.38
488.825	507.38
489.043	521.38
489.261	527.38
489.479	516.38
489.696	538.38
489.914	510.38
490.132	552.38
490.35	537.38
490.568	570.38
490.786	542.38
491.003	573.38
491.221	566.38
491.439	564.38
491.657	556.38
491.874	597.38
492.092	585.38
492.31	579.38
492.527	575.38
492.745	584.38
492.963	623.38
493.18	607.38
493.398	584.38
493.615	594.38
493.833	580.38
494.05	594.38
494.268	600.38
494.485	590.38
494.703	581.38
494.92	613.38
495.138	605.38
495.355	589.38
495.573	614.38
495.79	620.38
496.008	608.38
496.225	586.38
496.442	618.38
496.66	633.38
496.877	606.38
497.094	605.38
497.312	627.38
497.529	618.38
497.746	662.38
497.963	660.38
498.181	682.38
498.398	668.38
498.615	684.38
498.832	706.38
499.049	726.38
499.267	768.38
499.484	782.38
499.701	794.38
499.918	857.38
500.135	875.38
500.352	912.38
500.569	932.38
500.786	950.38
501.003	926.38
501.22	909.38
501.437	895.38
501.654	804.38
501.871	792.38
