Data from 1977.PennyLincolnUp.Lamp.En5.5.200Scan.071719.P1_HRD10591_16-07-46-865.txt Node
Date: Thu Jul 18 16:07:46 EDT 2019
User: cochatt
Spectrometer: HR+D1059
Trigger mode: 1
Integration Time (sec): 1.000000E-1
Scans to average: 1
Electric dark correction enabled: true
Nonlinearity correction enabled: false
Boxcar width: 0
XAxis mode: Wavelengths
Number of Pixels in Spectrum: 2048
>>>>>Begin Spectral Data<<<<<
223.165	-5.75
223.4	-5.75
223.635	-5.75
223.869	-13.75
224.104	-8.75
224.338	-31.75
224.573	-18.75
224.808	-2.75
225.042	-1.75
225.277	-3.75
225.511	-9.75
225.746	8.25
225.98	-8.75
226.215	5.25
226.449	9.25
226.683	19.25
226.918	39.25
227.152	24.25
227.387	33.25
227.621	39.25
227.856	50.25
228.09	38.25
228.324	54.25
228.559	59.25
228.793	66.25
229.027	95.25
229.262	100.25
229.496	110.25
229.73	124.25
229.964	138.25
230.199	123.25
230.433	116.25
230.667	124.25
230.901	98.25
231.136	109.25
231.37	114.25
231.604	102.25
231.838	95.25
232.072	110.25
232.306	103.25
232.541	89.25
232.775	107.25
233.009	119.25
233.243	103.25
233.477	108.25
233.711	119.25
233.945	118.25
234.179	104.25
234.413	107.25
234.647	123.25
234.881	116.25
235.115	114.25
235.349	117.25
235.583	117.25
235.817	111.25
236.051	120.25
236.285	124.25
236.519	119.25
236.753	114.25
236.987	136.25
237.221	160.25
237.455	202.25
237.689	181.25
237.922	120.25
238.156	122.25
238.39	124.25
238.624	125.25
238.858	118.25
239.091	123.25
239.325	113.25
239.559	143.25
239.793	127.25
240.027	123.25
240.26	141.25
240.494	147.25
240.728	135.25
240.961	146.25
241.195	135.25
241.429	119.25
241.662	134.25
241.896	134.25
242.13	111.25
242.363	136.25
242.597	124.25
242.83	131.25
243.064	123.25
243.298	132.25
243.531	133.25
243.765	137.25
243.998	144.25
244.232	136.25
244.465	128.25
244.699	159.25
244.932	154.25
245.166	145.25
245.399	150.25
245.633	144.25
245.866	150.25
246.099	147.25
246.333	132.25
246.566	134.25
246.8	150.25
247.033	151.25
247.266	146.25
247.5	152.25
247.733	159.25
247.966	156.25
248.2	159.25
248.433	164.25
248.666	163.25
248.899	164.25
249.133	176.25
249.366	200.25
249.599	188.25
249.832	179.25
250.066	179.25
250.299	169.25
250.532	176.25
250.765	184.25
250.998	199.25
251.231	205.25
251.465	206.25
251.698	208.25
251.931	208.25
252.164	180.25
252.397	197.25
252.63	195.25
252.863	194.25
253.096	203.25
253.329	227.25
253.562	214.25
253.795	222.25
254.028	203.25
254.261	201.25
254.494	222.25
254.727	246.25
254.96	257.25
255.193	242.25
255.426	250.25
255.659	214.25
255.892	218.25
256.124	223.25
256.357	217.25
256.59	229.25
256.823	204.25
257.056	210.25
257.289	198.25
257.521	204.25
257.754	212.25
257.987	198.25
258.22	199.25
258.452	210.25
258.685	228.25
258.918	193.25
259.151	221.25
259.383	207.25
259.616	216.25
259.849	225.25
260.081	238.25
260.314	266.25
260.547	254.25
260.779	232.25
261.012	226.25
261.244	237.25
261.477	209.25
261.71	216.25
261.942	234.25
262.175	206.25
262.407	235.25
262.64	222.25
262.872	193.25
263.105	210.25
263.337	219.25
263.57	218.25
263.802	214.25
264.035	215.25
264.267	210.25
264.499	218.25
264.732	229.25
264.964	217.25
265.197	228.25
265.429	219.25
265.661	217.25
265.894	221.25
266.126	232.25
266.358	218.25
266.591	222.25
266.823	209.25
267.055	215.25
267.287	240.25
267.52	238.25
267.752	226.25
267.984	217.25
268.216	236.25
268.448	231.25
268.681	238.25
268.913	258.25
269.145	273.25
269.377	282.25
269.609	266.25
269.841	271.25
270.073	273.25
270.306	291.25
270.538	320.25
270.77	319.25
271.002	302.25
271.234	306.25
271.466	288.25
271.698	302.25
271.93	328.25
272.162	296.25
272.394	295.25
272.626	297.25
272.858	283.25
273.09	291.25
273.322	276.25
273.553	270.25
273.785	285.25
274.017	267.25
274.249	270.25
274.481	272.25
274.713	265.25
274.945	272.25
275.176	247.25
275.408	274.25
275.64	282.25
275.872	278.25
276.104	260.25
276.335	283.25
276.567	272.25
276.799	288.25
277.031	293.25
277.262	326.25
277.494	322.25
277.726	299.25
277.957	306.25
278.189	265.25
278.421	285.25
278.652	289.25
278.884	270.25
279.115	278.25
279.347	290.25
279.579	291.25
279.81	292.25
280.042	287.25
280.273	279.25
280.505	287.25
280.736	252.25
280.968	287.25
281.199	278.25
281.431	268.25
281.662	296.25
281.894	293.25
282.125	295.25
282.356	301.25
282.588	314.25
282.819	307.25
283.051	305.25
283.282	310.25
283.513	276.25
283.745	294.25
283.976	304.25
284.207	300.25
284.439	292.25
284.67	298.25
284.901	294.25
285.132	290.25
285.364	286.25
285.595	287.25
285.826	290.25
286.057	286.25
286.288	299.25
286.52	290.25
286.751	291.25
286.982	295.25
287.213	299.25
287.444	294.25
287.675	308.25
287.906	320.25
288.138	326.25
288.369	307.25
288.6	318.25
288.831	323.25
289.062	311.25
289.293	311.25
289.524	319.25
289.755	324.25
289.986	306.25
290.217	317.25
290.448	304.25
290.679	297.25
290.91	286.25
291.141	291.25
291.371	325.25
291.602	287.25
291.833	299.25
292.064	325.25
292.295	313.25
292.526	303.25
292.757	316.25
292.987	297.25
293.218	298.25
293.449	323.25
293.68	326.25
293.91	291.25
294.141	292.25
294.372	298.25
294.603	304.25
294.833	319.25
295.064	321.25
295.295	312.25
295.525	308.25
295.756	331.25
295.987	336.25
296.217	326.25
296.448	340.25
296.679	321.25
296.909	315.25
297.14	314.25
297.37	306.25
297.601	329.25
297.831	312.25
298.062	325.25
298.292	325.25
298.523	326.25
298.753	331.25
298.984	325.25
299.214	324.25
299.445	325.25
299.675	323.25
299.905	332.25
300.136	322.25
300.366	325.25
300.597	345.25
300.827	354.25
301.057	349.25
301.288	337.25
301.518	339.25
301.748	340.25
301.979	320.25
302.209	328.25
302.439	336.25
302.669	352.25
302.9	356.25
303.13	360.25
303.36	359.25
303.59	363.25
303.82	356.25
304.051	340.25
304.281	353.25
304.511	350.25
304.741	340.25
304.971	351.25
305.201	339.25
305.431	348.25
305.661	352.25
305.891	353.25
306.121	354.25
306.352	343.25
306.582	368.25
306.812	361.25
307.042	360.25
307.272	360.25
307.502	368.25
307.731	348.25
307.961	359.25
308.191	352.25
308.421	354.25
308.651	363.25
308.881	347.25
309.111	332.25
309.341	355.25
309.571	368.25
309.8	370.25
310.03	352.25
310.26	380.25
310.49	394.25
310.72	394.25
310.949	390.25
311.179	404.25
311.409	401.25
311.639	404.25
311.868	378.25
312.098	384.25
312.328	390.25
312.557	412.25
312.787	411.25
313.017	397.25
313.246	390.25
313.476	389.25
313.706	393.25
313.935	382.25
314.165	402.25
314.394	416.25
314.624	403.25
314.853	374.25
315.083	387.25
315.312	357.25
315.542	380.25
315.771	378.25
316.001	397.25
316.23	391.25
316.46	394.25
316.689	392.25
316.919	393.25
317.148	400.25
317.377	388.25
317.607	394.25
317.836	401.25
318.065	392.25
318.295	402.25
318.524	402.25
318.753	410.25
318.983	391.25
319.212	382.25
319.441	383.25
319.67	402.25
319.9	378.25
320.129	387.25
320.358	395.25
320.587	400.25
320.816	406.25
321.046	410.25
321.275	398.25
321.504	397.25
321.733	407.25
321.962	435.25
322.191	423.25
322.42	434.25
322.649	437.25
322.878	420.25
323.108	446.25
323.337	460.25
323.566	483.25
323.795	510.25
324.024	535.25
324.253	616.25
324.482	889.25
324.71	1296.25
324.939	1756.25
325.168	1540.25
325.397	806.25
325.626	580.25
325.855	502.25
326.084	505.25
326.313	466.25
326.542	478.25
326.77	517.25
326.999	589.25
327.228	810.25
327.457	1116.25
327.686	1319.25
327.914	927.25
328.143	640.25
328.372	591.25
328.6	539.25
328.829	508.25
329.058	511.25
329.287	522.25
329.515	512.25
329.744	492.25
329.972	488.25
330.201	497.25
330.43	518.25
330.658	537.25
330.887	554.25
331.115	556.25
331.344	494.25
331.572	482.25
331.801	482.25
332.03	496.25
332.258	487.25
332.486	465.25
332.715	471.25
332.943	467.25
333.172	463.25
333.4	487.25
333.629	472.25
333.857	502.25
334.085	524.25
334.314	498.25
334.542	533.25
334.771	536.25
334.999	495.25
335.227	483.25
335.455	471.25
335.684	470.25
335.912	441.25
336.14	462.25
336.369	468.25
336.597	470.25
336.825	467.25
337.053	469.25
337.281	460.25
337.51	446.25
337.738	450.25
337.966	440.25
338.194	460.25
338.422	459.25
338.65	454.25
338.878	447.25
339.106	444.25
339.334	455.25
339.562	437.25
339.79	447.25
340.018	432.25
340.246	451.25
340.474	435.25
340.702	447.25
340.93	432.25
341.158	420.25
341.386	430.25
341.614	403.25
341.842	462.25
342.07	434.25
342.298	420.25
342.526	425.25
342.754	443.25
342.981	427.25
343.209	422.25
343.437	435.25
343.665	433.25
343.893	466.25
344.12	468.25
344.348	469.25
344.576	461.25
344.804	468.25
345.031	454.25
345.259	440.25
345.487	426.25
345.714	456.25
345.942	423.25
346.17	427.25
346.397	427.25
346.625	393.25
346.853	422.25
347.08	419.25
347.308	407.25
347.535	433.25
347.763	420.25
347.99	424.25
348.218	425.25
348.445	426.25
348.673	426.25
348.9	405.25
349.128	420.25
349.355	401.25
349.583	406.25
349.81	416.25
350.037	388.25
350.265	391.25
350.492	390.25
350.72	404.25
350.947	410.25
351.174	422.25
351.402	425.25
351.629	411.25
351.856	417.25
352.083	418.25
352.311	423.25
352.538	421.25
352.765	410.25
352.992	420.25
353.22	422.25
353.447	401.25
353.674	409.25
353.901	373.25
354.128	393.25
354.355	396.25
354.583	373.25
354.81	378.25
355.037	386.25
355.264	378.25
355.491	383.25
355.718	353.25
355.945	391.25
356.172	392.25
356.399	371.25
356.626	384.25
356.853	390.25
357.08	350.25
357.307	392.25
357.534	376.25
357.761	382.25
357.988	395.25
358.215	387.25
358.441	397.25
358.668	393.25
358.895	374.25
359.122	372.25
359.349	407.25
359.576	398.25
359.802	398.25
360.029	431.25
360.256	402.25
360.483	414.25
360.709	392.25
360.936	400.25
361.163	392.25
361.39	420.25
361.616	404.25
361.843	407.25
362.07	413.25
362.296	397.25
362.523	393.25
362.749	396.25
362.976	407.25
363.203	411.25
363.429	392.25
363.656	391.25
363.882	390.25
364.109	383.25
364.335	392.25
364.562	397.25
364.788	374.25
365.015	382.25
365.241	404.25
365.468	390.25
365.694	381.25
365.92	408.25
366.147	388.25
366.373	367.25
366.599	395.25
366.826	394.25
367.052	379.25
367.278	379.25
367.505	388.25
367.731	403.25
367.957	381.25
368.184	382.25
368.41	391.25
368.636	380.25
368.862	387.25
369.089	385.25
369.315	386.25
369.541	374.25
369.767	389.25
369.993	378.25
370.219	392.25
370.445	396.25
370.672	364.25
370.898	390.25
371.124	379.25
371.35	367.25
371.576	406.25
371.802	392.25
372.028	411.25
372.254	388.25
372.48	386.25
372.706	414.25
372.932	388.25
373.158	390.25
373.384	381.25
373.61	386.25
373.835	395.25
374.061	388.25
374.287	398.25
374.513	386.25
374.739	385.25
374.965	392.25
375.191	389.25
375.416	411.25
375.642	404.25
375.868	386.25
376.094	397.25
376.319	382.25
376.545	394.25
376.771	388.25
376.997	376.25
377.222	388.25
377.448	387.25
377.674	408.25
377.899	387.25
378.125	386.25
378.35	353.25
378.576	363.25
378.802	378.25
379.027	385.25
379.253	365.25
379.478	376.25
379.704	373.25
379.929	372.25
380.155	384.25
380.38	386.25
380.606	381.25
380.831	391.25
381.057	391.25
381.282	388.25
381.507	380.25
381.733	395.25
381.958	376.25
382.184	399.25
382.409	390.25
382.634	388.25
382.86	382.25
383.085	403.25
383.31	427.25
383.535	404.25
383.761	411.25
383.986	399.25
384.211	401.25
384.436	414.25
384.662	430.25
384.887	414.25
385.112	411.25
385.337	409.25
385.562	428.25
385.787	414.25
386.013	428.25
386.238	412.25
386.463	422.25
386.688	426.25
386.913	422.25
387.138	434.25
387.363	414.25
387.588	432.25
387.813	399.25
388.038	412.25
388.263	418.25
388.488	407.25
388.713	429.25
388.938	436.25
389.163	415.25
389.387	406.25
389.612	422.25
389.837	412.25
390.062	423.25
390.287	414.25
390.512	432.25
390.736	413.25
390.961	444.25
391.186	423.25
391.411	424.25
391.636	435.25
391.86	434.25
392.085	443.25
392.31	441.25
392.534	433.25
392.759	432.25
392.984	423.25
393.208	442.25
393.433	426.25
393.658	432.25
393.882	417.25
394.107	428.25
394.331	401.25
394.556	434.25
394.78	419.25
395.005	436.25
395.229	424.25
395.454	459.25
395.678	447.25
395.903	446.25
396.127	459.25
396.352	447.25
396.576	441.25
396.801	427.25
397.025	442.25
397.249	460.25
397.474	459.25
397.698	440.25
397.922	452.25
398.147	463.25
398.371	485.25
398.595	471.25
398.82	462.25
399.044	494.25
399.268	510.25
399.492	558.25
399.717	586.25
399.941	582.25
400.165	609.25
400.389	590.25
400.613	545.25
400.837	493.25
401.062	503.25
401.286	483.25
401.51	494.25
401.734	486.25
401.958	491.25
402.182	485.25
402.406	514.25
402.63	482.25
402.854	499.25
403.078	504.25
403.302	481.25
403.526	500.25
403.75	491.25
403.974	495.25
404.198	487.25
404.422	508.25
404.645	521.25
404.869	549.25
405.093	553.25
405.317	563.25
405.541	588.25
405.765	555.25
405.988	527.25
406.212	520.25
406.436	549.25
406.66	527.25
406.883	534.25
407.107	571.25
407.331	576.25
407.555	641.25
407.778	652.25
408.002	591.25
408.226	555.25
408.449	559.25
408.673	548.25
408.896	564.25
409.12	579.25
409.344	553.25
409.567	530.25
409.791	535.25
410.014	495.25
410.238	488.25
410.461	503.25
410.685	512.25
410.908	545.25
411.132	539.25
411.355	568.25
411.578	563.25
411.802	513.25
412.025	482.25
412.249	485.25
412.472	513.25
412.695	543.25
412.919	545.25
413.142	504.25
413.365	482.25
413.589	484.25
413.812	469.25
414.035	469.25
414.258	470.25
414.482	450.25
414.705	455.25
414.928	492.25
415.151	458.25
415.374	472.25
415.597	462.25
415.821	451.25
416.044	439.25
416.267	465.25
416.49	468.25
416.713	466.25
416.936	465.25
417.159	458.25
417.382	470.25
417.605	458.25
417.828	474.25
418.051	484.25
418.274	467.25
418.497	457.25
418.72	443.25
418.943	466.25
419.166	472.25
419.389	495.25
419.611	482.25
419.834	498.25
420.057	485.25
420.28	481.25
420.503	476.25
420.726	478.25
420.948	512.25
421.171	530.25
421.394	552.25
421.617	491.25
421.839	467.25
422.062	479.25
422.285	474.25
422.507	540.25
422.73	589.25
422.953	582.25
423.175	513.25
423.398	490.25
423.621	504.25
423.843	510.25
424.066	514.25
424.288	508.25
424.511	521.25
424.733	578.25
424.956	640.25
425.178	624.25
425.401	595.25
425.623	628.25
425.846	553.25
426.068	485.25
426.291	516.25
426.513	500.25
426.735	504.25
426.958	545.25
427.18	611.25
427.402	700.25
427.625	790.25
427.847	654.25
428.069	582.25
428.292	528.25
428.514	528.25
428.736	481.25
428.958	488.25
429.181	451.25
429.403	428.25
429.625	467.25
429.847	499.25
430.069	573.25
430.292	542.25
430.514	465.25
430.736	466.25
430.958	450.25
431.18	443.25
431.402	440.25
431.624	432.25
431.846	435.25
432.068	436.25
432.29	451.25
432.512	457.25
432.734	463.25
432.956	444.25
433.178	451.25
433.4	465.25
433.622	437.25
433.844	457.25
434.066	431.25
434.287	440.25
434.509	464.25
434.731	480.25
434.953	466.25
435.175	496.25
435.397	528.25
435.618	486.25
435.84	530.25
436.062	608.25
436.284	668.25
436.505	558.25
436.727	507.25
436.949	473.25
437.17	450.25
437.392	446.25
437.614	466.25
437.835	496.25
438.057	555.25
438.278	664.25
438.5	672.25
438.721	707.25
438.943	699.25
439.165	551.25
439.386	503.25
439.608	518.25
439.829	498.25
440.05	519.25
440.272	551.25
440.493	542.25
440.715	511.25
440.936	479.25
441.158	454.25
441.379	453.25
441.6	479.25
441.822	510.25
442.043	514.25
442.264	608.25
442.486	616.25
442.707	555.25
442.928	526.25
443.149	522.25
443.371	533.25
443.592	574.25
443.813	656.25
444.034	700.25
444.255	590.25
444.476	542.25
444.698	530.25
444.919	514.25
445.14	635.25
445.361	575.25
445.582	530.25
445.803	571.25
446.024	660.25
446.245	668.25
446.466	608.25
446.687	512.25
446.908	501.25
447.129	462.25
447.35	476.25
447.571	456.25
447.792	433.25
448.013	468.25
448.234	468.25
448.455	515.25
448.675	597.25
448.896	690.25
449.117	594.25
449.338	570.25
449.559	686.25
449.779	770.25
450	585.25
450.221	503.25
450.442	452.25
450.662	451.25
450.883	427.25
451.104	470.25
451.324	430.25
451.545	430.25
451.766	416.25
451.986	411.25
452.207	408.25
452.428	389.25
452.648	404.25
452.869	424.25
453.089	434.25
453.31	422.25
453.53	411.25
453.751	413.25
453.971	398.25
454.192	428.25
454.412	407.25
454.633	413.25
454.853	416.25
455.073	394.25
455.294	416.25
455.514	454.25
455.734	459.25
455.955	386.25
456.175	396.25
456.395	374.25
456.616	383.25
456.836	384.25
457.056	374.25
457.276	385.25
457.497	395.25
457.717	394.25
457.937	411.25
458.157	394.25
458.377	396.25
458.598	418.25
458.818	464.25
459.038	506.25
459.258	542.25
459.478	460.25
459.698	450.25
459.918	433.25
460.138	425.25
460.358	453.25
460.578	448.25
460.798	455.25
461.018	453.25
461.238	456.25
461.458	433.25
461.678	434.25
461.898	458.25
462.118	467.25
462.338	484.25
462.558	487.25
462.777	471.25
462.997	489.25
463.217	513.25
463.437	513.25
463.657	482.25
463.876	494.25
464.096	501.25
464.316	469.25
464.536	467.25
464.755	478.25
464.975	485.25
465.195	498.25
465.414	513.25
465.634	470.25
465.854	471.25
466.073	431.25
466.293	425.25
466.512	432.25
466.732	421.25
466.951	411.25
467.171	436.25
467.391	436.25
467.61	406.25
467.829	419.25
468.049	425.25
468.268	421.25
468.488	402.25
468.707	387.25
468.927	406.25
469.146	409.25
469.365	414.25
469.585	416.25
469.804	411.25
470.023	438.25
470.243	421.25
470.462	426.25
470.681	408.25
470.901	441.25
471.12	427.25
471.339	445.25
471.558	413.25
471.777	425.25
471.997	411.25
472.216	410.25
472.435	433.25
472.654	429.25
472.873	407.25
473.092	397.25
473.311	402.25
473.53	399.25
473.749	414.25
473.968	481.25
474.187	544.25
474.406	564.25
474.625	446.25
474.844	427.25
475.063	422.25
475.282	403.25
475.501	427.25
475.72	425.25
475.939	438.25
476.158	431.25
476.377	415.25
476.596	403.25
476.814	444.25
477.033	442.25
477.252	449.25
477.471	451.25
477.69	440.25
477.908	450.25
478.127	458.25
478.346	467.25
478.564	460.25
478.783	450.25
479.002	472.25
479.22	512.25
479.439	484.25
479.658	502.25
479.876	500.25
480.095	491.25
480.313	538.25
480.532	543.25
480.751	518.25
480.969	523.25
481.188	551.25
481.406	575.25
481.624	531.25
481.843	507.25
482.061	478.25
482.28	506.25
482.498	490.25
482.717	489.25
482.935	483.25
483.153	489.25
483.372	475.25
483.59	500.25
483.808	475.25
484.027	476.25
484.245	474.25
484.463	480.25
484.681	489.25
484.9	470.25
485.118	501.25
485.336	488.25
485.554	484.25
485.772	504.25
485.99	479.25
486.209	500.25
486.427	501.25
486.645	489.25
486.863	489.25
487.081	504.25
487.299	523.25
487.517	506.25
487.735	520.25
487.953	502.25
488.171	520.25
488.389	542.25
488.607	511.25
488.825	510.25
489.043	502.25
489.261	523.25
489.479	537.25
489.696	506.25
489.914	520.25
490.132	538.25
490.35	544.25
490.568	538.25
490.786	542.25
491.003	535.25
491.221	556.25
491.439	563.25
491.657	601.25
491.874	562.25
492.092	568.25
492.31	600.25
492.527	578.25
492.745	564.25
492.963	572.25
493.18	599.25
493.398	584.25
493.615	594.25
493.833	605.25
494.05	594.25
494.268	587.25
494.485	603.25
494.703	611.25
494.92	622.25
495.138	612.25
495.355	606.25
495.573	641.25
495.79	604.25
496.008	598.25
496.225	611.25
496.442	590.25
496.66	622.25
496.877	623.25
497.094	610.25
497.312	619.25
497.529	647.25
497.746	642.25
497.963	636.25
498.181	673.25
498.398	664.25
498.615	688.25
498.832	689.25
499.049	736.25
499.267	737.25
499.484	782.25
499.701	809.25
499.918	850.25
500.135	876.25
500.352	932.25
500.569	954.25
500.786	950.25
501.003	932.25
501.22	892.25
501.437	833.25
501.654	825.25
501.871	793.25
502.088	779.25
