Data from 1977.PennyLincolnUp.Lamp.En5.5.200Scan.071719.P1_HRD10591_16-05-51-865.txt Node
Date: Thu Jul 18 16:05:51 EDT 2019
User: cochatt
Spectrometer: HR+D1059
Trigger mode: 1
Integration Time (sec): 1.000000E-1
Scans to average: 1
Electric dark correction enabled: true
Nonlinearity correction enabled: false
Boxcar width: 0
XAxis mode: Wavelengths
Number of Pixels in Spectrum: 2048
>>>>>Begin Spectral Data<<<<<
223.165	-8.88
223.4	-8.88
223.635	-8.88
223.869	-17.88
224.104	-17.88
224.338	-8.88
224.573	-30.88
224.808	-8.88
225.042	-6.88
225.277	-16.88
225.511	-3.88
225.746	-7.88
225.98	13.12
226.215	16.12
226.449	22.12
226.683	14.12
226.918	25.12
227.152	38.12
227.387	16.12
227.621	31.12
227.856	49.12
228.09	50.12
228.324	65.12
228.559	69.12
228.793	69.12
229.027	100.12
229.262	101.12
229.496	126.12
229.73	122.12
229.964	121.12
230.199	107.12
230.433	105.12
230.667	119.12
230.901	111.12
231.136	121.12
231.37	105.12
231.604	118.12
231.838	109.12
232.072	119.12
232.306	110.12
232.541	118.12
232.775	113.12
233.009	127.12
233.243	100.12
233.477	118.12
233.711	119.12
233.945	112.12
234.179	111.12
234.413	121.12
234.647	100.12
234.881	114.12
235.115	113.12
235.349	112.12
235.583	111.12
235.817	115.12
236.051	124.12
236.285	128.12
236.519	122.12
236.753	128.12
236.987	134.12
237.221	165.12
237.455	186.12
237.689	154.12
237.922	120.12
238.156	129.12
238.39	123.12
238.624	127.12
238.858	130.12
239.091	139.12
239.325	130.12
239.559	116.12
239.793	113.12
240.027	136.12
240.26	144.12
240.494	149.12
240.728	140.12
240.961	161.12
241.195	140.12
241.429	117.12
241.662	133.12
241.896	145.12
242.13	125.12
242.363	138.12
242.597	137.12
242.83	150.12
243.064	129.12
243.298	150.12
243.531	143.12
243.765	154.12
243.998	146.12
244.232	147.12
244.465	152.12
244.699	155.12
244.932	149.12
245.166	141.12
245.399	142.12
245.633	140.12
245.866	148.12
246.099	142.12
246.333	152.12
246.566	138.12
246.8	146.12
247.033	161.12
247.266	148.12
247.5	149.12
247.733	157.12
247.966	167.12
248.2	167.12
248.433	180.12
248.666	150.12
248.899	152.12
249.133	194.12
249.366	192.12
249.599	174.12
249.832	165.12
250.066	173.12
250.299	171.12
250.532	167.12
250.765	186.12
250.998	201.12
251.231	215.12
251.465	203.12
251.698	202.12
251.931	197.12
252.164	187.12
252.397	194.12
252.63	197.12
252.863	178.12
253.096	199.12
253.329	210.12
253.562	215.12
253.795	217.12
254.028	206.12
254.261	214.12
254.494	206.12
254.727	235.12
254.96	267.12
255.193	248.12
255.426	229.12
255.659	216.12
255.892	222.12
256.124	220.12
256.357	215.12
256.59	221.12
256.823	194.12
257.056	199.12
257.289	200.12
257.521	207.12
257.754	207.12
257.987	206.12
258.22	193.12
258.452	202.12
258.685	206.12
258.918	188.12
259.151	216.12
259.383	224.12
259.616	214.12
259.849	216.12
260.081	222.12
260.314	235.12
260.547	247.12
260.779	231.12
261.012	242.12
261.244	237.12
261.477	206.12
261.71	218.12
261.942	219.12
262.175	216.12
262.407	222.12
262.64	215.12
262.872	230.12
263.105	208.12
263.337	201.12
263.57	204.12
263.802	217.12
264.035	206.12
264.267	206.12
264.499	220.12
264.732	221.12
264.964	223.12
265.197	222.12
265.429	211.12
265.661	226.12
265.894	221.12
266.126	219.12
266.358	246.12
266.591	220.12
266.823	230.12
267.055	241.12
267.287	234.12
267.52	221.12
267.752	237.12
267.984	221.12
268.216	239.12
268.448	245.12
268.681	245.12
268.913	250.12
269.145	264.12
269.377	247.12
269.609	278.12
269.841	270.12
270.073	283.12
270.306	269.12
270.538	308.12
270.77	294.12
271.002	295.12
271.234	298.12
271.466	278.12
271.698	282.12
271.93	308.12
272.162	310.12
272.394	317.12
272.626	294.12
272.858	275.12
273.09	295.12
273.322	270.12
273.553	256.12
273.785	261.12
274.017	270.12
274.249	274.12
274.481	282.12
274.713	250.12
274.945	277.12
275.176	264.12
275.408	269.12
275.64	272.12
275.872	273.12
276.104	256.12
276.335	262.12
276.567	278.12
276.799	290.12
277.031	297.12
277.262	303.12
277.494	302.12
277.726	301.12
277.957	286.12
278.189	277.12
278.421	279.12
278.652	276.12
278.884	251.12
279.115	270.12
279.347	288.12
279.579	287.12
279.81	270.12
280.042	274.12
280.273	273.12
280.505	278.12
280.736	277.12
280.968	275.12
281.199	280.12
281.431	299.12
281.662	270.12
281.894	279.12
282.125	286.12
282.356	292.12
282.588	330.12
282.819	307.12
283.051	278.12
283.282	288.12
283.513	308.12
283.745	300.12
283.976	300.12
284.207	287.12
284.439	276.12
284.67	300.12
284.901	310.12
285.132	306.12
285.364	280.12
285.595	302.12
285.826	294.12
286.057	308.12
286.288	282.12
286.52	286.12
286.751	291.12
286.982	310.12
287.213	296.12
287.444	299.12
287.675	305.12
287.906	301.12
288.138	300.12
288.369	311.12
288.6	300.12
288.831	320.12
289.062	310.12
289.293	314.12
289.524	303.12
289.755	298.12
289.986	312.12
290.217	334.12
290.448	324.12
290.679	290.12
290.91	311.12
291.141	324.12
291.371	309.12
291.602	322.12
291.833	322.12
292.064	304.12
292.295	301.12
292.526	299.12
292.757	289.12
292.987	327.12
293.218	304.12
293.449	317.12
293.68	312.12
293.91	312.12
294.141	310.12
294.372	303.12
294.603	314.12
294.833	314.12
295.064	314.12
295.295	322.12
295.525	312.12
295.756	342.12
295.987	331.12
296.217	331.12
296.448	333.12
296.679	320.12
296.909	329.12
297.14	322.12
297.37	304.12
297.601	323.12
297.831	298.12
298.062	320.12
298.292	317.12
298.523	314.12
298.753	327.12
298.984	328.12
299.214	364.12
299.445	334.12
299.675	334.12
299.905	335.12
300.136	306.12
300.366	328.12
300.597	337.12
300.827	327.12
301.057	341.12
301.288	329.12
301.518	339.12
301.748	341.12
301.979	351.12
302.209	338.12
302.439	344.12
302.669	346.12
302.9	347.12
303.13	364.12
303.36	354.12
303.59	338.12
303.82	343.12
304.051	350.12
304.281	344.12
304.511	339.12
304.741	349.12
304.971	348.12
305.201	346.12
305.431	338.12
305.661	329.12
305.891	343.12
306.121	352.12
306.352	338.12
306.582	346.12
306.812	345.12
307.042	362.12
307.272	361.12
307.502	360.12
307.731	343.12
307.961	345.12
308.191	354.12
308.421	338.12
308.651	340.12
308.881	356.12
309.111	342.12
309.341	348.12
309.571	348.12
309.8	372.12
310.03	383.12
310.26	365.12
310.49	370.12
310.72	390.12
310.949	400.12
311.179	409.12
311.409	378.12
311.639	374.12
311.868	383.12
312.098	381.12
312.328	377.12
312.557	382.12
312.787	404.12
313.017	385.12
313.246	384.12
313.476	361.12
313.706	378.12
313.935	393.12
314.165	413.12
314.394	396.12
314.624	382.12
314.853	400.12
315.083	374.12
315.312	383.12
315.542	378.12
315.771	361.12
316.001	377.12
316.23	390.12
316.46	386.12
316.689	393.12
316.919	398.12
317.148	391.12
317.377	410.12
317.607	369.12
317.836	388.12
318.065	366.12
318.295	368.12
318.524	362.12
318.753	394.12
318.983	374.12
319.212	406.12
319.441	376.12
319.67	411.12
319.9	383.12
320.129	390.12
320.358	388.12
320.587	362.12
320.816	392.12
321.046	384.12
321.275	392.12
321.504	400.12
321.733	384.12
321.962	411.12
322.191	421.12
322.42	391.12
322.649	407.12
322.878	422.12
323.108	429.12
323.337	474.12
323.566	450.12
323.795	471.12
324.024	553.12
324.253	592.12
324.482	768.12
324.71	1148.12
324.939	1563.12
325.168	1292.12
325.397	751.12
325.626	544.12
325.855	489.12
326.084	464.12
326.313	466.12
326.542	446.12
326.77	508.12
326.999	560.12
327.228	746.12
327.457	984.12
327.686	1186.12
327.914	830.12
328.143	591.12
328.372	542.12
328.6	512.12
328.829	494.12
329.058	489.12
329.287	528.12
329.515	500.12
329.744	501.12
329.972	467.12
330.201	489.12
330.43	508.12
330.658	498.12
330.887	530.12
331.115	501.12
331.344	491.12
331.572	464.12
331.801	425.12
332.03	454.12
332.258	472.12
332.486	447.12
332.715	472.12
332.943	452.12
333.172	463.12
333.4	473.12
333.629	459.12
333.857	496.12
334.085	474.12
334.314	460.12
334.542	508.12
334.771	515.12
334.999	472.12
335.227	446.12
335.455	471.12
335.684	450.12
335.912	442.12
336.14	452.12
336.369	457.12
336.597	456.12
336.825	452.12
337.053	451.12
337.281	448.12
337.51	434.12
337.738	455.12
337.966	428.12
338.194	454.12
338.422	441.12
338.65	436.12
338.878	432.12
339.106	438.12
339.334	437.12
339.562	436.12
339.79	431.12
340.018	433.12
340.246	414.12
340.474	424.12
340.702	438.12
340.93	445.12
341.158	428.12
341.386	436.12
341.614	428.12
341.842	433.12
342.07	432.12
342.298	426.12
342.526	414.12
342.754	411.12
342.981	400.12
343.209	442.12
343.437	436.12
343.665	448.12
343.893	439.12
344.12	463.12
344.348	444.12
344.576	439.12
344.804	438.12
345.031	439.12
345.259	439.12
345.487	428.12
345.714	422.12
345.942	412.12
346.17	420.12
346.397	420.12
346.625	418.12
346.853	431.12
347.08	409.12
347.308	410.12
347.535	407.12
347.763	422.12
347.99	398.12
348.218	413.12
348.445	394.12
348.673	396.12
348.9	402.12
349.128	415.12
349.355	392.12
349.583	401.12
349.81	405.12
350.037	403.12
350.265	402.12
350.492	391.12
350.72	405.12
350.947	394.12
351.174	398.12
351.402	422.12
351.629	415.12
351.856	409.12
352.083	412.12
352.311	399.12
352.538	414.12
352.765	417.12
352.992	395.12
353.22	409.12
353.447	407.12
353.674	388.12
353.901	391.12
354.128	389.12
354.355	384.12
354.583	386.12
354.81	380.12
355.037	378.12
355.264	401.12
355.491	373.12
355.718	382.12
355.945	389.12
356.172	387.12
356.399	364.12
356.626	377.12
356.853	392.12
357.08	381.12
357.307	382.12
357.534	379.12
357.761	393.12
357.988	400.12
358.215	382.12
358.441	373.12
358.668	382.12
358.895	398.12
359.122	383.12
359.349	392.12
359.576	384.12
359.802	404.12
360.029	404.12
360.256	401.12
360.483	416.12
360.709	402.12
360.936	410.12
361.163	412.12
361.39	395.12
361.616	392.12
361.843	393.12
362.07	394.12
362.296	406.12
362.523	407.12
362.749	368.12
362.976	392.12
363.203	398.12
363.429	395.12
363.656	383.12
363.882	387.12
364.109	380.12
364.335	381.12
364.562	386.12
364.788	401.12
365.015	373.12
365.241	385.12
365.468	396.12
365.694	394.12
365.92	374.12
366.147	375.12
366.373	390.12
366.599	372.12
366.826	379.12
367.052	377.12
367.278	393.12
367.505	392.12
367.731	386.12
367.957	373.12
368.184	381.12
368.41	397.12
368.636	401.12
368.862	407.12
369.089	384.12
369.315	382.12
369.541	382.12
369.767	384.12
369.993	368.12
370.219	377.12
370.445	378.12
370.672	397.12
370.898	360.12
371.124	374.12
371.35	377.12
371.576	398.12
371.802	386.12
372.028	380.12
372.254	388.12
372.48	387.12
372.706	394.12
372.932	409.12
373.158	379.12
373.384	399.12
373.61	383.12
373.835	383.12
374.061	395.12
374.287	390.12
374.513	400.12
374.739	387.12
374.965	393.12
375.191	401.12
375.416	417.12
375.642	385.12
375.868	392.12
376.094	406.12
376.319	394.12
376.545	393.12
376.771	381.12
376.997	383.12
377.222	383.12
377.448	398.12
377.674	380.12
377.899	374.12
378.125	373.12
378.35	377.12
378.576	374.12
378.802	384.12
379.027	382.12
379.253	386.12
379.478	366.12
379.704	369.12
379.929	360.12
380.155	376.12
380.38	384.12
380.606	382.12
380.831	376.12
381.057	394.12
381.282	384.12
381.507	390.12
381.733	417.12
381.958	383.12
382.184	385.12
382.409	399.12
382.634	390.12
382.86	388.12
383.085	394.12
383.31	396.12
383.535	405.12
383.761	382.12
383.986	395.12
384.211	397.12
384.436	402.12
384.662	423.12
384.887	414.12
385.112	415.12
385.337	407.12
385.562	430.12
385.787	425.12
386.013	428.12
386.238	420.12
386.463	408.12
386.688	434.12
386.913	420.12
387.138	419.12
387.363	434.12
387.588	410.12
387.813	423.12
388.038	394.12
388.263	419.12
388.488	434.12
388.713	422.12
388.938	427.12
389.163	412.12
389.387	420.12
389.612	422.12
389.837	427.12
390.062	385.12
390.287	416.12
390.512	407.12
390.736	406.12
390.961	417.12
391.186	415.12
391.411	413.12
391.636	426.12
391.86	448.12
392.085	446.12
392.31	419.12
392.534	437.12
392.759	449.12
392.984	424.12
393.208	434.12
393.433	431.12
393.658	437.12
393.882	430.12
394.107	431.12
394.331	425.12
394.556	405.12
394.78	430.12
395.005	418.12
395.229	412.12
395.454	430.12
395.678	440.12
395.903	448.12
396.127	450.12
396.352	457.12
396.576	449.12
396.801	442.12
397.025	410.12
397.249	442.12
397.474	447.12
397.698	461.12
397.922	459.12
398.147	456.12
398.371	466.12
398.595	474.12
398.82	474.12
399.044	484.12
399.268	528.12
399.492	537.12
399.717	559.12
399.941	593.12
400.165	598.12
400.389	600.12
400.613	535.12
400.837	502.12
401.062	478.12
401.286	474.12
401.51	482.12
401.734	472.12
401.958	466.12
402.182	492.12
402.406	466.12
402.63	501.12
402.854	488.12
403.078	504.12
403.302	481.12
403.526	478.12
403.75	507.12
403.974	488.12
404.198	494.12
404.422	498.12
404.645	497.12
404.869	509.12
405.093	530.12
405.317	560.12
405.541	582.12
405.765	544.12
405.988	536.12
406.212	503.12
406.436	530.12
406.66	555.12
406.883	536.12
407.107	554.12
407.331	603.12
407.555	625.12
407.778	626.12
408.002	588.12
408.226	557.12
408.449	536.12
408.673	542.12
408.896	565.12
409.12	582.12
409.344	528.12
409.567	506.12
409.791	484.12
410.014	492.12
410.238	503.12
410.461	484.12
410.685	498.12
410.908	499.12
411.132	544.12
411.355	550.12
411.578	528.12
411.802	469.12
412.025	487.12
412.249	500.12
412.472	512.12
412.695	536.12
412.919	523.12
413.142	489.12
413.365	486.12
413.589	474.12
413.812	485.12
414.035	481.12
414.258	463.12
414.482	484.12
414.705	461.12
414.928	482.12
415.151	473.12
415.374	464.12
415.597	454.12
415.821	461.12
416.044	497.12
416.267	464.12
416.49	455.12
416.713	444.12
416.936	454.12
417.159	452.12
417.382	480.12
417.605	456.12
417.828	465.12
418.051	454.12
418.274	470.12
418.497	450.12
418.72	460.12
418.943	455.12
419.166	498.12
419.389	505.12
419.611	491.12
419.834	506.12
420.057	499.12
420.28	489.12
420.503	489.12
420.726	461.12
420.948	469.12
421.171	496.12
421.394	501.12
421.617	484.12
421.839	470.12
422.062	480.12
422.285	478.12
422.507	531.12
422.73	569.12
422.953	559.12
423.175	517.12
423.398	498.12
423.621	485.12
423.843	500.12
424.066	520.12
424.288	501.12
424.511	502.12
424.733	564.12
424.956	612.12
425.178	600.12
425.401	599.12
425.623	614.12
425.846	532.12
426.068	490.12
426.291	489.12
426.513	498.12
426.735	503.12
426.958	515.12
427.18	569.12
427.402	688.12
427.625	763.12
427.847	630.12
428.069	558.12
428.292	514.12
428.514	476.12
428.736	469.12
428.958	484.12
429.181	469.12
429.403	449.12
429.625	474.12
429.847	494.12
430.069	546.12
430.292	526.12
430.514	473.12
430.736	457.12
430.958	440.12
431.18	436.12
431.402	425.12
431.624	441.12
431.846	429.12
432.068	449.12
432.29	440.12
432.512	451.12
432.734	447.12
432.956	454.12
433.178	444.12
433.4	446.12
433.622	445.12
433.844	437.12
434.066	452.12
434.287	425.12
434.509	440.12
434.731	443.12
434.953	467.12
435.175	472.12
435.397	494.12
435.618	500.12
435.84	522.12
436.062	582.12
436.284	632.12
436.505	516.12
436.727	484.12
436.949	450.12
437.17	456.12
437.392	449.12
437.614	444.12
437.835	466.12
438.057	528.12
438.278	617.12
438.5	617.12
438.721	678.12
438.943	668.12
439.165	544.12
439.386	490.12
439.608	476.12
439.829	475.12
440.05	514.12
440.272	553.12
440.493	511.12
440.715	480.12
440.936	465.12
441.158	452.12
441.379	461.12
441.6	475.12
441.822	470.12
442.043	505.12
442.264	577.12
442.486	607.12
442.707	538.12
442.928	491.12
443.149	512.12
443.371	534.12
443.592	545.12
443.813	618.12
444.034	683.12
444.255	582.12
444.476	528.12
444.698	501.12
444.919	504.12
445.14	590.12
445.361	544.12
445.582	542.12
445.803	565.12
446.024	632.12
446.245	648.12
446.466	584.12
446.687	515.12
446.908	463.12
447.129	447.12
447.35	459.12
447.571	474.12
447.792	455.12
448.013	458.12
448.234	449.12
448.455	503.12
448.675	582.12
448.896	658.12
449.117	566.12
449.338	526.12
449.559	641.12
449.779	725.12
450	576.12
450.221	470.12
450.442	462.12
450.662	416.12
450.883	412.12
451.104	434.12
451.324	416.12
451.545	413.12
451.766	405.12
451.986	416.12
452.207	398.12
452.428	402.12
452.648	399.12
452.869	400.12
453.089	382.12
453.31	396.12
453.53	401.12
453.751	406.12
453.971	398.12
454.192	415.12
454.412	415.12
454.633	418.12
454.853	398.12
455.073	396.12
455.294	404.12
455.514	439.12
455.734	476.12
455.955	394.12
456.175	391.12
456.395	380.12
456.616	385.12
456.836	386.12
457.056	387.12
457.276	369.12
457.497	380.12
457.717	384.12
457.937	392.12
458.157	387.12
458.377	385.12
458.598	405.12
458.818	461.12
459.038	502.12
459.258	523.12
459.478	460.12
459.698	430.12
459.918	416.12
460.138	450.12
460.358	426.12
460.578	453.12
460.798	477.12
461.018	471.12
461.238	438.12
461.458	466.12
461.678	454.12
461.898	455.12
462.118	460.12
462.338	469.12
462.558	460.12
462.777	473.12
462.997	485.12
463.217	510.12
463.437	502.12
463.657	487.12
463.876	501.12
464.096	469.12
464.316	477.12
464.536	475.12
464.755	488.12
464.975	499.12
465.195	494.12
465.414	532.12
465.634	472.12
465.854	459.12
466.073	446.12
466.293	425.12
466.512	429.12
466.732	424.12
466.951	432.12
467.171	420.12
467.391	409.12
467.61	416.12
467.829	420.12
468.049	422.12
468.268	421.12
468.488	389.12
468.707	397.12
468.927	409.12
469.146	423.12
469.365	402.12
469.585	408.12
469.804	392.12
470.023	394.12
470.243	399.12
470.462	425.12
470.681	431.12
470.901	408.12
471.12	426.12
471.339	401.12
471.558	438.12
471.777	420.12
471.997	413.12
472.216	403.12
472.435	417.12
472.654	405.12
472.873	409.12
473.092	416.12
473.311	405.12
473.53	421.12
473.749	402.12
473.968	437.12
474.187	513.12
474.406	540.12
474.625	447.12
474.844	418.12
475.063	417.12
475.282	417.12
475.501	413.12
475.72	431.12
475.939	433.12
476.158	429.12
476.377	425.12
476.596	416.12
476.814	421.12
477.033	438.12
477.252	431.12
477.471	426.12
477.69	438.12
477.908	462.12
478.127	454.12
478.346	466.12
478.564	467.12
478.783	445.12
479.002	474.12
479.22	496.12
479.439	476.12
479.658	506.12
479.876	500.12
480.095	494.12
480.313	564.12
480.532	516.12
480.751	519.12
480.969	524.12
481.188	527.12
481.406	526.12
481.624	504.12
481.843	484.12
482.061	488.12
482.28	490.12
482.498	503.12
482.717	482.12
482.935	464.12
483.153	454.12
483.372	475.12
483.59	463.12
483.808	476.12
484.027	478.12
484.245	483.12
484.463	470.12
484.681	495.12
484.9	482.12
485.118	478.12
485.336	509.12
485.554	500.12
485.772	508.12
485.99	485.12
486.209	515.12
486.427	476.12
486.645	505.12
486.863	518.12
487.081	507.12
487.299	531.12
487.517	502.12
487.735	494.12
487.953	522.12
488.171	519.12
488.389	477.12
488.607	479.12
488.825	488.12
489.043	506.12
489.261	511.12
489.479	498.12
489.696	508.12
489.914	470.12
490.132	510.12
490.35	517.12
490.568	530.12
490.786	529.12
491.003	530.12
491.221	556.12
491.439	555.12
491.657	546.12
491.874	553.12
492.092	550.12
492.31	574.12
492.527	577.12
492.745	572.12
492.963	575.12
493.18	572.12
493.398	585.12
493.615	576.12
493.833	584.12
494.05	578.12
494.268	594.12
494.485	586.12
494.703	561.12
494.92	574.12
495.138	570.12
495.355	581.12
495.573	570.12
495.79	593.12
496.008	610.12
496.225	597.12
496.442	579.12
496.66	614.12
496.877	593.12
497.094	593.12
497.312	618.12
497.529	599.12
497.746	610.12
497.963	620.12
498.181	646.12
498.398	644.12
498.615	689.12
498.832	722.12
499.049	725.12
499.267	748.12
499.484	783.12
499.701	787.12
499.918	828.12
500.135	873.12
500.352	926.12
500.569	945.12
500.786	942.12
501.003	914.12
501.22	891.12
501.437	856.12
501.654	787.12
501.871	790.12
