Data from 1977.PennyLincolnUp.Lamp.En5.5.200Scan.071719.P1_HRD10591_16-06-42-864.txt Node
Date: Thu Jul 18 16:06:42 EDT 2019
User: cochatt
Spectrometer: HR+D1059
Trigger mode: 1
Integration Time (sec): 1.000000E-1
Scans to average: 1
Electric dark correction enabled: true
Nonlinearity correction enabled: false
Boxcar width: 0
XAxis mode: Wavelengths
Number of Pixels in Spectrum: 2048
>>>>>Begin Spectral Data<<<<<
223.165	-2.81
223.4	-2.81
223.635	-2.81
223.869	-21.81
224.104	-22.81
224.338	-1.81
224.573	-3.81
224.808	-4.81
225.042	-11.81
225.277	-2.81
225.511	-20.81
225.746	-6.81
225.98	1.19
226.215	10.19
226.449	16.19
226.683	24.19
226.918	22.19
227.152	26.19
227.387	28.19
227.621	31.19
227.856	43.19
228.09	41.19
228.324	42.19
228.559	42.19
228.793	72.19
229.027	93.19
229.262	82.19
229.496	111.19
229.73	120.19
229.964	134.19
230.199	132.19
230.433	115.19
230.667	114.19
230.901	105.19
231.136	93.19
231.37	112.19
231.604	107.19
231.838	120.19
232.072	122.19
232.306	113.19
232.541	120.19
232.775	112.19
233.009	117.19
233.243	131.19
233.477	115.19
233.711	107.19
233.945	108.19
234.179	102.19
234.413	107.19
234.647	117.19
234.881	100.19
235.115	110.19
235.349	103.19
235.583	103.19
235.817	125.19
236.051	110.19
236.285	115.19
236.519	105.19
236.753	118.19
236.987	141.19
237.221	156.19
237.455	218.19
237.689	172.19
237.922	147.19
238.156	123.19
238.39	121.19
238.624	127.19
238.858	113.19
239.091	124.19
239.325	118.19
239.559	123.19
239.793	117.19
240.027	135.19
240.26	139.19
240.494	145.19
240.728	145.19
240.961	133.19
241.195	144.19
241.429	136.19
241.662	137.19
241.896	140.19
242.13	138.19
242.363	127.19
242.597	118.19
242.83	135.19
243.064	133.19
243.298	139.19
243.531	141.19
243.765	140.19
243.998	141.19
244.232	127.19
244.465	127.19
244.699	143.19
244.932	149.19
245.166	135.19
245.399	140.19
245.633	149.19
245.866	135.19
246.099	140.19
246.333	150.19
246.566	150.19
246.8	146.19
247.033	154.19
247.266	156.19
247.5	150.19
247.733	171.19
247.966	165.19
248.2	157.19
248.433	168.19
248.666	161.19
248.899	187.19
249.133	191.19
249.366	201.19
249.599	170.19
249.832	179.19
250.066	183.19
250.299	182.19
250.532	202.19
250.765	194.19
250.998	207.19
251.231	194.19
251.465	214.19
251.698	190.19
251.931	192.19
252.164	177.19
252.397	191.19
252.63	202.19
252.863	198.19
253.096	191.19
253.329	211.19
253.562	202.19
253.795	194.19
254.028	197.19
254.261	208.19
254.494	214.19
254.727	228.19
254.96	263.19
255.193	241.19
255.426	234.19
255.659	225.19
255.892	229.19
256.124	220.19
256.357	220.19
256.59	209.19
256.823	198.19
257.056	217.19
257.289	228.19
257.521	221.19
257.754	207.19
257.987	199.19
258.22	196.19
258.452	204.19
258.685	209.19
258.918	212.19
259.151	209.19
259.383	218.19
259.616	219.19
259.849	229.19
260.081	242.19
260.314	241.19
260.547	245.19
260.779	247.19
261.012	226.19
261.244	229.19
261.477	233.19
261.71	218.19
261.942	223.19
262.175	232.19
262.407	237.19
262.64	203.19
262.872	221.19
263.105	210.19
263.337	227.19
263.57	220.19
263.802	207.19
264.035	225.19
264.267	189.19
264.499	206.19
264.732	204.19
264.964	229.19
265.197	228.19
265.429	234.19
265.661	232.19
265.894	215.19
266.126	213.19
266.358	223.19
266.591	217.19
266.823	237.19
267.055	233.19
267.287	221.19
267.52	230.19
267.752	225.19
267.984	239.19
268.216	244.19
268.448	228.19
268.681	244.19
268.913	255.19
269.145	281.19
269.377	283.19
269.609	269.19
269.841	284.19
270.073	268.19
270.306	310.19
270.538	315.19
270.77	305.19
271.002	314.19
271.234	289.19
271.466	301.19
271.698	311.19
271.93	320.19
272.162	315.19
272.394	322.19
272.626	283.19
272.858	279.19
273.09	268.19
273.322	284.19
273.553	259.19
273.785	268.19
274.017	271.19
274.249	287.19
274.481	267.19
274.713	271.19
274.945	276.19
275.176	285.19
275.408	280.19
275.64	293.19
275.872	269.19
276.104	285.19
276.335	277.19
276.567	269.19
276.799	287.19
277.031	320.19
277.262	321.19
277.494	322.19
277.726	304.19
277.957	296.19
278.189	291.19
278.421	292.19
278.652	288.19
278.884	277.19
279.115	285.19
279.347	272.19
279.579	281.19
279.81	280.19
280.042	269.19
280.273	280.19
280.505	293.19
280.736	287.19
280.968	305.19
281.199	288.19
281.431	281.19
281.662	279.19
281.894	279.19
282.125	292.19
282.356	311.19
282.588	313.19
282.819	322.19
283.051	293.19
283.282	283.19
283.513	307.19
283.745	298.19
283.976	307.19
284.207	295.19
284.439	305.19
284.67	319.19
284.901	305.19
285.132	296.19
285.364	267.19
285.595	294.19
285.826	295.19
286.057	287.19
286.288	293.19
286.52	290.19
286.751	295.19
286.982	310.19
287.213	280.19
287.444	301.19
287.675	289.19
287.906	319.19
288.138	316.19
288.369	329.19
288.6	338.19
288.831	326.19
289.062	307.19
289.293	313.19
289.524	317.19
289.755	320.19
289.986	328.19
290.217	312.19
290.448	304.19
290.679	314.19
290.91	306.19
291.141	305.19
291.371	316.19
291.602	323.19
291.833	320.19
292.064	323.19
292.295	324.19
292.526	305.19
292.757	309.19
292.987	302.19
293.218	312.19
293.449	330.19
293.68	309.19
293.91	307.19
294.141	313.19
294.372	308.19
294.603	309.19
294.833	299.19
295.064	320.19
295.295	319.19
295.525	314.19
295.756	327.19
295.987	336.19
296.217	353.19
296.448	345.19
296.679	340.19
296.909	309.19
297.14	308.19
297.37	320.19
297.601	325.19
297.831	344.19
298.062	330.19
298.292	325.19
298.523	332.19
298.753	319.19
298.984	313.19
299.214	346.19
299.445	341.19
299.675	320.19
299.905	337.19
300.136	340.19
300.366	327.19
300.597	327.19
300.827	350.19
301.057	351.19
301.288	345.19
301.518	349.19
301.748	337.19
301.979	332.19
302.209	349.19
302.439	358.19
302.669	359.19
302.9	356.19
303.13	357.19
303.36	353.19
303.59	369.19
303.82	367.19
304.051	343.19
304.281	359.19
304.511	363.19
304.741	358.19
304.971	361.19
305.201	353.19
305.431	358.19
305.661	339.19
305.891	341.19
306.121	361.19
306.352	343.19
306.582	337.19
306.812	351.19
307.042	342.19
307.272	369.19
307.502	353.19
307.731	363.19
307.961	339.19
308.191	368.19
308.421	328.19
308.651	358.19
308.881	337.19
309.111	338.19
309.341	349.19
309.571	367.19
309.8	371.19
310.03	365.19
310.26	393.19
310.49	411.19
310.72	392.19
310.949	395.19
311.179	396.19
311.409	386.19
311.639	400.19
311.868	399.19
312.098	397.19
312.328	405.19
312.557	420.19
312.787	411.19
313.017	417.19
313.246	406.19
313.476	396.19
313.706	391.19
313.935	433.19
314.165	391.19
314.394	385.19
314.624	415.19
314.853	411.19
315.083	409.19
315.312	410.19
315.542	392.19
315.771	406.19
316.001	391.19
316.23	380.19
316.46	398.19
316.689	397.19
316.919	415.19
317.148	435.19
317.377	383.19
317.607	405.19
317.836	405.19
318.065	405.19
318.295	406.19
318.524	409.19
318.753	396.19
318.983	401.19
319.212	405.19
319.441	411.19
319.67	408.19
319.9	389.19
320.129	409.19
320.358	384.19
320.587	406.19
320.816	403.19
321.046	418.19
321.275	425.19
321.504	395.19
321.733	413.19
321.962	418.19
322.191	430.19
322.42	447.19
322.649	435.19
322.878	432.19
323.108	451.19
323.337	451.19
323.566	496.19
323.795	525.19
324.024	521.19
324.253	608.19
324.482	875.19
324.71	1285.19
324.939	1750.19
325.168	1469.19
325.397	841.19
325.626	602.19
325.855	520.19
326.084	475.19
326.313	513.19
326.542	501.19
326.77	546.19
326.999	613.19
327.228	795.19
327.457	1145.19
327.686	1306.19
327.914	894.19
328.143	637.19
328.372	577.19
328.6	543.19
328.829	531.19
329.058	552.19
329.287	532.19
329.515	518.19
329.744	498.19
329.972	490.19
330.201	496.19
330.43	546.19
330.658	553.19
330.887	559.19
331.115	529.19
331.344	487.19
331.572	496.19
331.801	487.19
332.03	493.19
332.258	482.19
332.486	479.19
332.715	464.19
332.943	465.19
333.172	474.19
333.4	474.19
333.629	473.19
333.857	505.19
334.085	476.19
334.314	518.19
334.542	524.19
334.771	533.19
334.999	492.19
335.227	501.19
335.455	485.19
335.684	480.19
335.912	482.19
336.14	463.19
336.369	459.19
336.597	478.19
336.825	474.19
337.053	474.19
337.281	441.19
337.51	447.19
337.738	471.19
337.966	452.19
338.194	470.19
338.422	461.19
338.65	438.19
338.878	443.19
339.106	458.19
339.334	447.19
339.562	464.19
339.79	432.19
340.018	427.19
340.246	468.19
340.474	443.19
340.702	431.19
340.93	445.19
341.158	463.19
341.386	432.19
341.614	443.19
341.842	441.19
342.07	442.19
342.298	449.19
342.526	435.19
342.754	429.19
342.981	435.19
343.209	442.19
343.437	447.19
343.665	429.19
343.893	454.19
344.12	477.19
344.348	447.19
344.576	448.19
344.804	459.19
345.031	476.19
345.259	456.19
345.487	457.19
345.714	454.19
345.942	417.19
346.17	433.19
346.397	422.19
346.625	436.19
346.853	408.19
347.08	417.19
347.308	416.19
347.535	413.19
347.763	415.19
347.99	424.19
348.218	436.19
348.445	450.19
348.673	407.19
348.9	415.19
349.128	404.19
349.355	426.19
349.583	416.19
349.81	416.19
350.037	402.19
350.265	402.19
350.492	410.19
350.72	411.19
350.947	405.19
351.174	428.19
351.402	422.19
351.629	416.19
351.856	419.19
352.083	421.19
352.311	419.19
352.538	423.19
352.765	414.19
352.992	416.19
353.22	414.19
353.447	388.19
353.674	397.19
353.901	403.19
354.128	411.19
354.355	397.19
354.583	400.19
354.81	385.19
355.037	386.19
355.264	393.19
355.491	389.19
355.718	398.19
355.945	387.19
356.172	407.19
356.399	382.19
356.626	407.19
356.853	412.19
357.08	394.19
357.307	411.19
357.534	403.19
357.761	376.19
357.988	410.19
358.215	371.19
358.441	396.19
358.668	399.19
358.895	416.19
359.122	404.19
359.349	412.19
359.576	400.19
359.802	438.19
360.029	430.19
360.256	432.19
360.483	427.19
360.709	387.19
360.936	416.19
361.163	429.19
361.39	401.19
361.616	404.19
361.843	399.19
362.07	421.19
362.296	409.19
362.523	400.19
362.749	420.19
362.976	393.19
363.203	407.19
363.429	397.19
363.656	401.19
363.882	383.19
364.109	379.19
364.335	369.19
364.562	400.19
364.788	381.19
365.015	401.19
365.241	404.19
365.468	397.19
365.694	401.19
365.92	389.19
366.147	405.19
366.373	401.19
366.599	393.19
366.826	393.19
367.052	388.19
367.278	395.19
367.505	403.19
367.731	381.19
367.957	408.19
368.184	395.19
368.41	379.19
368.636	391.19
368.862	409.19
369.089	413.19
369.315	382.19
369.541	373.19
369.767	391.19
369.993	405.19
370.219	386.19
370.445	401.19
370.672	396.19
370.898	391.19
371.124	389.19
371.35	388.19
371.576	393.19
371.802	383.19
372.028	413.19
372.254	396.19
372.48	392.19
372.706	392.19
372.932	400.19
373.158	398.19
373.384	407.19
373.61	396.19
373.835	375.19
374.061	396.19
374.287	405.19
374.513	421.19
374.739	406.19
374.965	419.19
375.191	412.19
375.416	404.19
375.642	394.19
375.868	411.19
376.094	409.19
376.319	382.19
376.545	383.19
376.771	386.19
376.997	378.19
377.222	399.19
377.448	378.19
377.674	399.19
377.899	382.19
378.125	381.19
378.35	371.19
378.576	387.19
378.802	396.19
379.027	390.19
379.253	394.19
379.478	392.19
379.704	385.19
379.929	384.19
380.155	388.19
380.38	380.19
380.606	384.19
380.831	386.19
381.057	399.19
381.282	384.19
381.507	376.19
381.733	390.19
381.958	395.19
382.184	394.19
382.409	390.19
382.634	403.19
382.86	396.19
383.085	412.19
383.31	397.19
383.535	413.19
383.761	409.19
383.986	394.19
384.211	399.19
384.436	417.19
384.662	432.19
384.887	401.19
385.112	421.19
385.337	413.19
385.562	421.19
385.787	439.19
386.013	437.19
386.238	438.19
386.463	436.19
386.688	424.19
386.913	405.19
387.138	421.19
387.363	411.19
387.588	428.19
387.813	433.19
388.038	433.19
388.263	444.19
388.488	429.19
388.713	426.19
388.938	437.19
389.163	422.19
389.387	427.19
389.612	408.19
389.837	444.19
390.062	412.19
390.287	417.19
390.512	409.19
390.736	441.19
390.961	414.19
391.186	417.19
391.411	433.19
391.636	439.19
391.86	446.19
392.085	465.19
392.31	435.19
392.534	435.19
392.759	442.19
392.984	422.19
393.208	437.19
393.433	440.19
393.658	424.19
393.882	442.19
394.107	439.19
394.331	430.19
394.556	425.19
394.78	435.19
395.005	419.19
395.229	435.19
395.454	460.19
395.678	448.19
395.903	467.19
396.127	460.19
396.352	450.19
396.576	446.19
396.801	459.19
397.025	451.19
397.249	431.19
397.474	457.19
397.698	452.19
397.922	468.19
398.147	479.19
398.371	465.19
398.595	480.19
398.82	464.19
399.044	510.19
399.268	513.19
399.492	560.19
399.717	582.19
399.941	631.19
400.165	624.19
400.389	631.19
400.613	564.19
400.837	541.19
401.062	498.19
401.286	497.19
401.51	492.19
401.734	492.19
401.958	474.19
402.182	499.19
402.406	503.19
402.63	512.19
402.854	507.19
403.078	481.19
403.302	493.19
403.526	500.19
403.75	483.19
403.974	513.19
404.198	504.19
404.422	528.19
404.645	526.19
404.869	520.19
405.093	552.19
405.317	550.19
405.541	601.19
405.765	547.19
405.988	545.19
406.212	531.19
406.436	544.19
406.66	567.19
406.883	539.19
407.107	586.19
407.331	605.19
407.555	664.19
407.778	663.19
408.002	614.19
408.226	566.19
408.449	555.19
408.673	561.19
408.896	549.19
409.12	597.19
409.344	585.19
409.567	535.19
409.791	518.19
410.014	514.19
410.238	491.19
410.461	499.19
410.685	522.19
410.908	528.19
411.132	544.19
411.355	553.19
411.578	534.19
411.802	511.19
412.025	497.19
412.249	513.19
412.472	519.19
412.695	537.19
412.919	538.19
413.142	492.19
413.365	498.19
413.589	485.19
413.812	468.19
414.035	487.19
414.258	461.19
414.482	464.19
414.705	465.19
414.928	452.19
415.151	453.19
415.374	456.19
415.597	495.19
415.821	467.19
416.044	453.19
416.267	462.19
416.49	463.19
416.713	451.19
416.936	463.19
417.159	435.19
417.382	463.19
417.605	461.19
417.828	480.19
418.051	498.19
418.274	485.19
418.497	479.19
418.72	488.19
418.943	483.19
419.166	484.19
419.389	505.19
419.611	517.19
419.834	477.19
420.057	477.19
420.28	496.19
420.503	491.19
420.726	489.19
420.948	504.19
421.171	525.19
421.394	546.19
421.617	535.19
421.839	494.19
422.062	483.19
422.285	484.19
422.507	542.19
422.73	582.19
422.953	591.19
423.175	520.19
423.398	533.19
423.621	495.19
423.843	524.19
424.066	528.19
424.288	522.19
424.511	546.19
424.733	582.19
424.956	623.19
425.178	625.19
425.401	613.19
425.623	629.19
425.846	525.19
426.068	509.19
426.291	507.19
426.513	502.19
426.735	526.19
426.958	559.19
427.18	612.19
427.402	709.19
427.625	772.19
427.847	656.19
428.069	607.19
428.292	537.19
428.514	518.19
428.736	487.19
428.958	460.19
429.181	475.19
429.403	464.19
429.625	482.19
429.847	500.19
430.069	560.19
430.292	548.19
430.514	479.19
430.736	461.19
430.958	461.19
431.18	459.19
431.402	438.19
431.624	456.19
431.846	444.19
432.068	453.19
432.29	454.19
432.512	441.19
432.734	464.19
432.956	444.19
433.178	471.19
433.4	472.19
433.622	471.19
433.844	451.19
434.066	455.19
434.287	443.19
434.509	445.19
434.731	454.19
434.953	473.19
435.175	495.19
435.397	488.19
435.618	498.19
435.84	531.19
436.062	628.19
436.284	676.19
436.505	573.19
436.727	498.19
436.949	491.19
437.17	489.19
437.392	456.19
437.614	469.19
437.835	486.19
438.057	581.19
438.278	675.19
438.5	628.19
438.721	713.19
438.943	679.19
439.165	547.19
439.386	507.19
439.608	523.19
439.829	495.19
440.05	542.19
440.272	585.19
440.493	523.19
440.715	508.19
440.936	483.19
441.158	467.19
441.379	493.19
441.6	477.19
441.822	517.19
442.043	518.19
442.264	591.19
442.486	637.19
442.707	531.19
442.928	513.19
443.149	505.19
443.371	532.19
443.592	567.19
443.813	643.19
444.034	720.19
444.255	570.19
444.476	519.19
444.698	513.19
444.919	526.19
445.14	621.19
445.361	572.19
445.582	533.19
445.803	584.19
446.024	639.19
446.245	663.19
446.466	618.19
446.687	565.19
446.908	509.19
447.129	473.19
447.35	463.19
447.571	472.19
447.792	460.19
448.013	451.19
448.234	471.19
448.455	525.19
448.675	597.19
448.896	693.19
449.117	591.19
449.338	565.19
449.559	645.19
449.779	722.19
450	588.19
450.221	503.19
450.442	469.19
450.662	455.19
450.883	437.19
451.104	460.19
451.324	453.19
451.545	420.19
451.766	423.19
451.986	427.19
452.207	412.19
452.428	417.19
452.648	419.19
452.869	415.19
453.089	420.19
453.31	417.19
453.53	397.19
453.751	418.19
453.971	423.19
454.192	439.19
454.412	410.19
454.633	401.19
454.853	419.19
455.073	397.19
455.294	417.19
455.514	466.19
455.734	473.19
455.955	433.19
456.175	384.19
456.395	397.19
456.616	389.19
456.836	385.19
457.056	388.19
457.276	383.19
457.497	401.19
457.717	386.19
457.937	398.19
458.157	397.19
458.377	412.19
458.598	434.19
458.818	462.19
459.038	540.19
459.258	541.19
459.478	459.19
459.698	460.19
459.918	456.19
460.138	465.19
460.358	465.19
460.578	464.19
460.798	474.19
461.018	444.19
461.238	456.19
461.458	464.19
461.678	453.19
461.898	462.19
462.118	449.19
462.338	468.19
462.558	470.19
462.777	486.19
462.997	500.19
463.217	525.19
463.437	527.19
463.657	499.19
463.876	481.19
464.096	503.19
464.316	499.19
464.536	477.19
464.755	507.19
464.975	496.19
465.195	530.19
465.414	559.19
465.634	503.19
465.854	455.19
466.073	458.19
466.293	443.19
466.512	420.19
466.732	437.19
466.951	421.19
467.171	421.19
467.391	439.19
467.61	430.19
467.829	446.19
468.049	420.19
468.268	427.19
468.488	426.19
468.707	408.19
468.927	401.19
469.146	398.19
469.365	399.19
469.585	395.19
469.804	433.19
470.023	453.19
470.243	435.19
470.462	436.19
470.681	437.19
470.901	410.19
471.12	437.19
471.339	425.19
471.558	433.19
471.777	427.19
471.997	435.19
472.216	420.19
472.435	434.19
472.654	434.19
472.873	398.19
473.092	435.19
473.311	422.19
473.53	401.19
473.749	433.19
473.968	470.19
474.187	555.19
474.406	570.19
474.625	469.19
474.844	454.19
475.063	439.19
475.282	415.19
475.501	448.19
475.72	439.19
475.939	448.19
476.158	445.19
476.377	456.19
476.596	438.19
476.814	441.19
477.033	437.19
477.252	445.19
477.471	453.19
477.69	462.19
477.908	467.19
478.127	472.19
478.346	463.19
478.564	471.19
478.783	465.19
479.002	490.19
479.22	482.19
479.439	487.19
479.658	509.19
479.876	530.19
480.095	518.19
480.313	551.19
480.532	536.19
480.751	530.19
480.969	522.19
481.188	575.19
481.406	565.19
481.624	541.19
481.843	498.19
482.061	499.19
482.28	501.19
482.498	492.19
482.717	489.19
482.935	487.19
483.153	477.19
483.372	480.19
483.59	484.19
483.808	497.19
484.027	493.19
484.245	482.19
484.463	494.19
484.681	507.19
484.9	504.19
485.118	512.19
485.336	495.19
485.554	493.19
485.772	505.19
485.99	493.19
486.209	519.19
486.427	519.19
486.645	507.19
486.863	540.19
487.081	521.19
487.299	526.19
487.517	538.19
487.735	496.19
487.953	493.19
488.171	541.19
488.389	521.19
488.607	523.19
488.825	525.19
489.043	521.19
489.261	535.19
489.479	539.19
489.696	553.19
489.914	531.19
490.132	512.19
490.35	548.19
490.568	529.19
490.786	554.19
491.003	565.19
491.221	545.19
491.439	584.19
491.657	582.19
491.874	580.19
492.092	604.19
492.31	579.19
492.527	600.19
492.745	583.19
492.963	592.19
493.18	612.19
493.398	616.19
493.615	631.19
493.833	612.19
494.05	597.19
494.268	595.19
494.485	600.19
494.703	602.19
494.92	627.19
495.138	623.19
495.355	608.19
495.573	619.19
495.79	607.19
496.008	613.19
496.225	602.19
496.442	612.19
496.66	623.19
496.877	603.19
497.094	630.19
497.312	635.19
497.529	635.19
497.746	659.19
497.963	656.19
498.181	675.19
498.398	673.19
498.615	716.19
498.832	715.19
499.049	746.19
499.267	774.19
499.484	784.19
499.701	819.19
499.918	851.19
500.135	902.19
500.352	983.19
500.569	961.19
500.786	969.19
501.003	948.19
501.22	909.19
501.437	864.19
501.654	855.19
501.871	833.19
502.088	821.19
