Data from 1977.PennyLincolnUp.Lamp.En5.5.200Scan.071719.P1_HRD10591_16-06-19-868.txt Node
Date: Thu Jul 18 16:06:19 EDT 2019
User: cochatt
Spectrometer: HR+D1059
Trigger mode: 1
Integration Time (sec): 1.000000E-1
Scans to average: 1
Electric dark correction enabled: true
Nonlinearity correction enabled: false
Boxcar width: 0
XAxis mode: Wavelengths
Number of Pixels in Spectrum: 2048
>>>>>Begin Spectral Data<<<<<
223.165	-12.5
223.4	-12.5
223.635	-12.5
223.869	-10.5
224.104	-20.5
224.338	-3.5
224.573	-17.5
224.808	-22.5
225.042	-9.5
225.277	8.5
225.511	2.5
225.746	4.5
225.98	-1.5
226.215	10.5
226.449	9.5
226.683	34.5
226.918	13.5
227.152	14.5
227.387	27.5
227.621	27.5
227.856	49.5
228.09	48.5
228.324	42.5
228.559	63.5
228.793	60.5
229.027	100.5
229.262	105.5
229.496	105.5
229.73	114.5
229.964	137.5
230.199	122.5
230.433	113.5
230.667	125.5
230.901	97.5
231.136	101.5
231.37	113.5
231.604	117.5
231.838	100.5
232.072	104.5
232.306	107.5
232.541	114.5
232.775	117.5
233.009	115.5
233.243	114.5
233.477	109.5
233.711	113.5
233.945	121.5
234.179	109.5
234.413	123.5
234.647	119.5
234.881	130.5
235.115	130.5
235.349	112.5
235.583	120.5
235.817	125.5
236.051	117.5
236.285	121.5
236.519	107.5
236.753	137.5
236.987	120.5
237.221	153.5
237.455	193.5
237.689	154.5
237.922	122.5
238.156	126.5
238.39	145.5
238.624	118.5
238.858	138.5
239.091	121.5
239.325	122.5
239.559	127.5
239.793	122.5
240.027	137.5
240.26	121.5
240.494	164.5
240.728	144.5
240.961	133.5
241.195	139.5
241.429	123.5
241.662	140.5
241.896	129.5
242.13	143.5
242.363	129.5
242.597	137.5
242.83	125.5
243.064	136.5
243.298	141.5
243.531	132.5
243.765	126.5
243.998	134.5
244.232	141.5
244.465	143.5
244.699	129.5
244.932	135.5
245.166	143.5
245.399	150.5
245.633	149.5
245.866	143.5
246.099	158.5
246.333	150.5
246.566	138.5
246.8	138.5
247.033	155.5
247.266	149.5
247.5	169.5
247.733	134.5
247.966	171.5
248.2	171.5
248.433	169.5
248.666	163.5
248.899	160.5
249.133	178.5
249.366	188.5
249.599	178.5
249.832	179.5
250.066	178.5
250.299	197.5
250.532	185.5
250.765	179.5
250.998	217.5
251.231	216.5
251.465	204.5
251.698	202.5
251.931	189.5
252.164	183.5
252.397	182.5
252.63	193.5
252.863	201.5
253.096	200.5
253.329	227.5
253.562	209.5
253.795	212.5
254.028	215.5
254.261	208.5
254.494	212.5
254.727	225.5
254.96	250.5
255.193	253.5
255.426	226.5
255.659	222.5
255.892	214.5
256.124	210.5
256.357	226.5
256.59	233.5
256.823	213.5
257.056	213.5
257.289	201.5
257.521	207.5
257.754	204.5
257.987	209.5
258.22	199.5
258.452	199.5
258.685	201.5
258.918	228.5
259.151	201.5
259.383	211.5
259.616	227.5
259.849	231.5
260.081	243.5
260.314	227.5
260.547	237.5
260.779	252.5
261.012	229.5
261.244	213.5
261.477	228.5
261.71	226.5
261.942	220.5
262.175	228.5
262.407	218.5
262.64	208.5
262.872	212.5
263.105	210.5
263.337	210.5
263.57	229.5
263.802	224.5
264.035	212.5
264.267	221.5
264.499	199.5
264.732	238.5
264.964	210.5
265.197	221.5
265.429	215.5
265.661	214.5
265.894	223.5
266.126	223.5
266.358	214.5
266.591	229.5
266.823	234.5
267.055	219.5
267.287	228.5
267.52	214.5
267.752	233.5
267.984	225.5
268.216	206.5
268.448	232.5
268.681	240.5
268.913	239.5
269.145	252.5
269.377	270.5
269.609	252.5
269.841	260.5
270.073	282.5
270.306	287.5
270.538	300.5
270.77	310.5
271.002	290.5
271.234	278.5
271.466	287.5
271.698	294.5
271.93	305.5
272.162	311.5
272.394	303.5
272.626	293.5
272.858	283.5
273.09	298.5
273.322	285.5
273.553	274.5
273.785	266.5
274.017	285.5
274.249	264.5
274.481	271.5
274.713	268.5
274.945	250.5
275.176	266.5
275.408	277.5
275.64	271.5
275.872	277.5
276.104	271.5
276.335	271.5
276.567	286.5
276.799	281.5
277.031	289.5
277.262	319.5
277.494	303.5
277.726	319.5
277.957	299.5
278.189	296.5
278.421	270.5
278.652	262.5
278.884	284.5
279.115	278.5
279.347	275.5
279.579	270.5
279.81	260.5
280.042	282.5
280.273	287.5
280.505	287.5
280.736	275.5
280.968	267.5
281.199	277.5
281.431	284.5
281.662	270.5
281.894	267.5
282.125	315.5
282.356	285.5
282.588	320.5
282.819	299.5
283.051	295.5
283.282	291.5
283.513	298.5
283.745	266.5
283.976	290.5
284.207	313.5
284.439	295.5
284.67	301.5
284.901	296.5
285.132	305.5
285.364	294.5
285.595	305.5
285.826	302.5
286.057	311.5
286.288	294.5
286.52	297.5
286.751	319.5
286.982	275.5
287.213	315.5
287.444	277.5
287.675	312.5
287.906	305.5
288.138	319.5
288.369	321.5
288.6	317.5
288.831	318.5
289.062	321.5
289.293	309.5
289.524	309.5
289.755	300.5
289.986	291.5
290.217	292.5
290.448	309.5
290.679	314.5
290.91	308.5
291.141	311.5
291.371	307.5
291.602	316.5
291.833	312.5
292.064	294.5
292.295	310.5
292.526	327.5
292.757	299.5
292.987	326.5
293.218	312.5
293.449	319.5
293.68	324.5
293.91	337.5
294.141	299.5
294.372	298.5
294.603	317.5
294.833	323.5
295.064	303.5
295.295	307.5
295.525	282.5
295.756	320.5
295.987	300.5
296.217	312.5
296.448	348.5
296.679	334.5
296.909	317.5
297.14	316.5
297.37	324.5
297.601	312.5
297.831	320.5
298.062	310.5
298.292	325.5
298.523	337.5
298.753	335.5
298.984	321.5
299.214	313.5
299.445	335.5
299.675	332.5
299.905	336.5
300.136	327.5
300.366	327.5
300.597	345.5
300.827	353.5
301.057	339.5
301.288	347.5
301.518	353.5
301.748	343.5
301.979	339.5
302.209	342.5
302.439	358.5
302.669	341.5
302.9	351.5
303.13	355.5
303.36	343.5
303.59	339.5
303.82	353.5
304.051	369.5
304.281	352.5
304.511	331.5
304.741	339.5
304.971	343.5
305.201	361.5
305.431	354.5
305.661	342.5
305.891	334.5
306.121	348.5
306.352	339.5
306.582	351.5
306.812	340.5
307.042	339.5
307.272	351.5
307.502	357.5
307.731	335.5
307.961	363.5
308.191	358.5
308.421	352.5
308.651	351.5
308.881	347.5
309.111	361.5
309.341	365.5
309.571	353.5
309.8	373.5
310.03	372.5
310.26	369.5
310.49	364.5
310.72	365.5
310.949	395.5
311.179	387.5
311.409	386.5
311.639	375.5
311.868	375.5
312.098	388.5
312.328	382.5
312.557	398.5
312.787	396.5
313.017	394.5
313.246	391.5
313.476	377.5
313.706	397.5
313.935	395.5
314.165	408.5
314.394	378.5
314.624	387.5
314.853	392.5
315.083	403.5
315.312	380.5
315.542	377.5
315.771	377.5
316.001	371.5
316.23	373.5
316.46	381.5
316.689	406.5
316.919	392.5
317.148	395.5
317.377	393.5
317.607	390.5
317.836	395.5
318.065	413.5
318.295	389.5
318.524	399.5
318.753	394.5
318.983	391.5
319.212	377.5
319.441	403.5
319.67	408.5
319.9	394.5
320.129	389.5
320.358	390.5
320.587	406.5
320.816	385.5
321.046	401.5
321.275	394.5
321.504	414.5
321.733	415.5
321.962	399.5
322.191	425.5
322.42	412.5
322.649	446.5
322.878	443.5
323.108	456.5
323.337	447.5
323.566	467.5
323.795	491.5
324.024	518.5
324.253	609.5
324.482	821.5
324.71	1189.5
324.939	1639.5
325.168	1378.5
325.397	758.5
325.626	568.5
325.855	497.5
326.084	483.5
326.313	453.5
326.542	493.5
326.77	499.5
326.999	577.5
327.228	761.5
327.457	1061.5
327.686	1194.5
327.914	831.5
328.143	582.5
328.372	573.5
328.6	527.5
328.829	522.5
329.058	510.5
329.287	512.5
329.515	497.5
329.744	476.5
329.972	491.5
330.201	485.5
330.43	526.5
330.658	545.5
330.887	531.5
331.115	519.5
331.344	499.5
331.572	470.5
331.801	477.5
332.03	477.5
332.258	455.5
332.486	458.5
332.715	463.5
332.943	474.5
333.172	463.5
333.4	475.5
333.629	491.5
333.857	483.5
334.085	510.5
334.314	522.5
334.542	489.5
334.771	498.5
334.999	494.5
335.227	490.5
335.455	489.5
335.684	473.5
335.912	453.5
336.14	452.5
336.369	456.5
336.597	474.5
336.825	471.5
337.053	459.5
337.281	444.5
337.51	446.5
337.738	465.5
337.966	455.5
338.194	442.5
338.422	456.5
338.65	443.5
338.878	439.5
339.106	450.5
339.334	430.5
339.562	438.5
339.79	452.5
340.018	443.5
340.246	413.5
340.474	420.5
340.702	441.5
340.93	443.5
341.158	445.5
341.386	433.5
341.614	446.5
341.842	418.5
342.07	431.5
342.298	431.5
342.526	423.5
342.754	427.5
342.981	426.5
343.209	417.5
343.437	443.5
343.665	431.5
343.893	453.5
344.12	465.5
344.348	450.5
344.576	441.5
344.804	468.5
345.031	443.5
345.259	436.5
345.487	429.5
345.714	447.5
345.942	440.5
346.17	427.5
346.397	381.5
346.625	411.5
346.853	399.5
347.08	404.5
347.308	415.5
347.535	408.5
347.763	419.5
347.99	405.5
348.218	433.5
348.445	423.5
348.673	420.5
348.9	400.5
349.128	423.5
349.355	407.5
349.583	407.5
349.81	405.5
350.037	413.5
350.265	395.5
350.492	375.5
350.72	417.5
350.947	398.5
351.174	399.5
351.402	413.5
351.629	406.5
351.856	422.5
352.083	418.5
352.311	443.5
352.538	414.5
352.765	409.5
352.992	411.5
353.22	398.5
353.447	398.5
353.674	407.5
353.901	390.5
354.128	387.5
354.355	399.5
354.583	388.5
354.81	386.5
355.037	396.5
355.264	396.5
355.491	387.5
355.718	386.5
355.945	359.5
356.172	385.5
356.399	393.5
356.626	382.5
356.853	418.5
357.08	403.5
357.307	398.5
357.534	403.5
357.761	389.5
357.988	375.5
358.215	394.5
358.441	388.5
358.668	376.5
358.895	413.5
359.122	399.5
359.349	393.5
359.576	399.5
359.802	415.5
360.029	415.5
360.256	442.5
360.483	417.5
360.709	412.5
360.936	413.5
361.163	399.5
361.39	412.5
361.616	421.5
361.843	407.5
362.07	405.5
362.296	405.5
362.523	410.5
362.749	393.5
362.976	396.5
363.203	387.5
363.429	393.5
363.656	390.5
363.882	371.5
364.109	415.5
364.335	400.5
364.562	380.5
364.788	381.5
365.015	405.5
365.241	397.5
365.468	377.5
365.694	395.5
365.92	393.5
366.147	380.5
366.373	387.5
366.599	367.5
366.826	373.5
367.052	378.5
367.278	383.5
367.505	386.5
367.731	397.5
367.957	389.5
368.184	404.5
368.41	395.5
368.636	385.5
368.862	401.5
369.089	379.5
369.315	389.5
369.541	385.5
369.767	381.5
369.993	399.5
370.219	378.5
370.445	378.5
370.672	389.5
370.898	382.5
371.124	373.5
371.35	385.5
371.576	384.5
371.802	394.5
372.028	401.5
372.254	397.5
372.48	376.5
372.706	384.5
372.932	376.5
373.158	384.5
373.384	406.5
373.61	403.5
373.835	395.5
374.061	382.5
374.287	380.5
374.513	406.5
374.739	395.5
374.965	397.5
375.191	399.5
375.416	409.5
375.642	393.5
375.868	413.5
376.094	382.5
376.319	392.5
376.545	389.5
376.771	400.5
376.997	391.5
377.222	385.5
377.448	391.5
377.674	408.5
377.899	389.5
378.125	369.5
378.35	383.5
378.576	390.5
378.802	348.5
379.027	381.5
379.253	393.5
379.478	377.5
379.704	395.5
379.929	380.5
380.155	361.5
380.38	395.5
380.606	394.5
380.831	381.5
381.057	383.5
381.282	387.5
381.507	399.5
381.733	385.5
381.958	382.5
382.184	388.5
382.409	401.5
382.634	385.5
382.86	390.5
383.085	391.5
383.31	412.5
383.535	418.5
383.761	389.5
383.986	405.5
384.211	413.5
384.436	410.5
384.662	407.5
384.887	400.5
385.112	397.5
385.337	437.5
385.562	422.5
385.787	407.5
386.013	434.5
386.238	425.5
386.463	415.5
386.688	422.5
386.913	417.5
387.138	411.5
387.363	413.5
387.588	415.5
387.813	427.5
388.038	420.5
388.263	397.5
388.488	427.5
388.713	411.5
388.938	431.5
389.163	415.5
389.387	406.5
389.612	402.5
389.837	422.5
390.062	429.5
390.287	411.5
390.512	402.5
390.736	422.5
390.961	423.5
391.186	415.5
391.411	427.5
391.636	434.5
391.86	423.5
392.085	445.5
392.31	440.5
392.534	422.5
392.759	442.5
392.984	435.5
393.208	437.5
393.433	416.5
393.658	439.5
393.882	427.5
394.107	433.5
394.331	455.5
394.556	449.5
394.78	425.5
395.005	435.5
395.229	433.5
395.454	455.5
395.678	457.5
395.903	449.5
396.127	469.5
396.352	467.5
396.576	453.5
396.801	444.5
397.025	438.5
397.249	443.5
397.474	449.5
397.698	465.5
397.922	468.5
398.147	465.5
398.371	475.5
398.595	467.5
398.82	474.5
399.044	491.5
399.268	513.5
399.492	546.5
399.717	596.5
399.941	597.5
400.165	604.5
400.389	611.5
400.613	545.5
400.837	507.5
401.062	488.5
401.286	483.5
401.51	483.5
401.734	500.5
401.958	499.5
402.182	477.5
402.406	494.5
402.63	511.5
402.854	499.5
403.078	479.5
403.302	497.5
403.526	509.5
403.75	502.5
403.974	519.5
404.198	492.5
404.422	510.5
404.645	499.5
404.869	500.5
405.093	504.5
405.317	559.5
405.541	579.5
405.765	578.5
405.988	541.5
406.212	535.5
406.436	534.5
406.66	552.5
406.883	526.5
407.107	564.5
407.331	603.5
407.555	639.5
407.778	639.5
408.002	606.5
408.226	573.5
408.449	567.5
408.673	550.5
408.896	552.5
409.12	629.5
409.344	576.5
409.567	521.5
409.791	519.5
410.014	500.5
410.238	502.5
410.461	508.5
410.685	510.5
410.908	495.5
411.132	537.5
411.355	550.5
411.578	537.5
411.802	486.5
412.025	491.5
412.249	493.5
412.472	516.5
412.695	512.5
412.919	545.5
413.142	510.5
413.365	495.5
413.589	488.5
413.812	486.5
414.035	481.5
414.258	462.5
414.482	477.5
414.705	463.5
414.928	467.5
415.151	462.5
415.374	467.5
415.597	465.5
415.821	451.5
416.044	459.5
416.267	470.5
416.49	479.5
416.713	461.5
416.936	455.5
417.159	466.5
417.382	463.5
417.605	498.5
417.828	489.5
418.051	492.5
418.274	472.5
418.497	465.5
418.72	459.5
418.943	483.5
419.166	467.5
419.389	514.5
419.611	509.5
419.834	481.5
420.057	483.5
420.28	477.5
420.503	464.5
420.726	469.5
420.948	477.5
421.171	522.5
421.394	535.5
421.617	509.5
421.839	468.5
422.062	473.5
422.285	518.5
422.507	549.5
422.73	571.5
422.953	590.5
423.175	506.5
423.398	500.5
423.621	487.5
423.843	521.5
424.066	523.5
424.288	498.5
424.511	533.5
424.733	569.5
424.956	637.5
425.178	594.5
425.401	572.5
425.623	622.5
425.846	542.5
426.068	528.5
426.291	509.5
426.513	499.5
426.735	480.5
426.958	533.5
427.18	601.5
427.402	706.5
427.625	753.5
427.847	645.5
428.069	567.5
428.292	520.5
428.514	502.5
428.736	486.5
428.958	478.5
429.181	457.5
429.403	440.5
429.625	454.5
429.847	498.5
430.069	545.5
430.292	541.5
430.514	484.5
430.736	452.5
430.958	461.5
431.18	439.5
431.402	443.5
431.624	446.5
431.846	442.5
432.068	425.5
432.29	453.5
432.512	444.5
432.734	446.5
432.956	447.5
433.178	457.5
433.4	456.5
433.622	466.5
433.844	425.5
434.066	443.5
434.287	444.5
434.509	440.5
434.731	452.5
434.953	462.5
435.175	478.5
435.397	495.5
435.618	507.5
435.84	520.5
436.062	603.5
436.284	633.5
436.505	545.5
436.727	511.5
436.949	473.5
437.17	491.5
437.392	472.5
437.614	473.5
437.835	477.5
438.057	528.5
438.278	620.5
438.5	654.5
438.721	707.5
438.943	659.5
439.165	550.5
439.386	523.5
439.608	483.5
439.829	483.5
440.05	503.5
440.272	544.5
440.493	525.5
440.715	467.5
440.936	483.5
441.158	454.5
441.379	472.5
441.6	481.5
441.822	485.5
442.043	538.5
442.264	595.5
442.486	622.5
442.707	545.5
442.928	523.5
443.149	538.5
443.371	523.5
443.592	555.5
443.813	647.5
444.034	663.5
444.255	572.5
444.476	510.5
444.698	496.5
444.919	519.5
445.14	618.5
445.361	545.5
445.582	556.5
445.803	581.5
446.024	650.5
446.245	666.5
446.466	603.5
446.687	495.5
446.908	495.5
447.129	474.5
447.35	459.5
447.571	459.5
447.792	429.5
448.013	457.5
448.234	463.5
448.455	507.5
448.675	591.5
448.896	660.5
449.117	577.5
449.338	563.5
449.559	635.5
449.779	686.5
450	567.5
450.221	491.5
450.442	453.5
450.662	457.5
450.883	435.5
451.104	456.5
451.324	433.5
451.545	427.5
451.766	406.5
451.986	393.5
452.207	410.5
452.428	413.5
452.648	407.5
452.869	400.5
453.089	413.5
453.31	413.5
453.53	404.5
453.751	390.5
453.971	412.5
454.192	398.5
454.412	409.5
454.633	399.5
454.853	407.5
455.073	413.5
455.294	415.5
455.514	465.5
455.734	464.5
455.955	391.5
456.175	389.5
456.395	400.5
456.616	385.5
456.836	383.5
457.056	391.5
457.276	378.5
457.497	385.5
457.717	393.5
457.937	383.5
458.157	406.5
458.377	407.5
458.598	430.5
458.818	459.5
459.038	474.5
459.258	510.5
459.478	487.5
459.698	426.5
459.918	440.5
460.138	429.5
460.358	455.5
460.578	451.5
460.798	471.5
461.018	474.5
461.238	435.5
461.458	417.5
461.678	443.5
461.898	465.5
462.118	453.5
462.338	482.5
462.558	483.5
462.777	479.5
462.997	527.5
463.217	533.5
463.437	529.5
463.657	496.5
463.876	500.5
464.096	493.5
464.316	484.5
464.536	478.5
464.755	497.5
464.975	478.5
465.195	510.5
465.414	513.5
465.634	505.5
465.854	469.5
466.073	437.5
466.293	447.5
466.512	394.5
466.732	403.5
466.951	409.5
467.171	393.5
467.391	410.5
467.61	444.5
467.829	427.5
468.049	441.5
468.268	426.5
468.488	416.5
468.707	415.5
468.927	417.5
469.146	397.5
469.365	398.5
469.585	426.5
469.804	429.5
470.023	403.5
470.243	416.5
470.462	424.5
470.681	438.5
470.901	419.5
471.12	402.5
471.339	419.5
471.558	422.5
471.777	446.5
471.997	437.5
472.216	419.5
472.435	424.5
472.654	453.5
472.873	426.5
473.092	428.5
473.311	426.5
473.53	404.5
473.749	423.5
473.968	466.5
474.187	526.5
474.406	565.5
474.625	447.5
474.844	427.5
475.063	422.5
475.282	435.5
475.501	410.5
475.72	433.5
475.939	439.5
476.158	438.5
476.377	427.5
476.596	437.5
476.814	440.5
477.033	413.5
477.252	421.5
477.471	443.5
477.69	445.5
477.908	464.5
478.127	453.5
478.346	467.5
478.564	452.5
478.783	469.5
479.002	490.5
479.22	473.5
479.439	493.5
479.658	517.5
479.876	501.5
480.095	490.5
480.313	524.5
480.532	517.5
480.751	523.5
480.969	542.5
481.188	552.5
481.406	542.5
481.624	511.5
481.843	491.5
482.061	493.5
482.28	477.5
482.498	497.5
482.717	483.5
482.935	492.5
483.153	469.5
483.372	499.5
483.59	481.5
483.808	484.5
484.027	485.5
484.245	475.5
484.463	504.5
484.681	506.5
484.9	486.5
485.118	484.5
485.336	502.5
485.554	494.5
485.772	499.5
485.99	506.5
486.209	490.5
486.427	525.5
486.645	505.5
486.863	530.5
487.081	515.5
487.299	518.5
487.517	510.5
487.735	532.5
487.953	513.5
488.171	525.5
488.389	502.5
488.607	519.5
488.825	533.5
489.043	510.5
489.261	521.5
489.479	520.5
489.696	542.5
489.914	539.5
490.132	541.5
490.35	501.5
490.568	540.5
490.786	569.5
491.003	545.5
491.221	545.5
491.439	555.5
491.657	552.5
491.874	573.5
492.092	568.5
492.31	586.5
492.527	570.5
492.745	551.5
492.963	571.5
493.18	594.5
493.398	608.5
493.615	567.5
493.833	572.5
494.05	604.5
494.268	600.5
494.485	598.5
494.703	590.5
494.92	563.5
495.138	599.5
495.355	597.5
495.573	604.5
495.79	601.5
496.008	598.5
496.225	612.5
496.442	610.5
496.66	602.5
496.877	590.5
497.094	612.5
497.312	625.5
497.529	631.5
497.746	643.5
497.963	648.5
498.181	677.5
498.398	678.5
498.615	691.5
498.832	704.5
499.049	712.5
499.267	750.5
499.484	789.5
499.701	810.5
499.918	817.5
500.135	890.5
500.352	929.5
500.569	937.5
500.786	949.5
501.003	939.5
501.22	902.5
501.437	842.5
501.654	804.5
501.871	794.5
502.088	802.5
502.305	724.5
502.522	718.5
502.739	723.5
502.956	673.5
503.172	637.5
503.389	667.5
503.606	648.5
503.823	622.5
504.04	633.5
504.256	633.5
504.473	640.5
504.69	619.5
504.907	622.5
505.123	609.5
505.34	573.5
505.557	601.5
505.773	581.5
505.99	572.5
506.207	582.5
506.423	572.5
506.64	557.5
506.856	569.5
507.073	558.5
507.289	557.5
507.506	548.5
507.722	544.5
507.939	575.5
508.155	523.5
508.372	523.5
508.588	553.5
508.805	526.5
509.021	551.5
509.238	549.5
509.454	540.5
509.67	538.5
509.887	540.5
510.103	520.5
510.319	536.5
510.536	598.5
510.752	867.5
510.968	699.5
511.184	534.5
511.401	532.5
511.617	492.5
511.833	502.5
512.049	504.5
512.265	509.5
512.481	507.5
512.698	494.5
512.914	516.5
513.13	501.5
513.346	501.5
513.562	505.5
513.778	522.5
513.994	493.5
514.21	493.5
514.426	525.5
514.642	530.5
514.858	565.5
515.074	581.5
515.29	639.5
515.506	842.5
515.721	756.5
515.937	569.5
516.153	551.5
516.369	543.5
516.585	517.5
516.801	535.5
517.016	519.5
517.232	542.5
517.448	556.5
517.664	537.5
517.879	567.5
518.095	553.5
518.311	552.5
518.527	521.5
518.742	517.5
518.958	525.5
519.173	507.5
519.389	515.5
519.605	501.5
519.82	497.5
