Data from 1977.PennyLincolnUp.Lamp.En5.5.200Scan.071719.P1_HRD10591_16-05-54-863.txt Node
Date: Thu Jul 18 16:05:54 EDT 2019
User: cochatt
Spectrometer: HR+D1059
Trigger mode: 1
Integration Time (sec): 1.000000E-1
Scans to average: 1
Electric dark correction enabled: true
Nonlinearity correction enabled: false
Boxcar width: 0
XAxis mode: Wavelengths
Number of Pixels in Spectrum: 2048
>>>>>Begin Spectral Data<<<<<
223.165	-13.81
223.4	-13.81
223.635	-13.81
223.869	-15.81
224.104	-17.81
224.338	-30.81
224.573	-11.81
224.808	-11.81
225.042	-17.81
225.277	2.19
225.511	-1.81
225.746	-10.81
225.98	3.19
226.215	15.19
226.449	25.19
226.683	24.19
226.918	28.19
227.152	34.19
227.387	28.19
227.621	35.19
227.856	47.19
228.09	47.19
228.324	47.19
228.559	71.19
228.793	66.19
229.027	93.19
229.262	93.19
229.496	106.19
229.73	118.19
229.964	142.19
230.199	108.19
230.433	114.19
230.667	106.19
230.901	92.19
231.136	102.19
231.37	110.19
231.604	93.19
231.838	108.19
232.072	110.19
232.306	87.19
232.541	108.19
232.775	109.19
233.009	117.19
233.243	106.19
233.477	106.19
233.711	118.19
233.945	105.19
234.179	103.19
234.413	124.19
234.647	122.19
234.881	120.19
235.115	112.19
235.349	130.19
235.583	121.19
235.817	119.19
236.051	123.19
236.285	105.19
236.519	122.19
236.753	118.19
236.987	132.19
237.221	156.19
237.455	214.19
237.689	176.19
237.922	150.19
238.156	126.19
238.39	120.19
238.624	136.19
238.858	127.19
239.091	122.19
239.325	118.19
239.559	112.19
239.793	114.19
240.027	138.19
240.26	145.19
240.494	134.19
240.728	148.19
240.961	147.19
241.195	143.19
241.429	146.19
241.662	111.19
241.896	128.19
242.13	122.19
242.363	136.19
242.597	118.19
242.83	143.19
243.064	122.19
243.298	145.19
243.531	128.19
243.765	141.19
243.998	133.19
244.232	140.19
244.465	127.19
244.699	144.19
244.932	138.19
245.166	154.19
245.399	150.19
245.633	133.19
245.866	144.19
246.099	151.19
246.333	139.19
246.566	144.19
246.8	151.19
247.033	150.19
247.266	150.19
247.5	153.19
247.733	156.19
247.966	159.19
248.2	157.19
248.433	143.19
248.666	172.19
248.899	163.19
249.133	176.19
249.366	193.19
249.599	181.19
249.832	165.19
250.066	197.19
250.299	178.19
250.532	183.19
250.765	197.19
250.998	194.19
251.231	218.19
251.465	186.19
251.698	187.19
251.931	170.19
252.164	176.19
252.397	201.19
252.63	182.19
252.863	179.19
253.096	197.19
253.329	220.19
253.562	203.19
253.795	211.19
254.028	208.19
254.261	204.19
254.494	208.19
254.727	227.19
254.96	256.19
255.193	247.19
255.426	215.19
255.659	222.19
255.892	219.19
256.124	221.19
256.357	224.19
256.59	202.19
256.823	201.19
257.056	210.19
257.289	213.19
257.521	196.19
257.754	197.19
257.987	201.19
258.22	207.19
258.452	205.19
258.685	197.19
258.918	212.19
259.151	207.19
259.383	214.19
259.616	221.19
259.849	202.19
260.081	208.19
260.314	238.19
260.547	226.19
260.779	222.19
261.012	227.19
261.244	234.19
261.477	230.19
261.71	212.19
261.942	222.19
262.175	223.19
262.407	218.19
262.64	231.19
262.872	229.19
263.105	215.19
263.337	230.19
263.57	205.19
263.802	221.19
264.035	232.19
264.267	197.19
264.499	214.19
264.732	204.19
264.964	220.19
265.197	198.19
265.429	190.19
265.661	212.19
265.894	212.19
266.126	206.19
266.358	216.19
266.591	207.19
266.823	231.19
267.055	213.19
267.287	224.19
267.52	226.19
267.752	235.19
267.984	238.19
268.216	222.19
268.448	235.19
268.681	227.19
268.913	234.19
269.145	235.19
269.377	265.19
269.609	258.19
269.841	255.19
270.073	254.19
270.306	284.19
270.538	291.19
270.77	298.19
271.002	278.19
271.234	275.19
271.466	288.19
271.698	296.19
271.93	286.19
272.162	294.19
272.394	288.19
272.626	284.19
272.858	281.19
273.09	273.19
273.322	273.19
273.553	265.19
273.785	255.19
274.017	262.19
274.249	255.19
274.481	247.19
274.713	260.19
274.945	260.19
275.176	268.19
275.408	263.19
275.64	272.19
275.872	258.19
276.104	242.19
276.335	260.19
276.567	266.19
276.799	280.19
277.031	295.19
277.262	294.19
277.494	295.19
277.726	284.19
277.957	276.19
278.189	282.19
278.421	268.19
278.652	294.19
278.884	254.19
279.115	281.19
279.347	270.19
279.579	256.19
279.81	264.19
280.042	280.19
280.273	281.19
280.505	277.19
280.736	271.19
280.968	270.19
281.199	277.19
281.431	262.19
281.662	264.19
281.894	289.19
282.125	287.19
282.356	294.19
282.588	299.19
282.819	298.19
283.051	292.19
283.282	292.19
283.513	267.19
283.745	274.19
283.976	298.19
284.207	284.19
284.439	287.19
284.67	294.19
284.901	284.19
285.132	287.19
285.364	290.19
285.595	279.19
285.826	288.19
286.057	292.19
286.288	282.19
286.52	312.19
286.751	323.19
286.982	326.19
287.213	300.19
287.444	296.19
287.675	303.19
287.906	317.19
288.138	310.19
288.369	322.19
288.6	312.19
288.831	291.19
289.062	306.19
289.293	294.19
289.524	297.19
289.755	298.19
289.986	284.19
290.217	314.19
290.448	305.19
290.679	311.19
290.91	310.19
291.141	303.19
291.371	311.19
291.602	285.19
291.833	300.19
292.064	299.19
292.295	300.19
292.526	293.19
292.757	297.19
292.987	300.19
293.218	313.19
293.449	290.19
293.68	310.19
293.91	312.19
294.141	303.19
294.372	290.19
294.603	307.19
294.833	300.19
295.064	301.19
295.295	308.19
295.525	290.19
295.756	317.19
295.987	331.19
296.217	332.19
296.448	340.19
296.679	313.19
296.909	297.19
297.14	315.19
297.37	320.19
297.601	316.19
297.831	330.19
298.062	330.19
298.292	319.19
298.523	316.19
298.753	326.19
298.984	303.19
299.214	340.19
299.445	326.19
299.675	338.19
299.905	333.19
300.136	343.19
300.366	315.19
300.597	322.19
300.827	335.19
301.057	320.19
301.288	349.19
301.518	328.19
301.748	349.19
301.979	335.19
302.209	339.19
302.439	354.19
302.669	340.19
302.9	316.19
303.13	331.19
303.36	361.19
303.59	368.19
303.82	366.19
304.051	342.19
304.281	354.19
304.511	331.19
304.741	318.19
304.971	357.19
305.201	353.19
305.431	331.19
305.661	355.19
305.891	354.19
306.121	350.19
306.352	354.19
306.582	342.19
306.812	328.19
307.042	348.19
307.272	352.19
307.502	350.19
307.731	353.19
307.961	343.19
308.191	329.19
308.421	338.19
308.651	332.19
308.881	355.19
309.111	337.19
309.341	339.19
309.571	358.19
309.8	352.19
310.03	365.19
310.26	362.19
310.49	366.19
310.72	364.19
310.949	376.19
311.179	388.19
311.409	388.19
311.639	389.19
311.868	380.19
312.098	371.19
312.328	379.19
312.557	382.19
312.787	380.19
313.017	372.19
313.246	374.19
313.476	381.19
313.706	383.19
313.935	386.19
314.165	406.19
314.394	396.19
314.624	386.19
314.853	370.19
315.083	389.19
315.312	389.19
315.542	382.19
315.771	377.19
316.001	373.19
316.23	381.19
316.46	380.19
316.689	383.19
316.919	378.19
317.148	375.19
317.377	374.19
317.607	380.19
317.836	374.19
318.065	378.19
318.295	384.19
318.524	383.19
318.753	378.19
318.983	389.19
319.212	373.19
319.441	385.19
319.67	404.19
319.9	392.19
320.129	387.19
320.358	369.19
320.587	378.19
320.816	386.19
321.046	404.19
321.275	391.19
321.504	402.19
321.733	392.19
321.962	386.19
322.191	410.19
322.42	425.19
322.649	425.19
322.878	411.19
323.108	424.19
323.337	448.19
323.566	446.19
323.795	468.19
324.024	541.19
324.253	585.19
324.482	781.19
324.71	1162.19
324.939	1622.19
325.168	1366.19
325.397	742.19
325.626	542.19
325.855	482.19
326.084	468.19
326.313	463.19
326.542	464.19
326.77	510.19
326.999	555.19
327.228	744.19
327.457	1022.19
327.686	1184.19
327.914	838.19
328.143	594.19
328.372	522.19
328.6	501.19
328.829	506.19
329.058	509.19
329.287	491.19
329.515	484.19
329.744	462.19
329.972	463.19
330.201	464.19
330.43	486.19
330.658	523.19
330.887	546.19
331.115	527.19
331.344	465.19
331.572	474.19
331.801	464.19
332.03	466.19
332.258	458.19
332.486	441.19
332.715	467.19
332.943	437.19
333.172	465.19
333.4	446.19
333.629	458.19
333.857	472.19
334.085	493.19
334.314	507.19
334.542	493.19
334.771	514.19
334.999	490.19
335.227	473.19
335.455	461.19
335.684	461.19
335.912	446.19
336.14	455.19
336.369	437.19
336.597	455.19
336.825	474.19
337.053	447.19
337.281	431.19
337.51	454.19
337.738	446.19
337.966	430.19
338.194	439.19
338.422	437.19
338.65	448.19
338.878	444.19
339.106	439.19
339.334	435.19
339.562	447.19
339.79	416.19
340.018	424.19
340.246	416.19
340.474	423.19
340.702	437.19
340.93	427.19
341.158	423.19
341.386	416.19
341.614	432.19
341.842	447.19
342.07	431.19
342.298	418.19
342.526	414.19
342.754	404.19
342.981	428.19
343.209	427.19
343.437	429.19
343.665	444.19
343.893	416.19
344.12	440.19
344.348	426.19
344.576	436.19
344.804	430.19
345.031	436.19
345.259	440.19
345.487	438.19
345.714	426.19
345.942	419.19
346.17	427.19
346.397	435.19
346.625	419.19
346.853	427.19
347.08	387.19
347.308	398.19
347.535	398.19
347.763	436.19
347.99	410.19
348.218	411.19
348.445	426.19
348.673	397.19
348.9	415.19
349.128	401.19
349.355	392.19
349.583	395.19
349.81	399.19
350.037	390.19
350.265	392.19
350.492	419.19
350.72	394.19
350.947	409.19
351.174	387.19
351.402	391.19
351.629	399.19
351.856	383.19
352.083	392.19
352.311	421.19
352.538	403.19
352.765	412.19
352.992	400.19
353.22	395.19
353.447	394.19
353.674	372.19
353.901	387.19
354.128	380.19
354.355	379.19
354.583	399.19
354.81	388.19
355.037	392.19
355.264	363.19
355.491	384.19
355.718	380.19
355.945	374.19
356.172	375.19
356.399	395.19
356.626	375.19
356.853	380.19
357.08	367.19
357.307	376.19
357.534	378.19
357.761	375.19
357.988	381.19
358.215	368.19
358.441	374.19
358.668	374.19
358.895	378.19
359.122	390.19
359.349	382.19
359.576	392.19
359.802	410.19
360.029	403.19
360.256	429.19
360.483	404.19
360.709	382.19
360.936	387.19
361.163	382.19
361.39	406.19
361.616	406.19
361.843	388.19
362.07	384.19
362.296	381.19
362.523	389.19
362.749	400.19
362.976	394.19
363.203	395.19
363.429	377.19
363.656	410.19
363.882	394.19
364.109	389.19
364.335	384.19
364.562	372.19
364.788	382.19
365.015	389.19
365.241	380.19
365.468	382.19
365.694	374.19
365.92	372.19
366.147	380.19
366.373	387.19
366.599	394.19
366.826	373.19
367.052	377.19
367.278	379.19
367.505	383.19
367.731	382.19
367.957	379.19
368.184	377.19
368.41	393.19
368.636	378.19
368.862	394.19
369.089	394.19
369.315	394.19
369.541	382.19
369.767	377.19
369.993	371.19
370.219	381.19
370.445	375.19
370.672	373.19
370.898	392.19
371.124	384.19
371.35	353.19
371.576	374.19
371.802	378.19
372.028	374.19
372.254	378.19
372.48	379.19
372.706	390.19
372.932	380.19
373.158	379.19
373.384	391.19
373.61	392.19
373.835	393.19
374.061	378.19
374.287	378.19
374.513	391.19
374.739	385.19
374.965	371.19
375.191	403.19
375.416	398.19
375.642	390.19
375.868	391.19
376.094	382.19
376.319	372.19
376.545	368.19
376.771	366.19
376.997	378.19
377.222	395.19
377.448	376.19
377.674	377.19
377.899	364.19
378.125	360.19
378.35	382.19
378.576	372.19
378.802	361.19
379.027	364.19
379.253	371.19
379.478	380.19
379.704	388.19
379.929	406.19
380.155	380.19
380.38	388.19
380.606	363.19
380.831	364.19
381.057	386.19
381.282	379.19
381.507	364.19
381.733	384.19
381.958	394.19
382.184	397.19
382.409	402.19
382.634	395.19
382.86	382.19
383.085	407.19
383.31	394.19
383.535	397.19
383.761	407.19
383.986	412.19
384.211	408.19
384.436	399.19
384.662	415.19
384.887	405.19
385.112	404.19
385.337	420.19
385.562	419.19
385.787	421.19
386.013	449.19
386.238	438.19
386.463	415.19
386.688	427.19
386.913	399.19
387.138	414.19
387.363	417.19
387.588	401.19
387.813	421.19
388.038	415.19
388.263	434.19
388.488	429.19
388.713	418.19
388.938	430.19
389.163	408.19
389.387	421.19
389.612	419.19
389.837	415.19
390.062	413.19
390.287	399.19
390.512	388.19
390.736	418.19
390.961	416.19
391.186	423.19
391.411	423.19
391.636	412.19
391.86	441.19
392.085	425.19
392.31	418.19
392.534	451.19
392.759	414.19
392.984	428.19
393.208	409.19
393.433	422.19
393.658	420.19
393.882	410.19
394.107	406.19
394.331	418.19
394.556	423.19
394.78	408.19
395.005	424.19
395.229	439.19
395.454	417.19
395.678	434.19
395.903	447.19
396.127	474.19
396.352	461.19
396.576	442.19
396.801	428.19
397.025	440.19
397.249	446.19
397.474	429.19
397.698	442.19
397.922	446.19
398.147	447.19
398.371	453.19
398.595	465.19
398.82	476.19
399.044	490.19
399.268	523.19
399.492	560.19
399.717	564.19
399.941	592.19
400.165	589.19
400.389	601.19
400.613	542.19
400.837	510.19
401.062	505.19
401.286	494.19
401.51	489.19
401.734	476.19
401.958	455.19
402.182	472.19
402.406	477.19
402.63	491.19
402.854	492.19
403.078	484.19
403.302	496.19
403.526	493.19
403.75	499.19
403.974	491.19
404.198	491.19
404.422	488.19
404.645	496.19
404.869	499.19
405.093	528.19
405.317	542.19
405.541	578.19
405.765	558.19
405.988	529.19
406.212	524.19
406.436	526.19
406.66	525.19
406.883	534.19
407.107	544.19
407.331	567.19
407.555	614.19
407.778	617.19
408.002	571.19
408.226	561.19
408.449	519.19
408.673	540.19
408.896	548.19
409.12	588.19
409.344	577.19
409.567	494.19
409.791	502.19
410.014	491.19
410.238	468.19
410.461	485.19
410.685	476.19
410.908	488.19
411.132	514.19
411.355	536.19
411.578	539.19
411.802	515.19
412.025	496.19
412.249	523.19
412.472	509.19
412.695	508.19
412.919	515.19
413.142	485.19
413.365	466.19
413.589	491.19
413.812	474.19
414.035	461.19
414.258	444.19
414.482	466.19
414.705	479.19
414.928	458.19
415.151	467.19
415.374	468.19
415.597	468.19
415.821	439.19
416.044	447.19
416.267	460.19
416.49	461.19
416.713	452.19
416.936	456.19
417.159	437.19
417.382	450.19
417.605	482.19
417.828	451.19
418.051	467.19
418.274	461.19
418.497	452.19
418.72	455.19
418.943	431.19
419.166	471.19
419.389	502.19
419.611	478.19
419.834	479.19
420.057	499.19
420.28	483.19
420.503	474.19
420.726	472.19
420.948	472.19
421.171	508.19
421.394	531.19
421.617	491.19
421.839	484.19
422.062	485.19
422.285	499.19
422.507	543.19
422.73	578.19
422.953	556.19
423.175	493.19
423.398	492.19
423.621	482.19
423.843	479.19
424.066	510.19
424.288	488.19
424.511	508.19
424.733	538.19
424.956	607.19
425.178	598.19
425.401	570.19
425.623	601.19
425.846	518.19
426.068	496.19
426.291	486.19
426.513	497.19
426.735	508.19
426.958	542.19
427.18	583.19
427.402	706.19
427.625	738.19
427.847	649.19
428.069	554.19
428.292	525.19
428.514	487.19
428.736	463.19
428.958	442.19
429.181	453.19
429.403	463.19
429.625	478.19
429.847	488.19
430.069	523.19
430.292	546.19
430.514	448.19
430.736	442.19
430.958	438.19
431.18	424.19
431.402	428.19
431.624	452.19
431.846	424.19
432.068	434.19
432.29	430.19
432.512	420.19
432.734	429.19
432.956	472.19
433.178	435.19
433.4	442.19
433.622	437.19
433.844	430.19
434.066	423.19
434.287	437.19
434.509	452.19
434.731	470.19
434.953	465.19
435.175	469.19
435.397	483.19
435.618	483.19
435.84	509.19
436.062	601.19
436.284	652.19
436.505	518.19
436.727	484.19
436.949	466.19
437.17	451.19
437.392	464.19
437.614	447.19
437.835	491.19
438.057	548.19
438.278	610.19
438.5	619.19
438.721	675.19
438.943	644.19
439.165	556.19
439.386	491.19
439.608	479.19
439.829	488.19
440.05	492.19
440.272	529.19
440.493	496.19
440.715	461.19
440.936	486.19
441.158	445.19
441.379	465.19
441.6	488.19
441.822	488.19
442.043	524.19
442.264	589.19
442.486	600.19
442.707	534.19
442.928	486.19
443.149	490.19
443.371	501.19
443.592	547.19
443.813	604.19
444.034	672.19
444.255	568.19
444.476	514.19
444.698	521.19
444.919	511.19
445.14	602.19
445.361	561.19
445.582	534.19
445.803	553.19
446.024	638.19
446.245	654.19
446.466	582.19
446.687	494.19
446.908	482.19
447.129	469.19
447.35	456.19
447.571	467.19
447.792	440.19
448.013	447.19
448.234	448.19
448.455	491.19
448.675	570.19
448.896	650.19
449.117	543.19
449.338	540.19
449.559	634.19
449.779	693.19
450	560.19
450.221	463.19
450.442	443.19
450.662	426.19
450.883	449.19
451.104	430.19
451.324	430.19
451.545	412.19
451.766	429.19
451.986	398.19
452.207	402.19
452.428	388.19
452.648	438.19
452.869	382.19
453.089	408.19
453.31	402.19
453.53	390.19
453.751	403.19
453.971	398.19
454.192	420.19
454.412	402.19
454.633	383.19
454.853	382.19
455.073	416.19
455.294	408.19
455.514	453.19
455.734	440.19
455.955	408.19
456.175	383.19
456.395	391.19
456.616	369.19
456.836	385.19
457.056	386.19
457.276	378.19
457.497	393.19
457.717	374.19
457.937	349.19
458.157	410.19
458.377	402.19
458.598	415.19
458.818	445.19
459.038	510.19
459.258	510.19
459.478	450.19
459.698	446.19
459.918	418.19
460.138	452.19
460.358	433.19
460.578	444.19
460.798	461.19
461.018	468.19
461.238	444.19
461.458	446.19
461.678	455.19
461.898	456.19
462.118	451.19
462.338	464.19
462.558	455.19
462.777	492.19
462.997	505.19
463.217	491.19
463.437	496.19
463.657	526.19
463.876	489.19
464.096	488.19
464.316	485.19
464.536	491.19
464.755	487.19
464.975	456.19
465.195	514.19
465.414	519.19
465.634	457.19
465.854	447.19
466.073	435.19
466.293	411.19
466.512	411.19
466.732	411.19
466.951	419.19
467.171	407.19
467.391	413.19
467.61	416.19
467.829	430.19
468.049	393.19
468.268	414.19
468.488	395.19
468.707	380.19
468.927	404.19
469.146	388.19
469.365	387.19
469.585	416.19
469.804	409.19
470.023	421.19
470.243	414.19
470.462	431.19
470.681	426.19
470.901	428.19
471.12	418.19
471.339	412.19
471.558	426.19
471.777	414.19
471.997	407.19
472.216	398.19
472.435	423.19
472.654	425.19
472.873	402.19
473.092	390.19
473.311	415.19
473.53	404.19
473.749	406.19
473.968	457.19
474.187	540.19
474.406	502.19
474.625	455.19
474.844	420.19
475.063	418.19
475.282	420.19
475.501	412.19
475.72	418.19
475.939	422.19
476.158	406.19
476.377	427.19
476.596	428.19
476.814	431.19
477.033	431.19
477.252	442.19
477.471	436.19
477.69	438.19
477.908	465.19
478.127	450.19
478.346	445.19
478.564	460.19
478.783	474.19
479.002	477.19
479.22	464.19
479.439	474.19
479.658	496.19
479.876	473.19
480.095	502.19
480.313	495.19
480.532	510.19
480.751	512.19
480.969	520.19
481.188	539.19
481.406	543.19
481.624	503.19
481.843	492.19
482.061	490.19
482.28	490.19
482.498	480.19
482.717	472.19
482.935	486.19
483.153	481.19
483.372	463.19
483.59	478.19
483.808	467.19
484.027	482.19
484.245	474.19
484.463	467.19
484.681	490.19
484.9	470.19
485.118	468.19
485.336	484.19
485.554	471.19
485.772	487.19
485.99	500.19
486.209	482.19
486.427	481.19
486.645	475.19
486.863	516.19
487.081	535.19
487.299	501.19
487.517	503.19
487.735	504.19
487.953	505.19
488.171	518.19
488.389	510.19
488.607	482.19
488.825	508.19
489.043	486.19
489.261	493.19
489.479	517.19
489.696	536.19
489.914	513.19
490.132	532.19
490.35	526.19
490.568	537.19
490.786	540.19
491.003	547.19
491.221	539.19
491.439	542.19
491.657	556.19
491.874	551.19
492.092	572.19
492.31	550.19
492.527	566.19
492.745	575.19
492.963	562.19
493.18	571.19
493.398	583.19
493.615	586.19
493.833	582.19
494.05	577.19
494.268	560.19
494.485	562.19
494.703	586.19
494.92	586.19
495.138	591.19
495.355	604.19
495.573	577.19
495.79	595.19
496.008	604.19
496.225	579.19
496.442	600.19
496.66	600.19
496.877	599.19
497.094	589.19
497.312	585.19
497.529	582.19
497.746	617.19
497.963	628.19
498.181	675.19
498.398	654.19
498.615	672.19
498.832	703.19
499.049	739.19
499.267	743.19
499.484	779.19
499.701	822.19
499.918	810.19
500.135	856.19
500.352	907.19
500.569	932.19
500.786	955.19
501.003	923.19
501.22	861.19
501.437	832.19
501.654	791.19
501.871	777.19
