Data from 1977.PennyLincolnUp.Lamp.En5.5.200Scan.071719.P1_HRD10591_16-05-26-864.txt Node
Date: Thu Jul 18 16:05:26 EDT 2019
User: cochatt
Spectrometer: HR+D1059
Trigger mode: 1
Integration Time (sec): 1.000000E-1
Scans to average: 1
Electric dark correction enabled: true
Nonlinearity correction enabled: false
Boxcar width: 0
XAxis mode: Wavelengths
Number of Pixels in Spectrum: 2048
>>>>>Begin Spectral Data<<<<<
223.165	-16.5
223.4	-16.5
223.635	-16.5
223.869	-12.5
224.104	-24.5
224.338	-12.5
224.573	1.5
224.808	-24.5
225.042	-10.5
225.277	-30.5
225.511	11.5
225.746	-0.5
225.98	8.5
226.215	11.5
226.449	17.5
226.683	34.5
226.918	32.5
227.152	14.5
227.387	37.5
227.621	36.5
227.856	43.5
228.09	44.5
228.324	52.5
228.559	53.5
228.793	59.5
229.027	90.5
229.262	96.5
229.496	108.5
229.73	112.5
229.964	123.5
230.199	109.5
230.433	109.5
230.667	112.5
230.901	111.5
231.136	124.5
231.37	116.5
231.604	108.5
231.838	115.5
232.072	113.5
232.306	115.5
232.541	112.5
232.775	113.5
233.009	117.5
233.243	102.5
233.477	102.5
233.711	112.5
233.945	103.5
234.179	99.5
234.413	119.5
234.647	116.5
234.881	93.5
235.115	124.5
235.349	127.5
235.583	103.5
235.817	102.5
236.051	127.5
236.285	119.5
236.519	116.5
236.753	127.5
236.987	127.5
237.221	150.5
237.455	172.5
237.689	151.5
237.922	124.5
238.156	125.5
238.39	128.5
238.624	126.5
238.858	123.5
239.091	121.5
239.325	128.5
239.559	120.5
239.793	124.5
240.027	129.5
240.26	123.5
240.494	142.5
240.728	145.5
240.961	148.5
241.195	124.5
241.429	131.5
241.662	137.5
241.896	121.5
242.13	123.5
242.363	143.5
242.597	121.5
242.83	142.5
243.064	137.5
243.298	141.5
243.531	144.5
243.765	130.5
243.998	139.5
244.232	131.5
244.465	135.5
244.699	130.5
244.932	140.5
245.166	130.5
245.399	160.5
245.633	137.5
245.866	149.5
246.099	131.5
246.333	160.5
246.566	139.5
246.8	167.5
247.033	145.5
247.266	151.5
247.5	146.5
247.733	161.5
247.966	155.5
248.2	149.5
248.433	152.5
248.666	165.5
248.899	176.5
249.133	168.5
249.366	184.5
249.599	174.5
249.832	160.5
250.066	174.5
250.299	167.5
250.532	183.5
250.765	181.5
250.998	199.5
251.231	204.5
251.465	186.5
251.698	187.5
251.931	195.5
252.164	192.5
252.397	206.5
252.63	186.5
252.863	185.5
253.096	183.5
253.329	192.5
253.562	187.5
253.795	204.5
254.028	193.5
254.261	202.5
254.494	203.5
254.727	216.5
254.96	218.5
255.193	226.5
255.426	228.5
255.659	220.5
255.892	203.5
256.124	226.5
256.357	222.5
256.59	212.5
256.823	189.5
257.056	200.5
257.289	213.5
257.521	188.5
257.754	197.5
257.987	190.5
258.22	202.5
258.452	212.5
258.685	200.5
258.918	205.5
259.151	216.5
259.383	221.5
259.616	197.5
259.849	218.5
260.081	213.5
260.314	229.5
260.547	232.5
260.779	227.5
261.012	218.5
261.244	217.5
261.477	234.5
261.71	220.5
261.942	224.5
262.175	197.5
262.407	206.5
262.64	215.5
262.872	215.5
263.105	206.5
263.337	213.5
263.57	213.5
263.802	207.5
264.035	202.5
264.267	216.5
264.499	209.5
264.732	204.5
264.964	206.5
265.197	217.5
265.429	222.5
265.661	209.5
265.894	229.5
266.126	222.5
266.358	231.5
266.591	219.5
266.823	209.5
267.055	223.5
267.287	219.5
267.52	208.5
267.752	228.5
267.984	224.5
268.216	231.5
268.448	241.5
268.681	232.5
268.913	229.5
269.145	265.5
269.377	259.5
269.609	261.5
269.841	253.5
270.073	267.5
270.306	252.5
270.538	283.5
270.77	279.5
271.002	289.5
271.234	271.5
271.466	281.5
271.698	289.5
271.93	292.5
272.162	292.5
272.394	282.5
272.626	278.5
272.858	280.5
273.09	272.5
273.322	274.5
273.553	232.5
273.785	263.5
274.017	257.5
274.249	264.5
274.481	272.5
274.713	271.5
274.945	254.5
275.176	261.5
275.408	253.5
275.64	259.5
275.872	269.5
276.104	261.5
276.335	268.5
276.567	281.5
276.799	275.5
277.031	289.5
277.262	284.5
277.494	281.5
277.726	291.5
277.957	280.5
278.189	287.5
278.421	276.5
278.652	282.5
278.884	282.5
279.115	285.5
279.347	282.5
279.579	262.5
279.81	283.5
280.042	272.5
280.273	255.5
280.505	256.5
280.736	263.5
280.968	257.5
281.199	270.5
281.431	283.5
281.662	289.5
281.894	293.5
282.125	283.5
282.356	291.5
282.588	300.5
282.819	274.5
283.051	273.5
283.282	293.5
283.513	290.5
283.745	301.5
283.976	280.5
284.207	283.5
284.439	297.5
284.67	290.5
284.901	297.5
285.132	281.5
285.364	292.5
285.595	291.5
285.826	291.5
286.057	288.5
286.288	296.5
286.52	282.5
286.751	288.5
286.982	291.5
287.213	291.5
287.444	289.5
287.675	298.5
287.906	315.5
288.138	313.5
288.369	307.5
288.6	298.5
288.831	292.5
289.062	316.5
289.293	311.5
289.524	296.5
289.755	296.5
289.986	318.5
290.217	304.5
290.448	306.5
290.679	309.5
290.91	288.5
291.141	304.5
291.371	299.5
291.602	323.5
291.833	294.5
292.064	288.5
292.295	300.5
292.526	295.5
292.757	299.5
292.987	312.5
293.218	309.5
293.449	311.5
293.68	308.5
293.91	287.5
294.141	326.5
294.372	315.5
294.603	302.5
294.833	308.5
295.064	314.5
295.295	289.5
295.525	310.5
295.756	318.5
295.987	320.5
296.217	333.5
296.448	325.5
296.679	311.5
296.909	317.5
297.14	315.5
297.37	323.5
297.601	328.5
297.831	323.5
298.062	329.5
298.292	312.5
298.523	305.5
298.753	295.5
298.984	307.5
299.214	323.5
299.445	313.5
299.675	316.5
299.905	344.5
300.136	310.5
300.366	330.5
300.597	331.5
300.827	336.5
301.057	318.5
301.288	334.5
301.518	322.5
301.748	331.5
301.979	343.5
302.209	336.5
302.439	353.5
302.669	331.5
302.9	344.5
303.13	334.5
303.36	331.5
303.59	340.5
303.82	342.5
304.051	323.5
304.281	334.5
304.511	348.5
304.741	333.5
304.971	346.5
305.201	347.5
305.431	335.5
305.661	340.5
305.891	337.5
306.121	350.5
306.352	333.5
306.582	328.5
306.812	340.5
307.042	344.5
307.272	333.5
307.502	359.5
307.731	341.5
307.961	335.5
308.191	314.5
308.421	356.5
308.651	356.5
308.881	356.5
309.111	341.5
309.341	374.5
309.571	360.5
309.8	362.5
310.03	344.5
310.26	367.5
310.49	359.5
310.72	364.5
310.949	365.5
311.179	391.5
311.409	376.5
311.639	383.5
311.868	368.5
312.098	389.5
312.328	375.5
312.557	368.5
312.787	381.5
313.017	377.5
313.246	378.5
313.476	396.5
313.706	373.5
313.935	394.5
314.165	381.5
314.394	396.5
314.624	368.5
314.853	377.5
315.083	383.5
315.312	387.5
315.542	375.5
315.771	369.5
316.001	366.5
316.23	373.5
316.46	368.5
316.689	363.5
316.919	367.5
317.148	392.5
317.377	382.5
317.607	375.5
317.836	391.5
318.065	392.5
318.295	383.5
318.524	382.5
318.753	377.5
318.983	368.5
319.212	361.5
319.441	391.5
319.67	375.5
319.9	366.5
320.129	366.5
320.358	361.5
320.587	362.5
320.816	382.5
321.046	395.5
321.275	398.5
321.504	401.5
321.733	392.5
321.962	385.5
322.191	401.5
322.42	413.5
322.649	412.5
322.878	408.5
323.108	419.5
323.337	425.5
323.566	459.5
323.795	455.5
324.024	474.5
324.253	558.5
324.482	702.5
324.71	1044.5
324.939	1413.5
325.168	1225.5
325.397	695.5
325.626	511.5
325.855	470.5
326.084	464.5
326.313	445.5
326.542	458.5
326.77	491.5
326.999	538.5
327.228	688.5
327.457	909.5
327.686	1057.5
327.914	740.5
328.143	552.5
328.372	493.5
328.6	494.5
328.829	488.5
329.058	490.5
329.287	475.5
329.515	460.5
329.744	456.5
329.972	464.5
330.201	446.5
330.43	486.5
330.658	492.5
330.887	479.5
331.115	483.5
331.344	455.5
331.572	455.5
331.801	435.5
332.03	452.5
332.258	459.5
332.486	453.5
332.715	458.5
332.943	446.5
333.172	439.5
333.4	469.5
333.629	469.5
333.857	482.5
334.085	485.5
334.314	466.5
334.542	494.5
334.771	508.5
334.999	482.5
335.227	477.5
335.455	474.5
335.684	443.5
335.912	443.5
336.14	429.5
336.369	441.5
336.597	447.5
336.825	432.5
337.053	435.5
337.281	432.5
337.51	453.5
337.738	433.5
337.966	423.5
338.194	436.5
338.422	445.5
338.65	424.5
338.878	435.5
339.106	414.5
339.334	429.5
339.562	412.5
339.79	418.5
340.018	409.5
340.246	434.5
340.474	417.5
340.702	419.5
340.93	422.5
341.158	413.5
341.386	420.5
341.614	412.5
341.842	428.5
342.07	415.5
342.298	409.5
342.526	411.5
342.754	407.5
342.981	422.5
343.209	402.5
343.437	430.5
343.665	429.5
343.893	449.5
344.12	440.5
344.348	448.5
344.576	434.5
344.804	416.5
345.031	423.5
345.259	426.5
345.487	427.5
345.714	424.5
345.942	406.5
346.17	409.5
346.397	398.5
346.625	379.5
346.853	401.5
347.08	396.5
347.308	395.5
347.535	393.5
347.763	387.5
347.99	400.5
348.218	403.5
348.445	407.5
348.673	382.5
348.9	414.5
349.128	378.5
349.355	406.5
349.583	429.5
349.81	383.5
350.037	392.5
350.265	408.5
350.492	375.5
350.72	377.5
350.947	388.5
351.174	406.5
351.402	396.5
351.629	414.5
351.856	400.5
352.083	405.5
352.311	383.5
352.538	419.5
352.765	415.5
352.992	375.5
353.22	387.5
353.447	383.5
353.674	383.5
353.901	372.5
354.128	382.5
354.355	381.5
354.583	369.5
354.81	385.5
355.037	366.5
355.264	389.5
355.491	366.5
355.718	377.5
355.945	373.5
356.172	377.5
356.399	365.5
356.626	364.5
356.853	381.5
357.08	397.5
357.307	382.5
357.534	383.5
357.761	369.5
357.988	370.5
358.215	373.5
358.441	391.5
358.668	385.5
358.895	377.5
359.122	383.5
359.349	384.5
359.576	377.5
359.802	408.5
360.029	400.5
360.256	421.5
360.483	403.5
360.709	398.5
360.936	371.5
361.163	382.5
361.39	379.5
361.616	406.5
361.843	401.5
362.07	397.5
362.296	392.5
362.523	395.5
362.749	388.5
362.976	386.5
363.203	392.5
363.429	381.5
363.656	381.5
363.882	391.5
364.109	377.5
364.335	374.5
364.562	388.5
364.788	357.5
365.015	378.5
365.241	385.5
365.468	381.5
365.694	384.5
365.92	384.5
366.147	378.5
366.373	374.5
366.599	393.5
366.826	383.5
367.052	371.5
367.278	375.5
367.505	375.5
367.731	371.5
367.957	392.5
368.184	379.5
368.41	386.5
368.636	391.5
368.862	373.5
369.089	368.5
369.315	375.5
369.541	401.5
369.767	368.5
369.993	395.5
370.219	366.5
370.445	365.5
370.672	390.5
370.898	384.5
371.124	371.5
371.35	377.5
371.576	364.5
371.802	377.5
372.028	383.5
372.254	391.5
372.48	388.5
372.706	379.5
372.932	385.5
373.158	391.5
373.384	386.5
373.61	405.5
373.835	383.5
374.061	389.5
374.287	399.5
374.513	385.5
374.739	400.5
374.965	397.5
375.191	385.5
375.416	406.5
375.642	411.5
375.868	388.5
376.094	382.5
376.319	380.5
376.545	376.5
376.771	373.5
376.997	363.5
377.222	367.5
377.448	382.5
377.674	373.5
377.899	361.5
378.125	383.5
378.35	392.5
378.576	393.5
378.802	406.5
379.027	366.5
379.253	367.5
379.478	369.5
379.704	388.5
379.929	371.5
380.155	367.5
380.38	378.5
380.606	379.5
380.831	356.5
381.057	379.5
381.282	376.5
381.507	392.5
381.733	380.5
381.958	378.5
382.184	386.5
382.409	384.5
382.634	381.5
382.86	394.5
383.085	403.5
383.31	397.5
383.535	395.5
383.761	382.5
383.986	410.5
384.211	403.5
384.436	428.5
384.662	423.5
384.887	425.5
385.112	407.5
385.337	430.5
385.562	429.5
385.787	412.5
386.013	444.5
386.238	432.5
386.463	417.5
386.688	409.5
386.913	422.5
387.138	427.5
387.363	446.5
387.588	443.5
387.813	412.5
388.038	406.5
388.263	423.5
388.488	422.5
388.713	422.5
388.938	405.5
389.163	393.5
389.387	400.5
389.612	398.5
389.837	410.5
390.062	421.5
390.287	415.5
390.512	413.5
390.736	430.5
390.961	419.5
391.186	411.5
391.411	417.5
391.636	437.5
391.86	445.5
392.085	440.5
392.31	411.5
392.534	425.5
392.759	427.5
392.984	428.5
393.208	415.5
393.433	420.5
393.658	411.5
393.882	419.5
394.107	417.5
394.331	425.5
394.556	414.5
394.78	420.5
395.005	437.5
395.229	431.5
395.454	439.5
395.678	448.5
395.903	457.5
396.127	468.5
396.352	452.5
396.576	448.5
396.801	435.5
397.025	438.5
397.249	471.5
397.474	449.5
397.698	444.5
397.922	461.5
398.147	470.5
398.371	465.5
398.595	478.5
398.82	471.5
399.044	489.5
399.268	504.5
399.492	539.5
399.717	591.5
399.941	596.5
400.165	603.5
400.389	581.5
400.613	536.5
400.837	520.5
401.062	501.5
401.286	483.5
401.51	465.5
401.734	473.5
401.958	475.5
402.182	460.5
402.406	468.5
402.63	463.5
402.854	469.5
403.078	484.5
403.302	496.5
403.526	502.5
403.75	495.5
403.974	489.5
404.198	495.5
404.422	492.5
404.645	488.5
404.869	510.5
405.093	511.5
405.317	516.5
405.541	569.5
405.765	536.5
405.988	511.5
406.212	521.5
406.436	530.5
406.66	517.5
406.883	527.5
407.107	545.5
407.331	559.5
407.555	607.5
407.778	624.5
408.002	581.5
408.226	552.5
408.449	526.5
408.673	535.5
408.896	550.5
409.12	557.5
409.344	544.5
409.567	518.5
409.791	499.5
410.014	489.5
410.238	499.5
410.461	498.5
410.685	499.5
410.908	487.5
411.132	541.5
411.355	535.5
411.578	548.5
411.802	479.5
412.025	489.5
412.249	492.5
412.472	497.5
412.695	513.5
412.919	495.5
413.142	490.5
413.365	482.5
413.589	466.5
413.812	449.5
414.035	455.5
414.258	474.5
414.482	461.5
414.705	445.5
414.928	428.5
415.151	461.5
415.374	464.5
415.597	445.5
415.821	461.5
416.044	448.5
416.267	453.5
416.49	444.5
416.713	448.5
416.936	451.5
417.159	460.5
417.382	464.5
417.605	456.5
417.828	463.5
418.051	469.5
418.274	461.5
418.497	453.5
418.72	465.5
418.943	452.5
419.166	479.5
419.389	478.5
419.611	501.5
419.834	476.5
420.057	463.5
420.28	464.5
420.503	476.5
420.726	474.5
420.948	479.5
421.171	505.5
421.394	519.5
421.617	484.5
421.839	455.5
422.062	455.5
422.285	473.5
422.507	513.5
422.73	559.5
422.953	548.5
423.175	501.5
423.398	479.5
423.621	488.5
423.843	492.5
424.066	495.5
424.288	474.5
424.511	487.5
424.733	549.5
424.956	597.5
425.178	574.5
425.401	565.5
425.623	607.5
425.846	539.5
426.068	482.5
426.291	483.5
426.513	480.5
426.735	488.5
426.958	515.5
427.18	571.5
427.402	681.5
427.625	719.5
427.847	624.5
428.069	527.5
428.292	493.5
428.514	467.5
428.736	455.5
428.958	445.5
429.181	456.5
429.403	461.5
429.625	468.5
429.847	478.5
430.069	535.5
430.292	529.5
430.514	451.5
430.736	445.5
430.958	455.5
431.18	440.5
431.402	427.5
431.624	425.5
431.846	439.5
432.068	421.5
432.29	443.5
432.512	420.5
432.734	424.5
432.956	432.5
433.178	428.5
433.4	443.5
433.622	429.5
433.844	448.5
434.066	427.5
434.287	437.5
434.509	442.5
434.731	467.5
434.953	457.5
435.175	466.5
435.397	475.5
435.618	475.5
435.84	500.5
436.062	565.5
436.284	643.5
436.505	533.5
436.727	483.5
436.949	458.5
437.17	438.5
437.392	444.5
437.614	453.5
437.835	463.5
438.057	528.5
438.278	592.5
438.5	618.5
438.721	652.5
438.943	635.5
439.165	526.5
439.386	483.5
439.608	477.5
439.829	462.5
440.05	469.5
440.272	501.5
440.493	477.5
440.715	463.5
440.936	461.5
441.158	467.5
441.379	439.5
441.6	480.5
441.822	478.5
442.043	531.5
442.264	576.5
442.486	584.5
442.707	529.5
442.928	480.5
443.149	494.5
443.371	494.5
443.592	521.5
443.813	579.5
444.034	639.5
444.255	537.5
444.476	519.5
444.698	508.5
444.919	477.5
445.14	582.5
445.361	547.5
445.582	486.5
445.803	542.5
446.024	605.5
446.245	627.5
446.466	561.5
446.687	498.5
446.908	462.5
447.129	449.5
447.35	447.5
447.571	448.5
447.792	425.5
448.013	413.5
448.234	453.5
448.455	492.5
448.675	577.5
448.896	651.5
449.117	560.5
449.338	530.5
449.559	616.5
449.779	682.5
450	546.5
450.221	457.5
450.442	441.5
450.662	412.5
450.883	401.5
451.104	447.5
451.324	419.5
451.545	405.5
451.766	393.5
451.986	391.5
452.207	401.5
452.428	405.5
452.648	398.5
452.869	391.5
453.089	389.5
453.31	402.5
453.53	402.5
453.751	408.5
453.971	381.5
454.192	404.5
454.412	393.5
454.633	385.5
454.853	391.5
455.073	389.5
455.294	404.5
455.514	455.5
455.734	439.5
455.955	396.5
456.175	383.5
456.395	363.5
456.616	367.5
456.836	365.5
457.056	379.5
457.276	364.5
457.497	381.5
457.717	374.5
457.937	396.5
458.157	384.5
458.377	398.5
458.598	412.5
458.818	444.5
459.038	486.5
459.258	499.5
459.478	445.5
459.698	425.5
459.918	417.5
460.138	428.5
460.358	441.5
460.578	443.5
460.798	447.5
461.018	441.5
461.238	471.5
461.458	448.5
461.678	434.5
461.898	439.5
462.118	444.5
462.338	462.5
462.558	453.5
462.777	483.5
462.997	477.5
463.217	519.5
463.437	511.5
463.657	486.5
463.876	468.5
464.096	464.5
464.316	488.5
464.536	487.5
464.755	488.5
464.975	463.5
465.195	479.5
465.414	481.5
465.634	452.5
465.854	446.5
466.073	428.5
466.293	427.5
466.512	409.5
466.732	412.5
466.951	412.5
467.171	410.5
467.391	422.5
467.61	415.5
467.829	411.5
468.049	416.5
468.268	406.5
468.488	405.5
468.707	404.5
468.927	396.5
469.146	395.5
469.365	401.5
469.585	396.5
469.804	391.5
470.023	408.5
470.243	429.5
470.462	429.5
470.681	442.5
470.901	409.5
471.12	389.5
471.339	417.5
471.558	407.5
471.777	400.5
471.997	415.5
472.216	419.5
472.435	408.5
472.654	419.5
472.873	409.5
473.092	405.5
473.311	419.5
473.53	409.5
473.749	414.5
473.968	473.5
474.187	508.5
474.406	526.5
474.625	435.5
474.844	418.5
475.063	377.5
475.282	407.5
475.501	389.5
475.72	408.5
475.939	421.5
476.158	419.5
476.377	435.5
476.596	414.5
476.814	445.5
477.033	435.5
477.252	433.5
477.471	443.5
477.69	441.5
477.908	446.5
478.127	449.5
478.346	480.5
478.564	448.5
478.783	453.5
479.002	475.5
479.22	484.5
479.439	486.5
479.658	483.5
479.876	492.5
480.095	509.5
480.313	513.5
480.532	510.5
480.751	514.5
480.969	509.5
481.188	533.5
481.406	511.5
481.624	488.5
481.843	500.5
482.061	487.5
482.28	479.5
482.498	453.5
482.717	472.5
482.935	475.5
483.153	474.5
483.372	480.5
483.59	473.5
483.808	465.5
484.027	458.5
484.245	506.5
484.463	472.5
484.681	490.5
484.9	486.5
485.118	470.5
485.336	488.5
485.554	473.5
485.772	468.5
485.99	489.5
486.209	494.5
486.427	496.5
486.645	490.5
486.863	496.5
487.081	481.5
487.299	492.5
487.517	511.5
487.735	479.5
487.953	490.5
488.171	478.5
488.389	515.5
488.607	511.5
488.825	505.5
489.043	495.5
489.261	504.5
489.479	505.5
489.696	508.5
489.914	494.5
490.132	500.5
490.35	518.5
490.568	526.5
490.786	505.5
491.003	528.5
491.221	541.5
491.439	546.5
491.657	544.5
491.874	571.5
492.092	550.5
492.31	536.5
492.527	554.5
492.745	570.5
492.963	549.5
493.18	542.5
493.398	537.5
493.615	579.5
493.833	573.5
494.05	554.5
494.268	564.5
494.485	551.5
494.703	556.5
494.92	544.5
495.138	536.5
495.355	580.5
495.573	573.5
495.79	562.5
496.008	601.5
496.225	594.5
496.442	569.5
496.66	591.5
496.877	613.5
497.094	577.5
497.312	589.5
497.529	585.5
497.746	621.5
497.963	616.5
498.181	636.5
498.398	641.5
498.615	667.5
498.832	691.5
499.049	710.5
499.267	720.5
499.484	763.5
499.701	787.5
499.918	819.5
500.135	855.5
500.352	940.5
500.569	900.5
500.786	948.5
501.003	917.5
501.22	889.5
501.437	825.5
501.654	809.5
501.871	777.5
502.088	747.5
502.305	729.5
502.522	680.5
502.739	672.5
502.956	643.5
503.172	640.5
503.389	591.5
503.606	621.5
503.823	605.5
504.04	615.5
504.256	629.5
504.473	604.5
504.69	608.5
504.907	590.5
505.123	596.5
505.34	559.5
505.557	569.5
505.773	566.5
505.99	538.5
506.207	537.5
506.423	540.5
506.64	537.5
506.856	514.5
507.073	509.5
507.289	513.5
507.506	508.5
507.722	524.5
507.939	534.5
508.155	523.5
508.372	519.5
508.588	493.5
508.805	511.5
509.021	506.5
509.238	508.5
509.454	539.5
509.67	514.5
509.887	503.5
510.103	491.5
510.319	503.5
510.536	559.5
510.752	775.5
510.968	635.5
511.184	505.5
511.401	483.5
511.617	494.5
511.833	472.5
512.049	468.5
512.265	496.5
512.481	454.5
512.698	476.5
512.914	464.5
513.13	484.5
513.346	460.5
513.562	487.5
513.778	480.5
513.994	470.5
514.21	477.5
514.426	496.5
514.642	509.5
514.858	538.5
515.074	537.5
515.29	567.5
515.506	732.5
515.721	656.5
515.937	555.5
516.153	497.5
516.369	501.5
516.585	515.5
516.801	486.5
517.016	513.5
517.232	501.5
517.448	527.5
517.664	524.5
517.879	537.5
518.095	529.5
518.311	517.5
518.527	495.5
518.742	519.5
518.958	519.5
519.173	489.5
519.389	490.5
519.605	477.5
519.82	453.5
