Data from 1977.PennyLincolnUp.Lamp.En5.5.200Scan.071719.P1_HRD10591_16-05-45-863.txt Node
Date: Thu Jul 18 16:05:45 EDT 2019
User: cochatt
Spectrometer: HR+D1059
Trigger mode: 1
Integration Time (sec): 1.000000E-1
Scans to average: 1
Electric dark correction enabled: true
Nonlinearity correction enabled: false
Boxcar width: 0
XAxis mode: Wavelengths
Number of Pixels in Spectrum: 2048
>>>>>Begin Spectral Data<<<<<
223.165	-21.62
223.4	-21.62
223.635	-21.62
223.869	-33.62
224.104	-5.62
224.338	-4.62
224.573	-20.62
224.808	-19.62
225.042	-0.62
225.277	-1.62
225.511	-6.62
225.746	6.38
225.98	16.38
226.215	8.38
226.449	16.38
226.683	22.38
226.918	27.38
227.152	17.38
227.387	43.38
227.621	46.38
227.856	29.38
228.09	62.38
228.324	43.38
228.559	64.38
228.793	77.38
229.027	88.38
229.262	89.38
229.496	93.38
229.73	122.38
229.964	136.38
230.199	112.38
230.433	101.38
230.667	118.38
230.901	108.38
231.136	110.38
231.37	103.38
231.604	96.38
231.838	104.38
232.072	123.38
232.306	113.38
232.541	114.38
232.775	105.38
233.009	126.38
233.243	118.38
233.477	92.38
233.711	103.38
233.945	102.38
234.179	118.38
234.413	122.38
234.647	130.38
234.881	120.38
235.115	131.38
235.349	113.38
235.583	112.38
235.817	118.38
236.051	119.38
236.285	136.38
236.519	138.38
236.753	126.38
236.987	149.38
237.221	168.38
237.455	198.38
237.689	171.38
237.922	128.38
238.156	116.38
238.39	132.38
238.624	126.38
238.858	122.38
239.091	123.38
239.325	109.38
239.559	117.38
239.793	132.38
240.027	116.38
240.26	136.38
240.494	139.38
240.728	143.38
240.961	148.38
241.195	130.38
241.429	118.38
241.662	140.38
241.896	120.38
242.13	143.38
242.363	136.38
242.597	131.38
242.83	138.38
243.064	140.38
243.298	132.38
243.531	132.38
243.765	141.38
243.998	138.38
244.232	130.38
244.465	136.38
244.699	152.38
244.932	147.38
245.166	150.38
245.399	146.38
245.633	148.38
245.866	128.38
246.099	150.38
246.333	150.38
246.566	153.38
246.8	145.38
247.033	149.38
247.266	150.38
247.5	162.38
247.733	161.38
247.966	161.38
248.2	168.38
248.433	154.38
248.666	170.38
248.899	171.38
249.133	185.38
249.366	189.38
249.599	185.38
249.832	174.38
250.066	165.38
250.299	185.38
250.532	191.38
250.765	176.38
250.998	205.38
251.231	202.38
251.465	198.38
251.698	188.38
251.931	183.38
252.164	196.38
252.397	197.38
252.63	200.38
252.863	205.38
253.096	215.38
253.329	223.38
253.562	221.38
253.795	203.38
254.028	212.38
254.261	206.38
254.494	212.38
254.727	229.38
254.96	257.38
255.193	248.38
255.426	242.38
255.659	221.38
255.892	228.38
256.124	229.38
256.357	226.38
256.59	225.38
256.823	209.38
257.056	214.38
257.289	216.38
257.521	206.38
257.754	218.38
257.987	220.38
258.22	207.38
258.452	208.38
258.685	207.38
258.918	226.38
259.151	221.38
259.383	220.38
259.616	220.38
259.849	216.38
260.081	231.38
260.314	234.38
260.547	250.38
260.779	219.38
261.012	228.38
261.244	226.38
261.477	209.38
261.71	203.38
261.942	229.38
262.175	210.38
262.407	206.38
262.64	239.38
262.872	215.38
263.105	206.38
263.337	214.38
263.57	210.38
263.802	193.38
264.035	214.38
264.267	231.38
264.499	211.38
264.732	212.38
264.964	221.38
265.197	213.38
265.429	209.38
265.661	223.38
265.894	221.38
266.126	211.38
266.358	222.38
266.591	226.38
266.823	225.38
267.055	220.38
267.287	228.38
267.52	226.38
267.752	234.38
267.984	235.38
268.216	232.38
268.448	230.38
268.681	252.38
268.913	241.38
269.145	260.38
269.377	262.38
269.609	258.38
269.841	260.38
270.073	284.38
270.306	275.38
270.538	284.38
270.77	304.38
271.002	296.38
271.234	274.38
271.466	288.38
271.698	290.38
271.93	293.38
272.162	299.38
272.394	293.38
272.626	285.38
272.858	274.38
273.09	270.38
273.322	270.38
273.553	264.38
273.785	276.38
274.017	278.38
274.249	269.38
274.481	258.38
274.713	276.38
274.945	282.38
275.176	267.38
275.408	256.38
275.64	270.38
275.872	240.38
276.104	267.38
276.335	270.38
276.567	270.38
276.799	285.38
277.031	293.38
277.262	282.38
277.494	298.38
277.726	301.38
277.957	296.38
278.189	290.38
278.421	271.38
278.652	274.38
278.884	286.38
279.115	266.38
279.347	287.38
279.579	292.38
279.81	272.38
280.042	269.38
280.273	265.38
280.505	283.38
280.736	278.38
280.968	276.38
281.199	276.38
281.431	292.38
281.662	283.38
281.894	288.38
282.125	286.38
282.356	286.38
282.588	317.38
282.819	301.38
283.051	289.38
283.282	278.38
283.513	302.38
283.745	287.38
283.976	293.38
284.207	294.38
284.439	305.38
284.67	306.38
284.901	295.38
285.132	287.38
285.364	287.38
285.595	308.38
285.826	295.38
286.057	296.38
286.288	296.38
286.52	285.38
286.751	286.38
286.982	299.38
287.213	298.38
287.444	307.38
287.675	296.38
287.906	287.38
288.138	306.38
288.369	300.38
288.6	292.38
288.831	310.38
289.062	285.38
289.293	303.38
289.524	320.38
289.755	301.38
289.986	294.38
290.217	296.38
290.448	283.38
290.679	311.38
290.91	299.38
291.141	317.38
291.371	306.38
291.602	284.38
291.833	310.38
292.064	307.38
292.295	288.38
292.526	280.38
292.757	296.38
292.987	321.38
293.218	308.38
293.449	318.38
293.68	310.38
293.91	313.38
294.141	291.38
294.372	305.38
294.603	288.38
294.833	311.38
295.064	310.38
295.295	314.38
295.525	292.38
295.756	296.38
295.987	317.38
296.217	333.38
296.448	326.38
296.679	322.38
296.909	315.38
297.14	316.38
297.37	323.38
297.601	302.38
297.831	326.38
298.062	313.38
298.292	296.38
298.523	334.38
298.753	321.38
298.984	325.38
299.214	304.38
299.445	327.38
299.675	326.38
299.905	341.38
300.136	316.38
300.366	322.38
300.597	329.38
300.827	342.38
301.057	335.38
301.288	352.38
301.518	338.38
301.748	338.38
301.979	349.38
302.209	352.38
302.439	345.38
302.669	346.38
302.9	356.38
303.13	356.38
303.36	325.38
303.59	350.38
303.82	332.38
304.051	357.38
304.281	327.38
304.511	342.38
304.741	340.38
304.971	329.38
305.201	342.38
305.431	344.38
305.661	348.38
305.891	335.38
306.121	327.38
306.352	341.38
306.582	363.38
306.812	355.38
307.042	350.38
307.272	350.38
307.502	352.38
307.731	358.38
307.961	352.38
308.191	351.38
308.421	343.38
308.651	327.38
308.881	356.38
309.111	356.38
309.341	363.38
309.571	363.38
309.8	353.38
310.03	362.38
310.26	383.38
310.49	367.38
310.72	367.38
310.949	383.38
311.179	398.38
311.409	365.38
311.639	382.38
311.868	386.38
312.098	386.38
312.328	382.38
312.557	404.38
312.787	392.38
313.017	366.38
313.246	404.38
313.476	376.38
313.706	383.38
313.935	375.38
314.165	382.38
314.394	397.38
314.624	398.38
314.853	391.38
315.083	394.38
315.312	377.38
315.542	390.38
315.771	393.38
316.001	375.38
316.23	378.38
316.46	384.38
316.689	382.38
316.919	352.38
317.148	384.38
317.377	385.38
317.607	390.38
317.836	386.38
318.065	382.38
318.295	382.38
318.524	384.38
318.753	393.38
318.983	381.38
319.212	397.38
319.441	414.38
319.67	381.38
319.9	394.38
320.129	393.38
320.358	376.38
320.587	390.38
320.816	381.38
321.046	396.38
321.275	390.38
321.504	386.38
321.733	404.38
321.962	404.38
322.191	420.38
322.42	436.38
322.649	414.38
322.878	437.38
323.108	438.38
323.337	450.38
323.566	442.38
323.795	463.38
324.024	509.38
324.253	589.38
324.482	772.38
324.71	1156.38
324.939	1558.38
325.168	1334.38
325.397	736.38
325.626	540.38
325.855	485.38
326.084	463.38
326.313	454.38
326.542	487.38
326.77	508.38
326.999	564.38
327.228	739.38
327.457	1046.38
327.686	1186.38
327.914	839.38
328.143	596.38
328.372	530.38
328.6	500.38
328.829	515.38
329.058	521.38
329.287	511.38
329.515	489.38
329.744	469.38
329.972	474.38
330.201	474.38
330.43	509.38
330.658	492.38
330.887	535.38
331.115	526.38
331.344	482.38
331.572	455.38
331.801	471.38
332.03	483.38
332.258	460.38
332.486	462.38
332.715	437.38
332.943	462.38
333.172	470.38
333.4	477.38
333.629	463.38
333.857	459.38
334.085	509.38
334.314	483.38
334.542	512.38
334.771	509.38
334.999	483.38
335.227	476.38
335.455	473.38
335.684	468.38
335.912	458.38
336.14	435.38
336.369	442.38
336.597	461.38
336.825	450.38
337.053	458.38
337.281	444.38
337.51	419.38
337.738	442.38
337.966	450.38
338.194	445.38
338.422	442.38
338.65	436.38
338.878	427.38
339.106	410.38
339.334	443.38
339.562	431.38
339.79	422.38
340.018	438.38
340.246	427.38
340.474	447.38
340.702	444.38
340.93	436.38
341.158	434.38
341.386	442.38
341.614	416.38
341.842	415.38
342.07	426.38
342.298	428.38
342.526	413.38
342.754	404.38
342.981	431.38
343.209	423.38
343.437	443.38
343.665	426.38
343.893	443.38
344.12	458.38
344.348	443.38
344.576	435.38
344.804	458.38
345.031	453.38
345.259	452.38
345.487	443.38
345.714	419.38
345.942	413.38
346.17	399.38
346.397	423.38
346.625	415.38
346.853	406.38
347.08	379.38
347.308	410.38
347.535	424.38
347.763	398.38
347.99	411.38
348.218	401.38
348.445	414.38
348.673	405.38
348.9	412.38
349.128	401.38
349.355	399.38
349.583	395.38
349.81	380.38
350.037	405.38
350.265	418.38
350.492	401.38
350.72	408.38
350.947	381.38
351.174	400.38
351.402	415.38
351.629	414.38
351.856	401.38
352.083	397.38
352.311	416.38
352.538	408.38
352.765	399.38
352.992	380.38
353.22	390.38
353.447	402.38
353.674	404.38
353.901	404.38
354.128	385.38
354.355	389.38
354.583	382.38
354.81	394.38
355.037	384.38
355.264	388.38
355.491	389.38
355.718	372.38
355.945	393.38
356.172	373.38
356.399	370.38
356.626	385.38
356.853	389.38
357.08	381.38
357.307	382.38
357.534	358.38
357.761	386.38
357.988	382.38
358.215	390.38
358.441	382.38
358.668	379.38
358.895	386.38
359.122	368.38
359.349	380.38
359.576	396.38
359.802	403.38
360.029	412.38
360.256	403.38
360.483	408.38
360.709	393.38
360.936	394.38
361.163	394.38
361.39	387.38
361.616	388.38
361.843	387.38
362.07	399.38
362.296	389.38
362.523	414.38
362.749	390.38
362.976	377.38
363.203	394.38
363.429	390.38
363.656	386.38
363.882	392.38
364.109	370.38
364.335	391.38
364.562	394.38
364.788	378.38
365.015	381.38
365.241	377.38
365.468	387.38
365.694	377.38
365.92	394.38
366.147	383.38
366.373	384.38
366.599	388.38
366.826	371.38
367.052	376.38
367.278	384.38
367.505	376.38
367.731	362.38
367.957	390.38
368.184	367.38
368.41	386.38
368.636	404.38
368.862	404.38
369.089	389.38
369.315	392.38
369.541	376.38
369.767	383.38
369.993	392.38
370.219	403.38
370.445	380.38
370.672	387.38
370.898	403.38
371.124	399.38
371.35	375.38
371.576	395.38
371.802	399.38
372.028	388.38
372.254	396.38
372.48	394.38
372.706	397.38
372.932	389.38
373.158	380.38
373.384	373.38
373.61	376.38
373.835	399.38
374.061	387.38
374.287	392.38
374.513	368.38
374.739	381.38
374.965	394.38
375.191	374.38
375.416	403.38
375.642	386.38
375.868	388.38
376.094	387.38
376.319	397.38
376.545	389.38
376.771	380.38
376.997	388.38
377.222	366.38
377.448	388.38
377.674	361.38
377.899	357.38
378.125	375.38
378.35	362.38
378.576	378.38
378.802	391.38
379.027	386.38
379.253	373.38
379.478	367.38
379.704	386.38
379.929	374.38
380.155	391.38
380.38	371.38
380.606	372.38
380.831	389.38
381.057	359.38
381.282	388.38
381.507	382.38
381.733	386.38
381.958	382.38
382.184	388.38
382.409	391.38
382.634	386.38
382.86	397.38
383.085	388.38
383.31	405.38
383.535	399.38
383.761	396.38
383.986	406.38
384.211	398.38
384.436	410.38
384.662	423.38
384.887	427.38
385.112	419.38
385.337	391.38
385.562	408.38
385.787	430.38
386.013	421.38
386.238	407.38
386.463	429.38
386.688	436.38
386.913	399.38
387.138	408.38
387.363	419.38
387.588	405.38
387.813	434.38
388.038	427.38
388.263	436.38
388.488	428.38
388.713	416.38
388.938	395.38
389.163	431.38
389.387	408.38
389.612	411.38
389.837	412.38
390.062	418.38
390.287	429.38
390.512	421.38
390.736	415.38
390.961	418.38
391.186	410.38
391.411	436.38
391.636	448.38
391.86	418.38
392.085	442.38
392.31	434.38
392.534	439.38
392.759	426.38
392.984	418.38
393.208	441.38
393.433	442.38
393.658	417.38
393.882	426.38
394.107	411.38
394.331	430.38
394.556	411.38
394.78	406.38
395.005	424.38
395.229	435.38
395.454	445.38
395.678	439.38
395.903	464.38
396.127	469.38
396.352	474.38
396.576	413.38
396.801	441.38
397.025	413.38
397.249	456.38
397.474	446.38
397.698	464.38
397.922	455.38
398.147	477.38
398.371	474.38
398.595	470.38
398.82	470.38
399.044	488.38
399.268	498.38
399.492	527.38
399.717	561.38
399.941	611.38
400.165	593.38
400.389	596.38
400.613	550.38
400.837	517.38
401.062	502.38
401.286	474.38
401.51	490.38
401.734	452.38
401.958	468.38
402.182	494.38
402.406	487.38
402.63	470.38
402.854	487.38
403.078	502.38
403.302	489.38
403.526	516.38
403.75	502.38
403.974	501.38
404.198	503.38
404.422	498.38
404.645	536.38
404.869	528.38
405.093	537.38
405.317	547.38
405.541	562.38
405.765	540.38
405.988	532.38
406.212	523.38
406.436	545.38
406.66	542.38
406.883	539.38
407.107	549.38
407.331	575.38
407.555	629.38
407.778	605.38
408.002	602.38
408.226	564.38
408.449	560.38
408.673	550.38
408.896	592.38
409.12	596.38
409.344	571.38
409.567	515.38
409.791	488.38
410.014	503.38
410.238	482.38
410.461	492.38
410.685	488.38
410.908	496.38
411.132	524.38
411.355	535.38
411.578	539.38
411.802	494.38
412.025	504.38
412.249	503.38
412.472	492.38
412.695	530.38
412.919	518.38
413.142	490.38
413.365	481.38
413.589	491.38
413.812	450.38
414.035	462.38
414.258	476.38
414.482	461.38
414.705	464.38
414.928	462.38
415.151	471.38
415.374	453.38
415.597	451.38
415.821	471.38
416.044	455.38
416.267	454.38
416.49	447.38
416.713	438.38
416.936	448.38
417.159	461.38
417.382	432.38
417.605	461.38
417.828	471.38
418.051	480.38
418.274	464.38
418.497	474.38
418.72	474.38
418.943	445.38
419.166	463.38
419.389	485.38
419.611	491.38
419.834	484.38
420.057	494.38
420.28	463.38
420.503	456.38
420.726	476.38
420.948	482.38
421.171	526.38
421.394	559.38
421.617	502.38
421.839	460.38
422.062	466.38
422.285	489.38
422.507	523.38
422.73	568.38
422.953	554.38
423.175	521.38
423.398	484.38
423.621	468.38
423.843	491.38
424.066	483.38
424.288	501.38
424.511	502.38
424.733	556.38
424.956	617.38
425.178	598.38
425.401	591.38
425.623	595.38
425.846	518.38
426.068	503.38
426.291	484.38
426.513	509.38
426.735	491.38
426.958	519.38
427.18	566.38
427.402	696.38
427.625	731.38
427.847	638.38
428.069	564.38
428.292	510.38
428.514	492.38
428.736	459.38
428.958	452.38
429.181	496.38
429.403	457.38
429.625	460.38
429.847	510.38
430.069	537.38
430.292	514.38
430.514	454.38
430.736	438.38
430.958	446.38
431.18	438.38
431.402	427.38
431.624	415.38
431.846	436.38
432.068	440.38
432.29	443.38
432.512	419.38
432.734	438.38
432.956	449.38
433.178	448.38
433.4	438.38
433.622	437.38
433.844	454.38
434.066	409.38
434.287	427.38
434.509	434.38
434.731	459.38
434.953	452.38
435.175	464.38
435.397	478.38
435.618	491.38
435.84	518.38
436.062	587.38
436.284	645.38
436.505	544.38
436.727	502.38
436.949	480.38
437.17	425.38
437.392	459.38
437.614	450.38
437.835	480.38
438.057	546.38
438.278	633.38
438.5	644.38
438.721	652.38
438.943	650.38
439.165	549.38
439.386	503.38
439.608	483.38
439.829	478.38
440.05	483.38
440.272	544.38
440.493	501.38
440.715	467.38
440.936	436.38
441.158	459.38
441.379	464.38
441.6	463.38
441.822	495.38
442.043	489.38
442.264	568.38
442.486	611.38
442.707	516.38
442.928	501.38
443.149	512.38
443.371	511.38
443.592	562.38
443.813	615.38
444.034	666.38
444.255	554.38
444.476	532.38
444.698	504.38
444.919	492.38
445.14	593.38
445.361	550.38
445.582	523.38
445.803	564.38
446.024	650.38
446.245	636.38
446.466	581.38
446.687	518.38
446.908	486.38
447.129	464.38
447.35	448.38
447.571	442.38
447.792	436.38
448.013	441.38
448.234	479.38
448.455	503.38
448.675	580.38
448.896	644.38
449.117	564.38
449.338	544.38
449.559	628.38
449.779	702.38
450	544.38
450.221	479.38
450.442	438.38
450.662	423.38
450.883	429.38
451.104	428.38
451.324	421.38
451.545	413.38
451.766	405.38
451.986	408.38
452.207	384.38
452.428	388.38
452.648	406.38
452.869	404.38
453.089	416.38
453.31	430.38
453.53	405.38
453.751	390.38
453.971	404.38
454.192	424.38
454.412	402.38
454.633	394.38
454.853	394.38
455.073	397.38
455.294	403.38
455.514	466.38
455.734	429.38
455.955	405.38
456.175	383.38
456.395	381.38
456.616	368.38
456.836	404.38
457.056	404.38
457.276	387.38
457.497	380.38
457.717	400.38
457.937	405.38
458.157	392.38
458.377	404.38
458.598	414.38
458.818	432.38
459.038	484.38
459.258	531.38
459.478	436.38
459.698	429.38
459.918	436.38
460.138	443.38
460.358	470.38
460.578	434.38
460.798	452.38
461.018	449.38
461.238	449.38
461.458	435.38
461.678	453.38
461.898	459.38
462.118	461.38
462.338	479.38
462.558	475.38
462.777	500.38
462.997	501.38
463.217	493.38
463.437	530.38
463.657	511.38
463.876	463.38
464.096	499.38
464.316	493.38
464.536	486.38
464.755	471.38
464.975	471.38
465.195	512.38
465.414	511.38
465.634	462.38
465.854	461.38
466.073	437.38
466.293	450.38
466.512	433.38
466.732	437.38
466.951	405.38
467.171	414.38
467.391	387.38
467.61	424.38
467.829	420.38
468.049	410.38
468.268	412.38
468.488	400.38
468.707	410.38
468.927	407.38
469.146	400.38
469.365	393.38
469.585	397.38
469.804	420.38
470.023	414.38
470.243	411.38
470.462	402.38
470.681	424.38
470.901	431.38
471.12	417.38
471.339	405.38
471.558	412.38
471.777	411.38
471.997	414.38
472.216	414.38
472.435	424.38
472.654	412.38
472.873	426.38
473.092	390.38
473.311	392.38
473.53	409.38
473.749	393.38
473.968	444.38
474.187	500.38
474.406	555.38
474.625	470.38
474.844	428.38
475.063	406.38
475.282	406.38
475.501	407.38
475.72	416.38
475.939	421.38
476.158	425.38
476.377	429.38
476.596	406.38
476.814	436.38
477.033	435.38
477.252	432.38
477.471	435.38
477.69	448.38
477.908	460.38
478.127	470.38
478.346	465.38
478.564	461.38
478.783	459.38
479.002	464.38
479.22	473.38
479.439	488.38
479.658	484.38
479.876	495.38
480.095	497.38
480.313	535.38
480.532	519.38
480.751	502.38
480.969	501.38
481.188	525.38
481.406	547.38
481.624	499.38
481.843	503.38
482.061	468.38
482.28	470.38
482.498	494.38
482.717	477.38
482.935	476.38
483.153	465.38
483.372	476.38
483.59	491.38
483.808	460.38
484.027	479.38
484.245	476.38
484.463	486.38
484.681	496.38
484.9	478.38
485.118	482.38
485.336	479.38
485.554	492.38
485.772	502.38
485.99	481.38
486.209	509.38
486.427	510.38
486.645	499.38
486.863	530.38
487.081	502.38
487.299	505.38
487.517	501.38
487.735	487.38
487.953	527.38
488.171	492.38
488.389	522.38
488.607	504.38
488.825	522.38
489.043	519.38
489.261	506.38
489.479	504.38
489.696	504.38
489.914	518.38
490.132	506.38
490.35	510.38
490.568	517.38
490.786	525.38
491.003	554.38
491.221	557.38
491.439	554.38
491.657	551.38
491.874	548.38
492.092	557.38
492.31	554.38
492.527	560.38
492.745	579.38
492.963	576.38
493.18	573.38
493.398	570.38
493.615	572.38
493.833	589.38
494.05	569.38
494.268	590.38
494.485	560.38
494.703	569.38
494.92	577.38
495.138	583.38
495.355	599.38
495.573	603.38
495.79	589.38
496.008	578.38
496.225	596.38
496.442	583.38
496.66	586.38
496.877	610.38
497.094	589.38
497.312	593.38
497.529	599.38
497.746	621.38
497.963	620.38
498.181	650.38
498.398	644.38
498.615	662.38
498.832	670.38
499.049	746.38
499.267	741.38
499.484	779.38
499.701	787.38
499.918	837.38
500.135	882.38
500.352	924.38
500.569	937.38
500.786	943.38
501.003	943.38
501.22	883.38
501.437	844.38
501.654	782.38
501.871	771.38
502.088	758.38
