Data from 1977.PennyLincolnUp.Lamp.En5.5.200Scan.071719.P1_HRD10591_16-07-30-864.txt Node
Date: Thu Jul 18 16:07:30 EDT 2019
User: cochatt
Spectrometer: HR+D1059
Trigger mode: 1
Integration Time (sec): 1.000000E-1
Scans to average: 1
Electric dark correction enabled: true
Nonlinearity correction enabled: false
Boxcar width: 0
XAxis mode: Wavelengths
Number of Pixels in Spectrum: 2048
>>>>>Begin Spectral Data<<<<<
223.165	-8.5
223.4	-8.5
223.635	-8.5
223.869	-27.5
224.104	-18.5
224.338	-14.5
224.573	-8.5
224.808	-9.5
225.042	-2.5
225.277	-13.5
225.511	-3.5
225.746	3.5
225.98	-7.5
226.215	11.5
226.449	20.5
226.683	9.5
226.918	29.5
227.152	39.5
227.387	40.5
227.621	30.5
227.856	53.5
228.09	42.5
228.324	41.5
228.559	53.5
228.793	69.5
229.027	98.5
229.262	105.5
229.496	116.5
229.73	132.5
229.964	136.5
230.199	119.5
230.433	106.5
230.667	113.5
230.901	107.5
231.136	111.5
231.37	111.5
231.604	111.5
231.838	123.5
232.072	102.5
232.306	106.5
232.541	97.5
232.775	109.5
233.009	126.5
233.243	128.5
233.477	106.5
233.711	103.5
233.945	112.5
234.179	119.5
234.413	125.5
234.647	124.5
234.881	107.5
235.115	115.5
235.349	125.5
235.583	107.5
235.817	118.5
236.051	123.5
236.285	116.5
236.519	121.5
236.753	138.5
236.987	138.5
237.221	169.5
237.455	213.5
237.689	158.5
237.922	142.5
238.156	127.5
238.39	126.5
238.624	137.5
238.858	115.5
239.091	123.5
239.325	129.5
239.559	123.5
239.793	122.5
240.027	141.5
240.26	143.5
240.494	156.5
240.728	149.5
240.961	149.5
241.195	150.5
241.429	121.5
241.662	136.5
241.896	138.5
242.13	140.5
242.363	150.5
242.597	132.5
242.83	146.5
243.064	132.5
243.298	137.5
243.531	144.5
243.765	144.5
243.998	140.5
244.232	159.5
244.465	141.5
244.699	145.5
244.932	148.5
245.166	156.5
245.399	145.5
245.633	133.5
245.866	148.5
246.099	157.5
246.333	152.5
246.566	158.5
246.8	138.5
247.033	164.5
247.266	152.5
247.5	163.5
247.733	139.5
247.966	180.5
248.2	160.5
248.433	179.5
248.666	184.5
248.899	174.5
249.133	193.5
249.366	196.5
249.599	189.5
249.832	173.5
250.066	181.5
250.299	184.5
250.532	195.5
250.765	195.5
250.998	212.5
251.231	218.5
251.465	214.5
251.698	196.5
251.931	208.5
252.164	206.5
252.397	194.5
252.63	199.5
252.863	197.5
253.096	233.5
253.329	226.5
253.562	207.5
253.795	240.5
254.028	217.5
254.261	217.5
254.494	205.5
254.727	257.5
254.96	255.5
255.193	239.5
255.426	242.5
255.659	216.5
255.892	239.5
256.124	220.5
256.357	219.5
256.59	204.5
256.823	219.5
257.056	203.5
257.289	215.5
257.521	220.5
257.754	212.5
257.987	218.5
258.22	209.5
258.452	213.5
258.685	222.5
258.918	215.5
259.151	211.5
259.383	217.5
259.616	232.5
259.849	239.5
260.081	228.5
260.314	257.5
260.547	271.5
260.779	255.5
261.012	248.5
261.244	251.5
261.477	237.5
261.71	219.5
261.942	219.5
262.175	226.5
262.407	225.5
262.64	212.5
262.872	207.5
263.105	209.5
263.337	228.5
263.57	240.5
263.802	239.5
264.035	232.5
264.267	222.5
264.499	212.5
264.732	230.5
264.964	222.5
265.197	220.5
265.429	215.5
265.661	213.5
265.894	224.5
266.126	232.5
266.358	235.5
266.591	227.5
266.823	243.5
267.055	237.5
267.287	265.5
267.52	239.5
267.752	235.5
267.984	250.5
268.216	245.5
268.448	231.5
268.681	225.5
268.913	252.5
269.145	275.5
269.377	300.5
269.609	299.5
269.841	283.5
270.073	278.5
270.306	291.5
270.538	302.5
270.77	308.5
271.002	298.5
271.234	292.5
271.466	314.5
271.698	315.5
271.93	321.5
272.162	342.5
272.394	295.5
272.626	329.5
272.858	313.5
273.09	312.5
273.322	285.5
273.553	274.5
273.785	288.5
274.017	261.5
274.249	271.5
274.481	275.5
274.713	259.5
274.945	291.5
275.176	273.5
275.408	270.5
275.64	275.5
275.872	263.5
276.104	259.5
276.335	259.5
276.567	274.5
276.799	279.5
277.031	307.5
277.262	329.5
277.494	307.5
277.726	297.5
277.957	309.5
278.189	295.5
278.421	259.5
278.652	277.5
278.884	287.5
279.115	286.5
279.347	293.5
279.579	298.5
279.81	295.5
280.042	304.5
280.273	295.5
280.505	287.5
280.736	281.5
280.968	283.5
281.199	281.5
281.431	295.5
281.662	288.5
281.894	305.5
282.125	303.5
282.356	311.5
282.588	305.5
282.819	322.5
283.051	284.5
283.282	300.5
283.513	277.5
283.745	294.5
283.976	305.5
284.207	291.5
284.439	306.5
284.67	299.5
284.901	319.5
285.132	305.5
285.364	300.5
285.595	299.5
285.826	305.5
286.057	312.5
286.288	310.5
286.52	306.5
286.751	308.5
286.982	297.5
287.213	300.5
287.444	319.5
287.675	316.5
287.906	305.5
288.138	330.5
288.369	300.5
288.6	322.5
288.831	336.5
289.062	316.5
289.293	322.5
289.524	328.5
289.755	330.5
289.986	326.5
290.217	308.5
290.448	294.5
290.679	329.5
290.91	312.5
291.141	299.5
291.371	317.5
291.602	328.5
291.833	322.5
292.064	320.5
292.295	311.5
292.526	315.5
292.757	314.5
292.987	317.5
293.218	316.5
293.449	332.5
293.68	326.5
293.91	310.5
294.141	309.5
294.372	303.5
294.603	320.5
294.833	328.5
295.064	301.5
295.295	331.5
295.525	319.5
295.756	345.5
295.987	338.5
296.217	346.5
296.448	353.5
296.679	341.5
296.909	323.5
297.14	317.5
297.37	325.5
297.601	311.5
297.831	347.5
298.062	337.5
298.292	321.5
298.523	328.5
298.753	328.5
298.984	320.5
299.214	324.5
299.445	323.5
299.675	328.5
299.905	341.5
300.136	328.5
300.366	340.5
300.597	335.5
300.827	348.5
301.057	344.5
301.288	346.5
301.518	333.5
301.748	356.5
301.979	349.5
302.209	338.5
302.439	355.5
302.669	369.5
302.9	361.5
303.13	360.5
303.36	359.5
303.59	361.5
303.82	359.5
304.051	337.5
304.281	359.5
304.511	364.5
304.741	346.5
304.971	336.5
305.201	347.5
305.431	356.5
305.661	345.5
305.891	364.5
306.121	344.5
306.352	351.5
306.582	350.5
306.812	362.5
307.042	357.5
307.272	357.5
307.502	360.5
307.731	351.5
307.961	384.5
308.191	367.5
308.421	365.5
308.651	376.5
308.881	351.5
309.111	365.5
309.341	375.5
309.571	383.5
309.8	364.5
310.03	379.5
310.26	388.5
310.49	425.5
310.72	396.5
310.949	378.5
311.179	397.5
311.409	387.5
311.639	397.5
311.868	376.5
312.098	390.5
312.328	405.5
312.557	406.5
312.787	392.5
313.017	404.5
313.246	409.5
313.476	397.5
313.706	412.5
313.935	396.5
314.165	403.5
314.394	420.5
314.624	428.5
314.853	401.5
315.083	400.5
315.312	404.5
315.542	405.5
315.771	389.5
316.001	406.5
316.23	397.5
316.46	387.5
316.689	415.5
316.919	397.5
317.148	394.5
317.377	403.5
317.607	396.5
317.836	403.5
318.065	426.5
318.295	404.5
318.524	404.5
318.753	384.5
318.983	388.5
319.212	406.5
319.441	409.5
319.67	416.5
319.9	430.5
320.129	401.5
320.358	407.5
320.587	408.5
320.816	402.5
321.046	430.5
321.275	416.5
321.504	408.5
321.733	418.5
321.962	428.5
322.191	408.5
322.42	453.5
322.649	454.5
322.878	455.5
323.108	464.5
323.337	476.5
323.566	486.5
323.795	507.5
324.024	531.5
324.253	635.5
324.482	891.5
324.71	1344.5
324.939	1851.5
325.168	1627.5
325.397	846.5
325.626	634.5
325.855	541.5
326.084	498.5
326.313	524.5
326.542	512.5
326.77	541.5
326.999	653.5
327.228	832.5
327.457	1182.5
327.686	1389.5
327.914	945.5
328.143	681.5
328.372	593.5
328.6	545.5
328.829	542.5
329.058	571.5
329.287	570.5
329.515	534.5
329.744	500.5
329.972	493.5
330.201	523.5
330.43	544.5
330.658	569.5
330.887	587.5
331.115	567.5
331.344	526.5
331.572	494.5
331.801	500.5
332.03	503.5
332.258	481.5
332.486	473.5
332.715	445.5
332.943	480.5
333.172	481.5
333.4	506.5
333.629	492.5
333.857	499.5
334.085	528.5
334.314	530.5
334.542	529.5
334.771	535.5
334.999	510.5
335.227	495.5
335.455	491.5
335.684	485.5
335.912	500.5
336.14	462.5
336.369	490.5
336.597	479.5
336.825	478.5
337.053	467.5
337.281	461.5
337.51	469.5
337.738	470.5
337.966	479.5
338.194	471.5
338.422	471.5
338.65	470.5
338.878	463.5
339.106	466.5
339.334	451.5
339.562	442.5
339.79	459.5
340.018	447.5
340.246	449.5
340.474	454.5
340.702	473.5
340.93	448.5
341.158	439.5
341.386	469.5
341.614	444.5
341.842	428.5
342.07	439.5
342.298	431.5
342.526	426.5
342.754	431.5
342.981	440.5
343.209	435.5
343.437	445.5
343.665	456.5
343.893	493.5
344.12	458.5
344.348	457.5
344.576	476.5
344.804	455.5
345.031	469.5
345.259	468.5
345.487	463.5
345.714	444.5
345.942	434.5
346.17	426.5
346.397	421.5
346.625	421.5
346.853	428.5
347.08	429.5
347.308	428.5
347.535	435.5
347.763	426.5
347.99	444.5
348.218	441.5
348.445	441.5
348.673	425.5
348.9	416.5
349.128	398.5
349.355	436.5
349.583	423.5
349.81	403.5
350.037	419.5
350.265	415.5
350.492	421.5
350.72	416.5
350.947	419.5
351.174	429.5
351.402	428.5
351.629	423.5
351.856	424.5
352.083	424.5
352.311	438.5
352.538	437.5
352.765	416.5
352.992	407.5
353.22	426.5
353.447	406.5
353.674	396.5
353.901	409.5
354.128	387.5
354.355	395.5
354.583	406.5
354.81	401.5
355.037	395.5
355.264	404.5
355.491	409.5
355.718	403.5
355.945	411.5
356.172	400.5
356.399	412.5
356.626	379.5
356.853	401.5
357.08	385.5
357.307	396.5
357.534	401.5
357.761	394.5
357.988	380.5
358.215	381.5
358.441	411.5
358.668	404.5
358.895	393.5
359.122	410.5
359.349	412.5
359.576	414.5
359.802	450.5
360.029	430.5
360.256	433.5
360.483	453.5
360.709	407.5
360.936	413.5
361.163	403.5
361.39	397.5
361.616	397.5
361.843	399.5
362.07	399.5
362.296	405.5
362.523	392.5
362.749	411.5
362.976	397.5
363.203	417.5
363.429	419.5
363.656	422.5
363.882	403.5
364.109	403.5
364.335	419.5
364.562	396.5
364.788	397.5
365.015	417.5
365.241	403.5
365.468	400.5
365.694	401.5
365.92	387.5
366.147	387.5
366.373	386.5
366.599	396.5
366.826	387.5
367.052	383.5
367.278	403.5
367.505	391.5
367.731	407.5
367.957	398.5
368.184	384.5
368.41	399.5
368.636	418.5
368.862	406.5
369.089	420.5
369.315	404.5
369.541	390.5
369.767	392.5
369.993	412.5
370.219	400.5
370.445	402.5
370.672	388.5
370.898	404.5
371.124	403.5
371.35	397.5
371.576	392.5
371.802	401.5
372.028	409.5
372.254	383.5
372.48	399.5
372.706	408.5
372.932	404.5
373.158	409.5
373.384	404.5
373.61	398.5
373.835	419.5
374.061	389.5
374.287	415.5
374.513	402.5
374.739	394.5
374.965	400.5
375.191	412.5
375.416	416.5
375.642	417.5
375.868	397.5
376.094	392.5
376.319	407.5
376.545	391.5
376.771	380.5
376.997	372.5
377.222	394.5
377.448	385.5
377.674	384.5
377.899	390.5
378.125	398.5
378.35	399.5
378.576	408.5
378.802	392.5
379.027	416.5
379.253	377.5
379.478	386.5
379.704	403.5
379.929	412.5
380.155	401.5
380.38	400.5
380.606	396.5
380.831	408.5
381.057	379.5
381.282	407.5
381.507	386.5
381.733	415.5
381.958	389.5
382.184	384.5
382.409	385.5
382.634	383.5
382.86	410.5
383.085	413.5
383.31	415.5
383.535	423.5
383.761	383.5
383.986	431.5
384.211	425.5
384.436	414.5
384.662	439.5
384.887	416.5
385.112	431.5
385.337	428.5
385.562	425.5
385.787	428.5
386.013	441.5
386.238	427.5
386.463	426.5
386.688	435.5
386.913	423.5
387.138	422.5
387.363	439.5
387.588	441.5
387.813	432.5
388.038	439.5
388.263	422.5
388.488	433.5
388.713	421.5
388.938	451.5
389.163	409.5
389.387	409.5
389.612	412.5
389.837	440.5
390.062	437.5
390.287	435.5
390.512	418.5
390.736	420.5
390.961	423.5
391.186	424.5
391.411	446.5
391.636	436.5
391.86	444.5
392.085	441.5
392.31	433.5
392.534	441.5
392.759	424.5
392.984	422.5
393.208	414.5
393.433	431.5
393.658	427.5
393.882	453.5
394.107	440.5
394.331	428.5
394.556	426.5
394.78	421.5
395.005	459.5
395.229	439.5
395.454	456.5
395.678	453.5
395.903	464.5
396.127	480.5
396.352	491.5
396.576	467.5
396.801	437.5
397.025	467.5
397.249	461.5
397.474	465.5
397.698	455.5
397.922	476.5
398.147	489.5
398.371	497.5
398.595	493.5
398.82	499.5
399.044	495.5
399.268	534.5
399.492	566.5
399.717	611.5
399.941	635.5
400.165	618.5
400.389	602.5
400.613	568.5
400.837	522.5
401.062	515.5
401.286	520.5
401.51	495.5
401.734	496.5
401.958	493.5
402.182	516.5
402.406	486.5
402.63	500.5
402.854	479.5
403.078	506.5
403.302	500.5
403.526	520.5
403.75	533.5
403.974	514.5
404.198	507.5
404.422	513.5
404.645	525.5
404.869	521.5
405.093	545.5
405.317	577.5
405.541	609.5
405.765	571.5
405.988	545.5
406.212	548.5
406.436	537.5
406.66	565.5
406.883	535.5
407.107	553.5
407.331	615.5
407.555	659.5
407.778	646.5
408.002	609.5
408.226	580.5
408.449	570.5
408.673	571.5
408.896	573.5
409.12	604.5
409.344	596.5
409.567	552.5
409.791	522.5
410.014	535.5
410.238	527.5
410.461	515.5
410.685	523.5
410.908	531.5
411.132	531.5
411.355	560.5
411.578	547.5
411.802	513.5
412.025	492.5
412.249	521.5
412.472	535.5
412.695	557.5
412.919	541.5
413.142	517.5
413.365	509.5
413.589	492.5
413.812	481.5
414.035	499.5
414.258	457.5
414.482	500.5
414.705	497.5
414.928	482.5
415.151	480.5
415.374	472.5
415.597	471.5
415.821	472.5
416.044	478.5
416.267	473.5
416.49	479.5
416.713	466.5
416.936	448.5
417.159	491.5
417.382	480.5
417.605	478.5
417.828	488.5
418.051	479.5
418.274	486.5
418.497	484.5
418.72	468.5
418.943	469.5
419.166	495.5
419.389	499.5
419.611	531.5
419.834	498.5
420.057	499.5
420.28	494.5
420.503	499.5
420.726	496.5
420.948	512.5
421.171	553.5
421.394	560.5
421.617	491.5
421.839	489.5
422.062	491.5
422.285	509.5
422.507	551.5
422.73	627.5
422.953	603.5
423.175	508.5
423.398	522.5
423.621	532.5
423.843	544.5
424.066	561.5
424.288	531.5
424.511	545.5
424.733	593.5
424.956	646.5
425.178	613.5
425.401	613.5
425.623	634.5
425.846	578.5
426.068	531.5
426.291	506.5
426.513	533.5
426.735	560.5
426.958	563.5
427.18	607.5
427.402	753.5
427.625	813.5
427.847	677.5
428.069	598.5
428.292	544.5
428.514	515.5
428.736	485.5
428.958	491.5
429.181	473.5
429.403	460.5
429.625	468.5
429.847	511.5
430.069	584.5
430.292	568.5
430.514	500.5
430.736	487.5
430.958	472.5
431.18	478.5
431.402	457.5
431.624	473.5
431.846	455.5
432.068	451.5
432.29	443.5
432.512	439.5
432.734	450.5
432.956	484.5
433.178	461.5
433.4	449.5
433.622	466.5
433.844	453.5
434.066	449.5
434.287	432.5
434.509	461.5
434.731	455.5
434.953	463.5
435.175	522.5
435.397	529.5
435.618	521.5
435.84	544.5
436.062	652.5
436.284	701.5
436.505	561.5
436.727	516.5
436.949	475.5
437.17	476.5
437.392	495.5
437.614	466.5
437.835	507.5
438.057	594.5
438.278	676.5
438.5	685.5
438.721	733.5
438.943	717.5
439.165	576.5
439.386	534.5
439.608	509.5
439.829	520.5
440.05	542.5
440.272	579.5
440.493	536.5
440.715	512.5
440.936	466.5
441.158	488.5
441.379	485.5
441.6	501.5
441.822	500.5
442.043	548.5
442.264	620.5
442.486	685.5
442.707	587.5
442.928	539.5
443.149	531.5
443.371	547.5
443.592	578.5
443.813	683.5
444.034	707.5
444.255	585.5
444.476	571.5
444.698	547.5
444.919	546.5
445.14	641.5
445.361	577.5
445.582	548.5
445.803	602.5
446.024	673.5
446.245	666.5
446.466	611.5
446.687	554.5
446.908	527.5
447.129	480.5
447.35	460.5
447.571	490.5
447.792	474.5
448.013	485.5
448.234	481.5
448.455	517.5
448.675	624.5
448.896	733.5
449.117	606.5
449.338	593.5
449.559	668.5
449.779	771.5
450	600.5
450.221	504.5
450.442	499.5
450.662	456.5
450.883	472.5
451.104	473.5
451.324	462.5
451.545	435.5
451.766	432.5
451.986	417.5
452.207	424.5
452.428	410.5
452.648	419.5
452.869	405.5
453.089	441.5
453.31	415.5
453.53	400.5
453.751	407.5
453.971	433.5
454.192	434.5
454.412	430.5
454.633	404.5
454.853	406.5
455.073	403.5
455.294	436.5
455.514	493.5
455.734	477.5
455.955	420.5
456.175	400.5
456.395	393.5
456.616	388.5
456.836	389.5
457.056	392.5
457.276	381.5
457.497	399.5
457.717	401.5
457.937	412.5
458.157	404.5
458.377	420.5
458.598	429.5
458.818	484.5
459.038	528.5
459.258	541.5
459.478	496.5
459.698	457.5
459.918	436.5
460.138	463.5
460.358	475.5
460.578	483.5
460.798	469.5
461.018	467.5
461.238	450.5
461.458	461.5
461.678	456.5
461.898	451.5
462.118	492.5
462.338	502.5
462.558	508.5
462.777	484.5
462.997	519.5
463.217	520.5
463.437	521.5
463.657	516.5
463.876	501.5
464.096	489.5
464.316	484.5
464.536	492.5
464.755	480.5
464.975	495.5
465.195	528.5
465.414	528.5
465.634	485.5
465.854	481.5
466.073	464.5
466.293	431.5
466.512	425.5
466.732	439.5
466.951	443.5
467.171	418.5
467.391	420.5
467.61	443.5
467.829	425.5
468.049	457.5
468.268	427.5
468.488	429.5
468.707	421.5
468.927	414.5
469.146	419.5
469.365	417.5
469.585	420.5
469.804	423.5
470.023	446.5
470.243	470.5
470.462	451.5
470.681	460.5
470.901	455.5
471.12	424.5
471.339	448.5
471.558	457.5
471.777	431.5
471.997	420.5
472.216	401.5
472.435	440.5
472.654	427.5
472.873	430.5
473.092	415.5
473.311	413.5
473.53	421.5
473.749	427.5
473.968	474.5
474.187	553.5
474.406	567.5
474.625	469.5
474.844	461.5
475.063	463.5
475.282	443.5
475.501	445.5
475.72	424.5
475.939	450.5
476.158	449.5
476.377	456.5
476.596	448.5
476.814	432.5
477.033	442.5
477.252	471.5
477.471	460.5
477.69	459.5
477.908	444.5
478.127	470.5
478.346	472.5
478.564	487.5
478.783	492.5
479.002	486.5
479.22	489.5
479.439	495.5
479.658	511.5
479.876	513.5
480.095	542.5
480.313	544.5
480.532	540.5
480.751	509.5
480.969	524.5
481.188	580.5
481.406	580.5
481.624	552.5
481.843	510.5
482.061	488.5
482.28	491.5
482.498	503.5
482.717	511.5
482.935	505.5
483.153	491.5
483.372	498.5
483.59	497.5
483.808	492.5
484.027	504.5
484.245	509.5
484.463	504.5
484.681	509.5
484.9	511.5
485.118	498.5
485.336	508.5
485.554	515.5
485.772	501.5
485.99	512.5
486.209	523.5
486.427	542.5
486.645	520.5
486.863	542.5
487.081	534.5
487.299	536.5
487.517	525.5
487.735	533.5
487.953	539.5
488.171	517.5
488.389	518.5
488.607	513.5
488.825	517.5
489.043	539.5
489.261	545.5
489.479	539.5
489.696	552.5
489.914	543.5
490.132	559.5
490.35	539.5
490.568	553.5
490.786	569.5
491.003	577.5
491.221	564.5
491.439	588.5
491.657	605.5
491.874	604.5
492.092	592.5
492.31	607.5
492.527	606.5
492.745	596.5
492.963	595.5
493.18	589.5
493.398	605.5
493.615	612.5
493.833	601.5
494.05	594.5
494.268	621.5
494.485	614.5
494.703	627.5
494.92	620.5
495.138	628.5
495.355	609.5
495.573	611.5
495.79	614.5
496.008	627.5
496.225	629.5
496.442	626.5
496.66	620.5
496.877	613.5
497.094	648.5
497.312	639.5
497.529	675.5
497.746	661.5
497.963	697.5
498.181	704.5
498.398	705.5
498.615	720.5
498.832	705.5
499.049	750.5
499.267	787.5
499.484	796.5
499.701	842.5
499.918	858.5
500.135	882.5
500.352	963.5
500.569	947.5
500.786	964.5
501.003	971.5
501.22	908.5
501.437	909.5
501.654	844.5
501.871	810.5
502.088	801.5
502.305	740.5
502.522	730.5
502.739	705.5
502.956	695.5
503.172	657.5
503.389	666.5
503.606	665.5
503.823	655.5
504.04	636.5
504.256	649.5
504.473	644.5
504.69	633.5
504.907	642.5
505.123	598.5
505.34	621.5
505.557	588.5
505.773	597.5
505.99	593.5
506.207	584.5
506.423	594.5
506.64	579.5
506.856	571.5
507.073	612.5
507.289	571.5
507.506	554.5
507.722	577.5
507.939	583.5
508.155	566.5
508.372	564.5
508.588	538.5
508.805	562.5
509.021	566.5
509.238	561.5
509.454	563.5
509.67	553.5
509.887	563.5
510.103	562.5
510.319	548.5
510.536	613.5
510.752	903.5
510.968	762.5
511.184	553.5
511.401	537.5
511.617	514.5
511.833	518.5
512.049	537.5
512.265	537.5
512.481	528.5
512.698	524.5
512.914	532.5
513.13	507.5
513.346	526.5
513.562	524.5
513.778	529.5
513.994	534.5
514.21	531.5
514.426	574.5
514.642	543.5
514.858	578.5
515.074	611.5
515.29	695.5
515.506	887.5
515.721	721.5
515.937	583.5
516.153	574.5
516.369	561.5
516.585	561.5
516.801	552.5
517.016	556.5
517.232	556.5
517.448	550.5
517.664	554.5
517.879	574.5
518.095	551.5
518.311	560.5
518.527	551.5
518.742	559.5
518.958	543.5
519.173	531.5
519.389	545.5
519.605	519.5
519.82	529.5
520.036	551.5
