Data from 1977.PennyLincolnUp.Lamp.En5.5.200Scan.071719.P1_HRD10591_16-06-45-864.txt Node
Date: Thu Jul 18 16:06:45 EDT 2019
User: cochatt
Spectrometer: HR+D1059
Trigger mode: 1
Integration Time (sec): 1.000000E-1
Scans to average: 1
Electric dark correction enabled: true
Nonlinearity correction enabled: false
Boxcar width: 0
XAxis mode: Wavelengths
Number of Pixels in Spectrum: 2048
>>>>>Begin Spectral Data<<<<<
223.165	-16.62
223.4	-16.62
223.635	-16.62
223.869	-22.62
224.104	-37.62
224.338	-6.62
224.573	-12.62
224.808	-14.62
225.042	-5.62
225.277	-8.62
225.511	-3.62
225.746	14.38
225.98	11.38
226.215	16.38
226.449	11.38
226.683	25.38
226.918	23.38
227.152	26.38
227.387	26.38
227.621	34.38
227.856	39.38
228.09	41.38
228.324	48.38
228.559	57.38
228.793	83.38
229.027	94.38
229.262	96.38
229.496	106.38
229.73	125.38
229.964	141.38
230.199	107.38
230.433	98.38
230.667	109.38
230.901	114.38
231.136	119.38
231.37	109.38
231.604	106.38
231.838	100.38
232.072	115.38
232.306	125.38
232.541	108.38
232.775	99.38
233.009	112.38
233.243	103.38
233.477	109.38
233.711	93.38
233.945	107.38
234.179	102.38
234.413	115.38
234.647	125.38
234.881	118.38
235.115	119.38
235.349	126.38
235.583	125.38
235.817	109.38
236.051	138.38
236.285	125.38
236.519	121.38
236.753	133.38
236.987	144.38
237.221	159.38
237.455	206.38
237.689	180.38
237.922	122.38
238.156	122.38
238.39	119.38
238.624	118.38
238.858	124.38
239.091	134.38
239.325	125.38
239.559	117.38
239.793	126.38
240.027	117.38
240.26	132.38
240.494	160.38
240.728	144.38
240.961	147.38
241.195	154.38
241.429	127.38
241.662	130.38
241.896	140.38
242.13	127.38
242.363	137.38
242.597	129.38
242.83	140.38
243.064	150.38
243.298	150.38
243.531	138.38
243.765	141.38
243.998	140.38
244.232	141.38
244.465	135.38
244.699	129.38
244.932	157.38
245.166	143.38
245.399	161.38
245.633	146.38
245.866	137.38
246.099	142.38
246.333	160.38
246.566	143.38
246.8	146.38
247.033	149.38
247.266	139.38
247.5	170.38
247.733	167.38
247.966	167.38
248.2	169.38
248.433	162.38
248.666	177.38
248.899	170.38
249.133	180.38
249.366	181.38
249.599	189.38
249.832	174.38
250.066	189.38
250.299	184.38
250.532	199.38
250.765	191.38
250.998	233.38
251.231	225.38
251.465	212.38
251.698	186.38
251.931	182.38
252.164	191.38
252.397	200.38
252.63	192.38
252.863	199.38
253.096	214.38
253.329	226.38
253.562	209.38
253.795	216.38
254.028	209.38
254.261	226.38
254.494	241.38
254.727	234.38
254.96	268.38
255.193	243.38
255.426	232.38
255.659	221.38
255.892	250.38
256.124	225.38
256.357	220.38
256.59	218.38
256.823	215.38
257.056	199.38
257.289	197.38
257.521	203.38
257.754	201.38
257.987	224.38
258.22	205.38
258.452	209.38
258.685	206.38
258.918	208.38
259.151	210.38
259.383	208.38
259.616	219.38
259.849	229.38
260.081	225.38
260.314	234.38
260.547	238.38
260.779	233.38
261.012	246.38
261.244	230.38
261.477	230.38
261.71	214.38
261.942	236.38
262.175	240.38
262.407	218.38
262.64	218.38
262.872	213.38
263.105	233.38
263.337	201.38
263.57	203.38
263.802	233.38
264.035	214.38
264.267	222.38
264.499	225.38
264.732	213.38
264.964	218.38
265.197	206.38
265.429	221.38
265.661	223.38
265.894	213.38
266.126	220.38
266.358	222.38
266.591	217.38
266.823	236.38
267.055	245.38
267.287	247.38
267.52	218.38
267.752	229.38
267.984	225.38
268.216	236.38
268.448	242.38
268.681	253.38
268.913	237.38
269.145	255.38
269.377	281.38
269.609	286.38
269.841	281.38
270.073	271.38
270.306	307.38
270.538	309.38
270.77	319.38
271.002	298.38
271.234	289.38
271.466	285.38
271.698	325.38
271.93	316.38
272.162	321.38
272.394	308.38
272.626	292.38
272.858	286.38
273.09	283.38
273.322	276.38
273.553	269.38
273.785	246.38
274.017	281.38
274.249	263.38
274.481	251.38
274.713	279.38
274.945	277.38
275.176	277.38
275.408	260.38
275.64	274.38
275.872	269.38
276.104	259.38
276.335	283.38
276.567	274.38
276.799	277.38
277.031	321.38
277.262	317.38
277.494	306.38
277.726	317.38
277.957	277.38
278.189	286.38
278.421	275.38
278.652	269.38
278.884	274.38
279.115	282.38
279.347	278.38
279.579	274.38
279.81	266.38
280.042	272.38
280.273	285.38
280.505	274.38
280.736	300.38
280.968	271.38
281.199	293.38
281.431	289.38
281.662	291.38
281.894	288.38
282.125	281.38
282.356	298.38
282.588	315.38
282.819	309.38
283.051	279.38
283.282	275.38
283.513	295.38
283.745	312.38
283.976	283.38
284.207	287.38
284.439	313.38
284.67	293.38
284.901	282.38
285.132	293.38
285.364	291.38
285.595	300.38
285.826	309.38
286.057	303.38
286.288	325.38
286.52	327.38
286.751	283.38
286.982	285.38
287.213	299.38
287.444	300.38
287.675	291.38
287.906	323.38
288.138	336.38
288.369	307.38
288.6	323.38
288.831	319.38
289.062	311.38
289.293	319.38
289.524	312.38
289.755	297.38
289.986	298.38
290.217	307.38
290.448	298.38
290.679	309.38
290.91	318.38
291.141	320.38
291.371	330.38
291.602	312.38
291.833	316.38
292.064	317.38
292.295	310.38
292.526	318.38
292.757	313.38
292.987	322.38
293.218	305.38
293.449	300.38
293.68	299.38
293.91	324.38
294.141	294.38
294.372	324.38
294.603	297.38
294.833	309.38
295.064	315.38
295.295	319.38
295.525	321.38
295.756	306.38
295.987	316.38
296.217	335.38
296.448	330.38
296.679	314.38
296.909	319.38
297.14	326.38
297.37	312.38
297.601	313.38
297.831	339.38
298.062	328.38
298.292	339.38
298.523	331.38
298.753	329.38
298.984	335.38
299.214	350.38
299.445	323.38
299.675	344.38
299.905	347.38
300.136	324.38
300.366	316.38
300.597	330.38
300.827	349.38
301.057	347.38
301.288	358.38
301.518	381.38
301.748	356.38
301.979	348.38
302.209	346.38
302.439	362.38
302.669	347.38
302.9	351.38
303.13	353.38
303.36	364.38
303.59	349.38
303.82	341.38
304.051	373.38
304.281	351.38
304.511	343.38
304.741	354.38
304.971	341.38
305.201	328.38
305.431	369.38
305.661	353.38
305.891	333.38
306.121	373.38
306.352	351.38
306.582	341.38
306.812	350.38
307.042	355.38
307.272	350.38
307.502	358.38
307.731	354.38
307.961	350.38
308.191	359.38
308.421	353.38
308.651	365.38
308.881	364.38
309.111	372.38
309.341	361.38
309.571	351.38
309.8	365.38
310.03	355.38
310.26	387.38
310.49	379.38
310.72	403.38
310.949	405.38
311.179	395.38
311.409	377.38
311.639	392.38
311.868	395.38
312.098	395.38
312.328	399.38
312.557	408.38
312.787	390.38
313.017	392.38
313.246	391.38
313.476	382.38
313.706	392.38
313.935	385.38
314.165	403.38
314.394	404.38
314.624	410.38
314.853	407.38
315.083	393.38
315.312	409.38
315.542	393.38
315.771	391.38
316.001	403.38
316.23	393.38
316.46	407.38
316.689	383.38
316.919	391.38
317.148	402.38
317.377	395.38
317.607	400.38
317.836	393.38
318.065	383.38
318.295	403.38
318.524	388.38
318.753	383.38
318.983	393.38
319.212	377.38
319.441	405.38
319.67	403.38
319.9	387.38
320.129	417.38
320.358	398.38
320.587	378.38
320.816	403.38
321.046	390.38
321.275	412.38
321.504	413.38
321.733	407.38
321.962	409.38
322.191	419.38
322.42	429.38
322.649	457.38
322.878	435.38
323.108	470.38
323.337	461.38
323.566	520.38
323.795	502.38
324.024	517.38
324.253	624.38
324.482	877.38
324.71	1272.38
324.939	1735.38
325.168	1479.38
325.397	802.38
325.626	601.38
325.855	507.38
326.084	513.38
326.313	480.38
326.542	489.38
326.77	533.38
326.999	602.38
327.228	801.38
327.457	1132.38
327.686	1342.38
327.914	904.38
328.143	643.38
328.372	567.38
328.6	556.38
328.829	523.38
329.058	525.38
329.287	553.38
329.515	523.38
329.744	483.38
329.972	495.38
330.201	483.38
330.43	536.38
330.658	538.38
330.887	530.38
331.115	549.38
331.344	517.38
331.572	497.38
331.801	481.38
332.03	494.38
332.258	446.38
332.486	464.38
332.715	471.38
332.943	456.38
333.172	465.38
333.4	487.38
333.629	479.38
333.857	487.38
334.085	517.38
334.314	509.38
334.542	518.38
334.771	554.38
334.999	520.38
335.227	501.38
335.455	478.38
335.684	456.38
335.912	461.38
336.14	459.38
336.369	468.38
336.597	471.38
336.825	468.38
337.053	458.38
337.281	458.38
337.51	436.38
337.738	476.38
337.966	455.38
338.194	443.38
338.422	447.38
338.65	441.38
338.878	429.38
339.106	431.38
339.334	458.38
339.562	438.38
339.79	442.38
340.018	422.38
340.246	450.38
340.474	444.38
340.702	437.38
340.93	439.38
341.158	438.38
341.386	451.38
341.614	457.38
341.842	439.38
342.07	437.38
342.298	422.38
342.526	437.38
342.754	437.38
342.981	422.38
343.209	426.38
343.437	438.38
343.665	449.38
343.893	470.38
344.12	457.38
344.348	479.38
344.576	447.38
344.804	445.38
345.031	443.38
345.259	455.38
345.487	451.38
345.714	444.38
345.942	414.38
346.17	424.38
346.397	413.38
346.625	411.38
346.853	418.38
347.08	430.38
347.308	410.38
347.535	443.38
347.763	429.38
347.99	419.38
348.218	420.38
348.445	423.38
348.673	408.38
348.9	419.38
349.128	421.38
349.355	402.38
349.583	403.38
349.81	406.38
350.037	384.38
350.265	398.38
350.492	395.38
350.72	411.38
350.947	408.38
351.174	428.38
351.402	418.38
351.629	405.38
351.856	412.38
352.083	424.38
352.311	418.38
352.538	423.38
352.765	422.38
352.992	436.38
353.22	410.38
353.447	433.38
353.674	422.38
353.901	398.38
354.128	388.38
354.355	388.38
354.583	390.38
354.81	392.38
355.037	384.38
355.264	398.38
355.491	382.38
355.718	394.38
355.945	391.38
356.172	419.38
356.399	385.38
356.626	400.38
356.853	389.38
357.08	409.38
357.307	383.38
357.534	377.38
357.761	401.38
357.988	378.38
358.215	395.38
358.441	400.38
358.668	397.38
358.895	392.38
359.122	413.38
359.349	389.38
359.576	419.38
359.802	409.38
360.029	435.38
360.256	423.38
360.483	429.38
360.709	417.38
360.936	403.38
361.163	408.38
361.39	409.38
361.616	395.38
361.843	415.38
362.07	415.38
362.296	417.38
362.523	401.38
362.749	398.38
362.976	391.38
363.203	391.38
363.429	397.38
363.656	394.38
363.882	399.38
364.109	395.38
364.335	380.38
364.562	398.38
364.788	393.38
365.015	389.38
365.241	385.38
365.468	391.38
365.694	384.38
365.92	395.38
366.147	395.38
366.373	372.38
366.599	394.38
366.826	389.38
367.052	387.38
367.278	362.38
367.505	397.38
367.731	401.38
367.957	381.38
368.184	380.38
368.41	371.38
368.636	395.38
368.862	420.38
369.089	407.38
369.315	400.38
369.541	378.38
369.767	399.38
369.993	406.38
370.219	389.38
370.445	387.38
370.672	380.38
370.898	398.38
371.124	404.38
371.35	405.38
371.576	394.38
371.802	397.38
372.028	392.38
372.254	382.38
372.48	385.38
372.706	410.38
372.932	383.38
373.158	390.38
373.384	384.38
373.61	398.38
373.835	402.38
374.061	402.38
374.287	403.38
374.513	389.38
374.739	406.38
374.965	390.38
375.191	411.38
375.416	385.38
375.642	393.38
375.868	386.38
376.094	392.38
376.319	390.38
376.545	400.38
376.771	392.38
376.997	391.38
377.222	393.38
377.448	398.38
377.674	390.38
377.899	391.38
378.125	396.38
378.35	396.38
378.576	391.38
378.802	359.38
379.027	389.38
379.253	402.38
379.478	377.38
379.704	373.38
379.929	389.38
380.155	377.38
380.38	373.38
380.606	401.38
380.831	399.38
381.057	383.38
381.282	404.38
381.507	399.38
381.733	387.38
381.958	384.38
382.184	403.38
382.409	381.38
382.634	390.38
382.86	407.38
383.085	410.38
383.31	402.38
383.535	393.38
383.761	387.38
383.986	414.38
384.211	407.38
384.436	405.38
384.662	411.38
384.887	407.38
385.112	420.38
385.337	420.38
385.562	437.38
385.787	430.38
386.013	460.38
386.238	429.38
386.463	444.38
386.688	439.38
386.913	420.38
387.138	417.38
387.363	424.38
387.588	413.38
387.813	422.38
388.038	442.38
388.263	419.38
388.488	413.38
388.713	425.38
388.938	423.38
389.163	406.38
389.387	423.38
389.612	417.38
389.837	417.38
390.062	418.38
390.287	427.38
390.512	418.38
390.736	442.38
390.961	440.38
391.186	445.38
391.411	451.38
391.636	452.38
391.86	433.38
392.085	451.38
392.31	435.38
392.534	446.38
392.759	433.38
392.984	446.38
393.208	426.38
393.433	414.38
393.658	443.38
393.882	439.38
394.107	414.38
394.331	438.38
394.556	423.38
394.78	442.38
395.005	436.38
395.229	429.38
395.454	443.38
395.678	431.38
395.903	459.38
396.127	474.38
396.352	459.38
396.576	459.38
396.801	464.38
397.025	425.38
397.249	447.38
397.474	448.38
397.698	447.38
397.922	489.38
398.147	468.38
398.371	478.38
398.595	485.38
398.82	499.38
399.044	461.38
399.268	518.38
399.492	533.38
399.717	593.38
399.941	599.38
400.165	611.38
400.389	587.38
400.613	555.38
400.837	524.38
401.062	483.38
401.286	497.38
401.51	490.38
401.734	475.38
401.958	504.38
402.182	486.38
402.406	480.38
402.63	512.38
402.854	515.38
403.078	502.38
403.302	502.38
403.526	529.38
403.75	509.38
403.974	521.38
404.198	503.38
404.422	527.38
404.645	502.38
404.869	533.38
405.093	522.38
405.317	577.38
405.541	570.38
405.765	542.38
405.988	519.38
406.212	527.38
406.436	542.38
406.66	536.38
406.883	536.38
407.107	571.38
407.331	612.38
407.555	667.38
407.778	651.38
408.002	606.38
408.226	586.38
408.449	558.38
408.673	548.38
408.896	561.38
409.12	600.38
409.344	595.38
409.567	522.38
409.791	517.38
410.014	497.38
410.238	515.38
410.461	521.38
410.685	490.38
410.908	524.38
411.132	559.38
411.355	572.38
411.578	574.38
411.802	527.38
412.025	489.38
412.249	501.38
412.472	523.38
412.695	555.38
412.919	516.38
413.142	517.38
413.365	499.38
413.589	498.38
413.812	467.38
414.035	459.38
414.258	471.38
414.482	470.38
414.705	479.38
414.928	470.38
415.151	461.38
415.374	462.38
415.597	471.38
415.821	451.38
416.044	451.38
416.267	471.38
416.49	478.38
416.713	455.38
416.936	465.38
417.159	446.38
417.382	466.38
417.605	469.38
417.828	492.38
418.051	494.38
418.274	468.38
418.497	459.38
418.72	457.38
418.943	482.38
419.166	505.38
419.389	527.38
419.611	506.38
419.834	507.38
420.057	522.38
420.28	508.38
420.503	493.38
420.726	485.38
420.948	470.38
421.171	518.38
421.394	554.38
421.617	518.38
421.839	475.38
422.062	478.38
422.285	491.38
422.507	540.38
422.73	606.38
422.953	578.38
423.175	513.38
423.398	488.38
423.621	517.38
423.843	495.38
424.066	507.38
424.288	527.38
424.511	527.38
424.733	583.38
424.956	636.38
425.178	599.38
425.401	600.38
425.623	611.38
425.846	535.38
426.068	514.38
426.291	498.38
426.513	497.38
426.735	516.38
426.958	572.38
427.18	601.38
427.402	686.38
427.625	806.38
427.847	669.38
428.069	581.38
428.292	528.38
428.514	503.38
428.736	489.38
428.958	475.38
429.181	456.38
429.403	473.38
429.625	491.38
429.847	487.38
430.069	550.38
430.292	551.38
430.514	474.38
430.736	465.38
430.958	467.38
431.18	435.38
431.402	456.38
431.624	437.38
431.846	425.38
432.068	468.38
432.29	458.38
432.512	446.38
432.734	453.38
432.956	451.38
433.178	445.38
433.4	463.38
433.622	454.38
433.844	450.38
434.066	456.38
434.287	450.38
434.509	435.38
434.731	457.38
434.953	464.38
435.175	474.38
435.397	497.38
435.618	515.38
435.84	556.38
436.062	613.38
436.284	650.38
436.505	554.38
436.727	501.38
436.949	467.38
437.17	493.38
437.392	474.38
437.614	472.38
437.835	519.38
438.057	571.38
438.278	655.38
438.5	657.38
438.721	714.38
438.943	695.38
439.165	565.38
439.386	513.38
439.608	504.38
439.829	504.38
440.05	509.38
440.272	559.38
440.493	526.38
440.715	490.38
440.936	494.38
441.158	490.38
441.379	479.38
441.6	495.38
441.822	482.38
442.043	517.38
442.264	597.38
442.486	637.38
442.707	558.38
442.928	529.38
443.149	511.38
443.371	552.38
443.592	573.38
443.813	635.38
444.034	696.38
444.255	589.38
444.476	547.38
444.698	500.38
444.919	532.38
445.14	645.38
445.361	576.38
445.582	542.38
445.803	593.38
446.024	673.38
446.245	673.38
446.466	602.38
446.687	550.38
446.908	496.38
447.129	473.38
447.35	451.38
447.571	473.38
447.792	446.38
448.013	439.38
448.234	472.38
448.455	508.38
448.675	619.38
448.896	682.38
449.117	592.38
449.338	566.38
449.559	655.38
449.779	729.38
450	590.38
450.221	500.38
450.442	487.38
450.662	443.38
450.883	431.38
451.104	459.38
451.324	459.38
451.545	442.38
451.766	425.38
451.986	410.38
452.207	419.38
452.428	401.38
452.648	386.38
452.869	398.38
453.089	418.38
453.31	426.38
453.53	414.38
453.751	415.38
453.971	410.38
454.192	430.38
454.412	412.38
454.633	415.38
454.853	403.38
455.073	396.38
455.294	403.38
455.514	475.38
455.734	465.38
455.955	414.38
456.175	401.38
456.395	379.38
456.616	382.38
456.836	383.38
457.056	386.38
457.276	382.38
457.497	399.38
457.717	391.38
457.937	393.38
458.157	409.38
458.377	398.38
458.598	409.38
458.818	464.38
459.038	502.38
459.258	527.38
459.478	468.38
459.698	440.38
459.918	425.38
460.138	456.38
460.358	449.38
460.578	450.38
460.798	462.38
461.018	461.38
461.238	466.38
461.458	469.38
461.678	461.38
461.898	463.38
462.118	455.38
462.338	467.38
462.558	462.38
462.777	472.38
462.997	484.38
463.217	510.38
463.437	517.38
463.657	499.38
463.876	499.38
464.096	499.38
464.316	494.38
464.536	502.38
464.755	481.38
464.975	488.38
465.195	503.38
465.414	547.38
465.634	469.38
465.854	455.38
466.073	435.38
466.293	434.38
466.512	450.38
466.732	422.38
466.951	414.38
467.171	426.38
467.391	412.38
467.61	423.38
467.829	415.38
468.049	431.38
468.268	438.38
468.488	397.38
468.707	407.38
468.927	397.38
469.146	393.38
469.365	404.38
469.585	418.38
469.804	433.38
470.023	419.38
470.243	419.38
470.462	434.38
470.681	441.38
470.901	437.38
471.12	414.38
471.339	445.38
471.558	463.38
471.777	429.38
471.997	430.38
472.216	419.38
472.435	435.38
472.654	427.38
472.873	423.38
473.092	409.38
473.311	397.38
473.53	424.38
473.749	428.38
473.968	454.38
474.187	537.38
474.406	546.38
474.625	491.38
474.844	458.38
475.063	424.38
475.282	431.38
475.501	415.38
475.72	445.38
475.939	428.38
476.158	429.38
476.377	439.38
476.596	426.38
476.814	443.38
477.033	437.38
477.252	450.38
477.471	458.38
477.69	455.38
477.908	464.38
478.127	454.38
478.346	455.38
478.564	481.38
478.783	496.38
479.002	497.38
479.22	488.38
479.439	491.38
479.658	508.38
479.876	515.38
480.095	529.38
480.313	539.38
480.532	542.38
480.751	525.38
480.969	508.38
481.188	551.38
481.406	557.38
481.624	508.38
481.843	508.38
482.061	514.38
482.28	493.38
482.498	492.38
482.717	495.38
482.935	469.38
483.153	494.38
483.372	480.38
483.59	473.38
483.808	511.38
484.027	501.38
484.245	473.38
484.463	498.38
484.681	488.38
484.9	511.38
485.118	509.38
485.336	494.38
485.554	495.38
485.772	502.38
485.99	512.38
486.209	505.38
486.427	491.38
486.645	501.38
486.863	519.38
487.081	534.38
487.299	506.38
487.517	512.38
487.735	502.38
487.953	495.38
488.171	541.38
488.389	503.38
488.607	512.38
488.825	522.38
489.043	509.38
489.261	522.38
489.479	540.38
489.696	501.38
489.914	533.38
490.132	546.38
490.35	537.38
490.568	547.38
490.786	535.38
491.003	553.38
491.221	559.38
491.439	554.38
491.657	566.38
491.874	587.38
492.092	599.38
492.31	583.38
492.527	584.38
492.745	595.38
492.963	587.38
493.18	574.38
493.398	603.38
493.615	592.38
493.833	622.38
494.05	601.38
494.268	581.38
494.485	594.38
494.703	609.38
494.92	596.38
495.138	618.38
495.355	594.38
495.573	605.38
495.79	595.38
496.008	610.38
496.225	590.38
496.442	606.38
496.66	620.38
496.877	610.38
497.094	635.38
497.312	609.38
497.529	639.38
497.746	653.38
497.963	658.38
498.181	686.38
498.398	669.38
498.615	686.38
498.832	707.38
499.049	725.38
499.267	762.38
499.484	797.38
499.701	826.38
499.918	847.38
500.135	892.38
500.352	914.38
500.569	959.38
500.786	966.38
501.003	923.38
501.22	935.38
501.437	862.38
501.654	831.38
501.871	818.38
502.088	773.38
