Data from 1977.PennyLincolnUp.Lamp.En5.5.200Scan.071719.P1_HRD10591_16-07-51-865.txt Node
Date: Thu Jul 18 16:07:51 EDT 2019
User: cochatt
Spectrometer: HR+D1059
Trigger mode: 1
Integration Time (sec): 1.000000E-1
Scans to average: 1
Electric dark correction enabled: true
Nonlinearity correction enabled: false
Boxcar width: 0
XAxis mode: Wavelengths
Number of Pixels in Spectrum: 2048
>>>>>Begin Spectral Data<<<<<
223.165	-14.69
223.4	-14.69
223.635	-14.69
223.869	-10.69
224.104	-8.69
224.338	-11.69
224.573	-9.69
224.808	-29.69
225.042	-15.69
225.277	-7.69
225.511	6.31
225.746	4.31
225.98	4.31
226.215	16.31
226.449	8.31
226.683	6.31
226.918	22.31
227.152	40.31
227.387	29.31
227.621	40.31
227.856	42.31
228.09	44.31
228.324	49.31
228.559	52.31
228.793	72.31
229.027	118.31
229.262	106.31
229.496	121.31
229.73	124.31
229.964	146.31
230.199	122.31
230.433	102.31
230.667	109.31
230.901	123.31
231.136	124.31
231.37	114.31
231.604	124.31
231.838	123.31
232.072	111.31
232.306	123.31
232.541	120.31
232.775	119.31
233.009	108.31
233.243	104.31
233.477	100.31
233.711	113.31
233.945	129.31
234.179	110.31
234.413	126.31
234.647	120.31
234.881	122.31
235.115	106.31
235.349	114.31
235.583	138.31
235.817	120.31
236.051	121.31
236.285	101.31
236.519	130.31
236.753	112.31
236.987	148.31
237.221	176.31
237.455	218.31
237.689	184.31
237.922	138.31
238.156	130.31
238.39	131.31
238.624	116.31
238.858	143.31
239.091	124.31
239.325	136.31
239.559	133.31
239.793	141.31
240.027	158.31
240.26	132.31
240.494	152.31
240.728	160.31
240.961	145.31
241.195	153.31
241.429	157.31
241.662	130.31
241.896	136.31
242.13	153.31
242.363	122.31
242.597	137.31
242.83	144.31
243.064	153.31
243.298	142.31
243.531	141.31
243.765	163.31
243.998	141.31
244.232	158.31
244.465	149.31
244.699	153.31
244.932	137.31
245.166	147.31
245.399	160.31
245.633	154.31
245.866	158.31
246.099	164.31
246.333	149.31
246.566	152.31
246.8	142.31
247.033	161.31
247.266	176.31
247.5	157.31
247.733	168.31
247.966	176.31
248.2	176.31
248.433	179.31
248.666	188.31
248.899	193.31
249.133	185.31
249.366	191.31
249.599	188.31
249.832	176.31
250.066	191.31
250.299	189.31
250.532	189.31
250.765	212.31
250.998	223.31
251.231	214.31
251.465	228.31
251.698	201.31
251.931	196.31
252.164	182.31
252.397	200.31
252.63	210.31
252.863	202.31
253.096	226.31
253.329	208.31
253.562	233.31
253.795	223.31
254.028	212.31
254.261	221.31
254.494	223.31
254.727	235.31
254.96	285.31
255.193	276.31
255.426	262.31
255.659	218.31
255.892	238.31
256.124	231.31
256.357	235.31
256.59	230.31
256.823	241.31
257.056	221.31
257.289	222.31
257.521	206.31
257.754	202.31
257.987	224.31
258.22	209.31
258.452	208.31
258.685	203.31
258.918	200.31
259.151	210.31
259.383	220.31
259.616	224.31
259.849	231.31
260.081	241.31
260.314	248.31
260.547	250.31
260.779	255.31
261.012	257.31
261.244	250.31
261.477	228.31
261.71	252.31
261.942	217.31
262.175	252.31
262.407	236.31
262.64	231.31
262.872	222.31
263.105	204.31
263.337	217.31
263.57	217.31
263.802	204.31
264.035	218.31
264.267	239.31
264.499	238.31
264.732	222.31
264.964	244.31
265.197	218.31
265.429	226.31
265.661	237.31
265.894	234.31
266.126	231.31
266.358	235.31
266.591	245.31
266.823	235.31
267.055	225.31
267.287	247.31
267.52	247.31
267.752	231.31
267.984	225.31
268.216	226.31
268.448	250.31
268.681	258.31
268.913	272.31
269.145	263.31
269.377	296.31
269.609	299.31
269.841	301.31
270.073	284.31
270.306	283.31
270.538	325.31
270.77	316.31
271.002	310.31
271.234	317.31
271.466	302.31
271.698	305.31
271.93	329.31
272.162	300.31
272.394	334.31
272.626	312.31
272.858	305.31
273.09	292.31
273.322	274.31
273.553	289.31
273.785	278.31
274.017	279.31
274.249	272.31
274.481	302.31
274.713	295.31
274.945	288.31
275.176	290.31
275.408	296.31
275.64	277.31
275.872	294.31
276.104	296.31
276.335	285.31
276.567	288.31
276.799	296.31
277.031	316.31
277.262	330.31
277.494	344.31
277.726	308.31
277.957	291.31
278.189	316.31
278.421	294.31
278.652	286.31
278.884	284.31
279.115	287.31
279.347	293.31
279.579	265.31
279.81	287.31
280.042	303.31
280.273	285.31
280.505	282.31
280.736	287.31
280.968	315.31
281.199	292.31
281.431	302.31
281.662	301.31
281.894	306.31
282.125	300.31
282.356	320.31
282.588	316.31
282.819	335.31
283.051	324.31
283.282	302.31
283.513	304.31
283.745	310.31
283.976	302.31
284.207	301.31
284.439	302.31
284.67	328.31
284.901	308.31
285.132	325.31
285.364	279.31
285.595	300.31
285.826	322.31
286.057	308.31
286.288	296.31
286.52	303.31
286.751	303.31
286.982	313.31
287.213	311.31
287.444	316.31
287.675	312.31
287.906	325.31
288.138	317.31
288.369	314.31
288.6	341.31
288.831	319.31
289.062	341.31
289.293	324.31
289.524	322.31
289.755	305.31
289.986	320.31
290.217	326.31
290.448	315.31
290.679	336.31
290.91	334.31
291.141	308.31
291.371	308.31
291.602	324.31
291.833	330.31
292.064	329.31
292.295	313.31
292.526	330.31
292.757	324.31
292.987	318.31
293.218	317.31
293.449	317.31
293.68	331.31
293.91	312.31
294.141	306.31
294.372	324.31
294.603	329.31
294.833	331.31
295.064	340.31
295.295	322.31
295.525	336.31
295.756	340.31
295.987	313.31
296.217	352.31
296.448	339.31
296.679	337.31
296.909	334.31
297.14	327.31
297.37	335.31
297.601	340.31
297.831	332.31
298.062	319.31
298.292	317.31
298.523	348.31
298.753	339.31
298.984	352.31
299.214	349.31
299.445	337.31
299.675	346.31
299.905	337.31
300.136	330.31
300.366	340.31
300.597	341.31
300.827	324.31
301.057	367.31
301.288	370.31
301.518	364.31
301.748	361.31
301.979	373.31
302.209	342.31
302.439	377.31
302.669	344.31
302.9	357.31
303.13	343.31
303.36	362.31
303.59	359.31
303.82	391.31
304.051	386.31
304.281	363.31
304.511	340.31
304.741	337.31
304.971	348.31
305.201	354.31
305.431	368.31
305.661	360.31
305.891	360.31
306.121	348.31
306.352	381.31
306.582	367.31
306.812	363.31
307.042	376.31
307.272	359.31
307.502	368.31
307.731	381.31
307.961	366.31
308.191	366.31
308.421	373.31
308.651	362.31
308.881	367.31
309.111	379.31
309.341	356.31
309.571	402.31
309.8	387.31
310.03	397.31
310.26	406.31
310.49	403.31
310.72	388.31
310.949	407.31
311.179	414.31
311.409	406.31
311.639	411.31
311.868	415.31
312.098	408.31
312.328	410.31
312.557	420.31
312.787	416.31
313.017	410.31
313.246	427.31
313.476	393.31
313.706	400.31
313.935	401.31
314.165	427.31
314.394	416.31
314.624	427.31
314.853	413.31
315.083	407.31
315.312	426.31
315.542	400.31
315.771	388.31
316.001	398.31
316.23	388.31
316.46	394.31
316.689	429.31
316.919	417.31
317.148	429.31
317.377	413.31
317.607	410.31
317.836	404.31
318.065	396.31
318.295	429.31
318.524	407.31
318.753	424.31
318.983	401.31
319.212	402.31
319.441	421.31
319.67	428.31
319.9	412.31
320.129	418.31
320.358	406.31
320.587	390.31
320.816	415.31
321.046	437.31
321.275	422.31
321.504	406.31
321.733	424.31
321.962	446.31
322.191	448.31
322.42	461.31
322.649	445.31
322.878	470.31
323.108	489.31
323.337	496.31
323.566	507.31
323.795	500.31
324.024	571.31
324.253	632.31
324.482	896.31
324.71	1362.31
324.939	1868.31
325.168	1594.31
325.397	844.31
325.626	601.31
325.855	534.31
326.084	509.31
326.313	490.31
326.542	511.31
326.77	527.31
326.999	616.31
327.228	837.31
327.457	1211.31
327.686	1393.31
327.914	954.31
328.143	696.31
328.372	607.31
328.6	569.31
328.829	549.31
329.058	554.31
329.287	576.31
329.515	567.31
329.744	514.31
329.972	517.31
330.201	529.31
330.43	577.31
330.658	578.31
330.887	573.31
331.115	570.31
331.344	529.31
331.572	514.31
331.801	509.31
332.03	532.31
332.258	512.31
332.486	489.31
332.715	464.31
332.943	479.31
333.172	482.31
333.4	490.31
333.629	501.31
333.857	508.31
334.085	502.31
334.314	530.31
334.542	546.31
334.771	542.31
334.999	509.31
335.227	511.31
335.455	488.31
335.684	503.31
335.912	484.31
336.14	476.31
336.369	463.31
336.597	482.31
336.825	463.31
337.053	484.31
337.281	468.31
337.51	473.31
337.738	477.31
337.966	483.31
338.194	453.31
338.422	473.31
338.65	435.31
338.878	468.31
339.106	476.31
339.334	481.31
339.562	461.31
339.79	454.31
340.018	441.31
340.246	445.31
340.474	465.31
340.702	456.31
340.93	466.31
341.158	459.31
341.386	441.31
341.614	436.31
341.842	477.31
342.07	455.31
342.298	438.31
342.526	447.31
342.754	447.31
342.981	426.31
343.209	433.31
343.437	458.31
343.665	466.31
343.893	453.31
344.12	500.31
344.348	465.31
344.576	477.31
344.804	469.31
345.031	478.31
345.259	447.31
345.487	448.31
345.714	442.31
345.942	438.31
346.17	441.31
346.397	452.31
346.625	434.31
346.853	429.31
347.08	428.31
347.308	456.31
347.535	440.31
347.763	453.31
347.99	429.31
348.218	438.31
348.445	443.31
348.673	458.31
348.9	461.31
349.128	438.31
349.355	411.31
349.583	429.31
349.81	436.31
350.037	419.31
350.265	413.31
350.492	416.31
350.72	433.31
350.947	432.31
351.174	433.31
351.402	442.31
351.629	439.31
351.856	447.31
352.083	430.31
352.311	432.31
352.538	432.31
352.765	428.31
352.992	414.31
353.22	423.31
353.447	417.31
353.674	420.31
353.901	400.31
354.128	438.31
354.355	408.31
354.583	404.31
354.81	410.31
355.037	410.31
355.264	407.31
355.491	407.31
355.718	405.31
355.945	401.31
356.172	388.31
356.399	389.31
356.626	405.31
356.853	396.31
357.08	377.31
357.307	412.31
357.534	408.31
357.761	401.31
357.988	418.31
358.215	385.31
358.441	396.31
358.668	383.31
358.895	413.31
359.122	374.31
359.349	422.31
359.576	428.31
359.802	419.31
360.029	461.31
360.256	470.31
360.483	454.31
360.709	438.31
360.936	401.31
361.163	439.31
361.39	439.31
361.616	425.31
361.843	406.31
362.07	433.31
362.296	440.31
362.523	418.31
362.749	418.31
362.976	423.31
363.203	424.31
363.429	415.31
363.656	413.31
363.882	421.31
364.109	428.31
364.335	412.31
364.562	431.31
364.788	397.31
365.015	415.31
365.241	391.31
365.468	410.31
365.694	417.31
365.92	427.31
366.147	410.31
366.373	402.31
366.599	402.31
366.826	420.31
367.052	398.31
367.278	384.31
367.505	405.31
367.731	402.31
367.957	420.31
368.184	404.31
368.41	400.31
368.636	412.31
368.862	417.31
369.089	424.31
369.315	393.31
369.541	402.31
369.767	405.31
369.993	390.31
370.219	407.31
370.445	401.31
370.672	401.31
370.898	405.31
371.124	385.31
371.35	412.31
371.576	407.31
371.802	403.31
372.028	415.31
372.254	416.31
372.48	413.31
372.706	411.31
372.932	419.31
373.158	416.31
373.384	393.31
373.61	414.31
373.835	406.31
374.061	392.31
374.287	425.31
374.513	403.31
374.739	402.31
374.965	421.31
375.191	417.31
375.416	408.31
375.642	427.31
375.868	412.31
376.094	411.31
376.319	408.31
376.545	414.31
376.771	390.31
376.997	400.31
377.222	399.31
377.448	406.31
377.674	403.31
377.899	405.31
378.125	393.31
378.35	408.31
378.576	401.31
378.802	370.31
379.027	398.31
379.253	386.31
379.478	395.31
379.704	396.31
379.929	418.31
380.155	398.31
380.38	395.31
380.606	398.31
380.831	425.31
381.057	406.31
381.282	386.31
381.507	412.31
381.733	400.31
381.958	406.31
382.184	425.31
382.409	417.31
382.634	410.31
382.86	405.31
383.085	396.31
383.31	420.31
383.535	404.31
383.761	432.31
383.986	419.31
384.211	427.31
384.436	430.31
384.662	433.31
384.887	426.31
385.112	446.31
385.337	458.31
385.562	441.31
385.787	438.31
386.013	439.31
386.238	440.31
386.463	433.31
386.688	441.31
386.913	427.31
387.138	445.31
387.363	463.31
387.588	418.31
387.813	427.31
388.038	429.31
388.263	445.31
388.488	420.31
388.713	445.31
388.938	454.31
389.163	434.31
389.387	449.31
389.612	435.31
389.837	442.31
390.062	445.31
390.287	444.31
390.512	438.31
390.736	450.31
390.961	433.31
391.186	430.31
391.411	437.31
391.636	440.31
391.86	469.31
392.085	442.31
392.31	460.31
392.534	466.31
392.759	479.31
392.984	447.31
393.208	420.31
393.433	447.31
393.658	454.31
393.882	463.31
394.107	465.31
394.331	456.31
394.556	447.31
394.78	443.31
395.005	445.31
395.229	449.31
395.454	475.31
395.678	467.31
395.903	462.31
396.127	462.31
396.352	462.31
396.576	462.31
396.801	465.31
397.025	457.31
397.249	456.31
397.474	482.31
397.698	470.31
397.922	492.31
398.147	484.31
398.371	476.31
398.595	481.31
398.82	485.31
399.044	524.31
399.268	551.31
399.492	560.31
399.717	583.31
399.941	625.31
400.165	635.31
400.389	629.31
400.613	559.31
400.837	542.31
401.062	536.31
401.286	516.31
401.51	503.31
401.734	484.31
401.958	500.31
402.182	522.31
402.406	516.31
402.63	527.31
402.854	503.31
403.078	517.31
403.302	526.31
403.526	507.31
403.75	510.31
403.974	536.31
404.198	526.31
404.422	544.31
404.645	528.31
404.869	525.31
405.093	562.31
405.317	576.31
405.541	634.31
405.765	561.31
405.988	543.31
406.212	542.31
406.436	540.31
406.66	562.31
406.883	575.31
407.107	591.31
407.331	615.31
407.555	673.31
407.778	669.31
408.002	633.31
408.226	573.31
408.449	562.31
408.673	565.31
408.896	591.31
409.12	613.31
409.344	584.31
409.567	536.31
409.791	540.31
410.014	518.31
410.238	533.31
410.461	498.31
410.685	497.31
410.908	545.31
411.132	570.31
411.355	583.31
411.578	559.31
411.802	495.31
412.025	508.31
412.249	521.31
412.472	519.31
412.695	549.31
412.919	553.31
413.142	495.31
413.365	478.31
413.589	516.31
413.812	504.31
414.035	514.31
414.258	487.31
414.482	463.31
414.705	504.31
414.928	481.31
415.151	471.31
415.374	462.31
415.597	478.31
415.821	459.31
416.044	496.31
416.267	497.31
416.49	488.31
416.713	488.31
416.936	474.31
417.159	458.31
417.382	492.31
417.605	514.31
417.828	493.31
418.051	512.31
418.274	514.31
418.497	476.31
418.72	484.31
418.943	479.31
419.166	521.31
419.389	518.31
419.611	529.31
419.834	505.31
420.057	517.31
420.28	495.31
420.503	494.31
420.726	518.31
420.948	504.31
421.171	540.31
421.394	581.31
421.617	522.31
421.839	501.31
422.062	502.31
422.285	523.31
422.507	564.31
422.73	617.31
422.953	615.31
423.175	540.31
423.398	496.31
423.621	510.31
423.843	512.31
424.066	546.31
424.288	542.31
424.511	569.31
424.733	596.31
424.956	659.31
425.178	646.31
425.401	622.31
425.623	633.31
425.846	561.31
426.068	524.31
426.291	522.31
426.513	542.31
426.735	541.31
426.958	553.31
427.18	649.31
427.402	746.31
427.625	841.31
427.847	675.31
428.069	605.31
428.292	559.31
428.514	497.31
428.736	510.31
428.958	481.31
429.181	458.31
429.403	474.31
429.625	493.31
429.847	507.31
430.069	579.31
430.292	575.31
430.514	490.31
430.736	513.31
430.958	478.31
431.18	471.31
431.402	464.31
431.624	439.31
431.846	476.31
432.068	463.31
432.29	458.31
432.512	456.31
432.734	487.31
432.956	455.31
433.178	486.31
433.4	487.31
433.622	473.31
433.844	480.31
434.066	479.31
434.287	453.31
434.509	470.31
434.731	478.31
434.953	494.31
435.175	517.31
435.397	521.31
435.618	530.31
435.84	559.31
436.062	623.31
436.284	726.31
436.505	569.31
436.727	530.31
436.949	490.31
437.17	508.31
437.392	497.31
437.614	498.31
437.835	525.31
438.057	589.31
438.278	675.31
438.5	693.31
438.721	765.31
438.943	738.31
439.165	578.31
439.386	505.31
439.608	520.31
439.829	510.31
440.05	540.31
440.272	585.31
440.493	532.31
440.715	507.31
440.936	490.31
441.158	500.31
441.379	484.31
441.6	505.31
441.822	512.31
442.043	554.31
442.264	612.31
442.486	652.31
442.707	593.31
442.928	547.31
443.149	552.31
443.371	552.31
443.592	607.31
443.813	682.31
444.034	742.31
444.255	615.31
444.476	541.31
444.698	564.31
444.919	540.31
445.14	649.31
445.361	587.31
445.582	566.31
445.803	613.31
446.024	709.31
446.245	677.31
446.466	616.31
446.687	556.31
446.908	532.31
447.129	507.31
447.35	500.31
447.571	465.31
447.792	469.31
448.013	486.31
448.234	513.31
448.455	536.31
448.675	634.31
448.896	745.31
449.117	593.31
449.338	584.31
449.559	698.31
449.779	751.31
450	600.31
450.221	498.31
450.442	477.31
450.662	470.31
450.883	466.31
451.104	473.31
451.324	470.31
451.545	442.31
451.766	457.31
451.986	429.31
452.207	424.31
452.428	422.31
452.648	421.31
452.869	413.31
453.089	441.31
453.31	450.31
453.53	417.31
453.751	421.31
453.971	425.31
454.192	439.31
454.412	420.31
454.633	408.31
454.853	417.31
455.073	398.31
455.294	454.31
455.514	486.31
455.734	485.31
455.955	421.31
456.175	415.31
456.395	401.31
456.616	411.31
456.836	403.31
457.056	407.31
457.276	394.31
457.497	402.31
457.717	384.31
457.937	410.31
458.157	397.31
458.377	413.31
458.598	436.31
458.818	482.31
459.038	520.31
459.258	563.31
459.478	490.31
459.698	476.31
459.918	463.31
460.138	468.31
460.358	458.31
460.578	464.31
460.798	469.31
461.018	486.31
461.238	462.31
461.458	476.31
461.678	457.31
461.898	486.31
462.118	478.31
462.338	469.31
462.558	494.31
462.777	481.31
462.997	513.31
463.217	531.31
463.437	526.31
463.657	511.31
463.876	514.31
464.096	508.31
464.316	494.31
464.536	502.31
464.755	502.31
464.975	485.31
465.195	517.31
465.414	558.31
465.634	506.31
465.854	465.31
466.073	440.31
466.293	448.31
466.512	420.31
466.732	428.31
466.951	432.31
467.171	423.31
467.391	422.31
467.61	447.31
467.829	444.31
468.049	431.31
468.268	418.31
468.488	439.31
468.707	432.31
468.927	442.31
469.146	418.31
469.365	421.31
469.585	426.31
469.804	419.31
470.023	450.31
470.243	453.31
470.462	473.31
470.681	471.31
470.901	455.31
471.12	447.31
471.339	470.31
471.558	443.31
471.777	445.31
471.997	438.31
472.216	459.31
472.435	476.31
472.654	446.31
472.873	424.31
473.092	456.31
473.311	428.31
473.53	414.31
473.749	445.31
473.968	448.31
474.187	575.31
474.406	598.31
474.625	495.31
474.844	455.31
475.063	435.31
475.282	430.31
475.501	452.31
475.72	465.31
475.939	439.31
476.158	450.31
476.377	443.31
476.596	451.31
476.814	468.31
477.033	457.31
477.252	462.31
477.471	462.31
477.69	494.31
477.908	489.31
478.127	476.31
478.346	484.31
478.564	473.31
478.783	508.31
479.002	481.31
479.22	508.31
479.439	518.31
479.658	526.31
479.876	533.31
480.095	524.31
480.313	538.31
480.532	554.31
480.751	527.31
480.969	526.31
481.188	576.31
481.406	601.31
481.624	541.31
481.843	508.31
482.061	504.31
482.28	498.31
482.498	527.31
482.717	502.31
482.935	508.31
483.153	487.31
483.372	510.31
483.59	504.31
483.808	500.31
484.027	482.31
484.245	498.31
484.463	519.31
484.681	508.31
484.9	534.31
485.118	519.31
485.336	522.31
485.554	516.31
485.772	516.31
485.99	509.31
486.209	516.31
486.427	540.31
486.645	529.31
486.863	531.31
487.081	547.31
487.299	531.31
487.517	536.31
487.735	526.31
487.953	548.31
488.171	544.31
488.389	566.31
488.607	531.31
488.825	542.31
489.043	551.31
489.261	541.31
489.479	534.31
489.696	566.31
489.914	545.31
490.132	550.31
490.35	553.31
490.568	570.31
490.786	574.31
491.003	568.31
491.221	567.31
491.439	594.31
491.657	582.31
491.874	614.31
492.092	591.31
492.31	598.31
492.527	624.31
492.745	618.31
492.963	613.31
493.18	632.31
493.398	619.31
493.615	626.31
493.833	639.31
494.05	623.31
494.268	595.31
494.485	616.31
494.703	640.31
494.92	592.31
495.138	622.31
495.355	624.31
495.573	622.31
495.79	651.31
496.008	621.31
496.225	631.31
496.442	617.31
496.66	636.31
496.877	651.31
497.094	647.31
497.312	644.31
497.529	647.31
497.746	672.31
497.963	671.31
498.181	686.31
498.398	710.31
498.615	718.31
498.832	742.31
499.049	742.31
499.267	770.31
499.484	822.31
499.701	868.31
499.918	857.31
500.135	922.31
500.352	956.31
500.569	999.31
500.786	976.31
501.003	1001.31
501.22	908.31
501.437	884.31
501.654	834.31
501.871	866.31
