Data from 1977.PennyLincolnUp.Lamp.En5.5.200Scan.071719.P1_HRD10591_16-06-29-864.txt Node
Date: Thu Jul 18 16:06:29 EDT 2019
User: cochatt
Spectrometer: HR+D1059
Trigger mode: 1
Integration Time (sec): 1.000000E-1
Scans to average: 1
Electric dark correction enabled: true
Nonlinearity correction enabled: false
Boxcar width: 0
XAxis mode: Wavelengths
Number of Pixels in Spectrum: 2048
>>>>>Begin Spectral Data<<<<<
223.165	-22.19
223.4	-22.19
223.635	-22.19
223.869	-11.19
224.104	1.81
224.338	6.81
224.573	-25.19
224.808	-21.19
225.042	1.81
225.277	-26.19
225.511	-8.19
225.746	-5.19
225.98	11.81
226.215	8.81
226.449	10.81
226.683	14.81
226.918	32.81
227.152	29.81
227.387	38.81
227.621	40.81
227.856	50.81
228.09	47.81
228.324	51.81
228.559	59.81
228.793	72.81
229.027	83.81
229.262	113.81
229.496	122.81
229.73	120.81
229.964	142.81
230.199	118.81
230.433	120.81
230.667	118.81
230.901	116.81
231.136	97.81
231.37	118.81
231.604	120.81
231.838	104.81
232.072	110.81
232.306	127.81
232.541	103.81
232.775	121.81
233.009	113.81
233.243	130.81
233.477	126.81
233.711	123.81
233.945	118.81
234.179	125.81
234.413	120.81
234.647	114.81
234.881	108.81
235.115	97.81
235.349	117.81
235.583	107.81
235.817	102.81
236.051	130.81
236.285	118.81
236.519	137.81
236.753	131.81
236.987	123.81
237.221	163.81
237.455	187.81
237.689	176.81
237.922	142.81
238.156	124.81
238.39	120.81
238.624	141.81
238.858	122.81
239.091	120.81
239.325	137.81
239.559	127.81
239.793	135.81
240.027	118.81
240.26	146.81
240.494	141.81
240.728	141.81
240.961	140.81
241.195	134.81
241.429	144.81
241.662	146.81
241.896	130.81
242.13	143.81
242.363	131.81
242.597	134.81
242.83	130.81
243.064	123.81
243.298	146.81
243.531	139.81
243.765	136.81
243.998	146.81
244.232	147.81
244.465	138.81
244.699	135.81
244.932	149.81
245.166	133.81
245.399	169.81
245.633	171.81
245.866	161.81
246.099	166.81
246.333	158.81
246.566	149.81
246.8	147.81
247.033	153.81
247.266	163.81
247.5	168.81
247.733	164.81
247.966	154.81
248.2	167.81
248.433	181.81
248.666	174.81
248.899	186.81
249.133	199.81
249.366	200.81
249.599	167.81
249.832	180.81
250.066	181.81
250.299	185.81
250.532	185.81
250.765	193.81
250.998	204.81
251.231	205.81
251.465	219.81
251.698	190.81
251.931	181.81
252.164	200.81
252.397	216.81
252.63	193.81
252.863	201.81
253.096	198.81
253.329	212.81
253.562	206.81
253.795	206.81
254.028	218.81
254.261	209.81
254.494	231.81
254.727	253.81
254.96	257.81
255.193	252.81
255.426	240.81
255.659	229.81
255.892	218.81
256.124	231.81
256.357	217.81
256.59	211.81
256.823	220.81
257.056	217.81
257.289	216.81
257.521	223.81
257.754	201.81
257.987	216.81
258.22	198.81
258.452	190.81
258.685	196.81
258.918	203.81
259.151	213.81
259.383	207.81
259.616	212.81
259.849	218.81
260.081	229.81
260.314	238.81
260.547	257.81
260.779	249.81
261.012	231.81
261.244	235.81
261.477	220.81
261.71	229.81
261.942	223.81
262.175	226.81
262.407	228.81
262.64	223.81
262.872	217.81
263.105	220.81
263.337	227.81
263.57	218.81
263.802	222.81
264.035	236.81
264.267	220.81
264.499	213.81
264.732	212.81
264.964	211.81
265.197	220.81
265.429	232.81
265.661	218.81
265.894	215.81
266.126	230.81
266.358	219.81
266.591	229.81
266.823	238.81
267.055	220.81
267.287	229.81
267.52	225.81
267.752	224.81
267.984	230.81
268.216	247.81
268.448	245.81
268.681	246.81
268.913	238.81
269.145	245.81
269.377	273.81
269.609	270.81
269.841	265.81
270.073	283.81
270.306	291.81
270.538	294.81
270.77	294.81
271.002	313.81
271.234	289.81
271.466	290.81
271.698	326.81
271.93	308.81
272.162	317.81
272.394	321.81
272.626	298.81
272.858	293.81
273.09	281.81
273.322	275.81
273.553	285.81
273.785	274.81
274.017	282.81
274.249	256.81
274.481	282.81
274.713	287.81
274.945	292.81
275.176	277.81
275.408	276.81
275.64	257.81
275.872	263.81
276.104	284.81
276.335	285.81
276.567	296.81
276.799	298.81
277.031	299.81
277.262	314.81
277.494	320.81
277.726	313.81
277.957	299.81
278.189	294.81
278.421	294.81
278.652	294.81
278.884	299.81
279.115	293.81
279.347	275.81
279.579	280.81
279.81	283.81
280.042	290.81
280.273	287.81
280.505	285.81
280.736	279.81
280.968	285.81
281.199	294.81
281.431	305.81
281.662	283.81
281.894	295.81
282.125	293.81
282.356	290.81
282.588	306.81
282.819	314.81
283.051	317.81
283.282	298.81
283.513	275.81
283.745	288.81
283.976	294.81
284.207	297.81
284.439	298.81
284.67	309.81
284.901	302.81
285.132	311.81
285.364	296.81
285.595	307.81
285.826	294.81
286.057	307.81
286.288	312.81
286.52	301.81
286.751	302.81
286.982	298.81
287.213	313.81
287.444	290.81
287.675	315.81
287.906	293.81
288.138	323.81
288.369	321.81
288.6	332.81
288.831	311.81
289.062	311.81
289.293	327.81
289.524	340.81
289.755	315.81
289.986	323.81
290.217	293.81
290.448	299.81
290.679	310.81
290.91	315.81
291.141	293.81
291.371	317.81
291.602	332.81
291.833	309.81
292.064	285.81
292.295	311.81
292.526	309.81
292.757	322.81
292.987	302.81
293.218	307.81
293.449	314.81
293.68	314.81
293.91	303.81
294.141	321.81
294.372	317.81
294.603	318.81
294.833	318.81
295.064	325.81
295.295	317.81
295.525	321.81
295.756	324.81
295.987	326.81
296.217	333.81
296.448	343.81
296.679	339.81
296.909	322.81
297.14	322.81
297.37	335.81
297.601	317.81
297.831	336.81
298.062	339.81
298.292	321.81
298.523	333.81
298.753	314.81
298.984	349.81
299.214	326.81
299.445	297.81
299.675	333.81
299.905	341.81
300.136	324.81
300.366	319.81
300.597	342.81
300.827	349.81
301.057	359.81
301.288	376.81
301.518	331.81
301.748	354.81
301.979	357.81
302.209	357.81
302.439	370.81
302.669	345.81
302.9	350.81
303.13	350.81
303.36	352.81
303.59	352.81
303.82	358.81
304.051	358.81
304.281	352.81
304.511	359.81
304.741	374.81
304.971	359.81
305.201	356.81
305.431	354.81
305.661	373.81
305.891	349.81
306.121	341.81
306.352	366.81
306.582	354.81
306.812	353.81
307.042	373.81
307.272	345.81
307.502	356.81
307.731	356.81
307.961	360.81
308.191	366.81
308.421	378.81
308.651	372.81
308.881	341.81
309.111	356.81
309.341	361.81
309.571	375.81
309.8	374.81
310.03	395.81
310.26	370.81
310.49	363.81
310.72	378.81
310.949	410.81
311.179	411.81
311.409	398.81
311.639	389.81
311.868	396.81
312.098	385.81
312.328	393.81
312.557	411.81
312.787	415.81
313.017	418.81
313.246	391.81
313.476	401.81
313.706	380.81
313.935	389.81
314.165	419.81
314.394	396.81
314.624	410.81
314.853	397.81
315.083	397.81
315.312	395.81
315.542	410.81
315.771	407.81
316.001	401.81
316.23	393.81
316.46	394.81
316.689	386.81
316.919	395.81
317.148	387.81
317.377	429.81
317.607	412.81
317.836	386.81
318.065	394.81
318.295	396.81
318.524	396.81
318.753	398.81
318.983	395.81
319.212	395.81
319.441	396.81
319.67	393.81
319.9	389.81
320.129	404.81
320.358	394.81
320.587	390.81
320.816	422.81
321.046	400.81
321.275	413.81
321.504	427.81
321.733	407.81
321.962	412.81
322.191	420.81
322.42	438.81
322.649	431.81
322.878	442.81
323.108	439.81
323.337	467.81
323.566	490.81
323.795	507.81
324.024	553.81
324.253	646.81
324.482	849.81
324.71	1240.81
324.939	1694.81
325.168	1452.81
325.397	786.81
325.626	597.81
325.855	519.81
326.084	511.81
326.313	469.81
326.542	478.81
326.77	525.81
326.999	574.81
327.228	774.81
327.457	1098.81
327.686	1261.81
327.914	866.81
328.143	638.81
328.372	567.81
328.6	543.81
328.829	534.81
329.058	536.81
329.287	521.81
329.515	517.81
329.744	481.81
329.972	504.81
330.201	521.81
330.43	527.81
330.658	553.81
330.887	569.81
331.115	566.81
331.344	501.81
331.572	506.81
331.801	509.81
332.03	491.81
332.258	488.81
332.486	471.81
332.715	485.81
332.943	466.81
333.172	490.81
333.4	491.81
333.629	477.81
333.857	511.81
334.085	517.81
334.314	500.81
334.542	533.81
334.771	527.81
334.999	483.81
335.227	475.81
335.455	487.81
335.684	488.81
335.912	486.81
336.14	475.81
336.369	470.81
336.597	498.81
336.825	481.81
337.053	462.81
337.281	465.81
337.51	474.81
337.738	444.81
337.966	451.81
338.194	450.81
338.422	449.81
338.65	447.81
338.878	460.81
339.106	457.81
339.334	445.81
339.562	456.81
339.79	451.81
340.018	457.81
340.246	442.81
340.474	455.81
340.702	451.81
340.93	434.81
341.158	454.81
341.386	438.81
341.614	449.81
341.842	430.81
342.07	451.81
342.298	456.81
342.526	436.81
342.754	442.81
342.981	431.81
343.209	413.81
343.437	445.81
343.665	447.81
343.893	477.81
344.12	459.81
344.348	471.81
344.576	462.81
344.804	449.81
345.031	454.81
345.259	459.81
345.487	448.81
345.714	441.81
345.942	426.81
346.17	434.81
346.397	421.81
346.625	442.81
346.853	409.81
347.08	426.81
347.308	431.81
347.535	449.81
347.763	424.81
347.99	430.81
348.218	429.81
348.445	419.81
348.673	420.81
348.9	409.81
349.128	418.81
349.355	396.81
349.583	407.81
349.81	407.81
350.037	399.81
350.265	413.81
350.492	402.81
350.72	412.81
350.947	408.81
351.174	426.81
351.402	425.81
351.629	427.81
351.856	429.81
352.083	442.81
352.311	420.81
352.538	418.81
352.765	417.81
352.992	435.81
353.22	411.81
353.447	395.81
353.674	402.81
353.901	392.81
354.128	393.81
354.355	390.81
354.583	404.81
354.81	404.81
355.037	390.81
355.264	386.81
355.491	381.81
355.718	387.81
355.945	385.81
356.172	417.81
356.399	386.81
356.626	402.81
356.853	387.81
357.08	391.81
357.307	372.81
357.534	389.81
357.761	389.81
357.988	409.81
358.215	392.81
358.441	400.81
358.668	397.81
358.895	398.81
359.122	377.81
359.349	400.81
359.576	398.81
359.802	429.81
360.029	435.81
360.256	437.81
360.483	427.81
360.709	412.81
360.936	413.81
361.163	394.81
361.39	405.81
361.616	412.81
361.843	399.81
362.07	435.81
362.296	406.81
362.523	393.81
362.749	423.81
362.976	403.81
363.203	402.81
363.429	419.81
363.656	418.81
363.882	400.81
364.109	395.81
364.335	376.81
364.562	401.81
364.788	379.81
365.015	390.81
365.241	402.81
365.468	400.81
365.694	399.81
365.92	385.81
366.147	389.81
366.373	398.81
366.599	411.81
366.826	385.81
367.052	385.81
367.278	377.81
367.505	400.81
367.731	399.81
367.957	380.81
368.184	408.81
368.41	395.81
368.636	415.81
368.862	396.81
369.089	378.81
369.315	395.81
369.541	377.81
369.767	383.81
369.993	398.81
370.219	377.81
370.445	389.81
370.672	407.81
370.898	405.81
371.124	403.81
371.35	398.81
371.576	411.81
371.802	397.81
372.028	386.81
372.254	397.81
372.48	405.81
372.706	400.81
372.932	415.81
373.158	396.81
373.384	409.81
373.61	392.81
373.835	396.81
374.061	397.81
374.287	390.81
374.513	403.81
374.739	409.81
374.965	399.81
375.191	430.81
375.416	400.81
375.642	414.81
375.868	402.81
376.094	399.81
376.319	410.81
376.545	404.81
376.771	393.81
376.997	390.81
377.222	399.81
377.448	393.81
377.674	393.81
377.899	411.81
378.125	391.81
378.35	379.81
378.576	394.81
378.802	375.81
379.027	387.81
379.253	409.81
379.478	380.81
379.704	392.81
379.929	393.81
380.155	396.81
380.38	402.81
380.606	378.81
380.831	382.81
381.057	397.81
381.282	397.81
381.507	385.81
381.733	403.81
381.958	395.81
382.184	411.81
382.409	398.81
382.634	403.81
382.86	400.81
383.085	403.81
383.31	393.81
383.535	411.81
383.761	392.81
383.986	416.81
384.211	426.81
384.436	416.81
384.662	431.81
384.887	414.81
385.112	412.81
385.337	444.81
385.562	438.81
385.787	421.81
386.013	421.81
386.238	423.81
386.463	423.81
386.688	441.81
386.913	437.81
387.138	431.81
387.363	438.81
387.588	433.81
387.813	439.81
388.038	429.81
388.263	408.81
388.488	436.81
388.713	414.81
388.938	441.81
389.163	414.81
389.387	439.81
389.612	433.81
389.837	430.81
390.062	440.81
390.287	416.81
390.512	405.81
390.736	427.81
390.961	411.81
391.186	423.81
391.411	442.81
391.636	430.81
391.86	444.81
392.085	437.81
392.31	450.81
392.534	452.81
392.759	457.81
392.984	430.81
393.208	442.81
393.433	438.81
393.658	453.81
393.882	431.81
394.107	440.81
394.331	427.81
394.556	425.81
394.78	423.81
395.005	451.81
395.229	428.81
395.454	449.81
395.678	441.81
395.903	472.81
396.127	466.81
396.352	467.81
396.576	450.81
396.801	455.81
397.025	447.81
397.249	452.81
397.474	455.81
397.698	433.81
397.922	476.81
398.147	481.81
398.371	498.81
398.595	494.81
398.82	467.81
399.044	517.81
399.268	517.81
399.492	547.81
399.717	577.81
399.941	616.81
400.165	633.81
400.389	592.81
400.613	558.81
400.837	535.81
401.062	491.81
401.286	503.81
401.51	491.81
401.734	496.81
401.958	491.81
402.182	493.81
402.406	505.81
402.63	503.81
402.854	498.81
403.078	501.81
403.302	497.81
403.526	522.81
403.75	513.81
403.974	527.81
404.198	510.81
404.422	511.81
404.645	534.81
404.869	530.81
405.093	545.81
405.317	568.81
405.541	578.81
405.765	540.81
405.988	531.81
406.212	539.81
406.436	542.81
406.66	563.81
406.883	541.81
407.107	579.81
407.331	602.81
407.555	650.81
407.778	652.81
408.002	598.81
408.226	574.81
408.449	547.81
408.673	561.81
408.896	557.81
409.12	593.81
409.344	564.81
409.567	524.81
409.791	516.81
410.014	529.81
410.238	522.81
410.461	497.81
410.685	510.81
410.908	523.81
411.132	530.81
411.355	570.81
411.578	539.81
411.802	525.81
412.025	492.81
412.249	501.81
412.472	527.81
412.695	525.81
412.919	542.81
413.142	511.81
413.365	490.81
413.589	491.81
413.812	484.81
414.035	466.81
414.258	482.81
414.482	474.81
414.705	512.81
414.928	509.81
415.151	483.81
415.374	469.81
415.597	464.81
415.821	460.81
416.044	467.81
416.267	468.81
416.49	460.81
416.713	493.81
416.936	463.81
417.159	459.81
417.382	497.81
417.605	466.81
417.828	465.81
418.051	505.81
418.274	490.81
418.497	484.81
418.72	485.81
418.943	485.81
419.166	485.81
419.389	525.81
419.611	515.81
419.834	535.81
420.057	499.81
420.28	477.81
420.503	487.81
420.726	486.81
420.948	500.81
421.171	551.81
421.394	563.81
421.617	504.81
421.839	494.81
422.062	494.81
422.285	493.81
422.507	580.81
422.73	613.81
422.953	614.81
423.175	515.81
423.398	513.81
423.621	498.81
423.843	505.81
424.066	544.81
424.288	531.81
424.511	538.81
424.733	604.81
424.956	618.81
425.178	611.81
425.401	645.81
425.623	603.81
425.846	565.81
426.068	521.81
426.291	519.81
426.513	494.81
426.735	536.81
426.958	566.81
427.18	617.81
427.402	744.81
427.625	774.81
427.847	674.81
428.069	582.81
428.292	532.81
428.514	490.81
428.736	486.81
428.958	487.81
429.181	484.81
429.403	459.81
429.625	474.81
429.847	499.81
430.069	542.81
430.292	556.81
430.514	480.81
430.736	460.81
430.958	466.81
431.18	470.81
431.402	445.81
431.624	453.81
431.846	468.81
432.068	452.81
432.29	465.81
432.512	462.81
432.734	456.81
432.956	455.81
433.178	465.81
433.4	457.81
433.622	447.81
433.844	450.81
434.066	451.81
434.287	446.81
434.509	461.81
434.731	477.81
434.953	482.81
435.175	492.81
435.397	492.81
435.618	499.81
435.84	524.81
436.062	619.81
436.284	662.81
436.505	561.81
436.727	523.81
436.949	486.81
437.17	477.81
437.392	469.81
437.614	473.81
437.835	502.81
438.057	592.81
438.278	641.81
438.5	651.81
438.721	710.81
438.943	696.81
439.165	557.81
439.386	531.81
439.608	503.81
439.829	512.81
440.05	550.81
440.272	555.81
440.493	535.81
440.715	490.81
440.936	474.81
441.158	460.81
441.379	460.81
441.6	502.81
441.822	504.81
442.043	540.81
442.264	595.81
442.486	605.81
442.707	546.81
442.928	508.81
443.149	525.81
443.371	526.81
443.592	565.81
443.813	649.81
444.034	716.81
444.255	584.81
444.476	565.81
444.698	513.81
444.919	549.81
445.14	584.81
445.361	564.81
445.582	554.81
445.803	598.81
446.024	654.81
446.245	684.81
446.466	612.81
446.687	527.81
446.908	503.81
447.129	484.81
447.35	458.81
447.571	478.81
447.792	440.81
448.013	455.81
448.234	472.81
448.455	505.81
448.675	622.81
448.896	705.81
449.117	589.81
449.338	555.81
449.559	681.81
449.779	729.81
450	607.81
450.221	487.81
450.442	441.81
450.662	457.81
450.883	456.81
451.104	444.81
451.324	444.81
451.545	431.81
451.766	417.81
451.986	412.81
452.207	415.81
452.428	409.81
452.648	425.81
452.869	417.81
453.089	402.81
453.31	422.81
453.53	415.81
453.751	416.81
453.971	421.81
454.192	407.81
454.412	410.81
454.633	400.81
454.853	421.81
455.073	423.81
455.294	436.81
455.514	496.81
455.734	461.81
455.955	410.81
456.175	391.81
456.395	395.81
456.616	384.81
456.836	413.81
457.056	381.81
457.276	409.81
457.497	410.81
457.717	405.81
457.937	395.81
458.157	422.81
458.377	407.81
458.598	436.81
458.818	469.81
459.038	519.81
459.258	506.81
459.478	496.81
459.698	450.81
459.918	443.81
460.138	421.81
460.358	456.81
460.578	449.81
460.798	466.81
461.018	481.81
461.238	475.81
461.458	435.81
461.678	446.81
461.898	471.81
462.118	457.81
462.338	478.81
462.558	476.81
462.777	490.81
462.997	491.81
463.217	529.81
463.437	541.81
463.657	498.81
463.876	512.81
464.096	511.81
464.316	495.81
464.536	501.81
464.755	501.81
464.975	500.81
465.195	510.81
465.414	559.81
465.634	494.81
465.854	468.81
466.073	440.81
466.293	442.81
466.512	446.81
466.732	436.81
466.951	453.81
467.171	417.81
467.391	423.81
467.61	424.81
467.829	431.81
468.049	438.81
468.268	428.81
468.488	433.81
468.707	401.81
468.927	423.81
469.146	426.81
469.365	418.81
469.585	415.81
469.804	406.81
470.023	412.81
470.243	414.81
470.462	430.81
470.681	433.81
470.901	445.81
471.12	437.81
471.339	433.81
471.558	452.81
471.777	411.81
471.997	413.81
472.216	420.81
472.435	418.81
472.654	413.81
472.873	417.81
473.092	443.81
473.311	417.81
473.53	435.81
473.749	436.81
473.968	476.81
474.187	526.81
474.406	578.81
474.625	474.81
474.844	453.81
475.063	451.81
475.282	438.81
475.501	439.81
475.72	463.81
475.939	443.81
476.158	427.81
476.377	437.81
476.596	437.81
476.814	442.81
477.033	459.81
477.252	465.81
477.471	465.81
477.69	475.81
477.908	473.81
478.127	466.81
478.346	506.81
478.564	460.81
478.783	487.81
479.002	499.81
479.22	497.81
479.439	520.81
479.658	529.81
479.876	518.81
480.095	523.81
480.313	557.81
480.532	552.81
480.751	516.81
480.969	528.81
481.188	551.81
481.406	558.81
481.624	522.81
481.843	523.81
482.061	494.81
482.28	509.81
482.498	492.81
482.717	497.81
482.935	523.81
483.153	494.81
483.372	488.81
483.59	489.81
483.808	473.81
484.027	506.81
484.245	513.81
484.463	460.81
484.681	501.81
484.9	505.81
485.118	513.81
485.336	498.81
485.554	528.81
485.772	508.81
485.99	515.81
486.209	514.81
486.427	528.81
486.645	543.81
486.863	533.81
487.081	523.81
487.299	528.81
487.517	528.81
487.735	523.81
487.953	519.81
488.171	536.81
488.389	529.81
488.607	519.81
488.825	513.81
489.043	526.81
489.261	539.81
489.479	535.81
489.696	528.81
489.914	526.81
490.132	522.81
490.35	533.81
490.568	567.81
490.786	552.81
491.003	554.81
491.221	556.81
491.439	563.81
491.657	574.81
491.874	570.81
492.092	587.81
492.31	577.81
492.527	587.81
492.745	598.81
492.963	600.81
493.18	602.81
493.398	596.81
493.615	612.81
493.833	590.81
494.05	599.81
494.268	598.81
494.485	617.81
494.703	594.81
494.92	588.81
495.138	612.81
495.355	618.81
495.573	610.81
495.79	605.81
496.008	635.81
496.225	599.81
496.442	653.81
496.66	627.81
496.877	621.81
497.094	628.81
497.312	611.81
497.529	662.81
497.746	642.81
497.963	674.81
498.181	671.81
498.398	693.81
498.615	705.81
498.832	718.81
499.049	723.81
499.267	790.81
499.484	792.81
499.701	833.81
499.918	877.81
500.135	916.81
500.352	970.81
500.569	1002.81
500.786	997.81
501.003	955.81
501.22	923.81
501.437	892.81
501.654	847.81
501.871	813.81
502.088	793.81
