Data from 1977.PennyLincolnUp.Lamp.En5.5.200Scan.071719.P1_HRD10591_16-07-18-864.txt Node
Date: Thu Jul 18 16:07:18 EDT 2019
User: cochatt
Spectrometer: HR+D1059
Trigger mode: 1
Integration Time (sec): 1.000000E-1
Scans to average: 1
Electric dark correction enabled: true
Nonlinearity correction enabled: false
Boxcar width: 0
XAxis mode: Wavelengths
Number of Pixels in Spectrum: 2048
>>>>>Begin Spectral Data<<<<<
223.165	-26.56
223.4	-26.56
223.635	-26.56
223.869	-13.56
224.104	-11.56
224.338	-14.56
224.573	0.44
224.808	-5.56
225.042	7.44
225.277	-7.56
225.511	-7.56
225.746	-7.56
225.98	0.44
226.215	11.44
226.449	16.44
226.683	20.44
226.918	23.44
227.152	14.44
227.387	22.44
227.621	34.44
227.856	45.44
228.09	49.44
228.324	36.44
228.559	58.44
228.793	70.44
229.027	105.44
229.262	116.44
229.496	112.44
229.73	130.44
229.964	139.44
230.199	104.44
230.433	107.44
230.667	100.44
230.901	92.44
231.136	109.44
231.37	103.44
231.604	127.44
231.838	104.44
232.072	106.44
232.306	102.44
232.541	119.44
232.775	116.44
233.009	103.44
233.243	106.44
233.477	104.44
233.711	96.44
233.945	117.44
234.179	128.44
234.413	114.44
234.647	103.44
234.881	103.44
235.115	109.44
235.349	95.44
235.583	111.44
235.817	114.44
236.051	116.44
236.285	122.44
236.519	113.44
236.753	123.44
236.987	136.44
237.221	161.44
237.455	211.44
237.689	176.44
237.922	122.44
238.156	118.44
238.39	134.44
238.624	135.44
238.858	124.44
239.091	117.44
239.325	126.44
239.559	115.44
239.793	142.44
240.027	130.44
240.26	138.44
240.494	141.44
240.728	141.44
240.961	135.44
241.195	128.44
241.429	142.44
241.662	130.44
241.896	116.44
242.13	140.44
242.363	137.44
242.597	128.44
242.83	128.44
243.064	130.44
243.298	131.44
243.531	142.44
243.765	134.44
243.998	139.44
244.232	134.44
244.465	150.44
244.699	150.44
244.932	134.44
245.166	156.44
245.399	146.44
245.633	127.44
245.866	128.44
246.099	151.44
246.333	148.44
246.566	162.44
246.8	170.44
247.033	142.44
247.266	145.44
247.5	151.44
247.733	148.44
247.966	159.44
248.2	173.44
248.433	169.44
248.666	169.44
248.899	186.44
249.133	205.44
249.366	201.44
249.599	186.44
249.832	166.44
250.066	170.44
250.299	158.44
250.532	202.44
250.765	193.44
250.998	196.44
251.231	213.44
251.465	197.44
251.698	181.44
251.931	198.44
252.164	192.44
252.397	180.44
252.63	198.44
252.863	194.44
253.096	206.44
253.329	220.44
253.562	210.44
253.795	208.44
254.028	194.44
254.261	225.44
254.494	224.44
254.727	229.44
254.96	245.44
255.193	244.44
255.426	246.44
255.659	200.44
255.892	219.44
256.124	225.44
256.357	218.44
256.59	207.44
256.823	199.44
257.056	198.44
257.289	208.44
257.521	203.44
257.754	219.44
257.987	216.44
258.22	210.44
258.452	210.44
258.685	202.44
258.918	205.44
259.151	198.44
259.383	210.44
259.616	205.44
259.849	216.44
260.081	214.44
260.314	218.44
260.547	266.44
260.779	255.44
261.012	237.44
261.244	221.44
261.477	195.44
261.71	212.44
261.942	209.44
262.175	219.44
262.407	218.44
262.64	203.44
262.872	223.44
263.105	210.44
263.337	213.44
263.57	228.44
263.802	218.44
264.035	223.44
264.267	227.44
264.499	222.44
264.732	223.44
264.964	227.44
265.197	211.44
265.429	205.44
265.661	226.44
265.894	206.44
266.126	218.44
266.358	229.44
266.591	213.44
266.823	229.44
267.055	214.44
267.287	238.44
267.52	228.44
267.752	225.44
267.984	231.44
268.216	220.44
268.448	224.44
268.681	249.44
268.913	231.44
269.145	266.44
269.377	276.44
269.609	270.44
269.841	275.44
270.073	281.44
270.306	277.44
270.538	288.44
270.77	306.44
271.002	292.44
271.234	301.44
271.466	299.44
271.698	296.44
271.93	323.44
272.162	323.44
272.394	313.44
272.626	320.44
272.858	289.44
273.09	295.44
273.322	280.44
273.553	283.44
273.785	249.44
274.017	262.44
274.249	269.44
274.481	278.44
274.713	263.44
274.945	263.44
275.176	274.44
275.408	273.44
275.64	267.44
275.872	276.44
276.104	278.44
276.335	266.44
276.567	260.44
276.799	283.44
277.031	295.44
277.262	299.44
277.494	314.44
277.726	299.44
277.957	302.44
278.189	289.44
278.421	260.44
278.652	288.44
278.884	294.44
279.115	285.44
279.347	278.44
279.579	274.44
279.81	274.44
280.042	275.44
280.273	269.44
280.505	284.44
280.736	270.44
280.968	274.44
281.199	293.44
281.431	264.44
281.662	283.44
281.894	307.44
282.125	289.44
282.356	293.44
282.588	324.44
282.819	313.44
283.051	283.44
283.282	262.44
283.513	281.44
283.745	292.44
283.976	282.44
284.207	298.44
284.439	295.44
284.67	281.44
284.901	303.44
285.132	292.44
285.364	287.44
285.595	296.44
285.826	285.44
286.057	297.44
286.288	292.44
286.52	288.44
286.751	302.44
286.982	284.44
287.213	308.44
287.444	301.44
287.675	306.44
287.906	320.44
288.138	304.44
288.369	317.44
288.6	323.44
288.831	317.44
289.062	295.44
289.293	321.44
289.524	300.44
289.755	308.44
289.986	306.44
290.217	312.44
290.448	304.44
290.679	308.44
290.91	305.44
291.141	297.44
291.371	311.44
291.602	310.44
291.833	294.44
292.064	295.44
292.295	320.44
292.526	305.44
292.757	310.44
292.987	309.44
293.218	296.44
293.449	315.44
293.68	334.44
293.91	306.44
294.141	305.44
294.372	306.44
294.603	308.44
294.833	306.44
295.064	306.44
295.295	298.44
295.525	320.44
295.756	318.44
295.987	323.44
296.217	323.44
296.448	331.44
296.679	320.44
296.909	309.44
297.14	329.44
297.37	310.44
297.601	334.44
297.831	312.44
298.062	337.44
298.292	326.44
298.523	323.44
298.753	314.44
298.984	316.44
299.214	315.44
299.445	326.44
299.675	342.44
299.905	338.44
300.136	324.44
300.366	332.44
300.597	316.44
300.827	334.44
301.057	345.44
301.288	353.44
301.518	338.44
301.748	325.44
301.979	326.44
302.209	331.44
302.439	345.44
302.669	362.44
302.9	325.44
303.13	349.44
303.36	340.44
303.59	347.44
303.82	330.44
304.051	349.44
304.281	354.44
304.511	358.44
304.741	338.44
304.971	357.44
305.201	337.44
305.431	325.44
305.661	349.44
305.891	346.44
306.121	358.44
306.352	351.44
306.582	338.44
306.812	375.44
307.042	374.44
307.272	345.44
307.502	346.44
307.731	341.44
307.961	349.44
308.191	343.44
308.421	341.44
308.651	343.44
308.881	344.44
309.111	362.44
309.341	356.44
309.571	370.44
309.8	376.44
310.03	375.44
310.26	371.44
310.49	382.44
310.72	371.44
310.949	376.44
311.179	395.44
311.409	377.44
311.639	380.44
311.868	401.44
312.098	380.44
312.328	388.44
312.557	405.44
312.787	390.44
313.017	394.44
313.246	378.44
313.476	361.44
313.706	386.44
313.935	372.44
314.165	412.44
314.394	402.44
314.624	409.44
314.853	390.44
315.083	404.44
315.312	388.44
315.542	392.44
315.771	364.44
316.001	376.44
316.23	397.44
316.46	383.44
316.689	376.44
316.919	397.44
317.148	393.44
317.377	398.44
317.607	385.44
317.836	374.44
318.065	374.44
318.295	392.44
318.524	380.44
318.753	391.44
318.983	386.44
319.212	394.44
319.441	397.44
319.67	402.44
319.9	384.44
320.129	376.44
320.358	394.44
320.587	382.44
320.816	408.44
321.046	396.44
321.275	405.44
321.504	401.44
321.733	404.44
321.962	402.44
322.191	409.44
322.42	438.44
322.649	451.44
322.878	426.44
323.108	434.44
323.337	466.44
323.566	472.44
323.795	499.44
324.024	542.44
324.253	617.44
324.482	882.44
324.71	1280.44
324.939	1770.44
325.168	1517.44
325.397	816.44
325.626	609.44
325.855	531.44
326.084	490.44
326.313	491.44
326.542	462.44
326.77	537.44
326.999	594.44
327.228	793.44
327.457	1153.44
327.686	1337.44
327.914	901.44
328.143	632.44
328.372	573.44
328.6	540.44
328.829	522.44
329.058	525.44
329.287	522.44
329.515	488.44
329.744	502.44
329.972	472.44
330.201	502.44
330.43	534.44
330.658	551.44
330.887	558.44
331.115	538.44
331.344	508.44
331.572	489.44
331.801	484.44
332.03	502.44
332.258	461.44
332.486	452.44
332.715	452.44
332.943	451.44
333.172	448.44
333.4	459.44
333.629	484.44
333.857	509.44
334.085	491.44
334.314	510.44
334.542	486.44
334.771	530.44
334.999	498.44
335.227	489.44
335.455	472.44
335.684	461.44
335.912	457.44
336.14	466.44
336.369	440.44
336.597	485.44
336.825	450.44
337.053	449.44
337.281	460.44
337.51	473.44
337.738	464.44
337.966	454.44
338.194	465.44
338.422	448.44
338.65	433.44
338.878	451.44
339.106	454.44
339.334	446.44
339.562	444.44
339.79	426.44
340.018	421.44
340.246	425.44
340.474	411.44
340.702	428.44
340.93	412.44
341.158	439.44
341.386	428.44
341.614	436.44
341.842	439.44
342.07	438.44
342.298	424.44
342.526	413.44
342.754	413.44
342.981	420.44
343.209	429.44
343.437	397.44
343.665	442.44
343.893	453.44
344.12	457.44
344.348	449.44
344.576	450.44
344.804	443.44
345.031	446.44
345.259	469.44
345.487	426.44
345.714	428.44
345.942	425.44
346.17	416.44
346.397	404.44
346.625	408.44
346.853	412.44
347.08	405.44
347.308	404.44
347.535	434.44
347.763	398.44
347.99	415.44
348.218	448.44
348.445	433.44
348.673	412.44
348.9	420.44
349.128	409.44
349.355	376.44
349.583	392.44
349.81	405.44
350.037	398.44
350.265	412.44
350.492	411.44
350.72	405.44
350.947	424.44
351.174	410.44
351.402	394.44
351.629	432.44
351.856	416.44
352.083	413.44
352.311	434.44
352.538	421.44
352.765	408.44
352.992	394.44
353.22	402.44
353.447	379.44
353.674	394.44
353.901	373.44
354.128	393.44
354.355	398.44
354.583	375.44
354.81	394.44
355.037	378.44
355.264	391.44
355.491	369.44
355.718	378.44
355.945	376.44
356.172	370.44
356.399	379.44
356.626	372.44
356.853	382.44
357.08	375.44
357.307	366.44
357.534	388.44
357.761	386.44
357.988	380.44
358.215	388.44
358.441	378.44
358.668	367.44
358.895	376.44
359.122	395.44
359.349	391.44
359.576	401.44
359.802	414.44
360.029	429.44
360.256	415.44
360.483	430.44
360.709	413.44
360.936	409.44
361.163	393.44
361.39	399.44
361.616	392.44
361.843	403.44
362.07	414.44
362.296	389.44
362.523	384.44
362.749	387.44
362.976	402.44
363.203	397.44
363.429	392.44
363.656	373.44
363.882	389.44
364.109	383.44
364.335	390.44
364.562	390.44
364.788	394.44
365.015	406.44
365.241	376.44
365.468	375.44
365.694	372.44
365.92	417.44
366.147	385.44
366.373	386.44
366.599	393.44
366.826	383.44
367.052	370.44
367.278	381.44
367.505	386.44
367.731	396.44
367.957	388.44
368.184	385.44
368.41	372.44
368.636	400.44
368.862	386.44
369.089	389.44
369.315	386.44
369.541	365.44
369.767	384.44
369.993	374.44
370.219	382.44
370.445	383.44
370.672	376.44
370.898	380.44
371.124	397.44
371.35	378.44
371.576	378.44
371.802	375.44
372.028	400.44
372.254	369.44
372.48	398.44
372.706	392.44
372.932	381.44
373.158	395.44
373.384	384.44
373.61	371.44
373.835	410.44
374.061	388.44
374.287	392.44
374.513	373.44
374.739	404.44
374.965	364.44
375.191	403.44
375.416	404.44
375.642	390.44
375.868	398.44
376.094	398.44
376.319	379.44
376.545	396.44
376.771	394.44
376.997	393.44
377.222	384.44
377.448	370.44
377.674	374.44
377.899	377.44
378.125	380.44
378.35	372.44
378.576	368.44
378.802	365.44
379.027	362.44
379.253	374.44
379.478	378.44
379.704	387.44
379.929	374.44
380.155	388.44
380.38	394.44
380.606	374.44
380.831	386.44
381.057	384.44
381.282	377.44
381.507	379.44
381.733	412.44
381.958	388.44
382.184	393.44
382.409	392.44
382.634	389.44
382.86	397.44
383.085	410.44
383.31	374.44
383.535	411.44
383.761	394.44
383.986	392.44
384.211	412.44
384.436	409.44
384.662	380.44
384.887	416.44
385.112	395.44
385.337	420.44
385.562	409.44
385.787	405.44
386.013	440.44
386.238	429.44
386.463	428.44
386.688	416.44
386.913	410.44
387.138	418.44
387.363	418.44
387.588	404.44
387.813	410.44
388.038	416.44
388.263	418.44
388.488	418.44
388.713	429.44
388.938	419.44
389.163	421.44
389.387	405.44
389.612	419.44
389.837	440.44
390.062	418.44
390.287	402.44
390.512	410.44
390.736	407.44
390.961	426.44
391.186	411.44
391.411	430.44
391.636	436.44
391.86	410.44
392.085	429.44
392.31	433.44
392.534	413.44
392.759	425.44
392.984	452.44
393.208	407.44
393.433	412.44
393.658	419.44
393.882	419.44
394.107	423.44
394.331	415.44
394.556	402.44
394.78	436.44
395.005	434.44
395.229	438.44
395.454	443.44
395.678	430.44
395.903	438.44
396.127	432.44
396.352	468.44
396.576	445.44
396.801	443.44
397.025	444.44
397.249	432.44
397.474	441.44
397.698	443.44
397.922	474.44
398.147	465.44
398.371	476.44
398.595	473.44
398.82	464.44
399.044	480.44
399.268	500.44
399.492	534.44
399.717	564.44
399.941	580.44
400.165	609.44
400.389	580.44
400.613	501.44
400.837	478.44
401.062	495.44
401.286	491.44
401.51	473.44
401.734	466.44
401.958	477.44
402.182	506.44
402.406	486.44
402.63	493.44
402.854	496.44
403.078	490.44
403.302	498.44
403.526	499.44
403.75	508.44
403.974	482.44
404.198	487.44
404.422	481.44
404.645	520.44
404.869	483.44
405.093	508.44
405.317	566.44
405.541	593.44
405.765	538.44
405.988	521.44
406.212	512.44
406.436	548.44
406.66	552.44
406.883	531.44
407.107	534.44
407.331	586.44
407.555	650.44
407.778	647.44
408.002	599.44
408.226	546.44
408.449	523.44
408.673	523.44
408.896	552.44
409.12	601.44
409.344	569.44
409.567	535.44
409.791	520.44
410.014	495.44
410.238	498.44
410.461	494.44
410.685	511.44
410.908	506.44
411.132	526.44
411.355	556.44
411.578	542.44
411.802	496.44
412.025	446.44
412.249	493.44
412.472	506.44
412.695	564.44
412.919	532.44
413.142	498.44
413.365	477.44
413.589	469.44
413.812	459.44
414.035	467.44
414.258	460.44
414.482	469.44
414.705	480.44
414.928	454.44
415.151	447.44
415.374	441.44
415.597	470.44
415.821	448.44
416.044	454.44
416.267	468.44
416.49	456.44
416.713	450.44
416.936	435.44
417.159	462.44
417.382	474.44
417.605	452.44
417.828	471.44
418.051	475.44
418.274	459.44
418.497	476.44
418.72	445.44
418.943	444.44
419.166	470.44
419.389	483.44
419.611	497.44
419.834	467.44
420.057	496.44
420.28	483.44
420.503	461.44
420.726	460.44
420.948	473.44
421.171	507.44
421.394	541.44
421.617	486.44
421.839	484.44
422.062	483.44
422.285	497.44
422.507	528.44
422.73	611.44
422.953	556.44
423.175	518.44
423.398	474.44
423.621	486.44
423.843	518.44
424.066	496.44
424.288	501.44
424.511	524.44
424.733	539.44
424.956	635.44
425.178	607.44
425.401	600.44
425.623	629.44
425.846	556.44
426.068	506.44
426.291	499.44
426.513	466.44
426.735	488.44
426.958	532.44
427.18	600.44
427.402	714.44
427.625	764.44
427.847	653.44
428.069	579.44
428.292	545.44
428.514	506.44
428.736	471.44
428.958	467.44
429.181	443.44
429.403	463.44
429.625	490.44
429.847	485.44
430.069	557.44
430.292	539.44
430.514	478.44
430.736	458.44
430.958	436.44
431.18	441.44
431.402	452.44
431.624	450.44
431.846	429.44
432.068	430.44
432.29	436.44
432.512	436.44
432.734	445.44
432.956	449.44
433.178	467.44
433.4	458.44
433.622	427.44
433.844	454.44
434.066	459.44
434.287	428.44
434.509	444.44
434.731	465.44
434.953	455.44
435.175	468.44
435.397	501.44
435.618	516.44
435.84	537.44
436.062	610.44
436.284	632.44
436.505	551.44
436.727	475.44
436.949	485.44
437.17	475.44
437.392	446.44
437.614	465.44
437.835	508.44
438.057	560.44
438.278	639.44
438.5	633.44
438.721	698.44
438.943	671.44
439.165	555.44
439.386	510.44
439.608	488.44
439.829	507.44
440.05	512.44
440.272	535.44
440.493	522.44
440.715	477.44
440.936	459.44
441.158	481.44
441.379	452.44
441.6	474.44
441.822	489.44
442.043	524.44
442.264	609.44
442.486	630.44
442.707	536.44
442.928	497.44
443.149	520.44
443.371	516.44
443.592	578.44
443.813	645.44
444.034	681.44
444.255	590.44
444.476	534.44
444.698	505.44
444.919	508.44
445.14	636.44
445.361	564.44
445.582	524.44
445.803	588.44
446.024	652.44
446.245	664.44
446.466	601.44
446.687	548.44
446.908	500.44
447.129	464.44
447.35	462.44
447.571	475.44
447.792	450.44
448.013	434.44
448.234	457.44
448.455	525.44
448.675	590.44
448.896	700.44
449.117	582.44
449.338	554.44
449.559	638.44
449.779	726.44
450	595.44
450.221	479.44
450.442	453.44
450.662	455.44
450.883	435.44
451.104	437.44
451.324	432.44
451.545	429.44
451.766	404.44
451.986	404.44
452.207	402.44
452.428	398.44
452.648	400.44
452.869	380.44
453.089	420.44
453.31	426.44
453.53	413.44
453.751	402.44
453.971	382.44
454.192	400.44
454.412	405.44
454.633	394.44
454.853	385.44
455.073	404.44
455.294	428.44
455.514	469.44
455.734	452.44
455.955	408.44
456.175	404.44
456.395	370.44
456.616	370.44
456.836	383.44
457.056	394.44
457.276	365.44
457.497	394.44
457.717	364.44
457.937	382.44
458.157	398.44
458.377	420.44
458.598	452.44
458.818	444.44
459.038	487.44
459.258	519.44
459.478	453.44
459.698	442.44
459.918	432.44
460.138	441.44
460.358	433.44
460.578	450.44
460.798	441.44
461.018	451.44
461.238	450.44
461.458	435.44
461.678	425.44
461.898	442.44
462.118	438.44
462.338	476.44
462.558	458.44
462.777	457.44
462.997	468.44
463.217	514.44
463.437	516.44
463.657	512.44
463.876	490.44
464.096	493.44
464.316	486.44
464.536	513.44
464.755	500.44
464.975	490.44
465.195	491.44
465.414	513.44
465.634	482.44
465.854	463.44
466.073	441.44
466.293	421.44
466.512	417.44
466.732	418.44
466.951	392.44
467.171	418.44
467.391	414.44
467.61	433.44
467.829	400.44
468.049	406.44
468.268	402.44
468.488	415.44
468.707	394.44
468.927	418.44
469.146	392.44
469.365	399.44
469.585	402.44
469.804	389.44
470.023	432.44
470.243	414.44
470.462	420.44
470.681	443.44
470.901	428.44
471.12	422.44
471.339	430.44
471.558	410.44
471.777	422.44
471.997	427.44
472.216	419.44
472.435	447.44
472.654	427.44
472.873	391.44
473.092	394.44
473.311	414.44
473.53	413.44
473.749	429.44
473.968	442.44
474.187	526.44
474.406	536.44
474.625	467.44
474.844	437.44
475.063	406.44
475.282	426.44
475.501	434.44
475.72	423.44
475.939	417.44
476.158	427.44
476.377	455.44
476.596	417.44
476.814	439.44
477.033	441.44
477.252	436.44
477.471	427.44
477.69	450.44
477.908	451.44
478.127	456.44
478.346	454.44
478.564	457.44
478.783	451.44
479.002	461.44
479.22	466.44
479.439	479.44
479.658	490.44
479.876	503.44
480.095	508.44
480.313	532.44
480.532	514.44
480.751	515.44
480.969	508.44
481.188	531.44
481.406	547.44
481.624	505.44
481.843	493.44
482.061	483.44
482.28	502.44
482.498	471.44
482.717	461.44
482.935	469.44
483.153	482.44
483.372	479.44
483.59	491.44
483.808	482.44
484.027	491.44
484.245	480.44
484.463	488.44
484.681	496.44
484.9	486.44
485.118	485.44
485.336	491.44
485.554	488.44
485.772	475.44
485.99	486.44
486.209	493.44
486.427	499.44
486.645	491.44
486.863	506.44
487.081	524.44
487.299	506.44
487.517	512.44
487.735	532.44
487.953	504.44
488.171	526.44
488.389	519.44
488.607	508.44
488.825	512.44
489.043	524.44
489.261	505.44
489.479	500.44
489.696	518.44
489.914	533.44
490.132	528.44
490.35	522.44
490.568	523.44
490.786	510.44
491.003	536.44
491.221	540.44
491.439	553.44
491.657	584.44
491.874	548.44
492.092	588.44
492.31	584.44
492.527	573.44
492.745	576.44
492.963	594.44
493.18	580.44
493.398	582.44
493.615	586.44
493.833	610.44
494.05	586.44
494.268	579.44
494.485	587.44
494.703	603.44
494.92	590.44
495.138	592.44
495.355	580.44
495.573	585.44
495.79	573.44
496.008	608.44
496.225	601.44
496.442	618.44
496.66	598.44
496.877	618.44
497.094	622.44
497.312	605.44
497.529	602.44
497.746	624.44
497.963	641.44
498.181	644.44
498.398	661.44
498.615	696.44
498.832	716.44
499.049	729.44
499.267	747.44
499.484	758.44
499.701	794.44
499.918	848.44
500.135	875.44
500.352	920.44
500.569	948.44
500.786	934.44
501.003	928.44
501.22	860.44
501.437	836.44
501.654	798.44
501.871	790.44
502.088	781.44
