Data from 1977.PennyLincolnUp.Lamp.En5.5.200Scan.071719.P1_HRD10591_16-07-01-865.txt Node
Date: Thu Jul 18 16:07:01 EDT 2019
User: cochatt
Spectrometer: HR+D1059
Trigger mode: 1
Integration Time (sec): 1.000000E-1
Scans to average: 1
Electric dark correction enabled: true
Nonlinearity correction enabled: false
Boxcar width: 0
XAxis mode: Wavelengths
Number of Pixels in Spectrum: 2048
>>>>>Begin Spectral Data<<<<<
223.165	-13.5
223.4	-13.5
223.635	-13.5
223.869	-17.5
224.104	-13.5
224.338	1.5
224.573	-22.5
224.808	-14.5
225.042	-11.5
225.277	-10.5
225.511	-11.5
225.746	5.5
225.98	6.5
226.215	15.5
226.449	13.5
226.683	19.5
226.918	23.5
227.152	29.5
227.387	22.5
227.621	34.5
227.856	27.5
228.09	60.5
228.324	41.5
228.559	31.5
228.793	62.5
229.027	91.5
229.262	90.5
229.496	92.5
229.73	127.5
229.964	137.5
230.199	126.5
230.433	108.5
230.667	100.5
230.901	102.5
231.136	108.5
231.37	105.5
231.604	103.5
231.838	107.5
232.072	112.5
232.306	116.5
232.541	107.5
232.775	110.5
233.009	121.5
233.243	103.5
233.477	102.5
233.711	111.5
233.945	93.5
234.179	119.5
234.413	113.5
234.647	120.5
234.881	114.5
235.115	105.5
235.349	115.5
235.583	122.5
235.817	124.5
236.051	122.5
236.285	117.5
236.519	126.5
236.753	127.5
236.987	132.5
237.221	184.5
237.455	217.5
237.689	176.5
237.922	133.5
238.156	137.5
238.39	133.5
238.624	124.5
238.858	135.5
239.091	119.5
239.325	113.5
239.559	121.5
239.793	128.5
240.027	123.5
240.26	149.5
240.494	155.5
240.728	139.5
240.961	135.5
241.195	145.5
241.429	130.5
241.662	135.5
241.896	137.5
242.13	125.5
242.363	136.5
242.597	139.5
242.83	138.5
243.064	142.5
243.298	147.5
243.531	134.5
243.765	147.5
243.998	147.5
244.232	144.5
244.465	149.5
244.699	139.5
244.932	133.5
245.166	143.5
245.399	154.5
245.633	163.5
245.866	144.5
246.099	132.5
246.333	156.5
246.566	148.5
246.8	148.5
247.033	155.5
247.266	146.5
247.5	173.5
247.733	152.5
247.966	149.5
248.2	176.5
248.433	164.5
248.666	172.5
248.899	182.5
249.133	187.5
249.366	219.5
249.599	197.5
249.832	182.5
250.066	166.5
250.299	180.5
250.532	190.5
250.765	190.5
250.998	218.5
251.231	219.5
251.465	208.5
251.698	188.5
251.931	203.5
252.164	198.5
252.397	204.5
252.63	200.5
252.863	223.5
253.096	190.5
253.329	224.5
253.562	227.5
253.795	223.5
254.028	205.5
254.261	217.5
254.494	227.5
254.727	262.5
254.96	293.5
255.193	263.5
255.426	231.5
255.659	226.5
255.892	227.5
256.124	252.5
256.357	220.5
256.59	217.5
256.823	192.5
257.056	204.5
257.289	224.5
257.521	223.5
257.754	197.5
257.987	210.5
258.22	223.5
258.452	215.5
258.685	223.5
258.918	210.5
259.151	225.5
259.383	218.5
259.616	218.5
259.849	221.5
260.081	226.5
260.314	255.5
260.547	245.5
260.779	247.5
261.012	232.5
261.244	234.5
261.477	234.5
261.71	233.5
261.942	226.5
262.175	230.5
262.407	231.5
262.64	227.5
262.872	237.5
263.105	221.5
263.337	223.5
263.57	221.5
263.802	228.5
264.035	220.5
264.267	223.5
264.499	217.5
264.732	230.5
264.964	216.5
265.197	221.5
265.429	197.5
265.661	209.5
265.894	220.5
266.126	221.5
266.358	214.5
266.591	228.5
266.823	228.5
267.055	241.5
267.287	241.5
267.52	227.5
267.752	233.5
267.984	239.5
268.216	236.5
268.448	255.5
268.681	253.5
268.913	272.5
269.145	273.5
269.377	271.5
269.609	270.5
269.841	274.5
270.073	272.5
270.306	307.5
270.538	327.5
270.77	323.5
271.002	318.5
271.234	285.5
271.466	305.5
271.698	339.5
271.93	304.5
272.162	310.5
272.394	320.5
272.626	297.5
272.858	305.5
273.09	296.5
273.322	281.5
273.553	276.5
273.785	274.5
274.017	273.5
274.249	276.5
274.481	284.5
274.713	255.5
274.945	281.5
275.176	281.5
275.408	262.5
275.64	262.5
275.872	252.5
276.104	276.5
276.335	270.5
276.567	307.5
276.799	295.5
277.031	315.5
277.262	336.5
277.494	332.5
277.726	311.5
277.957	307.5
278.189	308.5
278.421	281.5
278.652	277.5
278.884	323.5
279.115	279.5
279.347	289.5
279.579	284.5
279.81	285.5
280.042	289.5
280.273	289.5
280.505	277.5
280.736	268.5
280.968	283.5
281.199	270.5
281.431	299.5
281.662	309.5
281.894	295.5
282.125	293.5
282.356	300.5
282.588	339.5
282.819	324.5
283.051	306.5
283.282	289.5
283.513	278.5
283.745	292.5
283.976	281.5
284.207	311.5
284.439	310.5
284.67	324.5
284.901	290.5
285.132	296.5
285.364	294.5
285.595	299.5
285.826	284.5
286.057	306.5
286.288	303.5
286.52	306.5
286.751	293.5
286.982	295.5
287.213	307.5
287.444	296.5
287.675	336.5
287.906	333.5
288.138	303.5
288.369	336.5
288.6	332.5
288.831	315.5
289.062	322.5
289.293	322.5
289.524	306.5
289.755	307.5
289.986	313.5
290.217	290.5
290.448	323.5
290.679	314.5
290.91	317.5
291.141	322.5
291.371	309.5
291.602	321.5
291.833	318.5
292.064	318.5
292.295	323.5
292.526	326.5
292.757	325.5
292.987	318.5
293.218	314.5
293.449	332.5
293.68	322.5
293.91	321.5
294.141	331.5
294.372	313.5
294.603	296.5
294.833	325.5
295.064	343.5
295.295	339.5
295.525	328.5
295.756	330.5
295.987	333.5
296.217	345.5
296.448	346.5
296.679	330.5
296.909	336.5
297.14	331.5
297.37	332.5
297.601	345.5
297.831	323.5
298.062	323.5
298.292	317.5
298.523	339.5
298.753	336.5
298.984	339.5
299.214	318.5
299.445	327.5
299.675	352.5
299.905	346.5
300.136	343.5
300.366	344.5
300.597	337.5
300.827	339.5
301.057	358.5
301.288	378.5
301.518	337.5
301.748	362.5
301.979	363.5
302.209	346.5
302.439	346.5
302.669	341.5
302.9	338.5
303.13	356.5
303.36	353.5
303.59	362.5
303.82	365.5
304.051	359.5
304.281	369.5
304.511	354.5
304.741	363.5
304.971	367.5
305.201	356.5
305.431	363.5
305.661	352.5
305.891	354.5
306.121	362.5
306.352	380.5
306.582	354.5
306.812	358.5
307.042	357.5
307.272	351.5
307.502	339.5
307.731	358.5
307.961	370.5
308.191	355.5
308.421	374.5
308.651	349.5
308.881	370.5
309.111	353.5
309.341	354.5
309.571	367.5
309.8	387.5
310.03	381.5
310.26	391.5
310.49	393.5
310.72	399.5
310.949	406.5
311.179	389.5
311.409	387.5
311.639	389.5
311.868	379.5
312.098	400.5
312.328	397.5
312.557	406.5
312.787	412.5
313.017	409.5
313.246	409.5
313.476	422.5
313.706	405.5
313.935	401.5
314.165	400.5
314.394	402.5
314.624	421.5
314.853	415.5
315.083	396.5
315.312	402.5
315.542	378.5
315.771	426.5
316.001	385.5
316.23	421.5
316.46	402.5
316.689	422.5
316.919	401.5
317.148	423.5
317.377	401.5
317.607	404.5
317.836	387.5
318.065	420.5
318.295	415.5
318.524	406.5
318.753	407.5
318.983	394.5
319.212	403.5
319.441	402.5
319.67	398.5
319.9	420.5
320.129	402.5
320.358	389.5
320.587	411.5
320.816	427.5
321.046	428.5
321.275	423.5
321.504	409.5
321.733	411.5
321.962	424.5
322.191	419.5
322.42	429.5
322.649	457.5
322.878	471.5
323.108	467.5
323.337	479.5
323.566	495.5
323.795	506.5
324.024	573.5
324.253	643.5
324.482	883.5
324.71	1332.5
324.939	1841.5
325.168	1586.5
325.397	852.5
325.626	573.5
325.855	531.5
326.084	507.5
326.313	487.5
326.542	493.5
326.77	524.5
326.999	643.5
327.228	834.5
327.457	1167.5
327.686	1381.5
327.914	931.5
328.143	653.5
328.372	565.5
328.6	571.5
328.829	544.5
329.058	556.5
329.287	560.5
329.515	533.5
329.744	512.5
329.972	509.5
330.201	536.5
330.43	540.5
330.658	561.5
330.887	585.5
331.115	580.5
331.344	499.5
331.572	501.5
331.801	482.5
332.03	493.5
332.258	488.5
332.486	495.5
332.715	480.5
332.943	467.5
333.172	491.5
333.4	500.5
333.629	513.5
333.857	525.5
334.085	529.5
334.314	519.5
334.542	534.5
334.771	542.5
334.999	529.5
335.227	515.5
335.455	506.5
335.684	484.5
335.912	496.5
336.14	475.5
336.369	471.5
336.597	471.5
336.825	481.5
337.053	474.5
337.281	455.5
337.51	458.5
337.738	487.5
337.966	464.5
338.194	465.5
338.422	486.5
338.65	447.5
338.878	478.5
339.106	421.5
339.334	436.5
339.562	455.5
339.79	440.5
340.018	460.5
340.246	452.5
340.474	451.5
340.702	419.5
340.93	444.5
341.158	449.5
341.386	446.5
341.614	433.5
341.842	435.5
342.07	450.5
342.298	476.5
342.526	461.5
342.754	442.5
342.981	424.5
343.209	444.5
343.437	435.5
343.665	456.5
343.893	471.5
344.12	469.5
344.348	485.5
344.576	452.5
344.804	451.5
345.031	453.5
345.259	455.5
345.487	444.5
345.714	445.5
345.942	414.5
346.17	424.5
346.397	411.5
346.625	445.5
346.853	435.5
347.08	421.5
347.308	421.5
347.535	426.5
347.763	441.5
347.99	422.5
348.218	432.5
348.445	419.5
348.673	432.5
348.9	449.5
349.128	416.5
349.355	418.5
349.583	402.5
349.81	436.5
350.037	407.5
350.265	402.5
350.492	407.5
350.72	411.5
350.947	396.5
351.174	415.5
351.402	413.5
351.629	431.5
351.856	424.5
352.083	419.5
352.311	441.5
352.538	427.5
352.765	436.5
352.992	430.5
353.22	419.5
353.447	424.5
353.674	409.5
353.901	403.5
354.128	398.5
354.355	395.5
354.583	416.5
354.81	401.5
355.037	393.5
355.264	391.5
355.491	402.5
355.718	401.5
355.945	392.5
356.172	401.5
356.399	403.5
356.626	405.5
356.853	405.5
357.08	391.5
357.307	405.5
357.534	382.5
357.761	417.5
357.988	420.5
358.215	405.5
358.441	379.5
358.668	391.5
358.895	405.5
359.122	385.5
359.349	416.5
359.576	434.5
359.802	427.5
360.029	442.5
360.256	443.5
360.483	432.5
360.709	423.5
360.936	375.5
361.163	412.5
361.39	421.5
361.616	435.5
361.843	406.5
362.07	422.5
362.296	392.5
362.523	380.5
362.749	412.5
362.976	417.5
363.203	425.5
363.429	401.5
363.656	400.5
363.882	402.5
364.109	408.5
364.335	391.5
364.562	383.5
364.788	410.5
365.015	385.5
365.241	391.5
365.468	421.5
365.694	409.5
365.92	404.5
366.147	377.5
366.373	403.5
366.599	389.5
366.826	377.5
367.052	389.5
367.278	386.5
367.505	390.5
367.731	396.5
367.957	394.5
368.184	382.5
368.41	394.5
368.636	395.5
368.862	405.5
369.089	401.5
369.315	410.5
369.541	410.5
369.767	411.5
369.993	405.5
370.219	422.5
370.445	399.5
370.672	402.5
370.898	394.5
371.124	401.5
371.35	393.5
371.576	404.5
371.802	388.5
372.028	411.5
372.254	413.5
372.48	380.5
372.706	384.5
372.932	391.5
373.158	402.5
373.384	411.5
373.61	396.5
373.835	398.5
374.061	402.5
374.287	404.5
374.513	422.5
374.739	415.5
374.965	394.5
375.191	408.5
375.416	392.5
375.642	392.5
375.868	405.5
376.094	426.5
376.319	406.5
376.545	389.5
376.771	395.5
376.997	393.5
377.222	387.5
377.448	378.5
377.674	389.5
377.899	386.5
378.125	396.5
378.35	375.5
378.576	391.5
378.802	377.5
379.027	373.5
379.253	386.5
379.478	394.5
379.704	388.5
379.929	400.5
380.155	395.5
380.38	389.5
380.606	388.5
380.831	389.5
381.057	393.5
381.282	389.5
381.507	397.5
381.733	378.5
381.958	381.5
382.184	403.5
382.409	403.5
382.634	416.5
382.86	408.5
383.085	404.5
383.31	417.5
383.535	415.5
383.761	392.5
383.986	425.5
384.211	400.5
384.436	409.5
384.662	419.5
384.887	427.5
385.112	435.5
385.337	435.5
385.562	421.5
385.787	425.5
386.013	439.5
386.238	452.5
386.463	444.5
386.688	436.5
386.913	432.5
387.138	429.5
387.363	452.5
387.588	458.5
387.813	433.5
388.038	441.5
388.263	452.5
388.488	431.5
388.713	413.5
388.938	450.5
389.163	447.5
389.387	441.5
389.612	433.5
389.837	409.5
390.062	432.5
390.287	459.5
390.512	429.5
390.736	417.5
390.961	439.5
391.186	447.5
391.411	441.5
391.636	442.5
391.86	447.5
392.085	449.5
392.31	451.5
392.534	456.5
392.759	431.5
392.984	420.5
393.208	439.5
393.433	421.5
393.658	426.5
393.882	414.5
394.107	438.5
394.331	439.5
394.556	426.5
394.78	427.5
395.005	429.5
395.229	469.5
395.454	450.5
395.678	445.5
395.903	469.5
396.127	474.5
396.352	484.5
396.576	453.5
396.801	433.5
397.025	449.5
397.249	458.5
397.474	449.5
397.698	459.5
397.922	464.5
398.147	488.5
398.371	475.5
398.595	462.5
398.82	481.5
399.044	495.5
399.268	525.5
399.492	576.5
399.717	601.5
399.941	594.5
400.165	587.5
400.389	635.5
400.613	573.5
400.837	554.5
401.062	513.5
401.286	488.5
401.51	485.5
401.734	518.5
401.958	497.5
402.182	477.5
402.406	511.5
402.63	517.5
402.854	515.5
403.078	507.5
403.302	514.5
403.526	521.5
403.75	509.5
403.974	497.5
404.198	516.5
404.422	532.5
404.645	509.5
404.869	543.5
405.093	539.5
405.317	589.5
405.541	604.5
405.765	545.5
405.988	531.5
406.212	507.5
406.436	553.5
406.66	548.5
406.883	543.5
407.107	570.5
407.331	602.5
407.555	669.5
407.778	675.5
408.002	616.5
408.226	573.5
408.449	563.5
408.673	578.5
408.896	579.5
409.12	628.5
409.344	577.5
409.567	547.5
409.791	545.5
410.014	496.5
410.238	507.5
410.461	512.5
410.685	529.5
410.908	532.5
411.132	569.5
411.355	576.5
411.578	569.5
411.802	517.5
412.025	489.5
412.249	512.5
412.472	535.5
412.695	557.5
412.919	540.5
413.142	496.5
413.365	483.5
413.589	487.5
413.812	463.5
414.035	474.5
414.258	493.5
414.482	471.5
414.705	464.5
414.928	467.5
415.151	473.5
415.374	458.5
415.597	489.5
415.821	469.5
416.044	486.5
416.267	472.5
416.49	466.5
416.713	457.5
416.936	482.5
417.159	454.5
417.382	466.5
417.605	490.5
417.828	486.5
418.051	504.5
418.274	481.5
418.497	480.5
418.72	461.5
418.943	477.5
419.166	511.5
419.389	523.5
419.611	517.5
419.834	508.5
420.057	508.5
420.28	483.5
420.503	497.5
420.726	479.5
420.948	501.5
421.171	548.5
421.394	578.5
421.617	499.5
421.839	493.5
422.062	502.5
422.285	519.5
422.507	549.5
422.73	625.5
422.953	599.5
423.175	531.5
423.398	515.5
423.621	508.5
423.843	525.5
424.066	525.5
424.288	537.5
424.511	531.5
424.733	601.5
424.956	653.5
425.178	637.5
425.401	620.5
425.623	637.5
425.846	550.5
426.068	519.5
426.291	500.5
426.513	522.5
426.735	518.5
426.958	574.5
427.18	640.5
427.402	767.5
427.625	793.5
427.847	674.5
428.069	582.5
428.292	537.5
428.514	509.5
428.736	499.5
428.958	477.5
429.181	460.5
429.403	473.5
429.625	489.5
429.847	501.5
430.069	552.5
430.292	565.5
430.514	495.5
430.736	500.5
430.958	468.5
431.18	427.5
431.402	449.5
431.624	440.5
431.846	455.5
432.068	431.5
432.29	437.5
432.512	457.5
432.734	436.5
432.956	441.5
433.178	428.5
433.4	454.5
433.622	460.5
433.844	455.5
434.066	457.5
434.287	444.5
434.509	470.5
434.731	453.5
434.953	473.5
435.175	489.5
435.397	514.5
435.618	524.5
435.84	546.5
436.062	640.5
436.284	691.5
436.505	551.5
436.727	496.5
436.949	478.5
437.17	464.5
437.392	476.5
437.614	479.5
437.835	507.5
438.057	578.5
438.278	659.5
438.5	666.5
438.721	745.5
438.943	709.5
439.165	570.5
439.386	501.5
439.608	509.5
439.829	543.5
440.05	540.5
440.272	552.5
440.493	556.5
440.715	505.5
440.936	475.5
441.158	465.5
441.379	466.5
441.6	506.5
441.822	488.5
442.043	543.5
442.264	647.5
442.486	645.5
442.707	559.5
442.928	531.5
443.149	520.5
443.371	543.5
443.592	579.5
443.813	652.5
444.034	712.5
444.255	601.5
444.476	536.5
444.698	519.5
444.919	533.5
445.14	623.5
445.361	584.5
445.582	563.5
445.803	597.5
446.024	654.5
446.245	675.5
446.466	642.5
446.687	532.5
446.908	500.5
447.129	492.5
447.35	451.5
447.571	460.5
447.792	461.5
448.013	472.5
448.234	479.5
448.455	513.5
448.675	611.5
448.896	746.5
449.117	588.5
449.338	574.5
449.559	688.5
449.779	793.5
450	613.5
450.221	499.5
450.442	454.5
450.662	433.5
450.883	458.5
451.104	450.5
451.324	459.5
451.545	465.5
451.766	448.5
451.986	398.5
452.207	423.5
452.428	422.5
452.648	413.5
452.869	429.5
453.089	432.5
453.31	426.5
453.53	407.5
453.751	420.5
453.971	419.5
454.192	429.5
454.412	417.5
454.633	405.5
454.853	428.5
455.073	418.5
455.294	426.5
455.514	489.5
455.734	463.5
455.955	434.5
456.175	420.5
456.395	414.5
456.616	417.5
456.836	379.5
457.056	407.5
457.276	379.5
457.497	387.5
457.717	393.5
457.937	387.5
458.157	413.5
458.377	403.5
458.598	434.5
458.818	461.5
459.038	553.5
459.258	539.5
459.478	467.5
459.698	451.5
459.918	431.5
460.138	446.5
460.358	472.5
460.578	461.5
460.798	440.5
461.018	465.5
461.238	447.5
461.458	437.5
461.678	465.5
461.898	467.5
462.118	477.5
462.338	467.5
462.558	480.5
462.777	470.5
462.997	503.5
463.217	524.5
463.437	519.5
463.657	501.5
463.876	495.5
464.096	508.5
464.316	498.5
464.536	497.5
464.755	487.5
464.975	491.5
465.195	492.5
465.414	551.5
465.634	475.5
465.854	464.5
466.073	451.5
466.293	428.5
466.512	446.5
466.732	416.5
466.951	443.5
467.171	405.5
467.391	417.5
467.61	440.5
467.829	429.5
468.049	427.5
468.268	417.5
468.488	420.5
468.707	418.5
468.927	403.5
469.146	431.5
469.365	425.5
469.585	395.5
469.804	403.5
470.023	439.5
470.243	435.5
470.462	424.5
470.681	445.5
470.901	442.5
471.12	452.5
471.339	437.5
471.558	460.5
471.777	421.5
471.997	423.5
472.216	427.5
472.435	437.5
472.654	431.5
472.873	425.5
473.092	420.5
473.311	423.5
473.53	425.5
473.749	435.5
473.968	475.5
474.187	545.5
474.406	565.5
474.625	479.5
474.844	476.5
475.063	425.5
475.282	435.5
475.501	439.5
475.72	450.5
475.939	433.5
476.158	435.5
476.377	435.5
476.596	434.5
476.814	437.5
477.033	460.5
477.252	452.5
477.471	448.5
477.69	469.5
477.908	458.5
478.127	460.5
478.346	469.5
478.564	465.5
478.783	484.5
479.002	481.5
479.22	490.5
479.439	482.5
479.658	538.5
479.876	513.5
480.095	526.5
480.313	554.5
480.532	529.5
480.751	530.5
480.969	544.5
481.188	559.5
481.406	579.5
481.624	539.5
481.843	515.5
482.061	520.5
482.28	505.5
482.498	513.5
482.717	499.5
482.935	492.5
483.153	489.5
483.372	510.5
483.59	502.5
483.808	506.5
484.027	493.5
484.245	495.5
484.463	480.5
484.681	495.5
484.9	497.5
485.118	490.5
485.336	504.5
485.554	519.5
485.772	502.5
485.99	517.5
486.209	519.5
486.427	517.5
486.645	526.5
486.863	532.5
487.081	543.5
487.299	541.5
487.517	535.5
487.735	515.5
487.953	537.5
488.171	529.5
488.389	529.5
488.607	506.5
488.825	543.5
489.043	529.5
489.261	515.5
489.479	536.5
489.696	533.5
489.914	524.5
490.132	575.5
490.35	547.5
490.568	586.5
490.786	542.5
491.003	540.5
491.221	556.5
491.439	558.5
491.657	585.5
491.874	589.5
492.092	569.5
492.31	585.5
492.527	615.5
492.745	603.5
492.963	611.5
493.18	589.5
493.398	608.5
493.615	628.5
493.833	617.5
494.05	608.5
494.268	598.5
494.485	627.5
494.703	600.5
494.92	631.5
495.138	612.5
495.355	627.5
495.573	615.5
495.79	618.5
496.008	619.5
496.225	611.5
496.442	617.5
496.66	618.5
496.877	621.5
497.094	611.5
497.312	621.5
497.529	645.5
497.746	619.5
497.963	643.5
498.181	688.5
498.398	703.5
498.615	709.5
498.832	729.5
499.049	747.5
499.267	760.5
499.484	788.5
499.701	858.5
499.918	847.5
500.135	913.5
500.352	943.5
500.569	958.5
500.786	980.5
501.003	961.5
501.22	921.5
501.437	875.5
501.654	835.5
501.871	829.5
502.088	779.5
502.305	739.5
502.522	718.5
502.739	710.5
502.956	695.5
503.172	671.5
503.389	665.5
503.606	669.5
503.823	665.5
504.04	648.5
504.256	666.5
504.473	637.5
504.69	637.5
504.907	641.5
505.123	619.5
505.34	629.5
505.557	605.5
505.773	612.5
505.99	589.5
506.207	626.5
506.423	585.5
506.64	563.5
506.856	562.5
507.073	599.5
507.289	576.5
507.506	572.5
507.722	589.5
507.939	603.5
508.155	576.5
508.372	561.5
508.588	571.5
508.805	557.5
509.021	540.5
509.238	597.5
509.454	564.5
509.67	579.5
509.887	570.5
510.103	576.5
510.319	550.5
510.536	608.5
510.752	869.5
510.968	738.5
511.184	545.5
511.401	546.5
511.617	551.5
511.833	520.5
512.049	535.5
512.265	528.5
512.481	502.5
512.698	517.5
512.914	513.5
513.13	515.5
513.346	502.5
513.562	531.5
513.778	530.5
513.994	502.5
514.21	528.5
514.426	549.5
514.642	569.5
514.858	581.5
515.074	598.5
515.29	678.5
515.506	895.5
515.721	757.5
515.937	603.5
516.153	527.5
516.369	555.5
516.585	549.5
516.801	550.5
517.016	556.5
517.232	543.5
517.448	554.5
517.664	565.5
517.879	581.5
518.095	566.5
518.311	577.5
518.527	542.5
518.742	518.5
518.958	538.5
519.173	543.5
519.389	550.5
519.605	532.5
519.82	531.5
