Data from 1977.PennyLincolnUp.Lamp.En5.5.200Scan.071719.P1_HRD10591_16-06-33-863.txt Node
Date: Thu Jul 18 16:06:33 EDT 2019
User: cochatt
Spectrometer: HR+D1059
Trigger mode: 1
Integration Time (sec): 1.000000E-1
Scans to average: 1
Electric dark correction enabled: true
Nonlinearity correction enabled: false
Boxcar width: 0
XAxis mode: Wavelengths
Number of Pixels in Spectrum: 2048
>>>>>Begin Spectral Data<<<<<
223.165	-9.5
223.4	-9.5
223.635	-9.5
223.869	-12.5
224.104	-15.5
224.338	-19.5
224.573	-11.5
224.808	-8.5
225.042	-8.5
225.277	-6.5
225.511	-10.5
225.746	0.5
225.98	12.5
226.215	9.5
226.449	4.5
226.683	26.5
226.918	22.5
227.152	26.5
227.387	19.5
227.621	23.5
227.856	33.5
228.09	42.5
228.324	53.5
228.559	53.5
228.793	53.5
229.027	99.5
229.262	105.5
229.496	101.5
229.73	117.5
229.964	140.5
230.199	112.5
230.433	119.5
230.667	110.5
230.901	108.5
231.136	108.5
231.37	113.5
231.604	105.5
231.838	109.5
232.072	111.5
232.306	105.5
232.541	122.5
232.775	108.5
233.009	129.5
233.243	105.5
233.477	109.5
233.711	133.5
233.945	118.5
234.179	130.5
234.413	117.5
234.647	108.5
234.881	120.5
235.115	132.5
235.349	121.5
235.583	121.5
235.817	117.5
236.051	115.5
236.285	134.5
236.519	120.5
236.753	123.5
236.987	130.5
237.221	162.5
237.455	196.5
237.689	164.5
237.922	151.5
238.156	138.5
238.39	141.5
238.624	117.5
238.858	123.5
239.091	131.5
239.325	130.5
239.559	141.5
239.793	130.5
240.027	143.5
240.26	142.5
240.494	145.5
240.728	140.5
240.961	154.5
241.195	146.5
241.429	126.5
241.662	128.5
241.896	129.5
242.13	142.5
242.363	149.5
242.597	129.5
242.83	130.5
243.064	128.5
243.298	122.5
243.531	126.5
243.765	140.5
243.998	125.5
244.232	137.5
244.465	137.5
244.699	139.5
244.932	138.5
245.166	142.5
245.399	135.5
245.633	154.5
245.866	144.5
246.099	153.5
246.333	162.5
246.566	162.5
246.8	160.5
247.033	154.5
247.266	163.5
247.5	159.5
247.733	170.5
247.966	168.5
248.2	156.5
248.433	162.5
248.666	159.5
248.899	182.5
249.133	183.5
249.366	194.5
249.599	184.5
249.832	188.5
250.066	188.5
250.299	182.5
250.532	196.5
250.765	180.5
250.998	210.5
251.231	219.5
251.465	212.5
251.698	200.5
251.931	192.5
252.164	198.5
252.397	203.5
252.63	194.5
252.863	201.5
253.096	214.5
253.329	223.5
253.562	218.5
253.795	225.5
254.028	223.5
254.261	218.5
254.494	213.5
254.727	267.5
254.96	267.5
255.193	270.5
255.426	239.5
255.659	216.5
255.892	216.5
256.124	213.5
256.357	225.5
256.59	233.5
256.823	217.5
257.056	213.5
257.289	219.5
257.521	206.5
257.754	225.5
257.987	210.5
258.22	206.5
258.452	205.5
258.685	206.5
258.918	223.5
259.151	215.5
259.383	212.5
259.616	220.5
259.849	229.5
260.081	235.5
260.314	231.5
260.547	254.5
260.779	228.5
261.012	246.5
261.244	217.5
261.477	233.5
261.71	221.5
261.942	244.5
262.175	238.5
262.407	233.5
262.64	220.5
262.872	212.5
263.105	219.5
263.337	232.5
263.57	229.5
263.802	228.5
264.035	209.5
264.267	215.5
264.499	209.5
264.732	221.5
264.964	218.5
265.197	227.5
265.429	222.5
265.661	237.5
265.894	228.5
266.126	227.5
266.358	205.5
266.591	240.5
266.823	238.5
267.055	222.5
267.287	239.5
267.52	233.5
267.752	246.5
267.984	247.5
268.216	244.5
268.448	230.5
268.681	254.5
268.913	262.5
269.145	273.5
269.377	264.5
269.609	272.5
269.841	269.5
270.073	278.5
270.306	292.5
270.538	307.5
270.77	301.5
271.002	299.5
271.234	301.5
271.466	284.5
271.698	292.5
271.93	322.5
272.162	304.5
272.394	314.5
272.626	293.5
272.858	280.5
273.09	283.5
273.322	281.5
273.553	274.5
273.785	265.5
274.017	253.5
274.249	270.5
274.481	289.5
274.713	284.5
274.945	293.5
275.176	266.5
275.408	280.5
275.64	283.5
275.872	287.5
276.104	297.5
276.335	284.5
276.567	274.5
276.799	297.5
277.031	313.5
277.262	316.5
277.494	312.5
277.726	309.5
277.957	301.5
278.189	309.5
278.421	278.5
278.652	277.5
278.884	258.5
279.115	277.5
279.347	287.5
279.579	277.5
279.81	290.5
280.042	292.5
280.273	304.5
280.505	285.5
280.736	284.5
280.968	300.5
281.199	292.5
281.431	292.5
281.662	289.5
281.894	292.5
282.125	287.5
282.356	296.5
282.588	299.5
282.819	313.5
283.051	288.5
283.282	284.5
283.513	290.5
283.745	307.5
283.976	293.5
284.207	286.5
284.439	304.5
284.67	308.5
284.901	314.5
285.132	290.5
285.364	293.5
285.595	291.5
285.826	299.5
286.057	311.5
286.288	309.5
286.52	301.5
286.751	301.5
286.982	312.5
287.213	305.5
287.444	290.5
287.675	308.5
287.906	324.5
288.138	318.5
288.369	313.5
288.6	332.5
288.831	317.5
289.062	324.5
289.293	318.5
289.524	342.5
289.755	293.5
289.986	292.5
290.217	312.5
290.448	298.5
290.679	299.5
290.91	317.5
291.141	315.5
291.371	322.5
291.602	316.5
291.833	312.5
292.064	318.5
292.295	321.5
292.526	320.5
292.757	319.5
292.987	325.5
293.218	301.5
293.449	302.5
293.68	298.5
293.91	320.5
294.141	317.5
294.372	306.5
294.603	316.5
294.833	322.5
295.064	318.5
295.295	331.5
295.525	312.5
295.756	312.5
295.987	330.5
296.217	349.5
296.448	331.5
296.679	354.5
296.909	324.5
297.14	317.5
297.37	328.5
297.601	334.5
297.831	326.5
298.062	337.5
298.292	326.5
298.523	331.5
298.753	344.5
298.984	309.5
299.214	322.5
299.445	343.5
299.675	326.5
299.905	336.5
300.136	331.5
300.366	340.5
300.597	352.5
300.827	331.5
301.057	346.5
301.288	355.5
301.518	336.5
301.748	341.5
301.979	357.5
302.209	341.5
302.439	341.5
302.669	352.5
302.9	354.5
303.13	365.5
303.36	349.5
303.59	354.5
303.82	344.5
304.051	357.5
304.281	361.5
304.511	344.5
304.741	328.5
304.971	337.5
305.201	338.5
305.431	340.5
305.661	352.5
305.891	354.5
306.121	353.5
306.352	378.5
306.582	349.5
306.812	365.5
307.042	337.5
307.272	341.5
307.502	347.5
307.731	374.5
307.961	362.5
308.191	357.5
308.421	357.5
308.651	341.5
308.881	364.5
309.111	370.5
309.341	367.5
309.571	357.5
309.8	368.5
310.03	393.5
310.26	407.5
310.49	372.5
310.72	392.5
310.949	404.5
311.179	392.5
311.409	373.5
311.639	398.5
311.868	386.5
312.098	372.5
312.328	393.5
312.557	408.5
312.787	416.5
313.017	404.5
313.246	401.5
313.476	387.5
313.706	419.5
313.935	392.5
314.165	390.5
314.394	409.5
314.624	404.5
314.853	406.5
315.083	408.5
315.312	400.5
315.542	391.5
315.771	386.5
316.001	412.5
316.23	395.5
316.46	392.5
316.689	400.5
316.919	381.5
317.148	394.5
317.377	403.5
317.607	420.5
317.836	402.5
318.065	417.5
318.295	392.5
318.524	402.5
318.753	399.5
318.983	393.5
319.212	400.5
319.441	381.5
319.67	401.5
319.9	391.5
320.129	399.5
320.358	384.5
320.587	404.5
320.816	418.5
321.046	388.5
321.275	402.5
321.504	415.5
321.733	416.5
321.962	413.5
322.191	424.5
322.42	437.5
322.649	440.5
322.878	438.5
323.108	466.5
323.337	487.5
323.566	492.5
323.795	492.5
324.024	542.5
324.253	635.5
324.482	871.5
324.71	1281.5
324.939	1755.5
325.168	1506.5
325.397	821.5
325.626	588.5
325.855	549.5
326.084	504.5
326.313	495.5
326.542	477.5
326.77	516.5
326.999	612.5
327.228	786.5
327.457	1142.5
327.686	1354.5
327.914	916.5
328.143	633.5
328.372	567.5
328.6	562.5
328.829	548.5
329.058	536.5
329.287	518.5
329.515	505.5
329.744	489.5
329.972	510.5
330.201	522.5
330.43	537.5
330.658	547.5
330.887	573.5
331.115	544.5
331.344	513.5
331.572	489.5
331.801	506.5
332.03	498.5
332.258	494.5
332.486	480.5
332.715	468.5
332.943	467.5
333.172	488.5
333.4	492.5
333.629	491.5
333.857	518.5
334.085	502.5
334.314	502.5
334.542	531.5
334.771	525.5
334.999	526.5
335.227	486.5
335.455	471.5
335.684	479.5
335.912	502.5
336.14	472.5
336.369	470.5
336.597	469.5
336.825	470.5
337.053	470.5
337.281	446.5
337.51	462.5
337.738	464.5
337.966	447.5
338.194	454.5
338.422	461.5
338.65	443.5
338.878	445.5
339.106	442.5
339.334	449.5
339.562	448.5
339.79	459.5
340.018	445.5
340.246	439.5
340.474	445.5
340.702	444.5
340.93	440.5
341.158	450.5
341.386	424.5
341.614	442.5
341.842	456.5
342.07	438.5
342.298	432.5
342.526	436.5
342.754	452.5
342.981	422.5
343.209	431.5
343.437	468.5
343.665	470.5
343.893	477.5
344.12	468.5
344.348	462.5
344.576	453.5
344.804	461.5
345.031	464.5
345.259	460.5
345.487	453.5
345.714	449.5
345.942	442.5
346.17	435.5
346.397	416.5
346.625	434.5
346.853	407.5
347.08	419.5
347.308	435.5
347.535	449.5
347.763	429.5
347.99	425.5
348.218	454.5
348.445	420.5
348.673	417.5
348.9	405.5
349.128	400.5
349.355	405.5
349.583	428.5
349.81	411.5
350.037	406.5
350.265	393.5
350.492	409.5
350.72	423.5
350.947	427.5
351.174	420.5
351.402	417.5
351.629	439.5
351.856	416.5
352.083	427.5
352.311	430.5
352.538	407.5
352.765	421.5
352.992	438.5
353.22	416.5
353.447	410.5
353.674	429.5
353.901	402.5
354.128	388.5
354.355	381.5
354.583	394.5
354.81	380.5
355.037	392.5
355.264	397.5
355.491	419.5
355.718	385.5
355.945	395.5
356.172	386.5
356.399	386.5
356.626	398.5
356.853	395.5
357.08	388.5
357.307	404.5
357.534	386.5
357.761	394.5
357.988	402.5
358.215	377.5
358.441	389.5
358.668	380.5
358.895	416.5
359.122	400.5
359.349	408.5
359.576	404.5
359.802	433.5
360.029	429.5
360.256	428.5
360.483	412.5
360.709	415.5
360.936	402.5
361.163	389.5
361.39	414.5
361.616	424.5
361.843	417.5
362.07	405.5
362.296	404.5
362.523	408.5
362.749	391.5
362.976	395.5
363.203	389.5
363.429	388.5
363.656	413.5
363.882	388.5
364.109	406.5
364.335	395.5
364.562	392.5
364.788	394.5
365.015	388.5
365.241	419.5
365.468	385.5
365.694	406.5
365.92	392.5
366.147	377.5
366.373	380.5
366.599	395.5
366.826	378.5
367.052	396.5
367.278	377.5
367.505	394.5
367.731	397.5
367.957	397.5
368.184	389.5
368.41	392.5
368.636	395.5
368.862	419.5
369.089	413.5
369.315	402.5
369.541	386.5
369.767	402.5
369.993	410.5
370.219	400.5
370.445	405.5
370.672	391.5
370.898	388.5
371.124	409.5
371.35	404.5
371.576	385.5
371.802	396.5
372.028	401.5
372.254	400.5
372.48	403.5
372.706	417.5
372.932	409.5
373.158	420.5
373.384	399.5
373.61	416.5
373.835	395.5
374.061	394.5
374.287	392.5
374.513	406.5
374.739	409.5
374.965	397.5
375.191	406.5
375.416	398.5
375.642	392.5
375.868	408.5
376.094	414.5
376.319	405.5
376.545	389.5
376.771	396.5
376.997	383.5
377.222	385.5
377.448	396.5
377.674	378.5
377.899	388.5
378.125	376.5
378.35	390.5
378.576	376.5
378.802	366.5
379.027	372.5
379.253	388.5
379.478	370.5
379.704	389.5
379.929	385.5
380.155	397.5
380.38	401.5
380.606	383.5
380.831	408.5
381.057	412.5
381.282	389.5
381.507	404.5
381.733	385.5
381.958	404.5
382.184	401.5
382.409	397.5
382.634	404.5
382.86	393.5
383.085	412.5
383.31	404.5
383.535	390.5
383.761	402.5
383.986	413.5
384.211	420.5
384.436	414.5
384.662	448.5
384.887	414.5
385.112	405.5
385.337	418.5
385.562	419.5
385.787	418.5
386.013	440.5
386.238	447.5
386.463	426.5
386.688	438.5
386.913	453.5
387.138	454.5
387.363	411.5
387.588	433.5
387.813	424.5
388.038	425.5
388.263	445.5
388.488	437.5
388.713	422.5
388.938	441.5
389.163	438.5
389.387	446.5
389.612	431.5
389.837	421.5
390.062	434.5
390.287	423.5
390.512	433.5
390.736	441.5
390.961	434.5
391.186	441.5
391.411	447.5
391.636	451.5
391.86	450.5
392.085	452.5
392.31	452.5
392.534	434.5
392.759	450.5
392.984	438.5
393.208	453.5
393.433	440.5
393.658	447.5
393.882	428.5
394.107	442.5
394.331	436.5
394.556	436.5
394.78	429.5
395.005	450.5
395.229	438.5
395.454	436.5
395.678	465.5
395.903	458.5
396.127	469.5
396.352	463.5
396.576	464.5
396.801	455.5
397.025	463.5
397.249	471.5
397.474	434.5
397.698	483.5
397.922	481.5
398.147	472.5
398.371	494.5
398.595	486.5
398.82	493.5
399.044	516.5
399.268	512.5
399.492	561.5
399.717	578.5
399.941	613.5
400.165	596.5
400.389	611.5
400.613	556.5
400.837	532.5
401.062	500.5
401.286	506.5
401.51	514.5
401.734	480.5
401.958	504.5
402.182	497.5
402.406	494.5
402.63	500.5
402.854	506.5
403.078	493.5
403.302	497.5
403.526	519.5
403.75	498.5
403.974	509.5
404.198	506.5
404.422	532.5
404.645	528.5
404.869	523.5
405.093	544.5
405.317	588.5
405.541	604.5
405.765	568.5
405.988	532.5
406.212	545.5
406.436	563.5
406.66	536.5
406.883	548.5
407.107	571.5
407.331	597.5
407.555	650.5
407.778	650.5
408.002	618.5
408.226	566.5
408.449	573.5
408.673	572.5
408.896	574.5
409.12	611.5
409.344	572.5
409.567	552.5
409.791	496.5
410.014	526.5
410.238	497.5
410.461	533.5
410.685	507.5
410.908	515.5
411.132	562.5
411.355	569.5
411.578	549.5
411.802	512.5
412.025	502.5
412.249	526.5
412.472	532.5
412.695	549.5
412.919	537.5
413.142	509.5
413.365	482.5
413.589	489.5
413.812	485.5
414.035	489.5
414.258	491.5
414.482	501.5
414.705	470.5
414.928	482.5
415.151	484.5
415.374	471.5
415.597	472.5
415.821	455.5
416.044	470.5
416.267	473.5
416.49	486.5
416.713	482.5
416.936	469.5
417.159	437.5
417.382	459.5
417.605	467.5
417.828	500.5
418.051	517.5
418.274	448.5
418.497	468.5
418.72	484.5
418.943	492.5
419.166	477.5
419.389	516.5
419.611	515.5
419.834	499.5
420.057	507.5
420.28	481.5
420.503	477.5
420.726	478.5
420.948	500.5
421.171	524.5
421.394	543.5
421.617	520.5
421.839	480.5
422.062	464.5
422.285	474.5
422.507	535.5
422.73	618.5
422.953	573.5
423.175	537.5
423.398	514.5
423.621	502.5
423.843	533.5
424.066	539.5
424.288	510.5
424.511	556.5
424.733	551.5
424.956	635.5
425.178	630.5
425.401	632.5
425.623	630.5
425.846	577.5
426.068	517.5
426.291	523.5
426.513	490.5
426.735	505.5
426.958	550.5
427.18	637.5
427.402	726.5
427.625	826.5
427.847	670.5
428.069	606.5
428.292	525.5
428.514	518.5
428.736	475.5
428.958	475.5
429.181	473.5
429.403	475.5
429.625	485.5
429.847	514.5
430.069	560.5
430.292	542.5
430.514	473.5
430.736	485.5
430.958	463.5
431.18	458.5
431.402	446.5
431.624	456.5
431.846	461.5
432.068	435.5
432.29	441.5
432.512	454.5
432.734	453.5
432.956	474.5
433.178	477.5
433.4	474.5
433.622	456.5
433.844	442.5
434.066	443.5
434.287	438.5
434.509	474.5
434.731	489.5
434.953	464.5
435.175	496.5
435.397	492.5
435.618	515.5
435.84	550.5
436.062	612.5
436.284	668.5
436.505	577.5
436.727	530.5
436.949	477.5
437.17	474.5
437.392	463.5
437.614	471.5
437.835	488.5
438.057	580.5
438.278	655.5
438.5	641.5
438.721	730.5
438.943	690.5
439.165	539.5
439.386	517.5
439.608	498.5
439.829	483.5
440.05	506.5
440.272	566.5
440.493	541.5
440.715	489.5
440.936	489.5
441.158	489.5
441.379	486.5
441.6	496.5
441.822	499.5
442.043	544.5
442.264	620.5
442.486	632.5
442.707	531.5
442.928	520.5
443.149	517.5
443.371	554.5
443.592	572.5
443.813	657.5
444.034	694.5
444.255	601.5
444.476	543.5
444.698	523.5
444.919	538.5
445.14	613.5
445.361	564.5
445.582	540.5
445.803	577.5
446.024	650.5
446.245	680.5
446.466	628.5
446.687	564.5
446.908	500.5
447.129	473.5
447.35	466.5
447.571	471.5
447.792	476.5
448.013	463.5
448.234	490.5
448.455	542.5
448.675	610.5
448.896	691.5
449.117	617.5
449.338	584.5
449.559	682.5
449.779	732.5
450	613.5
450.221	516.5
450.442	475.5
450.662	474.5
450.883	453.5
451.104	453.5
451.324	469.5
451.545	437.5
451.766	424.5
451.986	422.5
452.207	405.5
452.428	407.5
452.648	423.5
452.869	413.5
453.089	396.5
453.31	424.5
453.53	414.5
453.751	426.5
453.971	395.5
454.192	423.5
454.412	415.5
454.633	403.5
454.853	422.5
455.073	409.5
455.294	432.5
455.514	469.5
455.734	486.5
455.955	397.5
456.175	426.5
456.395	405.5
456.616	395.5
456.836	399.5
457.056	408.5
457.276	401.5
457.497	411.5
457.717	374.5
457.937	402.5
458.157	408.5
458.377	422.5
458.598	409.5
458.818	448.5
459.038	503.5
459.258	523.5
459.478	501.5
459.698	451.5
459.918	425.5
460.138	467.5
460.358	432.5
460.578	466.5
460.798	458.5
461.018	467.5
461.238	472.5
461.458	468.5
461.678	472.5
461.898	449.5
462.118	446.5
462.338	487.5
462.558	474.5
462.777	488.5
462.997	496.5
463.217	530.5
463.437	531.5
463.657	524.5
463.876	507.5
464.096	498.5
464.316	476.5
464.536	522.5
464.755	494.5
464.975	481.5
465.195	499.5
465.414	534.5
465.634	485.5
465.854	468.5
466.073	450.5
466.293	434.5
466.512	452.5
466.732	430.5
466.951	428.5
467.171	427.5
467.391	421.5
467.61	449.5
467.829	408.5
468.049	435.5
468.268	428.5
468.488	408.5
468.707	411.5
468.927	433.5
469.146	417.5
469.365	440.5
469.585	422.5
469.804	442.5
470.023	422.5
470.243	418.5
470.462	426.5
470.681	437.5
470.901	450.5
471.12	423.5
471.339	410.5
471.558	420.5
471.777	427.5
471.997	427.5
472.216	424.5
472.435	445.5
472.654	440.5
472.873	398.5
473.092	421.5
473.311	438.5
473.53	436.5
473.749	466.5
473.968	457.5
474.187	538.5
474.406	568.5
474.625	475.5
474.844	450.5
475.063	437.5
475.282	426.5
475.501	438.5
475.72	451.5
475.939	438.5
476.158	444.5
476.377	454.5
476.596	451.5
476.814	444.5
477.033	449.5
477.252	433.5
477.471	479.5
477.69	471.5
477.908	457.5
478.127	475.5
478.346	468.5
478.564	470.5
478.783	493.5
479.002	490.5
479.22	483.5
479.439	514.5
479.658	508.5
479.876	553.5
480.095	532.5
480.313	548.5
480.532	534.5
480.751	520.5
480.969	539.5
481.188	557.5
481.406	578.5
481.624	529.5
481.843	525.5
482.061	506.5
482.28	504.5
482.498	486.5
482.717	508.5
482.935	510.5
483.153	488.5
483.372	476.5
483.59	515.5
483.808	487.5
484.027	483.5
484.245	497.5
484.463	497.5
484.681	490.5
484.9	515.5
485.118	509.5
485.336	513.5
485.554	533.5
485.772	485.5
485.99	514.5
486.209	504.5
486.427	522.5
486.645	522.5
486.863	524.5
487.081	527.5
487.299	510.5
487.517	518.5
487.735	542.5
487.953	522.5
488.171	525.5
488.389	544.5
488.607	564.5
488.825	532.5
489.043	515.5
489.261	516.5
489.479	530.5
489.696	525.5
489.914	544.5
490.132	549.5
490.35	558.5
490.568	545.5
490.786	532.5
491.003	553.5
491.221	578.5
491.439	584.5
491.657	581.5
491.874	592.5
492.092	570.5
492.31	586.5
492.527	570.5
492.745	594.5
492.963	602.5
493.18	610.5
493.398	604.5
493.615	603.5
493.833	613.5
494.05	585.5
494.268	601.5
494.485	626.5
494.703	615.5
494.92	613.5
495.138	615.5
495.355	614.5
495.573	613.5
495.79	625.5
496.008	604.5
496.225	609.5
496.442	639.5
496.66	624.5
496.877	627.5
497.094	615.5
497.312	636.5
497.529	632.5
497.746	629.5
497.963	674.5
498.181	682.5
498.398	693.5
498.615	732.5
498.832	701.5
499.049	743.5
499.267	778.5
499.484	812.5
499.701	820.5
499.918	846.5
500.135	919.5
500.352	939.5
500.569	996.5
500.786	996.5
501.003	967.5
501.22	924.5
501.437	903.5
501.654	842.5
501.871	820.5
502.088	782.5
502.305	768.5
502.522	738.5
502.739	709.5
502.956	704.5
503.172	659.5
503.389	651.5
503.606	656.5
503.823	668.5
504.04	647.5
504.256	643.5
504.473	628.5
504.69	627.5
504.907	640.5
505.123	618.5
505.34	608.5
505.557	607.5
505.773	598.5
505.99	594.5
506.207	610.5
506.423	576.5
506.64	568.5
506.856	552.5
507.073	563.5
507.289	585.5
507.506	556.5
507.722	556.5
507.939	583.5
508.155	555.5
508.372	553.5
508.588	552.5
508.805	539.5
509.021	531.5
509.238	561.5
509.454	573.5
509.67	556.5
509.887	551.5
510.103	537.5
510.319	580.5
510.536	626.5
510.752	893.5
510.968	736.5
511.184	540.5
511.401	538.5
511.617	526.5
511.833	520.5
512.049	523.5
512.265	504.5
512.481	509.5
512.698	529.5
512.914	500.5
513.13	510.5
513.346	514.5
513.562	526.5
513.778	522.5
513.994	533.5
514.21	512.5
514.426	542.5
514.642	548.5
514.858	560.5
515.074	580.5
515.29	672.5
515.506	886.5
515.721	794.5
515.937	594.5
516.153	548.5
516.369	521.5
516.585	559.5
516.801	540.5
517.016	574.5
517.232	572.5
517.448	557.5
517.664	564.5
517.879	568.5
518.095	569.5
518.311	554.5
518.527	561.5
518.742	555.5
518.958	537.5
519.173	525.5
519.389	544.5
519.605	544.5
519.82	525.5
520.036	534.5
