Data from 1977.PennyLincolnUp.Lamp.En5.5.200Scan.071719.P1_HRD10591_16-06-59-864.txt Node
Date: Thu Jul 18 16:06:59 EDT 2019
User: cochatt
Spectrometer: HR+D1059
Trigger mode: 1
Integration Time (sec): 1.000000E-1
Scans to average: 1
Electric dark correction enabled: true
Nonlinearity correction enabled: false
Boxcar width: 0
XAxis mode: Wavelengths
Number of Pixels in Spectrum: 2048
>>>>>Begin Spectral Data<<<<<
223.165	-10.06
223.4	-10.06
223.635	-10.06
223.869	-20.06
224.104	-12.06
224.338	-7.06
224.573	-10.06
224.808	-18.06
225.042	-12.06
225.277	-11.06
225.511	-3.06
225.746	5.94
225.98	5.94
226.215	11.94
226.449	8.94
226.683	19.94
226.918	22.94
227.152	27.94
227.387	25.94
227.621	29.94
227.856	28.94
228.09	43.94
228.324	39.94
228.559	56.94
228.793	57.94
229.027	101.94
229.262	96.94
229.496	112.94
229.73	123.94
229.964	144.94
230.199	130.94
230.433	110.94
230.667	101.94
230.901	116.94
231.136	107.94
231.37	114.94
231.604	119.94
231.838	98.94
232.072	122.94
232.306	116.94
232.541	127.94
232.775	120.94
233.009	112.94
233.243	97.94
233.477	120.94
233.711	114.94
233.945	99.94
234.179	115.94
234.413	125.94
234.647	99.94
234.881	104.94
235.115	126.94
235.349	102.94
235.583	122.94
235.817	135.94
236.051	127.94
236.285	121.94
236.519	116.94
236.753	125.94
236.987	126.94
237.221	164.94
237.455	216.94
237.689	160.94
237.922	132.94
238.156	144.94
238.39	118.94
238.624	121.94
238.858	123.94
239.091	119.94
239.325	116.94
239.559	106.94
239.793	128.94
240.027	122.94
240.26	136.94
240.494	157.94
240.728	146.94
240.961	147.94
241.195	154.94
241.429	107.94
241.662	144.94
241.896	130.94
242.13	145.94
242.363	131.94
242.597	130.94
242.83	129.94
243.064	140.94
243.298	131.94
243.531	125.94
243.765	140.94
243.998	142.94
244.232	145.94
244.465	136.94
244.699	150.94
244.932	137.94
245.166	144.94
245.399	163.94
245.633	140.94
245.866	145.94
246.099	124.94
246.333	147.94
246.566	148.94
246.8	134.94
247.033	153.94
247.266	151.94
247.5	148.94
247.733	158.94
247.966	172.94
248.2	160.94
248.433	173.94
248.666	166.94
248.899	178.94
249.133	192.94
249.366	191.94
249.599	205.94
249.832	193.94
250.066	182.94
250.299	193.94
250.532	190.94
250.765	200.94
250.998	212.94
251.231	214.94
251.465	193.94
251.698	194.94
251.931	185.94
252.164	196.94
252.397	191.94
252.63	194.94
252.863	209.94
253.096	224.94
253.329	224.94
253.562	211.94
253.795	214.94
254.028	198.94
254.261	208.94
254.494	220.94
254.727	229.94
254.96	258.94
255.193	258.94
255.426	235.94
255.659	224.94
255.892	216.94
256.124	237.94
256.357	233.94
256.59	231.94
256.823	215.94
257.056	215.94
257.289	213.94
257.521	186.94
257.754	189.94
257.987	204.94
258.22	201.94
258.452	204.94
258.685	226.94
258.918	224.94
259.151	197.94
259.383	206.94
259.616	212.94
259.849	232.94
260.081	221.94
260.314	246.94
260.547	276.94
260.779	257.94
261.012	243.94
261.244	242.94
261.477	226.94
261.71	233.94
261.942	229.94
262.175	249.94
262.407	225.94
262.64	204.94
262.872	206.94
263.105	229.94
263.337	231.94
263.57	221.94
263.802	216.94
264.035	224.94
264.267	210.94
264.499	218.94
264.732	226.94
264.964	219.94
265.197	211.94
265.429	244.94
265.661	229.94
265.894	227.94
266.126	242.94
266.358	228.94
266.591	232.94
266.823	225.94
267.055	248.94
267.287	229.94
267.52	235.94
267.752	229.94
267.984	226.94
268.216	249.94
268.448	262.94
268.681	240.94
268.913	260.94
269.145	250.94
269.377	283.94
269.609	277.94
269.841	277.94
270.073	286.94
270.306	288.94
270.538	328.94
270.77	322.94
271.002	300.94
271.234	296.94
271.466	313.94
271.698	299.94
271.93	309.94
272.162	316.94
272.394	323.94
272.626	310.94
272.858	294.94
273.09	294.94
273.322	282.94
273.553	263.94
273.785	269.94
274.017	278.94
274.249	274.94
274.481	281.94
274.713	268.94
274.945	269.94
275.176	276.94
275.408	280.94
275.64	267.94
275.872	268.94
276.104	268.94
276.335	276.94
276.567	264.94
276.799	290.94
277.031	313.94
277.262	323.94
277.494	319.94
277.726	299.94
277.957	299.94
278.189	295.94
278.421	290.94
278.652	296.94
278.884	293.94
279.115	264.94
279.347	283.94
279.579	279.94
279.81	276.94
280.042	276.94
280.273	269.94
280.505	291.94
280.736	274.94
280.968	280.94
281.199	291.94
281.431	286.94
281.662	284.94
281.894	282.94
282.125	268.94
282.356	310.94
282.588	312.94
282.819	310.94
283.051	304.94
283.282	282.94
283.513	281.94
283.745	312.94
283.976	282.94
284.207	282.94
284.439	301.94
284.67	292.94
284.901	297.94
285.132	290.94
285.364	270.94
285.595	290.94
285.826	297.94
286.057	304.94
286.288	299.94
286.52	309.94
286.751	304.94
286.982	309.94
287.213	299.94
287.444	286.94
287.675	311.94
287.906	316.94
288.138	333.94
288.369	313.94
288.6	317.94
288.831	310.94
289.062	333.94
289.293	310.94
289.524	290.94
289.755	312.94
289.986	303.94
290.217	297.94
290.448	319.94
290.679	302.94
290.91	308.94
291.141	317.94
291.371	304.94
291.602	313.94
291.833	302.94
292.064	322.94
292.295	322.94
292.526	296.94
292.757	310.94
292.987	331.94
293.218	316.94
293.449	309.94
293.68	317.94
293.91	316.94
294.141	299.94
294.372	296.94
294.603	311.94
294.833	323.94
295.064	324.94
295.295	312.94
295.525	309.94
295.756	331.94
295.987	312.94
296.217	325.94
296.448	348.94
296.679	320.94
296.909	325.94
297.14	344.94
297.37	344.94
297.601	324.94
297.831	329.94
298.062	333.94
298.292	344.94
298.523	331.94
298.753	341.94
298.984	341.94
299.214	327.94
299.445	333.94
299.675	325.94
299.905	325.94
300.136	330.94
300.366	340.94
300.597	341.94
300.827	350.94
301.057	348.94
301.288	356.94
301.518	332.94
301.748	353.94
301.979	333.94
302.209	353.94
302.439	365.94
302.669	352.94
302.9	377.94
303.13	355.94
303.36	340.94
303.59	355.94
303.82	352.94
304.051	353.94
304.281	346.94
304.511	341.94
304.741	342.94
304.971	346.94
305.201	344.94
305.431	355.94
305.661	351.94
305.891	352.94
306.121	381.94
306.352	357.94
306.582	360.94
306.812	376.94
307.042	354.94
307.272	349.94
307.502	346.94
307.731	337.94
307.961	342.94
308.191	362.94
308.421	367.94
308.651	322.94
308.881	371.94
309.111	357.94
309.341	372.94
309.571	370.94
309.8	393.94
310.03	366.94
310.26	376.94
310.49	400.94
310.72	380.94
310.949	393.94
311.179	395.94
311.409	407.94
311.639	395.94
311.868	396.94
312.098	393.94
312.328	394.94
312.557	396.94
312.787	410.94
313.017	430.94
313.246	397.94
313.476	396.94
313.706	410.94
313.935	391.94
314.165	427.94
314.394	401.94
314.624	417.94
314.853	386.94
315.083	402.94
315.312	399.94
315.542	419.94
315.771	387.94
316.001	376.94
316.23	384.94
316.46	398.94
316.689	395.94
316.919	380.94
317.148	403.94
317.377	412.94
317.607	410.94
317.836	408.94
318.065	406.94
318.295	404.94
318.524	386.94
318.753	422.94
318.983	397.94
319.212	381.94
319.441	422.94
319.67	397.94
319.9	404.94
320.129	410.94
320.358	399.94
320.587	400.94
320.816	409.94
321.046	408.94
321.275	405.94
321.504	408.94
321.733	402.94
321.962	417.94
322.191	416.94
322.42	425.94
322.649	439.94
322.878	457.94
323.108	444.94
323.337	484.94
323.566	472.94
323.795	484.94
324.024	530.94
324.253	645.94
324.482	850.94
324.71	1258.94
324.939	1794.94
325.168	1534.94
325.397	837.94
325.626	613.94
325.855	507.94
326.084	515.94
326.313	485.94
326.542	481.94
326.77	530.94
326.999	609.94
327.228	800.94
327.457	1132.94
327.686	1313.94
327.914	903.94
328.143	632.94
328.372	573.94
328.6	546.94
328.829	516.94
329.058	529.94
329.287	545.94
329.515	527.94
329.744	483.94
329.972	525.94
330.201	503.94
330.43	554.94
330.658	545.94
330.887	581.94
331.115	552.94
331.344	494.94
331.572	486.94
331.801	499.94
332.03	480.94
332.258	493.94
332.486	467.94
332.715	466.94
332.943	463.94
333.172	465.94
333.4	476.94
333.629	500.94
333.857	517.94
334.085	497.94
334.314	533.94
334.542	528.94
334.771	534.94
334.999	516.94
335.227	511.94
335.455	487.94
335.684	485.94
335.912	480.94
336.14	482.94
336.369	466.94
336.597	461.94
336.825	468.94
337.053	452.94
337.281	467.94
337.51	453.94
337.738	449.94
337.966	467.94
338.194	448.94
338.422	447.94
338.65	447.94
338.878	454.94
339.106	422.94
339.334	482.94
339.562	451.94
339.79	431.94
340.018	432.94
340.246	455.94
340.474	452.94
340.702	462.94
340.93	425.94
341.158	439.94
341.386	424.94
341.614	439.94
341.842	442.94
342.07	439.94
342.298	421.94
342.526	413.94
342.754	428.94
342.981	429.94
343.209	441.94
343.437	440.94
343.665	458.94
343.893	459.94
344.12	465.94
344.348	453.94
344.576	444.94
344.804	456.94
345.031	461.94
345.259	456.94
345.487	458.94
345.714	438.94
345.942	437.94
346.17	421.94
346.397	410.94
346.625	420.94
346.853	434.94
347.08	439.94
347.308	419.94
347.535	423.94
347.763	440.94
347.99	416.94
348.218	417.94
348.445	424.94
348.673	445.94
348.9	416.94
349.128	408.94
349.355	399.94
349.583	410.94
349.81	419.94
350.037	411.94
350.265	412.94
350.492	416.94
350.72	397.94
350.947	408.94
351.174	413.94
351.402	400.94
351.629	424.94
351.856	429.94
352.083	431.94
352.311	433.94
352.538	411.94
352.765	435.94
352.992	417.94
353.22	426.94
353.447	406.94
353.674	389.94
353.901	399.94
354.128	396.94
354.355	406.94
354.583	386.94
354.81	399.94
355.037	399.94
355.264	385.94
355.491	405.94
355.718	402.94
355.945	402.94
356.172	390.94
356.399	393.94
356.626	379.94
356.853	380.94
357.08	393.94
357.307	386.94
357.534	393.94
357.761	401.94
357.988	381.94
358.215	389.94
358.441	399.94
358.668	390.94
358.895	392.94
359.122	388.94
359.349	434.94
359.576	418.94
359.802	409.94
360.029	438.94
360.256	436.94
360.483	422.94
360.709	429.94
360.936	418.94
361.163	430.94
361.39	418.94
361.616	415.94
361.843	409.94
362.07	394.94
362.296	428.94
362.523	402.94
362.749	401.94
362.976	399.94
363.203	401.94
363.429	395.94
363.656	403.94
363.882	393.94
364.109	417.94
364.335	408.94
364.562	381.94
364.788	370.94
365.015	384.94
365.241	387.94
365.468	408.94
365.694	408.94
365.92	404.94
366.147	389.94
366.373	400.94
366.599	393.94
366.826	399.94
367.052	396.94
367.278	377.94
367.505	405.94
367.731	398.94
367.957	386.94
368.184	413.94
368.41	392.94
368.636	404.94
368.862	402.94
369.089	405.94
369.315	392.94
369.541	396.94
369.767	402.94
369.993	380.94
370.219	399.94
370.445	409.94
370.672	388.94
370.898	389.94
371.124	370.94
371.35	397.94
371.576	375.94
371.802	405.94
372.028	398.94
372.254	391.94
372.48	375.94
372.706	407.94
372.932	400.94
373.158	388.94
373.384	416.94
373.61	419.94
373.835	393.94
374.061	380.94
374.287	375.94
374.513	390.94
374.739	414.94
374.965	411.94
375.191	394.94
375.416	404.94
375.642	410.94
375.868	409.94
376.094	393.94
376.319	405.94
376.545	411.94
376.771	396.94
376.997	385.94
377.222	420.94
377.448	405.94
377.674	402.94
377.899	383.94
378.125	389.94
378.35	399.94
378.576	366.94
378.802	371.94
379.027	386.94
379.253	376.94
379.478	379.94
379.704	394.94
379.929	389.94
380.155	393.94
380.38	396.94
380.606	374.94
380.831	389.94
381.057	398.94
381.282	393.94
381.507	387.94
381.733	406.94
381.958	383.94
382.184	389.94
382.409	398.94
382.634	406.94
382.86	398.94
383.085	390.94
383.31	390.94
383.535	398.94
383.761	410.94
383.986	414.94
384.211	424.94
384.436	399.94
384.662	417.94
384.887	430.94
385.112	412.94
385.337	423.94
385.562	422.94
385.787	424.94
386.013	432.94
386.238	406.94
386.463	421.94
386.688	411.94
386.913	412.94
387.138	443.94
387.363	415.94
387.588	442.94
387.813	427.94
388.038	416.94
388.263	422.94
388.488	435.94
388.713	427.94
388.938	418.94
389.163	434.94
389.387	436.94
389.612	434.94
389.837	420.94
390.062	413.94
390.287	408.94
390.512	408.94
390.736	435.94
390.961	440.94
391.186	415.94
391.411	446.94
391.636	446.94
391.86	432.94
392.085	451.94
392.31	426.94
392.534	443.94
392.759	439.94
392.984	451.94
393.208	417.94
393.433	431.94
393.658	452.94
393.882	436.94
394.107	426.94
394.331	436.94
394.556	453.94
394.78	440.94
395.005	430.94
395.229	418.94
395.454	444.94
395.678	450.94
395.903	440.94
396.127	467.94
396.352	483.94
396.576	443.94
396.801	464.94
397.025	470.94
397.249	456.94
397.474	457.94
397.698	464.94
397.922	475.94
398.147	480.94
398.371	490.94
398.595	502.94
398.82	484.94
399.044	490.94
399.268	511.94
399.492	540.94
399.717	610.94
399.941	602.94
400.165	612.94
400.389	599.94
400.613	562.94
400.837	520.94
401.062	509.94
401.286	498.94
401.51	506.94
401.734	486.94
401.958	478.94
402.182	508.94
402.406	518.94
402.63	508.94
402.854	499.94
403.078	506.94
403.302	491.94
403.526	497.94
403.75	525.94
403.974	522.94
404.198	525.94
404.422	532.94
404.645	531.94
404.869	530.94
405.093	541.94
405.317	572.94
405.541	612.94
405.765	572.94
405.988	539.94
406.212	540.94
406.436	523.94
406.66	560.94
406.883	532.94
407.107	558.94
407.331	601.94
407.555	626.94
407.778	628.94
408.002	605.94
408.226	578.94
408.449	555.94
408.673	562.94
408.896	578.94
409.12	615.94
409.344	577.94
409.567	531.94
409.791	521.94
410.014	520.94
410.238	497.94
410.461	510.94
410.685	505.94
410.908	488.94
411.132	552.94
411.355	555.94
411.578	557.94
411.802	506.94
412.025	530.94
412.249	539.94
412.472	535.94
412.695	558.94
412.919	550.94
413.142	490.94
413.365	497.94
413.589	491.94
413.812	481.94
414.035	483.94
414.258	476.94
414.482	486.94
414.705	484.94
414.928	474.94
415.151	468.94
415.374	466.94
415.597	477.94
415.821	475.94
416.044	473.94
416.267	472.94
416.49	467.94
416.713	492.94
416.936	460.94
417.159	466.94
417.382	450.94
417.605	480.94
417.828	492.94
418.051	495.94
418.274	475.94
418.497	476.94
418.72	470.94
418.943	462.94
419.166	488.94
419.389	475.94
419.611	501.94
419.834	480.94
420.057	501.94
420.28	485.94
420.503	480.94
420.726	475.94
420.948	504.94
421.171	533.94
421.394	562.94
421.617	503.94
421.839	472.94
422.062	469.94
422.285	493.94
422.507	555.94
422.73	585.94
422.953	598.94
423.175	542.94
423.398	511.94
423.621	500.94
423.843	516.94
424.066	514.94
424.288	510.94
424.511	530.94
424.733	578.94
424.956	646.94
425.178	609.94
425.401	626.94
425.623	635.94
425.846	527.94
426.068	508.94
426.291	494.94
426.513	500.94
426.735	548.94
426.958	548.94
427.18	629.94
427.402	713.94
427.625	800.94
427.847	672.94
428.069	592.94
428.292	548.94
428.514	533.94
428.736	501.94
428.958	491.94
429.181	468.94
429.403	458.94
429.625	484.94
429.847	490.94
430.069	576.94
430.292	551.94
430.514	474.94
430.736	472.94
430.958	463.94
431.18	456.94
431.402	460.94
431.624	461.94
431.846	469.94
432.068	437.94
432.29	458.94
432.512	460.94
432.734	456.94
432.956	461.94
433.178	464.94
433.4	462.94
433.622	471.94
433.844	455.94
434.066	445.94
434.287	474.94
434.509	467.94
434.731	465.94
434.953	477.94
435.175	468.94
435.397	510.94
435.618	483.94
435.84	535.94
436.062	604.94
436.284	652.94
436.505	569.94
436.727	493.94
436.949	489.94
437.17	470.94
437.392	444.94
437.614	478.94
437.835	489.94
438.057	580.94
438.278	670.94
438.5	662.94
438.721	718.94
438.943	700.94
439.165	567.94
439.386	508.94
439.608	509.94
439.829	498.94
440.05	535.94
440.272	564.94
440.493	533.94
440.715	488.94
440.936	475.94
441.158	468.94
441.379	484.94
441.6	499.94
441.822	514.94
442.043	557.94
442.264	597.94
442.486	649.94
442.707	572.94
442.928	524.94
443.149	525.94
443.371	565.94
443.592	562.94
443.813	655.94
444.034	704.94
444.255	580.94
444.476	526.94
444.698	514.94
444.919	520.94
445.14	596.94
445.361	556.94
445.582	552.94
445.803	593.94
446.024	676.94
446.245	676.94
446.466	638.94
446.687	532.94
446.908	492.94
447.129	490.94
447.35	474.94
447.571	454.94
447.792	452.94
448.013	458.94
448.234	485.94
448.455	509.94
448.675	599.94
448.896	698.94
449.117	617.94
449.338	584.94
449.559	686.94
449.779	762.94
450	592.94
450.221	509.94
450.442	457.94
450.662	441.94
450.883	434.94
451.104	452.94
451.324	434.94
451.545	415.94
451.766	436.94
451.986	413.94
452.207	414.94
452.428	402.94
452.648	426.94
452.869	420.94
453.089	400.94
453.31	439.94
453.53	423.94
453.751	412.94
453.971	413.94
454.192	421.94
454.412	412.94
454.633	421.94
454.853	411.94
455.073	414.94
455.294	444.94
455.514	493.94
455.734	453.94
455.955	415.94
456.175	408.94
456.395	385.94
456.616	398.94
456.836	391.94
457.056	410.94
457.276	392.94
457.497	391.94
457.717	389.94
457.937	380.94
458.157	406.94
458.377	416.94
458.598	430.94
458.818	469.94
459.038	513.94
459.258	542.94
459.478	489.94
459.698	463.94
459.918	462.94
460.138	461.94
460.358	460.94
460.578	468.94
460.798	452.94
461.018	486.94
461.238	445.94
461.458	461.94
461.678	457.94
461.898	456.94
462.118	485.94
462.338	479.94
462.558	490.94
462.777	480.94
462.997	504.94
463.217	510.94
463.437	534.94
463.657	501.94
463.876	489.94
464.096	505.94
464.316	487.94
464.536	491.94
464.755	480.94
464.975	498.94
465.195	499.94
465.414	512.94
465.634	459.94
465.854	460.94
466.073	452.94
466.293	449.94
466.512	443.94
466.732	432.94
466.951	436.94
467.171	447.94
467.391	408.94
467.61	423.94
467.829	460.94
468.049	423.94
468.268	426.94
468.488	418.94
468.707	401.94
468.927	397.94
469.146	417.94
469.365	417.94
469.585	409.94
469.804	436.94
470.023	438.94
470.243	426.94
470.462	426.94
470.681	441.94
470.901	424.94
471.12	451.94
471.339	408.94
471.558	443.94
471.777	421.94
471.997	441.94
472.216	417.94
472.435	439.94
472.654	424.94
472.873	427.94
473.092	422.94
473.311	420.94
473.53	423.94
473.749	426.94
473.968	478.94
474.187	554.94
474.406	570.94
474.625	458.94
474.844	443.94
475.063	411.94
475.282	420.94
475.501	424.94
475.72	445.94
475.939	435.94
476.158	458.94
476.377	444.94
476.596	428.94
476.814	452.94
477.033	445.94
477.252	450.94
477.471	454.94
477.69	462.94
477.908	467.94
478.127	481.94
478.346	468.94
478.564	456.94
478.783	494.94
479.002	509.94
479.22	500.94
479.439	513.94
479.658	510.94
479.876	496.94
480.095	509.94
480.313	538.94
480.532	536.94
480.751	526.94
480.969	536.94
481.188	551.94
481.406	584.94
481.624	531.94
481.843	529.94
482.061	499.94
482.28	500.94
482.498	481.94
482.717	490.94
482.935	480.94
483.153	500.94
483.372	505.94
483.59	500.94
483.808	480.94
484.027	504.94
484.245	514.94
484.463	492.94
484.681	499.94
484.9	484.94
485.118	500.94
485.336	489.94
485.554	518.94
485.772	520.94
485.99	506.94
486.209	502.94
486.427	499.94
486.645	524.94
486.863	532.94
487.081	533.94
487.299	520.94
487.517	505.94
487.735	536.94
487.953	496.94
488.171	513.94
488.389	541.94
488.607	535.94
488.825	547.94
489.043	519.94
489.261	512.94
489.479	524.94
489.696	522.94
489.914	530.94
490.132	546.94
490.35	537.94
490.568	569.94
490.786	540.94
491.003	574.94
491.221	554.94
491.439	584.94
491.657	580.94
491.874	566.94
492.092	594.94
492.31	605.94
492.527	600.94
492.745	594.94
492.963	608.94
493.18	599.94
493.398	573.94
493.615	604.94
493.833	618.94
494.05	616.94
494.268	587.94
494.485	591.94
494.703	608.94
494.92	602.94
495.138	607.94
495.355	633.94
495.573	609.94
495.79	618.94
496.008	622.94
496.225	597.94
496.442	612.94
496.66	595.94
496.877	609.94
497.094	590.94
497.312	626.94
497.529	637.94
497.746	649.94
497.963	673.94
498.181	694.94
498.398	690.94
498.615	685.94
498.832	749.94
499.049	733.94
499.267	745.94
499.484	780.94
499.701	844.94
499.918	891.94
500.135	904.94
500.352	973.94
500.569	946.94
500.786	987.94
501.003	961.94
501.22	917.94
501.437	863.94
501.654	852.94
501.871	807.94
502.088	774.94
