Data from 1977.PennyLincolnUp.Lamp.En5.5.200Scan.071719.P1_HRD10591_16-04-55-863.txt Node
Date: Thu Jul 18 16:04:55 EDT 2019
User: cochatt
Spectrometer: HR+D1059
Trigger mode: 1
Integration Time (sec): 1.000000E-1
Scans to average: 1
Electric dark correction enabled: true
Nonlinearity correction enabled: false
Boxcar width: 0
XAxis mode: Wavelengths
Number of Pixels in Spectrum: 2048
>>>>>Begin Spectral Data<<<<<
223.165	-17.56
223.4	-17.56
223.635	-17.56
223.869	-16.56
224.104	-17.56
224.338	-13.56
224.573	-4.56
224.808	-14.56
225.042	-15.56
225.277	-14.56
225.511	3.44
225.746	-6.56
225.98	25.44
226.215	18.44
226.449	17.44
226.683	16.44
226.918	23.44
227.152	16.44
227.387	45.44
227.621	42.44
227.856	42.44
228.09	35.44
228.324	53.44
228.559	49.44
228.793	72.44
229.027	78.44
229.262	95.44
229.496	98.44
229.73	98.44
229.964	114.44
230.199	100.44
230.433	112.44
230.667	102.44
230.901	125.44
231.136	110.44
231.37	120.44
231.604	110.44
231.838	106.44
232.072	100.44
232.306	104.44
232.541	97.44
232.775	114.44
233.009	105.44
233.243	114.44
233.477	105.44
233.711	104.44
233.945	103.44
234.179	122.44
234.413	127.44
234.647	99.44
234.881	98.44
235.115	110.44
235.349	127.44
235.583	110.44
235.817	114.44
236.051	113.44
236.285	106.44
236.519	117.44
236.753	113.44
236.987	121.44
237.221	159.44
237.455	166.44
237.689	142.44
237.922	120.44
238.156	122.44
238.39	136.44
238.624	115.44
238.858	115.44
239.091	121.44
239.325	95.44
239.559	117.44
239.793	111.44
240.027	143.44
240.26	129.44
240.494	119.44
240.728	129.44
240.961	130.44
241.195	122.44
241.429	133.44
241.662	140.44
241.896	122.44
242.13	125.44
242.363	125.44
242.597	118.44
242.83	139.44
243.064	137.44
243.298	117.44
243.531	120.44
243.765	135.44
243.998	147.44
244.232	144.44
244.465	138.44
244.699	140.44
244.932	137.44
245.166	138.44
245.399	138.44
245.633	139.44
245.866	118.44
246.099	139.44
246.333	133.44
246.566	136.44
246.8	124.44
247.033	142.44
247.266	147.44
247.5	159.44
247.733	135.44
247.966	153.44
248.2	160.44
248.433	165.44
248.666	163.44
248.899	151.44
249.133	157.44
249.366	183.44
249.599	182.44
249.832	152.44
250.066	171.44
250.299	151.44
250.532	158.44
250.765	165.44
250.998	177.44
251.231	170.44
251.465	181.44
251.698	186.44
251.931	166.44
252.164	175.44
252.397	163.44
252.63	172.44
252.863	182.44
253.096	185.44
253.329	192.44
253.562	197.44
253.795	200.44
254.028	187.44
254.261	189.44
254.494	206.44
254.727	194.44
254.96	212.44
255.193	191.44
255.426	201.44
255.659	199.44
255.892	195.44
256.124	189.44
256.357	183.44
256.59	176.44
256.823	181.44
257.056	189.44
257.289	197.44
257.521	199.44
257.754	183.44
257.987	202.44
258.22	210.44
258.452	198.44
258.685	197.44
258.918	188.44
259.151	186.44
259.383	186.44
259.616	183.44
259.849	188.44
260.081	201.44
260.314	216.44
260.547	203.44
260.779	207.44
261.012	193.44
261.244	209.44
261.477	216.44
261.71	198.44
261.942	187.44
262.175	197.44
262.407	196.44
262.64	213.44
262.872	186.44
263.105	204.44
263.337	211.44
263.57	196.44
263.802	202.44
264.035	189.44
264.267	203.44
264.499	197.44
264.732	208.44
264.964	202.44
265.197	198.44
265.429	200.44
265.661	178.44
265.894	217.44
266.126	215.44
266.358	208.44
266.591	213.44
266.823	222.44
267.055	206.44
267.287	226.44
267.52	209.44
267.752	207.44
267.984	204.44
268.216	205.44
268.448	210.44
268.681	226.44
268.913	231.44
269.145	228.44
269.377	243.44
269.609	237.44
269.841	243.44
270.073	221.44
270.306	240.44
270.538	263.44
270.77	255.44
271.002	239.44
271.234	244.44
271.466	239.44
271.698	266.44
271.93	257.44
272.162	282.44
272.394	261.44
272.626	246.44
272.858	235.44
273.09	242.44
273.322	258.44
273.553	242.44
273.785	211.44
274.017	246.44
274.249	234.44
274.481	232.44
274.713	238.44
274.945	254.44
275.176	263.44
275.408	267.44
275.64	236.44
275.872	237.44
276.104	238.44
276.335	236.44
276.567	253.44
276.799	254.44
277.031	262.44
277.262	272.44
277.494	272.44
277.726	270.44
277.957	270.44
278.189	258.44
278.421	233.44
278.652	239.44
278.884	257.44
279.115	255.44
279.347	247.44
279.579	246.44
279.81	232.44
280.042	253.44
280.273	268.44
280.505	247.44
280.736	263.44
280.968	261.44
281.199	251.44
281.431	249.44
281.662	256.44
281.894	249.44
282.125	251.44
282.356	267.44
282.588	279.44
282.819	272.44
283.051	265.44
283.282	260.44
283.513	266.44
283.745	269.44
283.976	260.44
284.207	281.44
284.439	281.44
284.67	263.44
284.901	274.44
285.132	261.44
285.364	261.44
285.595	265.44
285.826	268.44
286.057	285.44
286.288	277.44
286.52	265.44
286.751	274.44
286.982	290.44
287.213	278.44
287.444	289.44
287.675	274.44
287.906	283.44
288.138	272.44
288.369	283.44
288.6	294.44
288.831	293.44
289.062	298.44
289.293	305.44
289.524	278.44
289.755	282.44
289.986	290.44
290.217	265.44
290.448	279.44
290.679	293.44
290.91	294.44
291.141	267.44
291.371	296.44
291.602	282.44
291.833	275.44
292.064	273.44
292.295	288.44
292.526	271.44
292.757	282.44
292.987	288.44
293.218	284.44
293.449	288.44
293.68	288.44
293.91	280.44
294.141	287.44
294.372	274.44
294.603	281.44
294.833	283.44
295.064	301.44
295.295	298.44
295.525	273.44
295.756	271.44
295.987	282.44
296.217	299.44
296.448	299.44
296.679	286.44
296.909	274.44
297.14	282.44
297.37	307.44
297.601	276.44
297.831	279.44
298.062	289.44
298.292	307.44
298.523	295.44
298.753	310.44
298.984	303.44
299.214	306.44
299.445	294.44
299.675	293.44
299.905	309.44
300.136	298.44
300.366	309.44
300.597	303.44
300.827	294.44
301.057	302.44
301.288	319.44
301.518	301.44
301.748	296.44
301.979	320.44
302.209	311.44
302.439	326.44
302.669	309.44
302.9	310.44
303.13	302.44
303.36	309.44
303.59	330.44
303.82	318.44
304.051	303.44
304.281	331.44
304.511	313.44
304.741	310.44
304.971	298.44
305.201	303.44
305.431	320.44
305.661	323.44
305.891	322.44
306.121	325.44
306.352	317.44
306.582	313.44
306.812	325.44
307.042	313.44
307.272	327.44
307.502	317.44
307.731	312.44
307.961	317.44
308.191	326.44
308.421	313.44
308.651	309.44
308.881	320.44
309.111	345.44
309.341	319.44
309.571	318.44
309.8	326.44
310.03	335.44
310.26	338.44
310.49	330.44
310.72	339.44
310.949	328.44
311.179	352.44
311.409	334.44
311.639	336.44
311.868	350.44
312.098	343.44
312.328	348.44
312.557	352.44
312.787	358.44
313.017	337.44
313.246	354.44
313.476	344.44
313.706	321.44
313.935	331.44
314.165	364.44
314.394	350.44
314.624	354.44
314.853	329.44
315.083	348.44
315.312	346.44
315.542	359.44
315.771	346.44
316.001	330.44
316.23	355.44
316.46	347.44
316.689	323.44
316.919	363.44
317.148	344.44
317.377	355.44
317.607	339.44
317.836	344.44
318.065	344.44
318.295	349.44
318.524	341.44
318.753	336.44
318.983	347.44
319.212	341.44
319.441	358.44
319.67	344.44
319.9	335.44
320.129	340.44
320.358	362.44
320.587	341.44
320.816	343.44
321.046	347.44
321.275	347.44
321.504	355.44
321.733	364.44
321.962	336.44
322.191	370.44
322.42	366.44
322.649	386.44
322.878	355.44
323.108	393.44
323.337	397.44
323.566	378.44
323.795	400.44
324.024	415.44
324.253	473.44
324.482	571.44
324.71	822.44
324.939	1113.44
325.168	975.44
325.397	561.44
325.626	445.44
325.855	408.44
326.084	419.44
326.313	409.44
326.542	388.44
326.77	423.44
326.999	474.44
327.228	586.44
327.457	760.44
327.686	871.44
327.914	634.44
328.143	463.44
328.372	441.44
328.6	413.44
328.829	409.44
329.058	431.44
329.287	416.44
329.515	407.44
329.744	407.44
329.972	379.44
330.201	404.44
330.43	422.44
330.658	412.44
330.887	435.44
331.115	423.44
331.344	403.44
331.572	424.44
331.801	385.44
332.03	423.44
332.258	403.44
332.486	411.44
332.715	427.44
332.943	414.44
333.172	410.44
333.4	399.44
333.629	398.44
333.857	434.44
334.085	442.44
334.314	440.44
334.542	451.44
334.771	445.44
334.999	427.44
335.227	416.44
335.455	416.44
335.684	415.44
335.912	393.44
336.14	403.44
336.369	433.44
336.597	399.44
336.825	416.44
337.053	391.44
337.281	409.44
337.51	409.44
337.738	395.44
337.966	389.44
338.194	384.44
338.422	400.44
338.65	385.44
338.878	398.44
339.106	408.44
339.334	393.44
339.562	382.44
339.79	377.44
340.018	381.44
340.246	388.44
340.474	372.44
340.702	384.44
340.93	387.44
341.158	368.44
341.386	393.44
341.614	395.44
341.842	380.44
342.07	385.44
342.298	402.44
342.526	368.44
342.754	359.44
342.981	390.44
343.209	381.44
343.437	371.44
343.665	395.44
343.893	395.44
344.12	412.44
344.348	407.44
344.576	395.44
344.804	396.44
345.031	374.44
345.259	401.44
345.487	403.44
345.714	380.44
345.942	393.44
346.17	378.44
346.397	379.44
346.625	376.44
346.853	366.44
347.08	377.44
347.308	375.44
347.535	367.44
347.763	373.44
347.99	364.44
348.218	379.44
348.445	366.44
348.673	344.44
348.9	362.44
349.128	349.44
349.355	378.44
349.583	361.44
349.81	349.44
350.037	352.44
350.265	363.44
350.492	362.44
350.72	346.44
350.947	365.44
351.174	368.44
351.402	360.44
351.629	355.44
351.856	383.44
352.083	363.44
352.311	365.44
352.538	367.44
352.765	360.44
352.992	373.44
353.22	353.44
353.447	367.44
353.674	373.44
353.901	350.44
354.128	369.44
354.355	355.44
354.583	357.44
354.81	377.44
355.037	345.44
355.264	334.44
355.491	337.44
355.718	339.44
355.945	338.44
356.172	366.44
356.399	365.44
356.626	344.44
356.853	363.44
357.08	365.44
357.307	364.44
357.534	367.44
357.761	349.44
357.988	349.44
358.215	362.44
358.441	335.44
358.668	357.44
358.895	357.44
359.122	353.44
359.349	363.44
359.576	357.44
359.802	359.44
360.029	362.44
360.256	370.44
360.483	353.44
360.709	370.44
360.936	362.44
361.163	363.44
361.39	355.44
361.616	359.44
361.843	354.44
362.07	334.44
362.296	362.44
362.523	369.44
362.749	360.44
362.976	379.44
363.203	381.44
363.429	353.44
363.656	373.44
363.882	361.44
364.109	339.44
364.335	370.44
364.562	345.44
364.788	342.44
365.015	356.44
365.241	349.44
365.468	350.44
365.694	360.44
365.92	343.44
366.147	336.44
366.373	333.44
366.599	355.44
366.826	344.44
367.052	346.44
367.278	351.44
367.505	345.44
367.731	340.44
367.957	344.44
368.184	351.44
368.41	354.44
368.636	361.44
368.862	336.44
369.089	361.44
369.315	345.44
369.541	355.44
369.767	349.44
369.993	355.44
370.219	341.44
370.445	349.44
370.672	354.44
370.898	358.44
371.124	364.44
371.35	363.44
371.576	359.44
371.802	362.44
372.028	363.44
372.254	359.44
372.48	353.44
372.706	371.44
372.932	378.44
373.158	372.44
373.384	351.44
373.61	351.44
373.835	368.44
374.061	365.44
374.287	371.44
374.513	361.44
374.739	359.44
374.965	367.44
375.191	365.44
375.416	369.44
375.642	366.44
375.868	376.44
376.094	360.44
376.319	359.44
376.545	344.44
376.771	362.44
376.997	362.44
377.222	360.44
377.448	354.44
377.674	349.44
377.899	347.44
378.125	345.44
378.35	363.44
378.576	359.44
378.802	354.44
379.027	347.44
379.253	352.44
379.478	341.44
379.704	346.44
379.929	351.44
380.155	343.44
380.38	338.44
380.606	362.44
380.831	354.44
381.057	366.44
381.282	351.44
381.507	342.44
381.733	368.44
381.958	367.44
382.184	370.44
382.409	368.44
382.634	386.44
382.86	357.44
383.085	381.44
383.31	384.44
383.535	374.44
383.761	370.44
383.986	373.44
384.211	389.44
384.436	379.44
384.662	388.44
384.887	398.44
385.112	387.44
385.337	392.44
385.562	406.44
385.787	398.44
386.013	424.44
386.238	378.44
386.463	419.44
386.688	382.44
386.913	412.44
387.138	417.44
387.363	391.44
387.588	389.44
387.813	411.44
388.038	400.44
388.263	411.44
388.488	400.44
388.713	393.44
388.938	407.44
389.163	391.44
389.387	385.44
389.612	393.44
389.837	398.44
390.062	377.44
390.287	407.44
390.512	377.44
390.736	374.44
390.961	391.44
391.186	410.44
391.411	402.44
391.636	381.44
391.86	386.44
392.085	399.44
392.31	415.44
392.534	422.44
392.759	410.44
392.984	406.44
393.208	409.44
393.433	400.44
393.658	408.44
393.882	390.44
394.107	399.44
394.331	387.44
394.556	393.44
394.78	386.44
395.005	413.44
395.229	406.44
395.454	408.44
395.678	409.44
395.903	407.44
396.127	422.44
396.352	403.44
396.576	418.44
396.801	400.44
397.025	412.44
397.249	403.44
397.474	418.44
397.698	415.44
397.922	430.44
398.147	427.44
398.371	434.44
398.595	431.44
398.82	428.44
399.044	477.44
399.268	472.44
399.492	480.44
399.717	536.44
399.941	547.44
400.165	553.44
400.389	551.44
400.613	472.44
400.837	470.44
401.062	467.44
401.286	440.44
401.51	439.44
401.734	421.44
401.958	423.44
402.182	448.44
402.406	421.44
402.63	437.44
402.854	451.44
403.078	451.44
403.302	462.44
403.526	449.44
403.75	480.44
403.974	466.44
404.198	462.44
404.422	453.44
404.645	443.44
404.869	455.44
405.093	474.44
405.317	498.44
405.541	496.44
405.765	494.44
405.988	485.44
406.212	468.44
406.436	482.44
406.66	500.44
406.883	479.44
407.107	502.44
407.331	541.44
407.555	567.44
407.778	547.44
408.002	537.44
408.226	519.44
408.449	468.44
408.673	467.44
408.896	498.44
409.12	518.44
409.344	494.44
409.567	469.44
409.791	457.44
410.014	459.44
410.238	454.44
410.461	453.44
410.685	467.44
410.908	466.44
411.132	491.44
411.355	502.44
411.578	497.44
411.802	460.44
412.025	472.44
412.249	464.44
412.472	465.44
412.695	467.44
412.919	473.44
413.142	441.44
413.365	432.44
413.589	421.44
413.812	446.44
414.035	439.44
414.258	439.44
414.482	444.44
414.705	410.44
414.928	426.44
415.151	402.44
415.374	431.44
415.597	415.44
415.821	434.44
416.044	414.44
416.267	421.44
416.49	405.44
416.713	446.44
416.936	446.44
417.159	428.44
417.382	416.44
417.605	427.44
417.828	437.44
418.051	436.44
418.274	421.44
418.497	417.44
418.72	419.44
418.943	395.44
419.166	449.44
419.389	442.44
419.611	458.44
419.834	434.44
420.057	435.44
420.28	426.44
420.503	446.44
420.726	429.44
420.948	429.44
421.171	441.44
421.394	489.44
421.617	457.44
421.839	424.44
422.062	434.44
422.285	421.44
422.507	473.44
422.73	505.44
422.953	513.44
423.175	465.44
423.398	425.44
423.621	443.44
423.843	447.44
424.066	461.44
424.288	435.44
424.511	465.44
424.733	466.44
424.956	542.44
425.178	536.44
425.401	529.44
425.623	538.44
425.846	463.44
426.068	455.44
426.291	435.44
426.513	425.44
426.735	450.44
426.958	472.44
427.18	519.44
427.402	612.44
427.625	644.44
427.847	556.44
428.069	476.44
428.292	458.44
428.514	419.44
428.736	433.44
428.958	399.44
429.181	423.44
429.403	395.44
429.625	410.44
429.847	441.44
430.069	471.44
430.292	462.44
430.514	425.44
430.736	413.44
430.958	400.44
431.18	411.44
431.402	408.44
431.624	404.44
431.846	386.44
432.068	394.44
432.29	403.44
432.512	415.44
432.734	415.44
432.956	416.44
433.178	410.44
433.4	421.44
433.622	418.44
433.844	413.44
434.066	407.44
434.287	410.44
434.509	416.44
434.731	407.44
434.953	437.44
435.175	425.44
435.397	444.44
435.618	449.44
435.84	470.44
436.062	503.44
436.284	542.44
436.505	485.44
436.727	457.44
436.949	406.44
437.17	425.44
437.392	407.44
437.614	425.44
437.835	409.44
438.057	488.44
438.278	556.44
438.5	561.44
438.721	605.44
438.943	591.44
439.165	482.44
439.386	423.44
439.608	439.44
439.829	448.44
440.05	449.44
440.272	462.44
440.493	429.44
440.715	418.44
440.936	431.44
441.158	421.44
441.379	423.44
441.6	441.44
441.822	434.44
442.043	469.44
442.264	519.44
442.486	521.44
442.707	455.44
442.928	440.44
443.149	462.44
443.371	450.44
443.592	484.44
443.813	560.44
444.034	586.44
444.255	504.44
444.476	471.44
444.698	447.44
444.919	465.44
445.14	561.44
445.361	523.44
445.582	467.44
445.803	484.44
446.024	549.44
446.245	557.44
446.466	495.44
446.687	452.44
446.908	423.44
447.129	408.44
447.35	402.44
447.571	409.44
447.792	419.44
448.013	411.44
448.234	419.44
448.455	460.44
448.675	505.44
448.896	575.44
449.117	485.44
449.338	483.44
449.559	548.44
449.779	593.44
450	491.44
450.221	445.44
450.442	387.44
450.662	404.44
450.883	391.44
451.104	386.44
451.324	392.44
451.545	369.44
451.766	344.44
451.986	364.44
452.207	363.44
452.428	369.44
452.648	363.44
452.869	366.44
453.089	379.44
453.31	370.44
453.53	357.44
453.751	367.44
453.971	353.44
454.192	357.44
454.412	379.44
454.633	375.44
454.853	367.44
455.073	347.44
455.294	398.44
455.514	395.44
455.734	391.44
455.955	356.44
456.175	362.44
456.395	348.44
456.616	349.44
456.836	365.44
457.056	354.44
457.276	355.44
457.497	350.44
457.717	357.44
457.937	358.44
458.157	357.44
458.377	356.44
458.598	376.44
458.818	392.44
459.038	421.44
459.258	431.44
459.478	414.44
459.698	378.44
459.918	399.44
460.138	419.44
460.358	418.44
460.578	400.44
460.798	422.44
461.018	427.44
461.238	424.44
461.458	423.44
461.678	410.44
461.898	431.44
462.118	424.44
462.338	431.44
462.558	448.44
462.777	431.44
462.997	445.44
463.217	467.44
463.437	462.44
463.657	461.44
463.876	455.44
464.096	457.44
464.316	453.44
464.536	448.44
464.755	450.44
464.975	439.44
465.195	447.44
465.414	443.44
465.634	418.44
465.854	416.44
466.073	411.44
466.293	393.44
466.512	399.44
466.732	381.44
466.951	381.44
467.171	379.44
467.391	381.44
467.61	381.44
467.829	373.44
468.049	361.44
468.268	368.44
468.488	355.44
468.707	367.44
468.927	373.44
469.146	373.44
469.365	363.44
469.585	369.44
469.804	380.44
470.023	395.44
470.243	367.44
470.462	386.44
470.681	393.44
470.901	412.44
471.12	375.44
471.339	365.44
471.558	391.44
471.777	384.44
471.997	375.44
472.216	389.44
472.435	378.44
472.654	379.44
472.873	382.44
473.092	377.44
473.311	349.44
473.53	383.44
473.749	379.44
473.968	414.44
474.187	454.44
474.406	457.44
474.625	403.44
474.844	393.44
475.063	375.44
475.282	377.44
475.501	374.44
475.72	388.44
475.939	386.44
476.158	395.44
476.377	398.44
476.596	390.44
476.814	401.44
477.033	408.44
477.252	415.44
477.471	397.44
477.69	405.44
477.908	423.44
478.127	422.44
478.346	440.44
478.564	415.44
478.783	430.44
479.002	441.44
479.22	463.44
479.439	453.44
479.658	448.44
479.876	439.44
480.095	475.44
480.313	489.44
480.532	453.44
480.751	469.44
480.969	457.44
481.188	486.44
481.406	463.44
481.624	461.44
481.843	437.44
482.061	442.44
482.28	431.44
482.498	443.44
482.717	436.44
482.935	441.44
483.153	443.44
483.372	445.44
483.59	445.44
483.808	447.44
484.027	433.44
484.245	451.44
484.463	456.44
484.681	429.44
484.9	466.44
485.118	467.44
485.336	440.44
485.554	462.44
485.772	462.44
485.99	453.44
486.209	435.44
486.427	451.44
486.645	443.44
486.863	454.44
487.081	459.44
487.299	470.44
487.517	445.44
487.735	469.44
487.953	454.44
488.171	470.44
488.389	467.44
488.607	466.44
488.825	476.44
489.043	471.44
489.261	461.44
489.479	485.44
489.696	492.44
489.914	466.44
490.132	470.44
490.35	479.44
490.568	485.44
490.786	479.44
491.003	482.44
491.221	517.44
491.439	493.44
491.657	498.44
491.874	483.44
492.092	480.44
492.31	479.44
492.527	508.44
492.745	502.44
492.963	496.44
493.18	505.44
493.398	513.44
493.615	538.44
493.833	503.44
494.05	521.44
494.268	499.44
494.485	510.44
494.703	511.44
494.92	520.44
495.138	514.44
495.355	524.44
495.573	547.44
495.79	534.44
496.008	560.44
496.225	535.44
496.442	501.44
496.66	547.44
496.877	541.44
497.094	538.44
497.312	540.44
497.529	549.44
497.746	571.44
497.963	581.44
498.181	583.44
498.398	603.44
498.615	616.44
498.832	640.44
499.049	651.44
499.267	679.44
499.484	685.44
499.701	737.44
499.918	763.44
500.135	826.44
500.352	857.44
500.569	872.44
500.786	872.44
501.003	843.44
501.22	828.44
501.437	760.44
501.654	736.44
501.871	717.44
502.088	713.44
