Data from 1977.PennyLincolnUp.Lamp.En5.5.200Scan.071719.P1_HRD10591_16-05-35-863.txt Node
Date: Thu Jul 18 16:05:35 EDT 2019
User: cochatt
Spectrometer: HR+D1059
Trigger mode: 1
Integration Time (sec): 1.000000E-1
Scans to average: 1
Electric dark correction enabled: true
Nonlinearity correction enabled: false
Boxcar width: 0
XAxis mode: Wavelengths
Number of Pixels in Spectrum: 2048
>>>>>Begin Spectral Data<<<<<
223.165	-16.81
223.4	-16.81
223.635	-16.81
223.869	-10.81
224.104	-25.81
224.338	-19.81
224.573	-3.81
224.808	-11.81
225.042	-4.81
225.277	-13.81
225.511	4.19
225.746	1.19
225.98	-8.81
226.215	-4.81
226.449	23.19
226.683	23.19
226.918	26.19
227.152	43.19
227.387	34.19
227.621	24.19
227.856	55.19
228.09	42.19
228.324	50.19
228.559	55.19
228.793	67.19
229.027	84.19
229.262	110.19
229.496	108.19
229.73	116.19
229.964	141.19
230.199	124.19
230.433	118.19
230.667	103.19
230.901	109.19
231.136	105.19
231.37	121.19
231.604	110.19
231.838	122.19
232.072	102.19
232.306	118.19
232.541	108.19
232.775	104.19
233.009	111.19
233.243	103.19
233.477	105.19
233.711	111.19
233.945	119.19
234.179	104.19
234.413	112.19
234.647	126.19
234.881	118.19
235.115	115.19
235.349	123.19
235.583	117.19
235.817	121.19
236.051	123.19
236.285	118.19
236.519	132.19
236.753	123.19
236.987	134.19
237.221	163.19
237.455	205.19
237.689	167.19
237.922	141.19
238.156	136.19
238.39	127.19
238.624	132.19
238.858	112.19
239.091	114.19
239.325	130.19
239.559	128.19
239.793	112.19
240.027	126.19
240.26	128.19
240.494	139.19
240.728	126.19
240.961	138.19
241.195	151.19
241.429	130.19
241.662	125.19
241.896	127.19
242.13	141.19
242.363	114.19
242.597	123.19
242.83	144.19
243.064	143.19
243.298	126.19
243.531	128.19
243.765	143.19
243.998	127.19
244.232	134.19
244.465	144.19
244.699	151.19
244.932	156.19
245.166	142.19
245.399	148.19
245.633	144.19
245.866	143.19
246.099	158.19
246.333	146.19
246.566	147.19
246.8	149.19
247.033	157.19
247.266	148.19
247.5	162.19
247.733	166.19
247.966	152.19
248.2	159.19
248.433	160.19
248.666	160.19
248.899	168.19
249.133	185.19
249.366	178.19
249.599	182.19
249.832	170.19
250.066	160.19
250.299	178.19
250.532	171.19
250.765	192.19
250.998	193.19
251.231	188.19
251.465	201.19
251.698	182.19
251.931	186.19
252.164	181.19
252.397	174.19
252.63	184.19
252.863	190.19
253.096	197.19
253.329	201.19
253.562	201.19
253.795	202.19
254.028	195.19
254.261	213.19
254.494	203.19
254.727	239.19
254.96	263.19
255.193	246.19
255.426	224.19
255.659	208.19
255.892	211.19
256.124	199.19
256.357	213.19
256.59	197.19
256.823	210.19
257.056	211.19
257.289	200.19
257.521	190.19
257.754	207.19
257.987	208.19
258.22	229.19
258.452	222.19
258.685	207.19
258.918	214.19
259.151	213.19
259.383	204.19
259.616	207.19
259.849	215.19
260.081	225.19
260.314	238.19
260.547	247.19
260.779	232.19
261.012	213.19
261.244	218.19
261.477	225.19
261.71	195.19
261.942	231.19
262.175	218.19
262.407	218.19
262.64	207.19
262.872	229.19
263.105	219.19
263.337	205.19
263.57	211.19
263.802	183.19
264.035	207.19
264.267	199.19
264.499	210.19
264.732	208.19
264.964	206.19
265.197	208.19
265.429	220.19
265.661	212.19
265.894	206.19
266.126	237.19
266.358	218.19
266.591	231.19
266.823	213.19
267.055	216.19
267.287	246.19
267.52	228.19
267.752	227.19
267.984	234.19
268.216	224.19
268.448	232.19
268.681	239.19
268.913	234.19
269.145	250.19
269.377	244.19
269.609	259.19
269.841	265.19
270.073	242.19
270.306	266.19
270.538	282.19
270.77	287.19
271.002	273.19
271.234	262.19
271.466	273.19
271.698	288.19
271.93	285.19
272.162	292.19
272.394	294.19
272.626	286.19
272.858	293.19
273.09	279.19
273.322	253.19
273.553	262.19
273.785	282.19
274.017	266.19
274.249	246.19
274.481	276.19
274.713	266.19
274.945	296.19
275.176	262.19
275.408	251.19
275.64	251.19
275.872	266.19
276.104	266.19
276.335	266.19
276.567	258.19
276.799	288.19
277.031	281.19
277.262	280.19
277.494	283.19
277.726	295.19
277.957	284.19
278.189	273.19
278.421	279.19
278.652	272.19
278.884	266.19
279.115	277.19
279.347	282.19
279.579	265.19
279.81	270.19
280.042	272.19
280.273	272.19
280.505	267.19
280.736	276.19
280.968	276.19
281.199	270.19
281.431	274.19
281.662	261.19
281.894	282.19
282.125	270.19
282.356	269.19
282.588	282.19
282.819	296.19
283.051	273.19
283.282	276.19
283.513	300.19
283.745	274.19
283.976	288.19
284.207	304.19
284.439	288.19
284.67	302.19
284.901	282.19
285.132	293.19
285.364	302.19
285.595	293.19
285.826	278.19
286.057	303.19
286.288	295.19
286.52	292.19
286.751	296.19
286.982	284.19
287.213	288.19
287.444	291.19
287.675	298.19
287.906	314.19
288.138	304.19
288.369	300.19
288.6	315.19
288.831	310.19
289.062	296.19
289.293	322.19
289.524	314.19
289.755	295.19
289.986	292.19
290.217	307.19
290.448	297.19
290.679	300.19
290.91	294.19
291.141	308.19
291.371	310.19
291.602	298.19
291.833	295.19
292.064	291.19
292.295	286.19
292.526	312.19
292.757	316.19
292.987	308.19
293.218	286.19
293.449	299.19
293.68	298.19
293.91	311.19
294.141	290.19
294.372	299.19
294.603	295.19
294.833	303.19
295.064	319.19
295.295	306.19
295.525	294.19
295.756	315.19
295.987	308.19
296.217	328.19
296.448	322.19
296.679	314.19
296.909	310.19
297.14	312.19
297.37	329.19
297.601	314.19
297.831	285.19
298.062	310.19
298.292	309.19
298.523	340.19
298.753	314.19
298.984	340.19
299.214	332.19
299.445	325.19
299.675	322.19
299.905	323.19
300.136	342.19
300.366	333.19
300.597	335.19
300.827	319.19
301.057	327.19
301.288	347.19
301.518	341.19
301.748	341.19
301.979	335.19
302.209	336.19
302.439	340.19
302.669	335.19
302.9	336.19
303.13	339.19
303.36	346.19
303.59	328.19
303.82	341.19
304.051	359.19
304.281	328.19
304.511	344.19
304.741	335.19
304.971	329.19
305.201	339.19
305.431	349.19
305.661	342.19
305.891	339.19
306.121	324.19
306.352	357.19
306.582	347.19
306.812	342.19
307.042	346.19
307.272	346.19
307.502	327.19
307.731	342.19
307.961	351.19
308.191	332.19
308.421	358.19
308.651	338.19
308.881	350.19
309.111	335.19
309.341	352.19
309.571	362.19
309.8	368.19
310.03	389.19
310.26	355.19
310.49	363.19
310.72	368.19
310.949	370.19
311.179	360.19
311.409	358.19
311.639	386.19
311.868	354.19
312.098	375.19
312.328	376.19
312.557	391.19
312.787	401.19
313.017	384.19
313.246	380.19
313.476	394.19
313.706	380.19
313.935	364.19
314.165	382.19
314.394	380.19
314.624	373.19
314.853	384.19
315.083	382.19
315.312	389.19
315.542	374.19
315.771	387.19
316.001	388.19
316.23	372.19
316.46	364.19
316.689	372.19
316.919	410.19
317.148	371.19
317.377	378.19
317.607	379.19
317.836	363.19
318.065	375.19
318.295	382.19
318.524	375.19
318.753	383.19
318.983	385.19
319.212	377.19
319.441	380.19
319.67	398.19
319.9	392.19
320.129	372.19
320.358	372.19
320.587	377.19
320.816	376.19
321.046	393.19
321.275	388.19
321.504	397.19
321.733	390.19
321.962	403.19
322.191	408.19
322.42	405.19
322.649	413.19
322.878	410.19
323.108	418.19
323.337	447.19
323.566	449.19
323.795	460.19
324.024	503.19
324.253	582.19
324.482	776.19
324.71	1115.19
324.939	1522.19
325.168	1294.19
325.397	735.19
325.626	547.19
325.855	466.19
326.084	442.19
326.313	443.19
326.542	452.19
326.77	495.19
326.999	552.19
327.228	714.19
327.457	994.19
327.686	1136.19
327.914	761.19
328.143	570.19
328.372	523.19
328.6	528.19
328.829	499.19
329.058	494.19
329.287	476.19
329.515	478.19
329.744	475.19
329.972	467.19
330.201	470.19
330.43	480.19
330.658	490.19
330.887	503.19
331.115	488.19
331.344	463.19
331.572	462.19
331.801	462.19
332.03	461.19
332.258	444.19
332.486	455.19
332.715	447.19
332.943	459.19
333.172	445.19
333.4	451.19
333.629	440.19
333.857	489.19
334.085	454.19
334.314	455.19
334.542	489.19
334.771	492.19
334.999	472.19
335.227	454.19
335.455	466.19
335.684	447.19
335.912	446.19
336.14	440.19
336.369	437.19
336.597	458.19
336.825	442.19
337.053	431.19
337.281	458.19
337.51	406.19
337.738	450.19
337.966	421.19
338.194	423.19
338.422	458.19
338.65	438.19
338.878	438.19
339.106	419.19
339.334	423.19
339.562	422.19
339.79	422.19
340.018	428.19
340.246	421.19
340.474	435.19
340.702	418.19
340.93	415.19
341.158	423.19
341.386	407.19
341.614	415.19
341.842	423.19
342.07	423.19
342.298	425.19
342.526	407.19
342.754	396.19
342.981	410.19
343.209	419.19
343.437	419.19
343.665	424.19
343.893	438.19
344.12	435.19
344.348	450.19
344.576	434.19
344.804	452.19
345.031	430.19
345.259	429.19
345.487	417.19
345.714	400.19
345.942	418.19
346.17	398.19
346.397	408.19
346.625	392.19
346.853	397.19
347.08	400.19
347.308	413.19
347.535	411.19
347.763	428.19
347.99	414.19
348.218	409.19
348.445	415.19
348.673	400.19
348.9	409.19
349.128	394.19
349.355	399.19
349.583	388.19
349.81	384.19
350.037	384.19
350.265	409.19
350.492	374.19
350.72	390.19
350.947	398.19
351.174	389.19
351.402	412.19
351.629	390.19
351.856	400.19
352.083	395.19
352.311	414.19
352.538	398.19
352.765	378.19
352.992	389.19
353.22	379.19
353.447	390.19
353.674	388.19
353.901	383.19
354.128	370.19
354.355	377.19
354.583	383.19
354.81	372.19
355.037	375.19
355.264	392.19
355.491	381.19
355.718	375.19
355.945	381.19
356.172	375.19
356.399	367.19
356.626	374.19
356.853	393.19
357.08	382.19
357.307	371.19
357.534	363.19
357.761	372.19
357.988	374.19
358.215	386.19
358.441	376.19
358.668	356.19
358.895	384.19
359.122	390.19
359.349	394.19
359.576	413.19
359.802	406.19
360.029	410.19
360.256	411.19
360.483	409.19
360.709	392.19
360.936	396.19
361.163	374.19
361.39	376.19
361.616	383.19
361.843	377.19
362.07	387.19
362.296	381.19
362.523	372.19
362.749	380.19
362.976	381.19
363.203	389.19
363.429	371.19
363.656	381.19
363.882	396.19
364.109	365.19
364.335	376.19
364.562	378.19
364.788	374.19
365.015	369.19
365.241	387.19
365.468	375.19
365.694	363.19
365.92	388.19
366.147	378.19
366.373	384.19
366.599	370.19
366.826	391.19
367.052	375.19
367.278	370.19
367.505	382.19
367.731	389.19
367.957	366.19
368.184	380.19
368.41	378.19
368.636	382.19
368.862	371.19
369.089	379.19
369.315	386.19
369.541	380.19
369.767	386.19
369.993	380.19
370.219	383.19
370.445	360.19
370.672	364.19
370.898	384.19
371.124	379.19
371.35	393.19
371.576	376.19
371.802	410.19
372.028	383.19
372.254	376.19
372.48	387.19
372.706	381.19
372.932	390.19
373.158	391.19
373.384	385.19
373.61	389.19
373.835	398.19
374.061	361.19
374.287	368.19
374.513	382.19
374.739	381.19
374.965	395.19
375.191	402.19
375.416	376.19
375.642	363.19
375.868	382.19
376.094	372.19
376.319	372.19
376.545	373.19
376.771	371.19
376.997	394.19
377.222	384.19
377.448	362.19
377.674	370.19
377.899	370.19
378.125	364.19
378.35	360.19
378.576	376.19
378.802	362.19
379.027	372.19
379.253	362.19
379.478	357.19
379.704	378.19
379.929	386.19
380.155	398.19
380.38	389.19
380.606	390.19
380.831	376.19
381.057	364.19
381.282	398.19
381.507	369.19
381.733	363.19
381.958	365.19
382.184	366.19
382.409	391.19
382.634	390.19
382.86	384.19
383.085	370.19
383.31	384.19
383.535	397.19
383.761	402.19
383.986	404.19
384.211	401.19
384.436	405.19
384.662	394.19
384.887	410.19
385.112	413.19
385.337	410.19
385.562	409.19
385.787	412.19
386.013	420.19
386.238	410.19
386.463	422.19
386.688	412.19
386.913	410.19
387.138	425.19
387.363	397.19
387.588	419.19
387.813	396.19
388.038	416.19
388.263	418.19
388.488	421.19
388.713	442.19
388.938	421.19
389.163	423.19
389.387	435.19
389.612	390.19
389.837	399.19
390.062	416.19
390.287	416.19
390.512	425.19
390.736	406.19
390.961	416.19
391.186	390.19
391.411	430.19
391.636	419.19
391.86	424.19
392.085	431.19
392.31	441.19
392.534	437.19
392.759	424.19
392.984	400.19
393.208	428.19
393.433	404.19
393.658	417.19
393.882	406.19
394.107	407.19
394.331	423.19
394.556	414.19
394.78	425.19
395.005	426.19
395.229	405.19
395.454	440.19
395.678	434.19
395.903	425.19
396.127	462.19
396.352	446.19
396.576	441.19
396.801	423.19
397.025	434.19
397.249	441.19
397.474	428.19
397.698	425.19
397.922	466.19
398.147	459.19
398.371	464.19
398.595	457.19
398.82	479.19
399.044	482.19
399.268	495.19
399.492	543.19
399.717	565.19
399.941	583.19
400.165	581.19
400.389	570.19
400.613	516.19
400.837	504.19
401.062	489.19
401.286	488.19
401.51	474.19
401.734	457.19
401.958	469.19
402.182	474.19
402.406	451.19
402.63	471.19
402.854	480.19
403.078	476.19
403.302	500.19
403.526	515.19
403.75	488.19
403.974	479.19
404.198	489.19
404.422	505.19
404.645	514.19
404.869	503.19
405.093	527.19
405.317	536.19
405.541	569.19
405.765	532.19
405.988	533.19
406.212	512.19
406.436	541.19
406.66	530.19
406.883	537.19
407.107	510.19
407.331	576.19
407.555	593.19
407.778	613.19
408.002	580.19
408.226	547.19
408.449	532.19
408.673	550.19
408.896	544.19
409.12	587.19
409.344	559.19
409.567	494.19
409.791	482.19
410.014	508.19
410.238	449.19
410.461	516.19
410.685	491.19
410.908	501.19
411.132	520.19
411.355	544.19
411.578	522.19
411.802	479.19
412.025	479.19
412.249	473.19
412.472	496.19
412.695	504.19
412.919	516.19
413.142	484.19
413.365	474.19
413.589	474.19
413.812	452.19
414.035	446.19
414.258	456.19
414.482	469.19
414.705	449.19
414.928	457.19
415.151	462.19
415.374	439.19
415.597	458.19
415.821	438.19
416.044	460.19
416.267	439.19
416.49	424.19
416.713	445.19
416.936	456.19
417.159	466.19
417.382	450.19
417.605	464.19
417.828	462.19
418.051	466.19
418.274	449.19
418.497	468.19
418.72	455.19
418.943	446.19
419.166	452.19
419.389	488.19
419.611	467.19
419.834	457.19
420.057	461.19
420.28	470.19
420.503	450.19
420.726	458.19
420.948	473.19
421.171	511.19
421.394	514.19
421.617	477.19
421.839	476.19
422.062	477.19
422.285	495.19
422.507	511.19
422.73	569.19
422.953	542.19
423.175	492.19
423.398	487.19
423.621	486.19
423.843	503.19
424.066	495.19
424.288	492.19
424.511	503.19
424.733	540.19
424.956	602.19
425.178	581.19
425.401	569.19
425.623	586.19
425.846	532.19
426.068	492.19
426.291	484.19
426.513	480.19
426.735	492.19
426.958	526.19
427.18	567.19
427.402	662.19
427.625	737.19
427.847	627.19
428.069	576.19
428.292	498.19
428.514	471.19
428.736	456.19
428.958	443.19
429.181	438.19
429.403	450.19
429.625	457.19
429.847	487.19
430.069	520.19
430.292	536.19
430.514	455.19
430.736	444.19
430.958	440.19
431.18	447.19
431.402	438.19
431.624	422.19
431.846	420.19
432.068	426.19
432.29	440.19
432.512	432.19
432.734	439.19
432.956	430.19
433.178	430.19
433.4	448.19
433.622	427.19
433.844	434.19
434.066	436.19
434.287	443.19
434.509	447.19
434.731	450.19
434.953	441.19
435.175	447.19
435.397	486.19
435.618	482.19
435.84	506.19
436.062	585.19
436.284	637.19
436.505	543.19
436.727	486.19
436.949	471.19
437.17	434.19
437.392	438.19
437.614	444.19
437.835	483.19
438.057	574.19
438.278	605.19
438.5	616.19
438.721	692.19
438.943	642.19
439.165	510.19
439.386	488.19
439.608	475.19
439.829	461.19
440.05	468.19
440.272	522.19
440.493	516.19
440.715	487.19
440.936	463.19
441.158	458.19
441.379	446.19
441.6	462.19
441.822	459.19
442.043	487.19
442.264	554.19
442.486	579.19
442.707	510.19
442.928	486.19
443.149	463.19
443.371	507.19
443.592	536.19
443.813	615.19
444.034	646.19
444.255	552.19
444.476	520.19
444.698	521.19
444.919	508.19
445.14	593.19
445.361	539.19
445.582	512.19
445.803	559.19
446.024	624.19
446.245	623.19
446.466	578.19
446.687	494.19
446.908	463.19
447.129	450.19
447.35	455.19
447.571	430.19
447.792	424.19
448.013	448.19
448.234	455.19
448.455	484.19
448.675	575.19
448.896	646.19
449.117	556.19
449.338	526.19
449.559	619.19
449.779	694.19
450	556.19
450.221	464.19
450.442	443.19
450.662	447.19
450.883	418.19
451.104	440.19
451.324	413.19
451.545	415.19
451.766	402.19
451.986	408.19
452.207	409.19
452.428	390.19
452.648	397.19
452.869	391.19
453.089	398.19
453.31	401.19
453.53	387.19
453.751	383.19
453.971	422.19
454.192	401.19
454.412	394.19
454.633	382.19
454.853	388.19
455.073	388.19
455.294	409.19
455.514	442.19
455.734	454.19
455.955	387.19
456.175	391.19
456.395	368.19
456.616	363.19
456.836	355.19
457.056	355.19
457.276	357.19
457.497	383.19
457.717	381.19
457.937	382.19
458.157	395.19
458.377	388.19
458.598	408.19
458.818	454.19
459.038	455.19
459.258	500.19
459.478	445.19
459.698	418.19
459.918	430.19
460.138	448.19
460.358	423.19
460.578	437.19
460.798	450.19
461.018	445.19
461.238	466.19
461.458	434.19
461.678	439.19
461.898	439.19
462.118	449.19
462.338	465.19
462.558	479.19
462.777	449.19
462.997	487.19
463.217	483.19
463.437	502.19
463.657	487.19
463.876	471.19
464.096	467.19
464.316	464.19
464.536	491.19
464.755	475.19
464.975	464.19
465.195	477.19
465.414	502.19
465.634	454.19
465.854	447.19
466.073	408.19
466.293	408.19
466.512	423.19
466.732	414.19
466.951	408.19
467.171	419.19
467.391	404.19
467.61	413.19
467.829	411.19
468.049	406.19
468.268	403.19
468.488	380.19
468.707	398.19
468.927	389.19
469.146	413.19
469.365	408.19
469.585	386.19
469.804	403.19
470.023	388.19
470.243	437.19
470.462	419.19
470.681	422.19
470.901	401.19
471.12	391.19
471.339	414.19
471.558	416.19
471.777	416.19
471.997	406.19
472.216	412.19
472.435	413.19
472.654	406.19
472.873	413.19
473.092	409.19
473.311	410.19
473.53	391.19
473.749	398.19
473.968	439.19
474.187	511.19
474.406	531.19
474.625	440.19
474.844	418.19
475.063	406.19
475.282	405.19
475.501	427.19
475.72	398.19
475.939	410.19
476.158	403.19
476.377	414.19
476.596	429.19
476.814	437.19
477.033	436.19
477.252	426.19
477.471	444.19
477.69	447.19
477.908	471.19
478.127	435.19
478.346	430.19
478.564	456.19
478.783	455.19
479.002	469.19
479.22	457.19
479.439	484.19
479.658	479.19
479.876	456.19
480.095	491.19
480.313	511.19
480.532	503.19
480.751	494.19
480.969	501.19
481.188	521.19
481.406	531.19
481.624	502.19
481.843	484.19
482.061	491.19
482.28	477.19
482.498	485.19
482.717	475.19
482.935	468.19
483.153	466.19
483.372	463.19
483.59	456.19
483.808	466.19
484.027	481.19
484.245	468.19
484.463	459.19
484.681	474.19
484.9	463.19
485.118	459.19
485.336	479.19
485.554	462.19
485.772	479.19
485.99	490.19
486.209	472.19
486.427	471.19
486.645	511.19
486.863	508.19
487.081	512.19
487.299	484.19
487.517	485.19
487.735	486.19
487.953	493.19
488.171	501.19
488.389	493.19
488.607	487.19
488.825	488.19
489.043	486.19
489.261	525.19
489.479	526.19
489.696	501.19
489.914	526.19
490.132	524.19
490.35	542.19
490.568	520.19
490.786	500.19
491.003	538.19
491.221	532.19
491.439	542.19
491.657	548.19
491.874	552.19
492.092	556.19
492.31	564.19
492.527	565.19
492.745	546.19
492.963	545.19
493.18	534.19
493.398	568.19
493.615	571.19
493.833	548.19
494.05	555.19
494.268	572.19
494.485	566.19
494.703	574.19
494.92	558.19
495.138	570.19
495.355	556.19
495.573	572.19
495.79	572.19
496.008	583.19
496.225	581.19
496.442	576.19
496.66	601.19
496.877	594.19
497.094	592.19
497.312	587.19
497.529	612.19
497.746	619.19
497.963	621.19
498.181	655.19
498.398	671.19
498.615	650.19
498.832	685.19
499.049	684.19
499.267	722.19
499.484	744.19
499.701	760.19
499.918	802.19
500.135	864.19
500.352	897.19
500.569	902.19
500.786	943.19
501.003	912.19
501.22	895.19
501.437	827.19
501.654	823.19
501.871	802.19
