Data from 1977.PennyLincolnUp.Lamp.En5.5.200Scan.071719.P1_HRD10591_16-08-07-865.txt Node
Date: Thu Jul 18 16:08:07 EDT 2019
User: cochatt
Spectrometer: HR+D1059
Trigger mode: 1
Integration Time (sec): 1.000000E-1
Scans to average: 1
Electric dark correction enabled: true
Nonlinearity correction enabled: false
Boxcar width: 0
XAxis mode: Wavelengths
Number of Pixels in Spectrum: 2048
>>>>>Begin Spectral Data<<<<<
223.165	-18.44
223.4	-18.44
223.635	-18.44
223.869	-22.44
224.104	-14.44
224.338	-12.44
224.573	-7.44
224.808	-18.44
225.042	-13.44
225.277	0.56
225.511	1.56
225.746	-8.44
225.98	13.56
226.215	6.56
226.449	21.56
226.683	19.56
226.918	23.56
227.152	28.56
227.387	28.56
227.621	41.56
227.856	35.56
228.09	39.56
228.324	39.56
228.559	47.56
228.793	58.56
229.027	89.56
229.262	109.56
229.496	90.56
229.73	121.56
229.964	130.56
230.199	133.56
230.433	108.56
230.667	118.56
230.901	112.56
231.136	109.56
231.37	110.56
231.604	102.56
231.838	116.56
232.072	107.56
232.306	99.56
232.541	126.56
232.775	120.56
233.009	120.56
233.243	112.56
233.477	115.56
233.711	116.56
233.945	112.56
234.179	125.56
234.413	103.56
234.647	116.56
234.881	110.56
235.115	107.56
235.349	120.56
235.583	120.56
235.817	122.56
236.051	114.56
236.285	133.56
236.519	123.56
236.753	116.56
236.987	132.56
237.221	164.56
237.455	189.56
237.689	181.56
237.922	150.56
238.156	122.56
238.39	137.56
238.624	139.56
238.858	128.56
239.091	113.56
239.325	118.56
239.559	120.56
239.793	127.56
240.027	124.56
240.26	136.56
240.494	138.56
240.728	146.56
240.961	139.56
241.195	137.56
241.429	145.56
241.662	120.56
241.896	134.56
242.13	137.56
242.363	124.56
242.597	125.56
242.83	139.56
243.064	134.56
243.298	134.56
243.531	134.56
243.765	127.56
243.998	138.56
244.232	140.56
244.465	152.56
244.699	138.56
244.932	146.56
245.166	148.56
245.399	132.56
245.633	162.56
245.866	147.56
246.099	140.56
246.333	138.56
246.566	151.56
246.8	149.56
247.033	171.56
247.266	169.56
247.5	159.56
247.733	162.56
247.966	156.56
248.2	153.56
248.433	165.56
248.666	170.56
248.899	185.56
249.133	190.56
249.366	195.56
249.599	185.56
249.832	174.56
250.066	171.56
250.299	182.56
250.532	174.56
250.765	198.56
250.998	208.56
251.231	208.56
251.465	204.56
251.698	196.56
251.931	194.56
252.164	200.56
252.397	187.56
252.63	211.56
252.863	219.56
253.096	219.56
253.329	210.56
253.562	223.56
253.795	201.56
254.028	227.56
254.261	219.56
254.494	217.56
254.727	231.56
254.96	252.56
255.193	257.56
255.426	238.56
255.659	238.56
255.892	233.56
256.124	230.56
256.357	216.56
256.59	226.56
256.823	225.56
257.056	220.56
257.289	201.56
257.521	220.56
257.754	185.56
257.987	196.56
258.22	204.56
258.452	193.56
258.685	222.56
258.918	210.56
259.151	218.56
259.383	225.56
259.616	214.56
259.849	213.56
260.081	240.56
260.314	256.56
260.547	256.56
260.779	240.56
261.012	241.56
261.244	212.56
261.477	222.56
261.71	212.56
261.942	226.56
262.175	226.56
262.407	236.56
262.64	230.56
262.872	211.56
263.105	215.56
263.337	230.56
263.57	220.56
263.802	216.56
264.035	218.56
264.267	222.56
264.499	231.56
264.732	222.56
264.964	214.56
265.197	234.56
265.429	232.56
265.661	228.56
265.894	228.56
266.126	230.56
266.358	234.56
266.591	219.56
266.823	208.56
267.055	241.56
267.287	236.56
267.52	243.56
267.752	228.56
267.984	226.56
268.216	244.56
268.448	239.56
268.681	234.56
268.913	266.56
269.145	241.56
269.377	291.56
269.609	274.56
269.841	277.56
270.073	271.56
270.306	297.56
270.538	300.56
270.77	323.56
271.002	304.56
271.234	308.56
271.466	299.56
271.698	300.56
271.93	295.56
272.162	315.56
272.394	308.56
272.626	311.56
272.858	288.56
273.09	282.56
273.322	260.56
273.553	255.56
273.785	267.56
274.017	274.56
274.249	281.56
274.481	274.56
274.713	279.56
274.945	278.56
275.176	263.56
275.408	277.56
275.64	274.56
275.872	265.56
276.104	276.56
276.335	276.56
276.567	291.56
276.799	279.56
277.031	285.56
277.262	318.56
277.494	329.56
277.726	316.56
277.957	302.56
278.189	287.56
278.421	295.56
278.652	266.56
278.884	286.56
279.115	279.56
279.347	288.56
279.579	286.56
279.81	267.56
280.042	277.56
280.273	282.56
280.505	298.56
280.736	280.56
280.968	277.56
281.199	280.56
281.431	293.56
281.662	288.56
281.894	283.56
282.125	286.56
282.356	286.56
282.588	308.56
282.819	309.56
283.051	298.56
283.282	281.56
283.513	295.56
283.745	282.56
283.976	290.56
284.207	312.56
284.439	284.56
284.67	306.56
284.901	315.56
285.132	298.56
285.364	294.56
285.595	307.56
285.826	280.56
286.057	283.56
286.288	290.56
286.52	304.56
286.751	320.56
286.982	303.56
287.213	315.56
287.444	318.56
287.675	303.56
287.906	298.56
288.138	324.56
288.369	318.56
288.6	320.56
288.831	322.56
289.062	320.56
289.293	308.56
289.524	331.56
289.755	304.56
289.986	316.56
290.217	300.56
290.448	320.56
290.679	302.56
290.91	296.56
291.141	313.56
291.371	321.56
291.602	304.56
291.833	310.56
292.064	294.56
292.295	307.56
292.526	327.56
292.757	303.56
292.987	305.56
293.218	306.56
293.449	317.56
293.68	321.56
293.91	310.56
294.141	325.56
294.372	297.56
294.603	281.56
294.833	313.56
295.064	307.56
295.295	313.56
295.525	324.56
295.756	307.56
295.987	315.56
296.217	331.56
296.448	335.56
296.679	340.56
296.909	328.56
297.14	333.56
297.37	328.56
297.601	320.56
297.831	313.56
298.062	328.56
298.292	332.56
298.523	331.56
298.753	330.56
298.984	335.56
299.214	308.56
299.445	340.56
299.675	348.56
299.905	335.56
300.136	324.56
300.366	323.56
300.597	353.56
300.827	337.56
301.057	353.56
301.288	369.56
301.518	348.56
301.748	360.56
301.979	368.56
302.209	354.56
302.439	350.56
302.669	337.56
302.9	351.56
303.13	361.56
303.36	354.56
303.59	351.56
303.82	353.56
304.051	358.56
304.281	350.56
304.511	351.56
304.741	357.56
304.971	349.56
305.201	332.56
305.431	350.56
305.661	366.56
305.891	358.56
306.121	340.56
306.352	345.56
306.582	354.56
306.812	343.56
307.042	350.56
307.272	375.56
307.502	368.56
307.731	349.56
307.961	352.56
308.191	362.56
308.421	364.56
308.651	362.56
308.881	349.56
309.111	366.56
309.341	354.56
309.571	349.56
309.8	378.56
310.03	379.56
310.26	395.56
310.49	388.56
310.72	393.56
310.949	390.56
311.179	396.56
311.409	380.56
311.639	383.56
311.868	388.56
312.098	387.56
312.328	387.56
312.557	409.56
312.787	403.56
313.017	407.56
313.246	417.56
313.476	387.56
313.706	400.56
313.935	401.56
314.165	397.56
314.394	427.56
314.624	406.56
314.853	395.56
315.083	385.56
315.312	390.56
315.542	396.56
315.771	402.56
316.001	391.56
316.23	390.56
316.46	388.56
316.689	394.56
316.919	394.56
317.148	404.56
317.377	405.56
317.607	399.56
317.836	395.56
318.065	399.56
318.295	376.56
318.524	388.56
318.753	383.56
318.983	396.56
319.212	401.56
319.441	396.56
319.67	402.56
319.9	391.56
320.129	378.56
320.358	391.56
320.587	384.56
320.816	393.56
321.046	432.56
321.275	402.56
321.504	405.56
321.733	421.56
321.962	420.56
322.191	432.56
322.42	448.56
322.649	442.56
322.878	463.56
323.108	462.56
323.337	464.56
323.566	486.56
323.795	512.56
324.024	560.56
324.253	632.56
324.482	889.56
324.71	1330.56
324.939	1843.56
325.168	1542.56
325.397	840.56
325.626	615.56
325.855	538.56
326.084	500.56
326.313	481.56
326.542	481.56
326.77	524.56
326.999	626.56
327.228	816.56
327.457	1165.56
327.686	1341.56
327.914	912.56
328.143	658.56
328.372	595.56
328.6	550.56
328.829	538.56
329.058	546.56
329.287	527.56
329.515	534.56
329.744	501.56
329.972	493.56
330.201	512.56
330.43	536.56
330.658	538.56
330.887	565.56
331.115	552.56
331.344	494.56
331.572	524.56
331.801	488.56
332.03	493.56
332.258	478.56
332.486	482.56
332.715	477.56
332.943	471.56
333.172	479.56
333.4	485.56
333.629	496.56
333.857	503.56
334.085	508.56
334.314	527.56
334.542	520.56
334.771	549.56
334.999	521.56
335.227	500.56
335.455	502.56
335.684	470.56
335.912	484.56
336.14	459.56
336.369	458.56
336.597	460.56
336.825	471.56
337.053	470.56
337.281	470.56
337.51	448.56
337.738	471.56
337.966	442.56
338.194	446.56
338.422	454.56
338.65	448.56
338.878	449.56
339.106	436.56
339.334	451.56
339.562	451.56
339.79	438.56
340.018	435.56
340.246	441.56
340.474	436.56
340.702	435.56
340.93	432.56
341.158	445.56
341.386	455.56
341.614	427.56
341.842	436.56
342.07	454.56
342.298	426.56
342.526	426.56
342.754	418.56
342.981	419.56
343.209	424.56
343.437	433.56
343.665	438.56
343.893	459.56
344.12	446.56
344.348	449.56
344.576	441.56
344.804	464.56
345.031	474.56
345.259	438.56
345.487	449.56
345.714	441.56
345.942	412.56
346.17	418.56
346.397	400.56
346.625	423.56
346.853	427.56
347.08	416.56
347.308	409.56
347.535	437.56
347.763	427.56
347.99	442.56
348.218	416.56
348.445	424.56
348.673	437.56
348.9	447.56
349.128	416.56
349.355	416.56
349.583	413.56
349.81	409.56
350.037	391.56
350.265	392.56
350.492	402.56
350.72	411.56
350.947	397.56
351.174	412.56
351.402	420.56
351.629	422.56
351.856	412.56
352.083	430.56
352.311	402.56
352.538	426.56
352.765	425.56
352.992	396.56
353.22	413.56
353.447	384.56
353.674	394.56
353.901	393.56
354.128	406.56
354.355	402.56
354.583	373.56
354.81	371.56
355.037	394.56
355.264	381.56
355.491	385.56
355.718	388.56
355.945	390.56
356.172	378.56
356.399	383.56
356.626	387.56
356.853	386.56
357.08	392.56
357.307	388.56
357.534	397.56
357.761	380.56
357.988	383.56
358.215	375.56
358.441	402.56
358.668	390.56
358.895	402.56
359.122	402.56
359.349	405.56
359.576	416.56
359.802	443.56
360.029	453.56
360.256	447.56
360.483	428.56
360.709	422.56
360.936	414.56
361.163	420.56
361.39	420.56
361.616	410.56
361.843	403.56
362.07	413.56
362.296	402.56
362.523	404.56
362.749	387.56
362.976	391.56
363.203	415.56
363.429	392.56
363.656	391.56
363.882	388.56
364.109	368.56
364.335	385.56
364.562	380.56
364.788	383.56
365.015	381.56
365.241	387.56
365.468	406.56
365.694	386.56
365.92	392.56
366.147	396.56
366.373	407.56
366.599	403.56
366.826	368.56
367.052	394.56
367.278	399.56
367.505	408.56
367.731	375.56
367.957	378.56
368.184	382.56
368.41	387.56
368.636	406.56
368.862	407.56
369.089	379.56
369.315	390.56
369.541	397.56
369.767	391.56
369.993	402.56
370.219	400.56
370.445	393.56
370.672	392.56
370.898	389.56
371.124	390.56
371.35	384.56
371.576	403.56
371.802	383.56
372.028	394.56
372.254	407.56
372.48	408.56
372.706	393.56
372.932	391.56
373.158	400.56
373.384	389.56
373.61	388.56
373.835	413.56
374.061	399.56
374.287	384.56
374.513	410.56
374.739	418.56
374.965	399.56
375.191	388.56
375.416	410.56
375.642	400.56
375.868	407.56
376.094	379.56
376.319	383.56
376.545	373.56
376.771	384.56
376.997	379.56
377.222	383.56
377.448	386.56
377.674	373.56
377.899	383.56
378.125	389.56
378.35	383.56
378.576	383.56
378.802	405.56
379.027	394.56
379.253	396.56
379.478	382.56
379.704	390.56
379.929	375.56
380.155	382.56
380.38	383.56
380.606	404.56
380.831	389.56
381.057	393.56
381.282	395.56
381.507	377.56
381.733	389.56
381.958	377.56
382.184	407.56
382.409	393.56
382.634	397.56
382.86	383.56
383.085	404.56
383.31	407.56
383.535	400.56
383.761	418.56
383.986	398.56
384.211	403.56
384.436	408.56
384.662	416.56
384.887	407.56
385.112	425.56
385.337	423.56
385.562	408.56
385.787	424.56
386.013	435.56
386.238	449.56
386.463	420.56
386.688	420.56
386.913	432.56
387.138	395.56
387.363	412.56
387.588	433.56
387.813	411.56
388.038	422.56
388.263	417.56
388.488	427.56
388.713	428.56
388.938	423.56
389.163	424.56
389.387	426.56
389.612	431.56
389.837	423.56
390.062	435.56
390.287	408.56
390.512	395.56
390.736	420.56
390.961	425.56
391.186	419.56
391.411	412.56
391.636	434.56
391.86	441.56
392.085	450.56
392.31	446.56
392.534	446.56
392.759	427.56
392.984	426.56
393.208	430.56
393.433	440.56
393.658	435.56
393.882	427.56
394.107	415.56
394.331	419.56
394.556	433.56
394.78	436.56
395.005	454.56
395.229	438.56
395.454	446.56
395.678	444.56
395.903	474.56
396.127	472.56
396.352	447.56
396.576	448.56
396.801	431.56
397.025	418.56
397.249	430.56
397.474	467.56
397.698	453.56
397.922	462.56
398.147	477.56
398.371	473.56
398.595	473.56
398.82	482.56
399.044	504.56
399.268	508.56
399.492	555.56
399.717	587.56
399.941	585.56
400.165	590.56
400.389	615.56
400.613	554.56
400.837	526.56
401.062	524.56
401.286	499.56
401.51	478.56
401.734	479.56
401.958	484.56
402.182	479.56
402.406	506.56
402.63	481.56
402.854	483.56
403.078	479.56
403.302	510.56
403.526	509.56
403.75	487.56
403.974	489.56
404.198	500.56
404.422	510.56
404.645	528.56
404.869	517.56
405.093	548.56
405.317	579.56
405.541	598.56
405.765	548.56
405.988	535.56
406.212	524.56
406.436	566.56
406.66	557.56
406.883	522.56
407.107	548.56
407.331	596.56
407.555	660.56
407.778	652.56
408.002	608.56
408.226	570.56
408.449	552.56
408.673	558.56
408.896	576.56
409.12	602.56
409.344	579.56
409.567	518.56
409.791	522.56
410.014	504.56
410.238	518.56
410.461	509.56
410.685	491.56
410.908	506.56
411.132	541.56
411.355	588.56
411.578	544.56
411.802	533.56
412.025	519.56
412.249	498.56
412.472	513.56
412.695	558.56
412.919	528.56
413.142	484.56
413.365	465.56
413.589	479.56
413.812	462.56
414.035	476.56
414.258	471.56
414.482	475.56
414.705	467.56
414.928	471.56
415.151	447.56
415.374	463.56
415.597	462.56
415.821	445.56
416.044	475.56
416.267	467.56
416.49	463.56
416.713	473.56
416.936	464.56
417.159	461.56
417.382	441.56
417.605	467.56
417.828	470.56
418.051	467.56
418.274	458.56
418.497	469.56
418.72	443.56
418.943	490.56
419.166	477.56
419.389	523.56
419.611	491.56
419.834	487.56
420.057	465.56
420.28	480.56
420.503	495.56
420.726	460.56
420.948	477.56
421.171	510.56
421.394	586.56
421.617	488.56
421.839	458.56
422.062	469.56
422.285	505.56
422.507	550.56
422.73	614.56
422.953	587.56
423.175	505.56
423.398	482.56
423.621	522.56
423.843	547.56
424.066	521.56
424.288	504.56
424.511	522.56
424.733	591.56
424.956	631.56
425.178	624.56
425.401	630.56
425.623	612.56
425.846	549.56
426.068	498.56
426.291	505.56
426.513	483.56
426.735	525.56
426.958	544.56
427.18	623.56
427.402	734.56
427.625	766.56
427.847	670.56
428.069	591.56
428.292	529.56
428.514	474.56
428.736	467.56
428.958	479.56
429.181	459.56
429.403	470.56
429.625	475.56
429.847	484.56
430.069	561.56
430.292	548.56
430.514	498.56
430.736	459.56
430.958	440.56
431.18	453.56
431.402	448.56
431.624	426.56
431.846	434.56
432.068	432.56
432.29	458.56
432.512	459.56
432.734	450.56
432.956	465.56
433.178	461.56
433.4	460.56
433.622	443.56
433.844	432.56
434.066	459.56
434.287	474.56
434.509	454.56
434.731	442.56
434.953	492.56
435.175	503.56
435.397	499.56
435.618	474.56
435.84	533.56
436.062	630.56
436.284	669.56
436.505	558.56
436.727	524.56
436.949	506.56
437.17	481.56
437.392	461.56
437.614	475.56
437.835	501.56
438.057	580.56
438.278	627.56
438.5	642.56
438.721	710.56
438.943	676.56
439.165	548.56
439.386	506.56
439.608	501.56
439.829	505.56
440.05	517.56
440.272	555.56
440.493	521.56
440.715	480.56
440.936	486.56
441.158	460.56
441.379	481.56
441.6	502.56
441.822	500.56
442.043	558.56
442.264	602.56
442.486	656.56
442.707	566.56
442.928	536.56
443.149	527.56
443.371	542.56
443.592	570.56
443.813	660.56
444.034	706.56
444.255	598.56
444.476	539.56
444.698	512.56
444.919	527.56
445.14	644.56
445.361	575.56
445.582	543.56
445.803	579.56
446.024	665.56
446.245	686.56
446.466	635.56
446.687	538.56
446.908	480.56
447.129	483.56
447.35	442.56
447.571	470.56
447.792	458.56
448.013	458.56
448.234	473.56
448.455	491.56
448.675	625.56
448.896	702.56
449.117	574.56
449.338	568.56
449.559	643.56
449.779	731.56
450	587.56
450.221	522.56
450.442	462.56
450.662	440.56
450.883	450.56
451.104	444.56
451.324	432.56
451.545	420.56
451.766	438.56
451.986	406.56
452.207	409.56
452.428	385.56
452.648	415.56
452.869	401.56
453.089	424.56
453.31	427.56
453.53	417.56
453.751	420.56
453.971	425.56
454.192	435.56
454.412	416.56
454.633	409.56
454.853	407.56
455.073	423.56
455.294	427.56
455.514	479.56
455.734	459.56
455.955	407.56
456.175	386.56
456.395	393.56
456.616	385.56
456.836	404.56
457.056	388.56
457.276	372.56
457.497	386.56
457.717	383.56
457.937	378.56
458.157	397.56
458.377	408.56
458.598	411.56
458.818	447.56
459.038	514.56
459.258	550.56
459.478	483.56
459.698	459.56
459.918	426.56
460.138	417.56
460.358	439.56
460.578	455.56
460.798	470.56
461.018	454.56
461.238	458.56
461.458	477.56
461.678	453.56
461.898	442.56
462.118	455.56
462.338	486.56
462.558	468.56
462.777	479.56
462.997	501.56
463.217	512.56
463.437	503.56
463.657	497.56
463.876	497.56
464.096	502.56
464.316	489.56
464.536	510.56
464.755	512.56
464.975	490.56
465.195	506.56
465.414	530.56
465.634	476.56
465.854	445.56
466.073	433.56
466.293	452.56
466.512	427.56
466.732	431.56
466.951	414.56
467.171	428.56
467.391	409.56
467.61	426.56
467.829	431.56
468.049	443.56
468.268	423.56
468.488	411.56
468.707	400.56
468.927	430.56
469.146	390.56
469.365	426.56
469.585	409.56
469.804	430.56
470.023	426.56
470.243	442.56
470.462	442.56
470.681	426.56
470.901	432.56
471.12	436.56
471.339	428.56
471.558	424.56
471.777	446.56
471.997	436.56
472.216	424.56
472.435	446.56
472.654	452.56
472.873	435.56
473.092	435.56
473.311	428.56
473.53	443.56
473.749	446.56
473.968	467.56
474.187	559.56
474.406	570.56
474.625	458.56
474.844	426.56
475.063	406.56
475.282	419.56
475.501	426.56
475.72	440.56
475.939	437.56
476.158	439.56
476.377	417.56
476.596	463.56
476.814	442.56
477.033	417.56
477.252	448.56
477.471	434.56
477.69	446.56
477.908	470.56
478.127	482.56
478.346	476.56
478.564	480.56
478.783	481.56
479.002	492.56
479.22	472.56
479.439	497.56
479.658	498.56
479.876	527.56
480.095	513.56
480.313	526.56
480.532	525.56
480.751	529.56
480.969	517.56
481.188	536.56
481.406	561.56
481.624	518.56
481.843	488.56
482.061	497.56
482.28	497.56
482.498	500.56
482.717	495.56
482.935	486.56
483.153	476.56
483.372	492.56
483.59	495.56
483.808	486.56
484.027	483.56
484.245	482.56
484.463	496.56
484.681	516.56
484.9	482.56
485.118	512.56
485.336	496.56
485.554	515.56
485.772	500.56
485.99	516.56
486.209	500.56
486.427	499.56
486.645	504.56
486.863	534.56
487.081	515.56
487.299	523.56
487.517	540.56
487.735	484.56
487.953	517.56
488.171	514.56
488.389	523.56
488.607	523.56
488.825	519.56
489.043	507.56
489.261	525.56
489.479	516.56
489.696	508.56
489.914	524.56
490.132	520.56
490.35	555.56
490.568	521.56
490.786	536.56
491.003	552.56
491.221	543.56
491.439	590.56
491.657	581.56
491.874	570.56
492.092	563.56
492.31	593.56
492.527	585.56
492.745	578.56
492.963	598.56
493.18	578.56
493.398	598.56
493.615	590.56
493.833	579.56
494.05	604.56
494.268	618.56
494.485	598.56
494.703	609.56
494.92	599.56
495.138	599.56
495.355	601.56
495.573	613.56
495.79	597.56
496.008	626.56
496.225	628.56
496.442	627.56
496.66	626.56
496.877	614.56
497.094	621.56
497.312	638.56
497.529	658.56
497.746	648.56
497.963	644.56
498.181	666.56
498.398	668.56
498.615	702.56
498.832	698.56
499.049	715.56
499.267	769.56
499.484	777.56
499.701	827.56
499.918	864.56
500.135	910.56
500.352	930.56
500.569	961.56
500.786	949.56
501.003	925.56
501.22	930.56
501.437	843.56
501.654	847.56
501.871	826.56
502.088	794.56
