Data from 1977.PennyLincolnUp.Lamp.En5.5.200Scan.071719.P1_HRD10591_16-05-44-863.txt Node
Date: Thu Jul 18 16:05:44 EDT 2019
User: cochatt
Spectrometer: HR+D1059
Trigger mode: 1
Integration Time (sec): 1.000000E-1
Scans to average: 1
Electric dark correction enabled: true
Nonlinearity correction enabled: false
Boxcar width: 0
XAxis mode: Wavelengths
Number of Pixels in Spectrum: 2048
>>>>>Begin Spectral Data<<<<<
223.165	-23.06
223.4	-23.06
223.635	-23.06
223.869	-22.06
224.104	-11.06
224.338	-20.06
224.573	-16.06
224.808	-20.06
225.042	0.94
225.277	-7.06
225.511	6.94
225.746	4.94
225.98	8.94
226.215	12.94
226.449	12.94
226.683	17.94
226.918	20.94
227.152	32.94
227.387	37.94
227.621	36.94
227.856	62.94
228.09	54.94
228.324	47.94
228.559	42.94
228.793	64.94
229.027	96.94
229.262	111.94
229.496	96.94
229.73	92.94
229.964	135.94
230.199	121.94
230.433	114.94
230.667	110.94
230.901	113.94
231.136	107.94
231.37	100.94
231.604	111.94
231.838	122.94
232.072	114.94
232.306	118.94
232.541	113.94
232.775	107.94
233.009	113.94
233.243	110.94
233.477	117.94
233.711	109.94
233.945	119.94
234.179	111.94
234.413	136.94
234.647	120.94
234.881	123.94
235.115	128.94
235.349	119.94
235.583	119.94
235.817	127.94
236.051	122.94
236.285	138.94
236.519	144.94
236.753	126.94
236.987	146.94
237.221	154.94
237.455	213.94
237.689	178.94
237.922	137.94
238.156	125.94
238.39	119.94
238.624	117.94
238.858	141.94
239.091	123.94
239.325	136.94
239.559	128.94
239.793	131.94
240.027	120.94
240.26	139.94
240.494	143.94
240.728	140.94
240.961	134.94
241.195	143.94
241.429	158.94
241.662	135.94
241.896	130.94
242.13	133.94
242.363	128.94
242.597	137.94
242.83	149.94
243.064	147.94
243.298	138.94
243.531	138.94
243.765	121.94
243.998	141.94
244.232	145.94
244.465	132.94
244.699	140.94
244.932	140.94
245.166	143.94
245.399	131.94
245.633	146.94
245.866	156.94
246.099	147.94
246.333	137.94
246.566	160.94
246.8	160.94
247.033	137.94
247.266	160.94
247.5	153.94
247.733	156.94
247.966	166.94
248.2	176.94
248.433	164.94
248.666	166.94
248.899	181.94
249.133	195.94
249.366	187.94
249.599	181.94
249.832	177.94
250.066	168.94
250.299	184.94
250.532	189.94
250.765	182.94
250.998	202.94
251.231	231.94
251.465	202.94
251.698	183.94
251.931	201.94
252.164	192.94
252.397	200.94
252.63	205.94
252.863	192.94
253.096	188.94
253.329	226.94
253.562	219.94
253.795	209.94
254.028	208.94
254.261	205.94
254.494	213.94
254.727	243.94
254.96	258.94
255.193	233.94
255.426	225.94
255.659	210.94
255.892	209.94
256.124	216.94
256.357	223.94
256.59	206.94
256.823	220.94
257.056	206.94
257.289	206.94
257.521	208.94
257.754	212.94
257.987	209.94
258.22	204.94
258.452	200.94
258.685	208.94
258.918	205.94
259.151	213.94
259.383	214.94
259.616	217.94
259.849	222.94
260.081	223.94
260.314	224.94
260.547	244.94
260.779	209.94
261.012	227.94
261.244	218.94
261.477	216.94
261.71	207.94
261.942	226.94
262.175	226.94
262.407	220.94
262.64	200.94
262.872	214.94
263.105	209.94
263.337	226.94
263.57	198.94
263.802	214.94
264.035	200.94
264.267	209.94
264.499	220.94
264.732	218.94
264.964	209.94
265.197	206.94
265.429	213.94
265.661	219.94
265.894	224.94
266.126	216.94
266.358	219.94
266.591	240.94
266.823	217.94
267.055	239.94
267.287	233.94
267.52	241.94
267.752	230.94
267.984	222.94
268.216	220.94
268.448	225.94
268.681	253.94
268.913	223.94
269.145	260.94
269.377	254.94
269.609	294.94
269.841	265.94
270.073	264.94
270.306	280.94
270.538	305.94
270.77	274.94
271.002	285.94
271.234	269.94
271.466	276.94
271.698	302.94
271.93	304.94
272.162	290.94
272.394	282.94
272.626	310.94
272.858	279.94
273.09	280.94
273.322	294.94
273.553	279.94
273.785	291.94
274.017	264.94
274.249	270.94
274.481	273.94
274.713	274.94
274.945	249.94
275.176	272.94
275.408	283.94
275.64	265.94
275.872	273.94
276.104	283.94
276.335	269.94
276.567	278.94
276.799	284.94
277.031	294.94
277.262	318.94
277.494	311.94
277.726	299.94
277.957	304.94
278.189	264.94
278.421	283.94
278.652	271.94
278.884	280.94
279.115	260.94
279.347	260.94
279.579	279.94
279.81	278.94
280.042	274.94
280.273	273.94
280.505	277.94
280.736	276.94
280.968	267.94
281.199	290.94
281.431	284.94
281.662	271.94
281.894	280.94
282.125	287.94
282.356	305.94
282.588	304.94
282.819	298.94
283.051	313.94
283.282	287.94
283.513	289.94
283.745	289.94
283.976	297.94
284.207	293.94
284.439	293.94
284.67	311.94
284.901	283.94
285.132	286.94
285.364	284.94
285.595	294.94
285.826	292.94
286.057	311.94
286.288	286.94
286.52	312.94
286.751	280.94
286.982	294.94
287.213	305.94
287.444	302.94
287.675	306.94
287.906	311.94
288.138	315.94
288.369	319.94
288.6	301.94
288.831	323.94
289.062	315.94
289.293	299.94
289.524	297.94
289.755	299.94
289.986	304.94
290.217	291.94
290.448	283.94
290.679	310.94
290.91	301.94
291.141	293.94
291.371	306.94
291.602	325.94
291.833	322.94
292.064	332.94
292.295	305.94
292.526	329.94
292.757	310.94
292.987	313.94
293.218	295.94
293.449	285.94
293.68	315.94
293.91	328.94
294.141	318.94
294.372	312.94
294.603	300.94
294.833	296.94
295.064	311.94
295.295	316.94
295.525	319.94
295.756	316.94
295.987	318.94
296.217	328.94
296.448	318.94
296.679	326.94
296.909	313.94
297.14	291.94
297.37	334.94
297.601	329.94
297.831	298.94
298.062	331.94
298.292	332.94
298.523	320.94
298.753	324.94
298.984	326.94
299.214	319.94
299.445	338.94
299.675	333.94
299.905	320.94
300.136	337.94
300.366	332.94
300.597	347.94
300.827	337.94
301.057	337.94
301.288	348.94
301.518	339.94
301.748	348.94
301.979	361.94
302.209	324.94
302.439	329.94
302.669	323.94
302.9	352.94
303.13	336.94
303.36	364.94
303.59	337.94
303.82	340.94
304.051	357.94
304.281	328.94
304.511	350.94
304.741	331.94
304.971	342.94
305.201	329.94
305.431	359.94
305.661	357.94
305.891	353.94
306.121	344.94
306.352	338.94
306.582	363.94
306.812	366.94
307.042	350.94
307.272	366.94
307.502	347.94
307.731	318.94
307.961	362.94
308.191	342.94
308.421	338.94
308.651	349.94
308.881	342.94
309.111	352.94
309.341	354.94
309.571	368.94
309.8	360.94
310.03	370.94
310.26	358.94
310.49	382.94
310.72	379.94
310.949	379.94
311.179	387.94
311.409	377.94
311.639	381.94
311.868	372.94
312.098	371.94
312.328	384.94
312.557	388.94
312.787	380.94
313.017	392.94
313.246	402.94
313.476	368.94
313.706	390.94
313.935	386.94
314.165	379.94
314.394	404.94
314.624	392.94
314.853	393.94
315.083	398.94
315.312	385.94
315.542	384.94
315.771	384.94
316.001	380.94
316.23	411.94
316.46	376.94
316.689	374.94
316.919	394.94
317.148	394.94
317.377	402.94
317.607	394.94
317.836	385.94
318.065	366.94
318.295	384.94
318.524	400.94
318.753	393.94
318.983	400.94
319.212	378.94
319.441	403.94
319.67	414.94
319.9	391.94
320.129	400.94
320.358	399.94
320.587	384.94
320.816	408.94
321.046	405.94
321.275	404.94
321.504	397.94
321.733	409.94
321.962	422.94
322.191	406.94
322.42	417.94
322.649	419.94
322.878	418.94
323.108	432.94
323.337	447.94
323.566	459.94
323.795	483.94
324.024	490.94
324.253	572.94
324.482	809.94
324.71	1099.94
324.939	1500.94
325.168	1286.94
325.397	733.94
325.626	545.94
325.855	500.94
326.084	489.94
326.313	476.94
326.542	478.94
326.77	485.94
326.999	548.94
327.228	732.94
327.457	1017.94
327.686	1172.94
327.914	808.94
328.143	598.94
328.372	516.94
328.6	522.94
328.829	496.94
329.058	492.94
329.287	512.94
329.515	474.94
329.744	465.94
329.972	473.94
330.201	478.94
330.43	488.94
330.658	501.94
330.887	507.94
331.115	500.94
331.344	484.94
331.572	466.94
331.801	482.94
332.03	476.94
332.258	452.94
332.486	467.94
332.715	441.94
332.943	456.94
333.172	448.94
333.4	456.94
333.629	471.94
333.857	476.94
334.085	476.94
334.314	472.94
334.542	513.94
334.771	505.94
334.999	483.94
335.227	468.94
335.455	468.94
335.684	471.94
335.912	475.94
336.14	453.94
336.369	450.94
336.597	454.94
336.825	462.94
337.053	448.94
337.281	435.94
337.51	444.94
337.738	428.94
337.966	432.94
338.194	458.94
338.422	442.94
338.65	414.94
338.878	442.94
339.106	424.94
339.334	409.94
339.562	427.94
339.79	432.94
340.018	438.94
340.246	416.94
340.474	423.94
340.702	418.94
340.93	427.94
341.158	436.94
341.386	416.94
341.614	446.94
341.842	432.94
342.07	421.94
342.298	429.94
342.526	397.94
342.754	425.94
342.981	416.94
343.209	422.94
343.437	445.94
343.665	434.94
343.893	457.94
344.12	446.94
344.348	456.94
344.576	440.94
344.804	455.94
345.031	452.94
345.259	453.94
345.487	429.94
345.714	433.94
345.942	433.94
346.17	424.94
346.397	416.94
346.625	415.94
346.853	417.94
347.08	406.94
347.308	395.94
347.535	418.94
347.763	405.94
347.99	398.94
348.218	405.94
348.445	420.94
348.673	422.94
348.9	424.94
349.128	403.94
349.355	408.94
349.583	399.94
349.81	419.94
350.037	392.94
350.265	389.94
350.492	385.94
350.72	396.94
350.947	402.94
351.174	393.94
351.402	409.94
351.629	420.94
351.856	402.94
352.083	404.94
352.311	415.94
352.538	407.94
352.765	400.94
352.992	396.94
353.22	407.94
353.447	398.94
353.674	406.94
353.901	392.94
354.128	385.94
354.355	376.94
354.583	392.94
354.81	381.94
355.037	379.94
355.264	374.94
355.491	390.94
355.718	399.94
355.945	403.94
356.172	401.94
356.399	369.94
356.626	390.94
356.853	390.94
357.08	377.94
357.307	384.94
357.534	382.94
357.761	373.94
357.988	383.94
358.215	387.94
358.441	388.94
358.668	390.94
358.895	397.94
359.122	389.94
359.349	400.94
359.576	409.94
359.802	419.94
360.029	423.94
360.256	418.94
360.483	410.94
360.709	411.94
360.936	418.94
361.163	402.94
361.39	394.94
361.616	392.94
361.843	398.94
362.07	376.94
362.296	396.94
362.523	397.94
362.749	408.94
362.976	402.94
363.203	401.94
363.429	377.94
363.656	377.94
363.882	367.94
364.109	374.94
364.335	400.94
364.562	386.94
364.788	403.94
365.015	383.94
365.241	376.94
365.468	386.94
365.694	397.94
365.92	392.94
366.147	396.94
366.373	382.94
366.599	373.94
366.826	369.94
367.052	384.94
367.278	372.94
367.505	386.94
367.731	386.94
367.957	387.94
368.184	383.94
368.41	404.94
368.636	392.94
368.862	400.94
369.089	396.94
369.315	372.94
369.541	387.94
369.767	384.94
369.993	384.94
370.219	385.94
370.445	376.94
370.672	379.94
370.898	390.94
371.124	376.94
371.35	410.94
371.576	378.94
371.802	394.94
372.028	374.94
372.254	380.94
372.48	384.94
372.706	392.94
372.932	393.94
373.158	387.94
373.384	415.94
373.61	394.94
373.835	394.94
374.061	392.94
374.287	398.94
374.513	394.94
374.739	383.94
374.965	409.94
375.191	392.94
375.416	413.94
375.642	397.94
375.868	399.94
376.094	373.94
376.319	384.94
376.545	392.94
376.771	386.94
376.997	375.94
377.222	372.94
377.448	364.94
377.674	383.94
377.899	392.94
378.125	370.94
378.35	380.94
378.576	383.94
378.802	377.94
379.027	378.94
379.253	380.94
379.478	373.94
379.704	387.94
379.929	383.94
380.155	381.94
380.38	380.94
380.606	371.94
380.831	374.94
381.057	392.94
381.282	393.94
381.507	385.94
381.733	387.94
381.958	377.94
382.184	384.94
382.409	388.94
382.634	392.94
382.86	378.94
383.085	393.94
383.31	414.94
383.535	388.94
383.761	403.94
383.986	388.94
384.211	432.94
384.436	408.94
384.662	422.94
384.887	409.94
385.112	406.94
385.337	414.94
385.562	418.94
385.787	401.94
386.013	418.94
386.238	415.94
386.463	426.94
386.688	413.94
386.913	422.94
387.138	439.94
387.363	426.94
387.588	404.94
387.813	436.94
388.038	415.94
388.263	406.94
388.488	436.94
388.713	413.94
388.938	430.94
389.163	433.94
389.387	436.94
389.612	418.94
389.837	417.94
390.062	420.94
390.287	423.94
390.512	431.94
390.736	414.94
390.961	413.94
391.186	429.94
391.411	419.94
391.636	417.94
391.86	441.94
392.085	429.94
392.31	418.94
392.534	448.94
392.759	421.94
392.984	436.94
393.208	411.94
393.433	418.94
393.658	422.94
393.882	441.94
394.107	441.94
394.331	431.94
394.556	427.94
394.78	432.94
395.005	410.94
395.229	411.94
395.454	448.94
395.678	439.94
395.903	472.94
396.127	463.94
396.352	445.94
396.576	446.94
396.801	432.94
397.025	440.94
397.249	429.94
397.474	437.94
397.698	438.94
397.922	462.94
398.147	462.94
398.371	471.94
398.595	474.94
398.82	488.94
399.044	490.94
399.268	529.94
399.492	565.94
399.717	588.94
399.941	580.94
400.165	615.94
400.389	596.94
400.613	555.94
400.837	498.94
401.062	496.94
401.286	492.94
401.51	490.94
401.734	465.94
401.958	458.94
402.182	465.94
402.406	481.94
402.63	501.94
402.854	496.94
403.078	482.94
403.302	493.94
403.526	501.94
403.75	506.94
403.974	504.94
404.198	495.94
404.422	507.94
404.645	518.94
404.869	503.94
405.093	527.94
405.317	551.94
405.541	586.94
405.765	518.94
405.988	542.94
406.212	516.94
406.436	524.94
406.66	528.94
406.883	525.94
407.107	550.94
407.331	598.94
407.555	655.94
407.778	617.94
408.002	590.94
408.226	545.94
408.449	558.94
408.673	538.94
408.896	557.94
409.12	607.94
409.344	543.94
409.567	520.94
409.791	487.94
410.014	507.94
410.238	462.94
410.461	486.94
410.685	501.94
410.908	521.94
411.132	527.94
411.355	551.94
411.578	517.94
411.802	489.94
412.025	486.94
412.249	483.94
412.472	496.94
412.695	500.94
412.919	518.94
413.142	482.94
413.365	492.94
413.589	491.94
413.812	494.94
414.035	479.94
414.258	485.94
414.482	466.94
414.705	451.94
414.928	462.94
415.151	446.94
415.374	459.94
415.597	465.94
415.821	466.94
416.044	469.94
416.267	460.94
416.49	460.94
416.713	449.94
416.936	442.94
417.159	457.94
417.382	460.94
417.605	454.94
417.828	468.94
418.051	472.94
418.274	466.94
418.497	464.94
418.72	454.94
418.943	466.94
419.166	485.94
419.389	506.94
419.611	479.94
419.834	490.94
420.057	463.94
420.28	478.94
420.503	466.94
420.726	475.94
420.948	500.94
421.171	522.94
421.394	561.94
421.617	482.94
421.839	480.94
422.062	481.94
422.285	461.94
422.507	529.94
422.73	594.94
422.953	572.94
423.175	526.94
423.398	512.94
423.621	479.94
423.843	485.94
424.066	530.94
424.288	482.94
424.511	523.94
424.733	550.94
424.956	620.94
425.178	598.94
425.401	581.94
425.623	617.94
425.846	538.94
426.068	507.94
426.291	481.94
426.513	488.94
426.735	494.94
426.958	532.94
427.18	589.94
427.402	674.94
427.625	758.94
427.847	634.94
428.069	556.94
428.292	514.94
428.514	487.94
428.736	448.94
428.958	453.94
429.181	444.94
429.403	450.94
429.625	471.94
429.847	475.94
430.069	524.94
430.292	505.94
430.514	453.94
430.736	473.94
430.958	458.94
431.18	459.94
431.402	441.94
431.624	443.94
431.846	447.94
432.068	444.94
432.29	438.94
432.512	430.94
432.734	441.94
432.956	440.94
433.178	435.94
433.4	439.94
433.622	448.94
433.844	431.94
434.066	436.94
434.287	451.94
434.509	438.94
434.731	455.94
434.953	447.94
435.175	470.94
435.397	510.94
435.618	486.94
435.84	518.94
436.062	599.94
436.284	640.94
436.505	529.94
436.727	496.94
436.949	465.94
437.17	452.94
437.392	466.94
437.614	461.94
437.835	477.94
438.057	524.94
438.278	595.94
438.5	636.94
438.721	660.94
438.943	669.94
439.165	523.94
439.386	475.94
439.608	483.94
439.829	483.94
440.05	507.94
440.272	518.94
440.493	500.94
440.715	462.94
440.936	455.94
441.158	471.94
441.379	460.94
441.6	473.94
441.822	469.94
442.043	532.94
442.264	595.94
442.486	612.94
442.707	523.94
442.928	487.94
443.149	497.94
443.371	532.94
443.592	558.94
443.813	613.94
444.034	676.94
444.255	554.94
444.476	508.94
444.698	485.94
444.919	510.94
445.14	610.94
445.361	529.94
445.582	513.94
445.803	556.94
446.024	631.94
446.245	625.94
446.466	580.94
446.687	523.94
446.908	492.94
447.129	438.94
447.35	432.94
447.571	451.94
447.792	440.94
448.013	444.94
448.234	441.94
448.455	502.94
448.675	586.94
448.896	651.94
449.117	564.94
449.338	559.94
449.559	621.94
449.779	702.94
450	552.94
450.221	480.94
450.442	436.94
450.662	454.94
450.883	420.94
451.104	457.94
451.324	426.94
451.545	421.94
451.766	421.94
451.986	401.94
452.207	412.94
452.428	405.94
452.648	392.94
452.869	423.94
453.089	400.94
453.31	406.94
453.53	409.94
453.751	393.94
453.971	418.94
454.192	403.94
454.412	407.94
454.633	387.94
454.853	380.94
455.073	399.94
455.294	423.94
455.514	461.94
455.734	466.94
455.955	405.94
456.175	398.94
456.395	389.94
456.616	394.94
456.836	393.94
457.056	368.94
457.276	388.94
457.497	398.94
457.717	373.94
457.937	381.94
458.157	394.94
458.377	406.94
458.598	395.94
458.818	439.94
459.038	492.94
459.258	495.94
459.478	443.94
459.698	447.94
459.918	433.94
460.138	434.94
460.358	450.94
460.578	468.94
460.798	440.94
461.018	449.94
461.238	458.94
461.458	445.94
461.678	471.94
461.898	465.94
462.118	483.94
462.338	467.94
462.558	486.94
462.777	466.94
462.997	494.94
463.217	500.94
463.437	524.94
463.657	504.94
463.876	494.94
464.096	482.94
464.316	484.94
464.536	495.94
464.755	491.94
464.975	471.94
465.195	474.94
465.414	492.94
465.634	472.94
465.854	446.94
466.073	433.94
466.293	423.94
466.512	420.94
466.732	407.94
466.951	401.94
467.171	409.94
467.391	424.94
467.61	444.94
467.829	402.94
468.049	441.94
468.268	408.94
468.488	405.94
468.707	399.94
468.927	389.94
469.146	403.94
469.365	408.94
469.585	405.94
469.804	402.94
470.023	414.94
470.243	413.94
470.462	420.94
470.681	452.94
470.901	422.94
471.12	396.94
471.339	425.94
471.558	425.94
471.777	418.94
471.997	406.94
472.216	418.94
472.435	436.94
472.654	425.94
472.873	433.94
473.092	419.94
473.311	412.94
473.53	404.94
473.749	398.94
473.968	450.94
474.187	506.94
474.406	536.94
474.625	470.94
474.844	426.94
475.063	427.94
475.282	452.94
475.501	436.94
475.72	422.94
475.939	425.94
476.158	428.94
476.377	426.94
476.596	432.94
476.814	430.94
477.033	429.94
477.252	438.94
477.471	432.94
477.69	432.94
477.908	456.94
478.127	462.94
478.346	456.94
478.564	443.94
478.783	458.94
479.002	472.94
479.22	466.94
479.439	486.94
479.658	497.94
479.876	517.94
480.095	506.94
480.313	534.94
480.532	507.94
480.751	518.94
480.969	491.94
481.188	545.94
481.406	519.94
481.624	516.94
481.843	488.94
482.061	489.94
482.28	500.94
482.498	473.94
482.717	481.94
482.935	455.94
483.153	457.94
483.372	467.94
483.59	488.94
483.808	492.94
484.027	458.94
484.245	486.94
484.463	488.94
484.681	490.94
484.9	466.94
485.118	494.94
485.336	461.94
485.554	476.94
485.772	498.94
485.99	477.94
486.209	495.94
486.427	499.94
486.645	507.94
486.863	502.94
487.081	516.94
487.299	505.94
487.517	503.94
487.735	481.94
487.953	485.94
488.171	489.94
488.389	512.94
488.607	500.94
488.825	495.94
489.043	515.94
489.261	504.94
489.479	527.94
489.696	506.94
489.914	504.94
490.132	542.94
490.35	543.94
490.568	525.94
490.786	532.94
491.003	527.94
491.221	558.94
491.439	551.94
491.657	540.94
491.874	551.94
492.092	553.94
492.31	559.94
492.527	573.94
492.745	588.94
492.963	569.94
493.18	560.94
493.398	542.94
493.615	569.94
493.833	569.94
494.05	564.94
494.268	582.94
494.485	590.94
494.703	559.94
494.92	581.94
495.138	585.94
495.355	602.94
495.573	613.94
495.79	608.94
496.008	579.94
496.225	591.94
496.442	590.94
496.66	613.94
496.877	608.94
497.094	612.94
497.312	594.94
497.529	609.94
497.746	618.94
497.963	629.94
498.181	666.94
498.398	683.94
498.615	674.94
498.832	712.94
499.049	684.94
499.267	748.94
499.484	730.94
499.701	794.94
499.918	832.94
500.135	881.94
500.352	908.94
500.569	958.94
500.786	959.94
501.003	912.94
501.22	874.94
501.437	848.94
501.654	824.94
501.871	804.94
502.088	758.94
