Data from 1977.PennyLincolnUp.Lamp.En5.5.200Scan.071719.P1_HRD10591_16-05-40-864.txt Node
Date: Thu Jul 18 16:05:40 EDT 2019
User: cochatt
Spectrometer: HR+D1059
Trigger mode: 1
Integration Time (sec): 1.000000E-1
Scans to average: 1
Electric dark correction enabled: true
Nonlinearity correction enabled: false
Boxcar width: 0
XAxis mode: Wavelengths
Number of Pixels in Spectrum: 2048
>>>>>Begin Spectral Data<<<<<
223.165	-17.56
223.4	-17.56
223.635	-17.56
223.869	-12.56
224.104	-25.56
224.338	-17.56
224.573	-18.56
224.808	-11.56
225.042	-16.56
225.277	-3.56
225.511	1.44
225.746	-2.56
225.98	29.44
226.215	20.44
226.449	27.44
226.683	2.44
226.918	25.44
227.152	19.44
227.387	34.44
227.621	35.44
227.856	45.44
228.09	57.44
228.324	48.44
228.559	70.44
228.793	71.44
229.027	86.44
229.262	94.44
229.496	110.44
229.73	131.44
229.964	129.44
230.199	127.44
230.433	98.44
230.667	117.44
230.901	110.44
231.136	108.44
231.37	105.44
231.604	96.44
231.838	120.44
232.072	114.44
232.306	107.44
232.541	117.44
232.775	119.44
233.009	109.44
233.243	111.44
233.477	126.44
233.711	114.44
233.945	105.44
234.179	116.44
234.413	103.44
234.647	99.44
234.881	109.44
235.115	115.44
235.349	100.44
235.583	137.44
235.817	107.44
236.051	130.44
236.285	122.44
236.519	109.44
236.753	97.44
236.987	139.44
237.221	148.44
237.455	206.44
237.689	153.44
237.922	140.44
238.156	129.44
238.39	119.44
238.624	126.44
238.858	112.44
239.091	116.44
239.325	113.44
239.559	123.44
239.793	122.44
240.027	132.44
240.26	127.44
240.494	154.44
240.728	145.44
240.961	132.44
241.195	131.44
241.429	128.44
241.662	114.44
241.896	114.44
242.13	121.44
242.363	126.44
242.597	117.44
242.83	150.44
243.064	118.44
243.298	133.44
243.531	148.44
243.765	147.44
243.998	152.44
244.232	131.44
244.465	140.44
244.699	125.44
244.932	156.44
245.166	156.44
245.399	153.44
245.633	140.44
245.866	142.44
246.099	136.44
246.333	140.44
246.566	141.44
246.8	154.44
247.033	161.44
247.266	155.44
247.5	151.44
247.733	142.44
247.966	161.44
248.2	167.44
248.433	160.44
248.666	166.44
248.899	183.44
249.133	188.44
249.366	197.44
249.599	176.44
249.832	161.44
250.066	170.44
250.299	165.44
250.532	170.44
250.765	180.44
250.998	180.44
251.231	202.44
251.465	183.44
251.698	183.44
251.931	190.44
252.164	187.44
252.397	185.44
252.63	194.44
252.863	188.44
253.096	210.44
253.329	212.44
253.562	194.44
253.795	200.44
254.028	208.44
254.261	203.44
254.494	215.44
254.727	229.44
254.96	244.44
255.193	235.44
255.426	209.44
255.659	211.44
255.892	220.44
256.124	211.44
256.357	221.44
256.59	222.44
256.823	218.44
257.056	200.44
257.289	193.44
257.521	193.44
257.754	200.44
257.987	205.44
258.22	200.44
258.452	197.44
258.685	198.44
258.918	197.44
259.151	187.44
259.383	216.44
259.616	206.44
259.849	219.44
260.081	228.44
260.314	241.44
260.547	225.44
260.779	235.44
261.012	221.44
261.244	222.44
261.477	218.44
261.71	203.44
261.942	196.44
262.175	229.44
262.407	211.44
262.64	203.44
262.872	215.44
263.105	215.44
263.337	207.44
263.57	209.44
263.802	206.44
264.035	208.44
264.267	216.44
264.499	194.44
264.732	208.44
264.964	216.44
265.197	205.44
265.429	216.44
265.661	204.44
265.894	206.44
266.126	196.44
266.358	218.44
266.591	204.44
266.823	216.44
267.055	204.44
267.287	210.44
267.52	212.44
267.752	222.44
267.984	229.44
268.216	223.44
268.448	226.44
268.681	228.44
268.913	235.44
269.145	250.44
269.377	268.44
269.609	260.44
269.841	263.44
270.073	245.44
270.306	269.44
270.538	313.44
270.77	310.44
271.002	290.44
271.234	288.44
271.466	270.44
271.698	285.44
271.93	284.44
272.162	284.44
272.394	291.44
272.626	284.44
272.858	296.44
273.09	262.44
273.322	258.44
273.553	257.44
273.785	268.44
274.017	263.44
274.249	282.44
274.481	259.44
274.713	248.44
274.945	251.44
275.176	261.44
275.408	250.44
275.64	269.44
275.872	266.44
276.104	245.44
276.335	265.44
276.567	288.44
276.799	263.44
277.031	276.44
277.262	279.44
277.494	315.44
277.726	312.44
277.957	292.44
278.189	286.44
278.421	263.44
278.652	268.44
278.884	273.44
279.115	280.44
279.347	280.44
279.579	284.44
279.81	277.44
280.042	267.44
280.273	253.44
280.505	266.44
280.736	260.44
280.968	268.44
281.199	265.44
281.431	262.44
281.662	274.44
281.894	277.44
282.125	282.44
282.356	280.44
282.588	302.44
282.819	290.44
283.051	270.44
283.282	288.44
283.513	280.44
283.745	292.44
283.976	281.44
284.207	272.44
284.439	282.44
284.67	286.44
284.901	295.44
285.132	293.44
285.364	277.44
285.595	278.44
285.826	281.44
286.057	269.44
286.288	270.44
286.52	306.44
286.751	273.44
286.982	299.44
287.213	304.44
287.444	296.44
287.675	298.44
287.906	301.44
288.138	308.44
288.369	301.44
288.6	307.44
288.831	326.44
289.062	311.44
289.293	297.44
289.524	286.44
289.755	313.44
289.986	280.44
290.217	300.44
290.448	313.44
290.679	313.44
290.91	284.44
291.141	297.44
291.371	299.44
291.602	296.44
291.833	301.44
292.064	301.44
292.295	301.44
292.526	305.44
292.757	299.44
292.987	292.44
293.218	299.44
293.449	280.44
293.68	293.44
293.91	290.44
294.141	304.44
294.372	285.44
294.603	310.44
294.833	321.44
295.064	299.44
295.295	304.44
295.525	309.44
295.756	317.44
295.987	330.44
296.217	314.44
296.448	336.44
296.679	305.44
296.909	295.44
297.14	308.44
297.37	333.44
297.601	301.44
297.831	323.44
298.062	310.44
298.292	304.44
298.523	306.44
298.753	319.44
298.984	320.44
299.214	326.44
299.445	313.44
299.675	322.44
299.905	323.44
300.136	326.44
300.366	318.44
300.597	308.44
300.827	323.44
301.057	330.44
301.288	325.44
301.518	301.44
301.748	316.44
301.979	348.44
302.209	338.44
302.439	341.44
302.669	329.44
302.9	328.44
303.13	326.44
303.36	325.44
303.59	342.44
303.82	346.44
304.051	347.44
304.281	337.44
304.511	332.44
304.741	325.44
304.971	325.44
305.201	354.44
305.431	345.44
305.661	329.44
305.891	331.44
306.121	345.44
306.352	350.44
306.582	317.44
306.812	320.44
307.042	350.44
307.272	362.44
307.502	330.44
307.731	338.44
307.961	355.44
308.191	337.44
308.421	356.44
308.651	337.44
308.881	341.44
309.111	327.44
309.341	347.44
309.571	342.44
309.8	365.44
310.03	358.44
310.26	374.44
310.49	372.44
310.72	360.44
310.949	348.44
311.179	382.44
311.409	362.44
311.639	358.44
311.868	385.44
312.098	374.44
312.328	377.44
312.557	397.44
312.787	391.44
313.017	393.44
313.246	364.44
313.476	368.44
313.706	384.44
313.935	370.44
314.165	394.44
314.394	404.44
314.624	374.44
314.853	368.44
315.083	362.44
315.312	358.44
315.542	374.44
315.771	394.44
316.001	369.44
316.23	384.44
316.46	362.44
316.689	343.44
316.919	378.44
317.148	394.44
317.377	394.44
317.607	379.44
317.836	383.44
318.065	386.44
318.295	383.44
318.524	385.44
318.753	386.44
318.983	381.44
319.212	396.44
319.441	374.44
319.67	374.44
319.9	375.44
320.129	380.44
320.358	388.44
320.587	396.44
320.816	384.44
321.046	385.44
321.275	389.44
321.504	388.44
321.733	394.44
321.962	394.44
322.191	410.44
322.42	392.44
322.649	396.44
322.878	410.44
323.108	425.44
323.337	457.44
323.566	440.44
323.795	457.44
324.024	496.44
324.253	590.44
324.482	766.44
324.71	1133.44
324.939	1561.44
325.168	1291.44
325.397	716.44
325.626	537.44
325.855	493.44
326.084	455.44
326.313	457.44
326.542	459.44
326.77	502.44
326.999	564.44
327.228	717.44
327.457	1043.44
327.686	1170.44
327.914	814.44
328.143	577.44
328.372	516.44
328.6	488.44
328.829	500.44
329.058	505.44
329.287	501.44
329.515	488.44
329.744	472.44
329.972	460.44
330.201	475.44
330.43	460.44
330.658	501.44
330.887	508.44
331.115	492.44
331.344	476.44
331.572	470.44
331.801	451.44
332.03	479.44
332.258	456.44
332.486	451.44
332.715	444.44
332.943	456.44
333.172	433.44
333.4	485.44
333.629	465.44
333.857	473.44
334.085	474.44
334.314	448.44
334.542	497.44
334.771	494.44
334.999	489.44
335.227	490.44
335.455	474.44
335.684	438.44
335.912	452.44
336.14	443.44
336.369	437.44
336.597	449.44
336.825	458.44
337.053	437.44
337.281	424.44
337.51	444.44
337.738	429.44
337.966	444.44
338.194	436.44
338.422	438.44
338.65	434.44
338.878	428.44
339.106	418.44
339.334	405.44
339.562	411.44
339.79	407.44
340.018	393.44
340.246	411.44
340.474	425.44
340.702	404.44
340.93	400.44
341.158	407.44
341.386	395.44
341.614	434.44
341.842	424.44
342.07	407.44
342.298	395.44
342.526	422.44
342.754	406.44
342.981	409.44
343.209	417.44
343.437	426.44
343.665	421.44
343.893	441.44
344.12	436.44
344.348	430.44
344.576	439.44
344.804	447.44
345.031	430.44
345.259	424.44
345.487	401.44
345.714	402.44
345.942	402.44
346.17	397.44
346.397	422.44
346.625	417.44
346.853	402.44
347.08	398.44
347.308	394.44
347.535	424.44
347.763	404.44
347.99	413.44
348.218	411.44
348.445	410.44
348.673	410.44
348.9	387.44
349.128	384.44
349.355	375.44
349.583	391.44
349.81	387.44
350.037	399.44
350.265	382.44
350.492	388.44
350.72	391.44
350.947	372.44
351.174	399.44
351.402	388.44
351.629	397.44
351.856	382.44
352.083	422.44
352.311	406.44
352.538	389.44
352.765	416.44
352.992	401.44
353.22	387.44
353.447	396.44
353.674	393.44
353.901	387.44
354.128	403.44
354.355	380.44
354.583	401.44
354.81	376.44
355.037	393.44
355.264	365.44
355.491	362.44
355.718	365.44
355.945	377.44
356.172	368.44
356.399	370.44
356.626	362.44
356.853	374.44
357.08	395.44
357.307	370.44
357.534	358.44
357.761	362.44
357.988	372.44
358.215	384.44
358.441	370.44
358.668	371.44
358.895	380.44
359.122	382.44
359.349	389.44
359.576	402.44
359.802	405.44
360.029	410.44
360.256	403.44
360.483	397.44
360.709	386.44
360.936	390.44
361.163	377.44
361.39	401.44
361.616	404.44
361.843	382.44
362.07	400.44
362.296	390.44
362.523	382.44
362.749	389.44
362.976	396.44
363.203	381.44
363.429	377.44
363.656	361.44
363.882	363.44
364.109	373.44
364.335	386.44
364.562	377.44
364.788	370.44
365.015	366.44
365.241	388.44
365.468	348.44
365.694	386.44
365.92	361.44
366.147	364.44
366.373	366.44
366.599	373.44
366.826	356.44
367.052	341.44
367.278	372.44
367.505	369.44
367.731	381.44
367.957	377.44
368.184	387.44
368.41	384.44
368.636	356.44
368.862	384.44
369.089	388.44
369.315	361.44
369.541	370.44
369.767	378.44
369.993	360.44
370.219	390.44
370.445	376.44
370.672	385.44
370.898	366.44
371.124	386.44
371.35	382.44
371.576	381.44
371.802	374.44
372.028	376.44
372.254	401.44
372.48	384.44
372.706	388.44
372.932	369.44
373.158	364.44
373.384	390.44
373.61	377.44
373.835	386.44
374.061	386.44
374.287	388.44
374.513	389.44
374.739	385.44
374.965	398.44
375.191	395.44
375.416	392.44
375.642	378.44
375.868	404.44
376.094	364.44
376.319	380.44
376.545	365.44
376.771	366.44
376.997	382.44
377.222	384.44
377.448	368.44
377.674	393.44
377.899	380.44
378.125	370.44
378.35	363.44
378.576	369.44
378.802	346.44
379.027	385.44
379.253	390.44
379.478	351.44
379.704	379.44
379.929	385.44
380.155	381.44
380.38	357.44
380.606	376.44
380.831	390.44
381.057	398.44
381.282	387.44
381.507	363.44
381.733	375.44
381.958	364.44
382.184	398.44
382.409	390.44
382.634	386.44
382.86	381.44
383.085	385.44
383.31	382.44
383.535	401.44
383.761	385.44
383.986	394.44
384.211	392.44
384.436	404.44
384.662	394.44
384.887	419.44
385.112	404.44
385.337	420.44
385.562	411.44
385.787	410.44
386.013	414.44
386.238	444.44
386.463	438.44
386.688	392.44
386.913	392.44
387.138	412.44
387.363	440.44
387.588	410.44
387.813	406.44
388.038	404.44
388.263	418.44
388.488	402.44
388.713	416.44
388.938	402.44
389.163	410.44
389.387	421.44
389.612	382.44
389.837	406.44
390.062	405.44
390.287	413.44
390.512	383.44
390.736	400.44
390.961	416.44
391.186	406.44
391.411	430.44
391.636	411.44
391.86	413.44
392.085	423.44
392.31	422.44
392.534	438.44
392.759	436.44
392.984	424.44
393.208	388.44
393.433	427.44
393.658	381.44
393.882	416.44
394.107	406.44
394.331	410.44
394.556	384.44
394.78	419.44
395.005	422.44
395.229	432.44
395.454	432.44
395.678	437.44
395.903	451.44
396.127	438.44
396.352	458.44
396.576	416.44
396.801	393.44
397.025	443.44
397.249	464.44
397.474	441.44
397.698	427.44
397.922	444.44
398.147	444.44
398.371	457.44
398.595	457.44
398.82	458.44
399.044	489.44
399.268	517.44
399.492	544.44
399.717	545.44
399.941	577.44
400.165	595.44
400.389	566.44
400.613	521.44
400.837	503.44
401.062	491.44
401.286	496.44
401.51	452.44
401.734	457.44
401.958	458.44
402.182	461.44
402.406	500.44
402.63	480.44
402.854	449.44
403.078	478.44
403.302	475.44
403.526	507.44
403.75	491.44
403.974	485.44
404.198	480.44
404.422	501.44
404.645	500.44
404.869	490.44
405.093	480.44
405.317	554.44
405.541	596.44
405.765	520.44
405.988	515.44
406.212	513.44
406.436	519.44
406.66	521.44
406.883	505.44
407.107	537.44
407.331	577.44
407.555	598.44
407.778	613.44
408.002	563.44
408.226	561.44
408.449	530.44
408.673	525.44
408.896	548.44
409.12	589.44
409.344	530.44
409.567	486.44
409.791	496.44
410.014	469.44
410.238	480.44
410.461	462.44
410.685	475.44
410.908	480.44
411.132	514.44
411.355	544.44
411.578	514.44
411.802	507.44
412.025	484.44
412.249	468.44
412.472	496.44
412.695	527.44
412.919	531.44
413.142	483.44
413.365	473.44
413.589	467.44
413.812	442.44
414.035	451.44
414.258	477.44
414.482	443.44
414.705	462.44
414.928	465.44
415.151	450.44
415.374	460.44
415.597	438.44
415.821	445.44
416.044	448.44
416.267	449.44
416.49	455.44
416.713	431.44
416.936	450.44
417.159	448.44
417.382	439.44
417.605	442.44
417.828	457.44
418.051	456.44
418.274	469.44
418.497	444.44
418.72	463.44
418.943	448.44
419.166	461.44
419.389	479.44
419.611	493.44
419.834	475.44
420.057	476.44
420.28	487.44
420.503	460.44
420.726	464.44
420.948	472.44
421.171	504.44
421.394	514.44
421.617	498.44
421.839	466.44
422.062	457.44
422.285	478.44
422.507	522.44
422.73	570.44
422.953	566.44
423.175	506.44
423.398	483.44
423.621	469.44
423.843	489.44
424.066	493.44
424.288	488.44
424.511	490.44
424.733	530.44
424.956	585.44
425.178	578.44
425.401	555.44
425.623	605.44
425.846	492.44
426.068	485.44
426.291	472.44
426.513	490.44
426.735	490.44
426.958	514.44
427.18	580.44
427.402	709.44
427.625	752.44
427.847	621.44
428.069	538.44
428.292	530.44
428.514	493.44
428.736	448.44
428.958	463.44
429.181	458.44
429.403	437.44
429.625	453.44
429.847	482.44
430.069	512.44
430.292	512.44
430.514	462.44
430.736	446.44
430.958	429.44
431.18	435.44
431.402	444.44
431.624	422.44
431.846	442.44
432.068	426.44
432.29	441.44
432.512	416.44
432.734	430.44
432.956	422.44
433.178	443.44
433.4	437.44
433.622	439.44
433.844	419.44
434.066	410.44
434.287	412.44
434.509	440.44
434.731	456.44
434.953	463.44
435.175	441.44
435.397	474.44
435.618	481.44
435.84	490.44
436.062	576.44
436.284	636.44
436.505	519.44
436.727	486.44
436.949	457.44
437.17	449.44
437.392	453.44
437.614	441.44
437.835	452.44
438.057	540.44
438.278	595.44
438.5	612.44
438.721	671.44
438.943	649.44
439.165	532.44
439.386	491.44
439.608	458.44
439.829	480.44
440.05	488.44
440.272	492.44
440.493	494.44
440.715	460.44
440.936	467.44
441.158	456.44
441.379	454.44
441.6	456.44
441.822	481.44
442.043	502.44
442.264	553.44
442.486	600.44
442.707	522.44
442.928	486.44
443.149	519.44
443.371	504.44
443.592	557.44
443.813	616.44
444.034	664.44
444.255	531.44
444.476	501.44
444.698	516.44
444.919	485.44
445.14	572.44
445.361	538.44
445.582	510.44
445.803	571.44
446.024	631.44
446.245	663.44
446.466	580.44
446.687	489.44
446.908	458.44
447.129	454.44
447.35	449.44
447.571	448.44
447.792	426.44
448.013	432.44
448.234	440.44
448.455	484.44
448.675	579.44
448.896	650.44
449.117	560.44
449.338	538.44
449.559	602.44
449.779	668.44
450	552.44
450.221	462.44
450.442	445.44
450.662	419.44
450.883	415.44
451.104	415.44
451.324	416.44
451.545	407.44
451.766	396.44
451.986	394.44
452.207	410.44
452.428	376.44
452.648	379.44
452.869	406.44
453.089	389.44
453.31	407.44
453.53	398.44
453.751	408.44
453.971	371.44
454.192	394.44
454.412	400.44
454.633	391.44
454.853	386.44
455.073	382.44
455.294	408.44
455.514	459.44
455.734	425.44
455.955	384.44
456.175	362.44
456.395	381.44
456.616	360.44
456.836	381.44
457.056	380.44
457.276	381.44
457.497	378.44
457.717	388.44
457.937	376.44
458.157	393.44
458.377	386.44
458.598	405.44
458.818	450.44
459.038	476.44
459.258	496.44
459.478	465.44
459.698	446.44
459.918	418.44
460.138	430.44
460.358	428.44
460.578	440.44
460.798	429.44
461.018	448.44
461.238	460.44
461.458	466.44
461.678	434.44
461.898	426.44
462.118	443.44
462.338	438.44
462.558	462.44
462.777	461.44
462.997	487.44
463.217	500.44
463.437	489.44
463.657	491.44
463.876	477.44
464.096	483.44
464.316	478.44
464.536	480.44
464.755	479.44
464.975	482.44
465.195	483.44
465.414	508.44
465.634	453.44
465.854	421.44
466.073	443.44
466.293	425.44
466.512	404.44
466.732	412.44
466.951	431.44
467.171	396.44
467.391	411.44
467.61	428.44
467.829	442.44
468.049	398.44
468.268	413.44
468.488	412.44
468.707	408.44
468.927	412.44
469.146	400.44
469.365	419.44
469.585	416.44
469.804	411.44
470.023	410.44
470.243	408.44
470.462	421.44
470.681	425.44
470.901	422.44
471.12	406.44
471.339	407.44
471.558	422.44
471.777	416.44
471.997	403.44
472.216	405.44
472.435	421.44
472.654	405.44
472.873	415.44
473.092	402.44
473.311	409.44
473.53	396.44
473.749	396.44
473.968	419.44
474.187	506.44
474.406	535.44
474.625	462.44
474.844	426.44
475.063	401.44
475.282	394.44
475.501	415.44
475.72	423.44
475.939	435.44
476.158	412.44
476.377	408.44
476.596	411.44
476.814	420.44
477.033	444.44
477.252	417.44
477.471	427.44
477.69	443.44
477.908	441.44
478.127	444.44
478.346	450.44
478.564	451.44
478.783	462.44
479.002	456.44
479.22	475.44
479.439	454.44
479.658	454.44
479.876	493.44
480.095	484.44
480.313	496.44
480.532	506.44
480.751	488.44
480.969	499.44
481.188	522.44
481.406	546.44
481.624	512.44
481.843	473.44
482.061	452.44
482.28	466.44
482.498	475.44
482.717	450.44
482.935	472.44
483.153	456.44
483.372	492.44
483.59	478.44
483.808	492.44
484.027	471.44
484.245	473.44
484.463	469.44
484.681	483.44
484.9	472.44
485.118	482.44
485.336	461.44
485.554	476.44
485.772	493.44
485.99	484.44
486.209	496.44
486.427	495.44
486.645	478.44
486.863	476.44
487.081	500.44
487.299	506.44
487.517	493.44
487.735	494.44
487.953	489.44
488.171	474.44
488.389	488.44
488.607	483.44
488.825	474.44
489.043	480.44
489.261	514.44
489.479	493.44
489.696	504.44
489.914	515.44
490.132	492.44
490.35	520.44
490.568	508.44
490.786	514.44
491.003	515.44
491.221	540.44
491.439	542.44
491.657	533.44
491.874	535.44
492.092	531.44
492.31	549.44
492.527	551.44
492.745	555.44
492.963	563.44
493.18	554.44
493.398	586.44
493.615	576.44
493.833	556.44
494.05	551.44
494.268	566.44
494.485	564.44
494.703	554.44
494.92	570.44
495.138	583.44
495.355	569.44
495.573	572.44
495.79	578.44
496.008	582.44
496.225	572.44
496.442	549.44
496.66	604.44
496.877	582.44
497.094	581.44
497.312	609.44
497.529	612.44
497.746	617.44
497.963	621.44
498.181	634.44
498.398	637.44
498.615	657.44
498.832	713.44
499.049	694.44
499.267	696.44
499.484	744.44
499.701	792.44
499.918	819.44
500.135	856.44
500.352	885.44
500.569	910.44
500.786	926.44
501.003	912.44
501.22	859.44
501.437	833.44
501.654	784.44
501.871	741.44
502.088	750.44
