Data from 1977.PennyLincolnUp.Lamp.En5.5.200Scan.071719.P1_HRD10591_16-07-28-864.txt Node
Date: Thu Jul 18 16:07:28 EDT 2019
User: cochatt
Spectrometer: HR+D1059
Trigger mode: 1
Integration Time (sec): 1.000000E-1
Scans to average: 1
Electric dark correction enabled: true
Nonlinearity correction enabled: false
Boxcar width: 0
XAxis mode: Wavelengths
Number of Pixels in Spectrum: 2048
>>>>>Begin Spectral Data<<<<<
223.165	-24.69
223.4	-24.69
223.635	-24.69
223.869	-31.69
224.104	1.31
224.338	-10.69
224.573	-13.69
224.808	-15.69
225.042	1.31
225.277	4.31
225.511	-6.69
225.746	-0.69
225.98	0.31
226.215	12.31
226.449	3.31
226.683	21.31
226.918	39.31
227.152	20.31
227.387	37.31
227.621	45.31
227.856	38.31
228.09	35.31
228.324	43.31
228.559	44.31
228.793	54.31
229.027	82.31
229.262	105.31
229.496	115.31
229.73	113.31
229.964	124.31
230.199	121.31
230.433	109.31
230.667	107.31
230.901	98.31
231.136	104.31
231.37	109.31
231.604	85.31
231.838	104.31
232.072	102.31
232.306	125.31
232.541	113.31
232.775	95.31
233.009	106.31
233.243	107.31
233.477	107.31
233.711	118.31
233.945	101.31
234.179	112.31
234.413	102.31
234.647	115.31
234.881	121.31
235.115	106.31
235.349	126.31
235.583	121.31
235.817	118.31
236.051	117.31
236.285	130.31
236.519	129.31
236.753	118.31
236.987	132.31
237.221	155.31
237.455	198.31
237.689	165.31
237.922	136.31
238.156	142.31
238.39	122.31
238.624	125.31
238.858	115.31
239.091	117.31
239.325	108.31
239.559	117.31
239.793	118.31
240.027	139.31
240.26	149.31
240.494	165.31
240.728	136.31
240.961	123.31
241.195	136.31
241.429	139.31
241.662	132.31
241.896	122.31
242.13	125.31
242.363	121.31
242.597	134.31
242.83	142.31
243.064	145.31
243.298	141.31
243.531	139.31
243.765	153.31
243.998	155.31
244.232	125.31
244.465	129.31
244.699	139.31
244.932	135.31
245.166	152.31
245.399	146.31
245.633	149.31
245.866	127.31
246.099	145.31
246.333	147.31
246.566	141.31
246.8	137.31
247.033	146.31
247.266	167.31
247.5	166.31
247.733	151.31
247.966	154.31
248.2	175.31
248.433	181.31
248.666	162.31
248.899	180.31
249.133	192.31
249.366	206.31
249.599	179.31
249.832	190.31
250.066	164.31
250.299	171.31
250.532	183.31
250.765	190.31
250.998	200.31
251.231	217.31
251.465	202.31
251.698	194.31
251.931	181.31
252.164	183.31
252.397	195.31
252.63	174.31
252.863	194.31
253.096	194.31
253.329	215.31
253.562	223.31
253.795	218.31
254.028	194.31
254.261	212.31
254.494	226.31
254.727	241.31
254.96	264.31
255.193	277.31
255.426	231.31
255.659	216.31
255.892	210.31
256.124	197.31
256.357	226.31
256.59	209.31
256.823	214.31
257.056	219.31
257.289	210.31
257.521	210.31
257.754	199.31
257.987	200.31
258.22	219.31
258.452	196.31
258.685	209.31
258.918	198.31
259.151	210.31
259.383	205.31
259.616	215.31
259.849	219.31
260.081	240.31
260.314	254.31
260.547	240.31
260.779	234.31
261.012	230.31
261.244	222.31
261.477	227.31
261.71	234.31
261.942	226.31
262.175	203.31
262.407	225.31
262.64	208.31
262.872	206.31
263.105	209.31
263.337	209.31
263.57	198.31
263.802	214.31
264.035	233.31
264.267	215.31
264.499	225.31
264.732	231.31
264.964	209.31
265.197	199.31
265.429	209.31
265.661	215.31
265.894	207.31
266.126	226.31
266.358	227.31
266.591	226.31
266.823	233.31
267.055	237.31
267.287	222.31
267.52	215.31
267.752	221.31
267.984	239.31
268.216	245.31
268.448	237.31
268.681	247.31
268.913	263.31
269.145	253.31
269.377	274.31
269.609	281.31
269.841	272.31
270.073	273.31
270.306	293.31
270.538	323.31
270.77	312.31
271.002	315.31
271.234	302.31
271.466	286.31
271.698	290.31
271.93	312.31
272.162	327.31
272.394	302.31
272.626	303.31
272.858	283.31
273.09	291.31
273.322	278.31
273.553	285.31
273.785	273.31
274.017	259.31
274.249	272.31
274.481	266.31
274.713	271.31
274.945	293.31
275.176	260.31
275.408	278.31
275.64	274.31
275.872	261.31
276.104	276.31
276.335	259.31
276.567	284.31
276.799	298.31
277.031	290.31
277.262	309.31
277.494	321.31
277.726	306.31
277.957	288.31
278.189	273.31
278.421	275.31
278.652	279.31
278.884	283.31
279.115	285.31
279.347	288.31
279.579	275.31
279.81	281.31
280.042	254.31
280.273	274.31
280.505	279.31
280.736	264.31
280.968	276.31
281.199	285.31
281.431	285.31
281.662	295.31
281.894	294.31
282.125	289.31
282.356	298.31
282.588	309.31
282.819	317.31
283.051	293.31
283.282	279.31
283.513	265.31
283.745	293.31
283.976	313.31
284.207	287.31
284.439	292.31
284.67	293.31
284.901	291.31
285.132	290.31
285.364	298.31
285.595	301.31
285.826	277.31
286.057	294.31
286.288	309.31
286.52	283.31
286.751	307.31
286.982	307.31
287.213	301.31
287.444	278.31
287.675	303.31
287.906	313.31
288.138	305.31
288.369	325.31
288.6	325.31
288.831	317.31
289.062	305.31
289.293	326.31
289.524	315.31
289.755	314.31
289.986	302.31
290.217	305.31
290.448	295.31
290.679	309.31
290.91	300.31
291.141	291.31
291.371	291.31
291.602	297.31
291.833	315.31
292.064	310.31
292.295	319.31
292.526	291.31
292.757	315.31
292.987	300.31
293.218	296.31
293.449	320.31
293.68	320.31
293.91	314.31
294.141	321.31
294.372	316.31
294.603	320.31
294.833	303.31
295.064	309.31
295.295	318.31
295.525	317.31
295.756	320.31
295.987	310.31
296.217	345.31
296.448	342.31
296.679	338.31
296.909	302.31
297.14	330.31
297.37	330.31
297.601	322.31
297.831	311.31
298.062	335.31
298.292	318.31
298.523	333.31
298.753	321.31
298.984	297.31
299.214	314.31
299.445	314.31
299.675	316.31
299.905	352.31
300.136	339.31
300.366	307.31
300.597	324.31
300.827	339.31
301.057	334.31
301.288	338.31
301.518	342.31
301.748	340.31
301.979	345.31
302.209	360.31
302.439	344.31
302.669	345.31
302.9	341.31
303.13	346.31
303.36	340.31
303.59	359.31
303.82	353.31
304.051	343.31
304.281	368.31
304.511	331.31
304.741	341.31
304.971	349.31
305.201	347.31
305.431	347.31
305.661	342.31
305.891	351.31
306.121	336.31
306.352	343.31
306.582	355.31
306.812	376.31
307.042	354.31
307.272	344.31
307.502	346.31
307.731	332.31
307.961	351.31
308.191	346.31
308.421	350.31
308.651	355.31
308.881	366.31
309.111	345.31
309.341	369.31
309.571	367.31
309.8	385.31
310.03	365.31
310.26	365.31
310.49	378.31
310.72	379.31
310.949	407.31
311.179	413.31
311.409	370.31
311.639	385.31
311.868	372.31
312.098	386.31
312.328	378.31
312.557	394.31
312.787	406.31
313.017	394.31
313.246	391.31
313.476	385.31
313.706	404.31
313.935	391.31
314.165	393.31
314.394	401.31
314.624	383.31
314.853	396.31
315.083	404.31
315.312	390.31
315.542	391.31
315.771	379.31
316.001	393.31
316.23	379.31
316.46	380.31
316.689	383.31
316.919	400.31
317.148	385.31
317.377	391.31
317.607	390.31
317.836	386.31
318.065	384.31
318.295	381.31
318.524	384.31
318.753	389.31
318.983	401.31
319.212	385.31
319.441	383.31
319.67	403.31
319.9	395.31
320.129	402.31
320.358	405.31
320.587	418.31
320.816	394.31
321.046	413.31
321.275	401.31
321.504	404.31
321.733	429.31
321.962	400.31
322.191	423.31
322.42	441.31
322.649	423.31
322.878	444.31
323.108	466.31
323.337	475.31
323.566	488.31
323.795	505.31
324.024	538.31
324.253	639.31
324.482	867.31
324.71	1287.31
324.939	1860.31
325.168	1555.31
325.397	852.31
325.626	628.31
325.855	500.31
326.084	475.31
326.313	480.31
326.542	492.31
326.77	531.31
326.999	605.31
327.228	797.31
327.457	1171.31
327.686	1405.31
327.914	908.31
328.143	620.31
328.372	611.31
328.6	551.31
328.829	530.31
329.058	537.31
329.287	530.31
329.515	518.31
329.744	485.31
329.972	482.31
330.201	504.31
330.43	525.31
330.658	565.31
330.887	546.31
331.115	535.31
331.344	519.31
331.572	499.31
331.801	498.31
332.03	478.31
332.258	479.31
332.486	448.31
332.715	449.31
332.943	478.31
333.172	487.31
333.4	496.31
333.629	466.31
333.857	502.31
334.085	503.31
334.314	530.31
334.542	531.31
334.771	514.31
334.999	500.31
335.227	487.31
335.455	464.31
335.684	465.31
335.912	473.31
336.14	470.31
336.369	467.31
336.597	448.31
336.825	463.31
337.053	459.31
337.281	448.31
337.51	435.31
337.738	444.31
337.966	433.31
338.194	448.31
338.422	446.31
338.65	443.31
338.878	463.31
339.106	446.31
339.334	426.31
339.562	440.31
339.79	437.31
340.018	433.31
340.246	442.31
340.474	442.31
340.702	430.31
340.93	454.31
341.158	427.31
341.386	448.31
341.614	433.31
341.842	440.31
342.07	420.31
342.298	410.31
342.526	414.31
342.754	411.31
342.981	422.31
343.209	426.31
343.437	441.31
343.665	436.31
343.893	472.31
344.12	448.31
344.348	445.31
344.576	454.31
344.804	446.31
345.031	454.31
345.259	448.31
345.487	445.31
345.714	435.31
345.942	419.31
346.17	421.31
346.397	426.31
346.625	401.31
346.853	407.31
347.08	400.31
347.308	407.31
347.535	422.31
347.763	439.31
347.99	433.31
348.218	411.31
348.445	433.31
348.673	432.31
348.9	410.31
349.128	409.31
349.355	407.31
349.583	394.31
349.81	414.31
350.037	405.31
350.265	401.31
350.492	398.31
350.72	388.31
350.947	400.31
351.174	422.31
351.402	401.31
351.629	426.31
351.856	407.31
352.083	435.31
352.311	431.31
352.538	436.31
352.765	429.31
352.992	411.31
353.22	419.31
353.447	399.31
353.674	415.31
353.901	373.31
354.128	391.31
354.355	393.31
354.583	377.31
354.81	407.31
355.037	396.31
355.264	378.31
355.491	390.31
355.718	383.31
355.945	384.31
356.172	381.31
356.399	371.31
356.626	379.31
356.853	394.31
357.08	384.31
357.307	373.31
357.534	379.31
357.761	390.31
357.988	399.31
358.215	375.31
358.441	361.31
358.668	403.31
358.895	404.31
359.122	376.31
359.349	393.31
359.576	388.31
359.802	414.31
360.029	422.31
360.256	445.31
360.483	419.31
360.709	391.31
360.936	393.31
361.163	401.31
361.39	387.31
361.616	387.31
361.843	404.31
362.07	414.31
362.296	399.31
362.523	385.31
362.749	379.31
362.976	378.31
363.203	388.31
363.429	385.31
363.656	392.31
363.882	398.31
364.109	393.31
364.335	399.31
364.562	389.31
364.788	389.31
365.015	387.31
365.241	405.31
365.468	395.31
365.694	390.31
365.92	399.31
366.147	392.31
366.373	371.31
366.599	387.31
366.826	366.31
367.052	371.31
367.278	377.31
367.505	391.31
367.731	384.31
367.957	388.31
368.184	395.31
368.41	377.31
368.636	389.31
368.862	393.31
369.089	393.31
369.315	394.31
369.541	400.31
369.767	385.31
369.993	394.31
370.219	390.31
370.445	366.31
370.672	374.31
370.898	393.31
371.124	404.31
371.35	377.31
371.576	382.31
371.802	397.31
372.028	390.31
372.254	403.31
372.48	386.31
372.706	392.31
372.932	405.31
373.158	385.31
373.384	400.31
373.61	401.31
373.835	395.31
374.061	384.31
374.287	392.31
374.513	382.31
374.739	383.31
374.965	413.31
375.191	384.31
375.416	391.31
375.642	396.31
375.868	382.31
376.094	406.31
376.319	391.31
376.545	391.31
376.771	361.31
376.997	388.31
377.222	392.31
377.448	378.31
377.674	388.31
377.899	372.31
378.125	370.31
378.35	362.31
378.576	381.31
378.802	379.31
379.027	391.31
379.253	392.31
379.478	385.31
379.704	386.31
379.929	383.31
380.155	389.31
380.38	377.31
380.606	391.31
380.831	372.31
381.057	380.31
381.282	381.31
381.507	375.31
381.733	385.31
381.958	391.31
382.184	393.31
382.409	392.31
382.634	393.31
382.86	395.31
383.085	393.31
383.31	396.31
383.535	409.31
383.761	410.31
383.986	385.31
384.211	403.31
384.436	392.31
384.662	396.31
384.887	415.31
385.112	412.31
385.337	424.31
385.562	420.31
385.787	430.31
386.013	420.31
386.238	417.31
386.463	435.31
386.688	429.31
386.913	402.31
387.138	425.31
387.363	411.31
387.588	412.31
387.813	429.31
388.038	421.31
388.263	444.31
388.488	433.31
388.713	405.31
388.938	416.31
389.163	408.31
389.387	418.31
389.612	425.31
389.837	431.31
390.062	410.31
390.287	391.31
390.512	409.31
390.736	429.31
390.961	405.31
391.186	421.31
391.411	435.31
391.636	410.31
391.86	424.31
392.085	438.31
392.31	438.31
392.534	435.31
392.759	425.31
392.984	443.31
393.208	422.31
393.433	418.31
393.658	425.31
393.882	448.31
394.107	422.31
394.331	423.31
394.556	406.31
394.78	433.31
395.005	438.31
395.229	433.31
395.454	464.31
395.678	425.31
395.903	439.31
396.127	462.31
396.352	478.31
396.576	453.31
396.801	432.31
397.025	418.31
397.249	429.31
397.474	443.31
397.698	445.31
397.922	457.31
398.147	462.31
398.371	477.31
398.595	440.31
398.82	458.31
399.044	477.31
399.268	521.31
399.492	537.31
399.717	577.31
399.941	585.31
400.165	602.31
400.389	602.31
400.613	547.31
400.837	494.31
401.062	485.31
401.286	482.31
401.51	482.31
401.734	478.31
401.958	482.31
402.182	471.31
402.406	486.31
402.63	485.31
402.854	487.31
403.078	470.31
403.302	491.31
403.526	486.31
403.75	477.31
403.974	515.31
404.198	494.31
404.422	516.31
404.645	490.31
404.869	528.31
405.093	537.31
405.317	571.31
405.541	592.31
405.765	563.31
405.988	500.31
406.212	535.31
406.436	533.31
406.66	544.31
406.883	537.31
407.107	557.31
407.331	589.31
407.555	639.31
407.778	647.31
408.002	587.31
408.226	527.31
408.449	564.31
408.673	525.31
408.896	574.31
409.12	599.31
409.344	582.31
409.567	518.31
409.791	537.31
410.014	500.31
410.238	514.31
410.461	496.31
410.685	497.31
410.908	517.31
411.132	521.31
411.355	561.31
411.578	539.31
411.802	516.31
412.025	469.31
412.249	481.31
412.472	518.31
412.695	540.31
412.919	521.31
413.142	493.31
413.365	485.31
413.589	497.31
413.812	463.31
414.035	439.31
414.258	475.31
414.482	466.31
414.705	459.31
414.928	449.31
415.151	473.31
415.374	461.31
415.597	457.31
415.821	479.31
416.044	473.31
416.267	456.31
416.49	463.31
416.713	477.31
416.936	476.31
417.159	463.31
417.382	459.31
417.605	484.31
417.828	464.31
418.051	473.31
418.274	495.31
418.497	443.31
418.72	474.31
418.943	473.31
419.166	480.31
419.389	504.31
419.611	473.31
419.834	495.31
420.057	506.31
420.28	498.31
420.503	475.31
420.726	479.31
420.948	490.31
421.171	532.31
421.394	536.31
421.617	509.31
421.839	475.31
422.062	477.31
422.285	497.31
422.507	545.31
422.73	607.31
422.953	569.31
423.175	515.31
423.398	490.31
423.621	479.31
423.843	504.31
424.066	499.31
424.288	528.31
424.511	524.31
424.733	552.31
424.956	631.31
425.178	631.31
425.401	604.31
425.623	641.31
425.846	541.31
426.068	491.31
426.291	513.31
426.513	522.31
426.735	535.31
426.958	549.31
427.18	599.31
427.402	710.31
427.625	792.31
427.847	645.31
428.069	602.31
428.292	551.31
428.514	509.31
428.736	488.31
428.958	481.31
429.181	475.31
429.403	471.31
429.625	471.31
429.847	476.31
430.069	538.31
430.292	553.31
430.514	498.31
430.736	455.31
430.958	473.31
431.18	449.31
431.402	430.31
431.624	426.31
431.846	429.31
432.068	437.31
432.29	450.31
432.512	459.31
432.734	436.31
432.956	445.31
433.178	424.31
433.4	466.31
433.622	453.31
433.844	447.31
434.066	440.31
434.287	425.31
434.509	455.31
434.731	451.31
434.953	464.31
435.175	477.31
435.397	507.31
435.618	491.31
435.84	531.31
436.062	619.31
436.284	673.31
436.505	551.31
436.727	488.31
436.949	493.31
437.17	479.31
437.392	466.31
437.614	457.31
437.835	498.31
438.057	575.31
438.278	658.31
438.5	665.31
438.721	739.31
438.943	681.31
439.165	561.31
439.386	517.31
439.608	494.31
439.829	495.31
440.05	513.31
440.272	569.31
440.493	543.31
440.715	483.31
440.936	482.31
441.158	470.31
441.379	487.31
441.6	500.31
441.822	494.31
442.043	530.31
442.264	599.31
442.486	622.31
442.707	558.31
442.928	521.31
443.149	510.31
443.371	531.31
443.592	545.31
443.813	659.31
444.034	704.31
444.255	578.31
444.476	533.31
444.698	531.31
444.919	523.31
445.14	618.31
445.361	595.31
445.582	534.31
445.803	580.31
446.024	669.31
446.245	662.31
446.466	600.31
446.687	551.31
446.908	518.31
447.129	463.31
447.35	469.31
447.571	441.31
447.792	455.31
448.013	442.31
448.234	444.31
448.455	514.31
448.675	617.31
448.896	709.31
449.117	592.31
449.338	575.31
449.559	651.31
449.779	746.31
450	610.31
450.221	508.31
450.442	442.31
450.662	445.31
450.883	439.31
451.104	439.31
451.324	447.31
451.545	418.31
451.766	435.31
451.986	414.31
452.207	402.31
452.428	395.31
452.648	420.31
452.869	411.31
453.089	401.31
453.31	421.31
453.53	424.31
453.751	391.31
453.971	410.31
454.192	412.31
454.412	415.31
454.633	392.31
454.853	379.31
455.073	420.31
455.294	408.31
455.514	478.31
455.734	462.31
455.955	410.31
456.175	413.31
456.395	376.31
456.616	392.31
456.836	377.31
457.056	375.31
457.276	393.31
457.497	385.31
457.717	383.31
457.937	393.31
458.157	401.31
458.377	394.31
458.598	409.31
458.818	489.31
459.038	519.31
459.258	533.31
459.478	475.31
459.698	442.31
459.918	447.31
460.138	454.31
460.358	426.31
460.578	460.31
460.798	445.31
461.018	446.31
461.238	439.31
461.458	442.31
461.678	439.31
461.898	436.31
462.118	446.31
462.338	461.31
462.558	453.31
462.777	478.31
462.997	491.31
463.217	489.31
463.437	499.31
463.657	493.31
463.876	501.31
464.096	496.31
464.316	477.31
464.536	481.31
464.755	479.31
464.975	483.31
465.195	503.31
465.414	517.31
465.634	502.31
465.854	462.31
466.073	449.31
466.293	435.31
466.512	415.31
466.732	417.31
466.951	401.31
467.171	413.31
467.391	411.31
467.61	438.31
467.829	425.31
468.049	421.31
468.268	432.31
468.488	393.31
468.707	417.31
468.927	410.31
469.146	394.31
469.365	415.31
469.585	413.31
469.804	420.31
470.023	431.31
470.243	406.31
470.462	418.31
470.681	412.31
470.901	415.31
471.12	420.31
471.339	415.31
471.558	426.31
471.777	412.31
471.997	433.31
472.216	417.31
472.435	425.31
472.654	411.31
472.873	410.31
473.092	403.31
473.311	406.31
473.53	407.31
473.749	426.31
473.968	460.31
474.187	557.31
474.406	551.31
474.625	464.31
474.844	419.31
475.063	442.31
475.282	431.31
475.501	424.31
475.72	425.31
475.939	437.31
476.158	437.31
476.377	438.31
476.596	431.31
476.814	448.31
477.033	429.31
477.252	447.31
477.471	455.31
477.69	450.31
477.908	458.31
478.127	465.31
478.346	468.31
478.564	462.31
478.783	499.31
479.002	484.31
479.22	473.31
479.439	504.31
479.658	493.31
479.876	496.31
480.095	511.31
480.313	539.31
480.532	524.31
480.751	519.31
480.969	533.31
481.188	554.31
481.406	550.31
481.624	527.31
481.843	509.31
482.061	518.31
482.28	488.31
482.498	482.31
482.717	486.31
482.935	493.31
483.153	490.31
483.372	459.31
483.59	494.31
483.808	486.31
484.027	463.31
484.245	483.31
484.463	484.31
484.681	483.31
484.9	483.31
485.118	499.31
485.336	471.31
485.554	481.31
485.772	495.31
485.99	495.31
486.209	492.31
486.427	487.31
486.645	511.31
486.863	537.31
487.081	524.31
487.299	498.31
487.517	502.31
487.735	507.31
487.953	506.31
488.171	522.31
488.389	504.31
488.607	534.31
488.825	516.31
489.043	507.31
489.261	538.31
489.479	519.31
489.696	518.31
489.914	530.31
490.132	527.31
490.35	527.31
490.568	536.31
490.786	567.31
491.003	543.31
491.221	575.31
491.439	567.31
491.657	567.31
491.874	586.31
492.092	582.31
492.31	587.31
492.527	589.31
492.745	604.31
492.963	583.31
493.18	584.31
493.398	594.31
493.615	605.31
493.833	592.31
494.05	601.31
494.268	605.31
494.485	595.31
494.703	570.31
494.92	589.31
495.138	599.31
495.355	615.31
495.573	587.31
495.79	614.31
496.008	592.31
496.225	599.31
496.442	616.31
496.66	623.31
496.877	612.31
497.094	627.31
497.312	637.31
497.529	650.31
497.746	629.31
497.963	649.31
498.181	674.31
498.398	671.31
498.615	685.31
498.832	707.31
499.049	737.31
499.267	761.31
499.484	787.31
499.701	804.31
499.918	847.31
500.135	881.31
500.352	943.31
500.569	959.31
500.786	964.31
501.003	937.31
501.22	899.31
501.437	881.31
501.654	789.31
501.871	804.31
502.088	773.31
