Data from 1977.PennyLincolnUp.Lamp.En5.5.200Scan.071719.P1_HRD10591_16-07-00-864.txt Node
Date: Thu Jul 18 16:07:00 EDT 2019
User: cochatt
Spectrometer: HR+D1059
Trigger mode: 1
Integration Time (sec): 1.000000E-1
Scans to average: 1
Electric dark correction enabled: true
Nonlinearity correction enabled: false
Boxcar width: 0
XAxis mode: Wavelengths
Number of Pixels in Spectrum: 2048
>>>>>Begin Spectral Data<<<<<
223.165	-9.56
223.4	-9.56
223.635	-9.56
223.869	-17.56
224.104	-30.56
224.338	-7.56
224.573	-11.56
224.808	-15.56
225.042	-7.56
225.277	-8.56
225.511	0.44
225.746	2.44
225.98	3.44
226.215	11.44
226.449	17.44
226.683	9.44
226.918	31.44
227.152	32.44
227.387	37.44
227.621	42.44
227.856	32.44
228.09	49.44
228.324	47.44
228.559	56.44
228.793	83.44
229.027	97.44
229.262	101.44
229.496	102.44
229.73	117.44
229.964	120.44
230.199	103.44
230.433	105.44
230.667	112.44
230.901	103.44
231.136	108.44
231.37	100.44
231.604	109.44
231.838	128.44
232.072	106.44
232.306	119.44
232.541	118.44
232.775	101.44
233.009	117.44
233.243	98.44
233.477	108.44
233.711	128.44
233.945	124.44
234.179	132.44
234.413	129.44
234.647	124.44
234.881	123.44
235.115	117.44
235.349	117.44
235.583	119.44
235.817	117.44
236.051	114.44
236.285	123.44
236.519	130.44
236.753	137.44
236.987	139.44
237.221	156.44
237.455	190.44
237.689	164.44
237.922	152.44
238.156	154.44
238.39	136.44
238.624	125.44
238.858	134.44
239.091	112.44
239.325	138.44
239.559	127.44
239.793	136.44
240.027	132.44
240.26	129.44
240.494	136.44
240.728	142.44
240.961	150.44
241.195	152.44
241.429	144.44
241.662	140.44
241.896	114.44
242.13	132.44
242.363	133.44
242.597	145.44
242.83	126.44
243.064	138.44
243.298	154.44
243.531	137.44
243.765	158.44
243.998	145.44
244.232	132.44
244.465	153.44
244.699	143.44
244.932	146.44
245.166	144.44
245.399	156.44
245.633	141.44
245.866	149.44
246.099	154.44
246.333	153.44
246.566	154.44
246.8	145.44
247.033	150.44
247.266	158.44
247.5	160.44
247.733	158.44
247.966	155.44
248.2	165.44
248.433	181.44
248.666	180.44
248.899	178.44
249.133	185.44
249.366	203.44
249.599	193.44
249.832	193.44
250.066	180.44
250.299	171.44
250.532	176.44
250.765	172.44
250.998	200.44
251.231	223.44
251.465	200.44
251.698	209.44
251.931	202.44
252.164	210.44
252.397	204.44
252.63	203.44
252.863	209.44
253.096	228.44
253.329	219.44
253.562	208.44
253.795	197.44
254.028	210.44
254.261	207.44
254.494	221.44
254.727	252.44
254.96	259.44
255.193	247.44
255.426	236.44
255.659	205.44
255.892	231.44
256.124	214.44
256.357	224.44
256.59	216.44
256.823	202.44
257.056	213.44
257.289	202.44
257.521	205.44
257.754	214.44
257.987	211.44
258.22	216.44
258.452	235.44
258.685	209.44
258.918	215.44
259.151	209.44
259.383	192.44
259.616	215.44
259.849	227.44
260.081	217.44
260.314	255.44
260.547	259.44
260.779	232.44
261.012	239.44
261.244	248.44
261.477	232.44
261.71	209.44
261.942	218.44
262.175	221.44
262.407	213.44
262.64	220.44
262.872	207.44
263.105	223.44
263.337	236.44
263.57	233.44
263.802	227.44
264.035	218.44
264.267	221.44
264.499	214.44
264.732	225.44
264.964	199.44
265.197	222.44
265.429	232.44
265.661	232.44
265.894	228.44
266.126	223.44
266.358	225.44
266.591	229.44
266.823	231.44
267.055	224.44
267.287	238.44
267.52	239.44
267.752	231.44
267.984	231.44
268.216	238.44
268.448	239.44
268.681	246.44
268.913	245.44
269.145	275.44
269.377	278.44
269.609	261.44
269.841	258.44
270.073	270.44
270.306	295.44
270.538	302.44
270.77	308.44
271.002	289.44
271.234	287.44
271.466	286.44
271.698	317.44
271.93	330.44
272.162	306.44
272.394	290.44
272.626	299.44
272.858	280.44
273.09	278.44
273.322	263.44
273.553	271.44
273.785	267.44
274.017	280.44
274.249	276.44
274.481	276.44
274.713	264.44
274.945	297.44
275.176	262.44
275.408	282.44
275.64	276.44
275.872	281.44
276.104	273.44
276.335	280.44
276.567	295.44
276.799	286.44
277.031	292.44
277.262	302.44
277.494	310.44
277.726	301.44
277.957	284.44
278.189	290.44
278.421	266.44
278.652	280.44
278.884	284.44
279.115	292.44
279.347	288.44
279.579	263.44
279.81	282.44
280.042	273.44
280.273	281.44
280.505	276.44
280.736	287.44
280.968	238.44
281.199	272.44
281.431	280.44
281.662	268.44
281.894	284.44
282.125	298.44
282.356	305.44
282.588	317.44
282.819	316.44
283.051	294.44
283.282	308.44
283.513	298.44
283.745	289.44
283.976	303.44
284.207	299.44
284.439	292.44
284.67	319.44
284.901	301.44
285.132	296.44
285.364	299.44
285.595	292.44
285.826	284.44
286.057	300.44
286.288	287.44
286.52	281.44
286.751	289.44
286.982	288.44
287.213	284.44
287.444	296.44
287.675	305.44
287.906	288.44
288.138	301.44
288.369	304.44
288.6	309.44
288.831	310.44
289.062	337.44
289.293	329.44
289.524	298.44
289.755	319.44
289.986	299.44
290.217	318.44
290.448	288.44
290.679	304.44
290.91	285.44
291.141	310.44
291.371	303.44
291.602	314.44
291.833	301.44
292.064	316.44
292.295	297.44
292.526	297.44
292.757	318.44
292.987	303.44
293.218	314.44
293.449	322.44
293.68	309.44
293.91	324.44
294.141	319.44
294.372	312.44
294.603	303.44
294.833	312.44
295.064	313.44
295.295	314.44
295.525	321.44
295.756	325.44
295.987	341.44
296.217	314.44
296.448	360.44
296.679	330.44
296.909	316.44
297.14	316.44
297.37	322.44
297.601	333.44
297.831	313.44
298.062	311.44
298.292	317.44
298.523	318.44
298.753	324.44
298.984	339.44
299.214	332.44
299.445	337.44
299.675	330.44
299.905	332.44
300.136	340.44
300.366	325.44
300.597	341.44
300.827	340.44
301.057	336.44
301.288	344.44
301.518	338.44
301.748	353.44
301.979	351.44
302.209	356.44
302.439	376.44
302.669	337.44
302.9	361.44
303.13	353.44
303.36	354.44
303.59	361.44
303.82	351.44
304.051	355.44
304.281	347.44
304.511	341.44
304.741	332.44
304.971	350.44
305.201	359.44
305.431	337.44
305.661	334.44
305.891	333.44
306.121	343.44
306.352	348.44
306.582	381.44
306.812	337.44
307.042	344.44
307.272	337.44
307.502	362.44
307.731	342.44
307.961	360.44
308.191	365.44
308.421	358.44
308.651	352.44
308.881	367.44
309.111	365.44
309.341	360.44
309.571	369.44
309.8	377.44
310.03	374.44
310.26	381.44
310.49	376.44
310.72	380.44
310.949	384.44
311.179	395.44
311.409	400.44
311.639	382.44
311.868	374.44
312.098	380.44
312.328	407.44
312.557	397.44
312.787	401.44
313.017	413.44
313.246	392.44
313.476	394.44
313.706	383.44
313.935	373.44
314.165	400.44
314.394	398.44
314.624	401.44
314.853	410.44
315.083	409.44
315.312	412.44
315.542	400.44
315.771	400.44
316.001	398.44
316.23	418.44
316.46	402.44
316.689	409.44
316.919	390.44
317.148	384.44
317.377	396.44
317.607	387.44
317.836	390.44
318.065	397.44
318.295	398.44
318.524	383.44
318.753	371.44
318.983	392.44
319.212	415.44
319.441	390.44
319.67	390.44
319.9	397.44
320.129	374.44
320.358	387.44
320.587	406.44
320.816	420.44
321.046	408.44
321.275	396.44
321.504	398.44
321.733	421.44
321.962	424.44
322.191	436.44
322.42	432.44
322.649	423.44
322.878	444.44
323.108	463.44
323.337	478.44
323.566	469.44
323.795	504.44
324.024	521.44
324.253	635.44
324.482	836.44
324.71	1238.44
324.939	1694.44
325.168	1464.44
325.397	808.44
325.626	584.44
325.855	534.44
326.084	493.44
326.313	470.44
326.542	494.44
326.77	538.44
326.999	595.44
327.228	764.44
327.457	1115.44
327.686	1274.44
327.914	900.44
328.143	643.44
328.372	556.44
328.6	528.44
328.829	518.44
329.058	508.44
329.287	552.44
329.515	520.44
329.744	477.44
329.972	470.44
330.201	504.44
330.43	520.44
330.658	539.44
330.887	532.44
331.115	508.44
331.344	505.44
331.572	482.44
331.801	508.44
332.03	479.44
332.258	475.44
332.486	476.44
332.715	483.44
332.943	455.44
333.172	485.44
333.4	473.44
333.629	486.44
333.857	489.44
334.085	493.44
334.314	509.44
334.542	530.44
334.771	528.44
334.999	512.44
335.227	506.44
335.455	492.44
335.684	474.44
335.912	459.44
336.14	452.44
336.369	462.44
336.597	448.44
336.825	458.44
337.053	474.44
337.281	462.44
337.51	452.44
337.738	450.44
337.966	439.44
338.194	464.44
338.422	460.44
338.65	445.44
338.878	437.44
339.106	443.44
339.334	457.44
339.562	448.44
339.79	444.44
340.018	440.44
340.246	431.44
340.474	448.44
340.702	444.44
340.93	435.44
341.158	414.44
341.386	429.44
341.614	430.44
341.842	440.44
342.07	437.44
342.298	429.44
342.526	433.44
342.754	426.44
342.981	422.44
343.209	421.44
343.437	446.44
343.665	457.44
343.893	461.44
344.12	471.44
344.348	477.44
344.576	442.44
344.804	440.44
345.031	447.44
345.259	457.44
345.487	437.44
345.714	454.44
345.942	422.44
346.17	432.44
346.397	429.44
346.625	409.44
346.853	405.44
347.08	417.44
347.308	429.44
347.535	416.44
347.763	418.44
347.99	407.44
348.218	402.44
348.445	432.44
348.673	427.44
348.9	408.44
349.128	420.44
349.355	406.44
349.583	407.44
349.81	403.44
350.037	406.44
350.265	400.44
350.492	397.44
350.72	413.44
350.947	408.44
351.174	423.44
351.402	409.44
351.629	423.44
351.856	400.44
352.083	414.44
352.311	424.44
352.538	416.44
352.765	425.44
352.992	419.44
353.22	419.44
353.447	397.44
353.674	388.44
353.901	405.44
354.128	399.44
354.355	398.44
354.583	403.44
354.81	399.44
355.037	379.44
355.264	385.44
355.491	373.44
355.718	390.44
355.945	380.44
356.172	388.44
356.399	360.44
356.626	384.44
356.853	384.44
357.08	396.44
357.307	393.44
357.534	392.44
357.761	372.44
357.988	367.44
358.215	365.44
358.441	375.44
358.668	380.44
358.895	389.44
359.122	414.44
359.349	412.44
359.576	404.44
359.802	431.44
360.029	428.44
360.256	420.44
360.483	401.44
360.709	390.44
360.936	397.44
361.163	396.44
361.39	390.44
361.616	410.44
361.843	404.44
362.07	391.44
362.296	408.44
362.523	409.44
362.749	380.44
362.976	396.44
363.203	405.44
363.429	396.44
363.656	380.44
363.882	398.44
364.109	397.44
364.335	396.44
364.562	375.44
364.788	393.44
365.015	379.44
365.241	388.44
365.468	401.44
365.694	414.44
365.92	390.44
366.147	394.44
366.373	387.44
366.599	391.44
366.826	391.44
367.052	376.44
367.278	394.44
367.505	405.44
367.731	372.44
367.957	401.44
368.184	392.44
368.41	401.44
368.636	415.44
368.862	397.44
369.089	400.44
369.315	400.44
369.541	384.44
369.767	405.44
369.993	407.44
370.219	382.44
370.445	382.44
370.672	383.44
370.898	384.44
371.124	402.44
371.35	400.44
371.576	366.44
371.802	378.44
372.028	386.44
372.254	402.44
372.48	380.44
372.706	396.44
372.932	404.44
373.158	398.44
373.384	409.44
373.61	410.44
373.835	422.44
374.061	384.44
374.287	399.44
374.513	399.44
374.739	405.44
374.965	425.44
375.191	390.44
375.416	410.44
375.642	400.44
375.868	409.44
376.094	410.44
376.319	390.44
376.545	388.44
376.771	402.44
376.997	393.44
377.222	389.44
377.448	392.44
377.674	393.44
377.899	385.44
378.125	381.44
378.35	399.44
378.576	380.44
378.802	374.44
379.027	389.44
379.253	393.44
379.478	406.44
379.704	383.44
379.929	369.44
380.155	369.44
380.38	369.44
380.606	366.44
380.831	385.44
381.057	396.44
381.282	394.44
381.507	382.44
381.733	389.44
381.958	381.44
382.184	408.44
382.409	399.44
382.634	392.44
382.86	400.44
383.085	401.44
383.31	383.44
383.535	395.44
383.761	396.44
383.986	397.44
384.211	409.44
384.436	414.44
384.662	431.44
384.887	408.44
385.112	425.44
385.337	423.44
385.562	431.44
385.787	438.44
386.013	438.44
386.238	399.44
386.463	426.44
386.688	442.44
386.913	437.44
387.138	445.44
387.363	443.44
387.588	422.44
387.813	424.44
388.038	417.44
388.263	419.44
388.488	414.44
388.713	418.44
388.938	421.44
389.163	424.44
389.387	417.44
389.612	408.44
389.837	412.44
390.062	411.44
390.287	420.44
390.512	420.44
390.736	411.44
390.961	427.44
391.186	428.44
391.411	430.44
391.636	432.44
391.86	438.44
392.085	436.44
392.31	440.44
392.534	441.44
392.759	448.44
392.984	441.44
393.208	454.44
393.433	436.44
393.658	415.44
393.882	415.44
394.107	432.44
394.331	438.44
394.556	432.44
394.78	441.44
395.005	441.44
395.229	444.44
395.454	429.44
395.678	442.44
395.903	443.44
396.127	476.44
396.352	444.44
396.576	457.44
396.801	437.44
397.025	446.44
397.249	447.44
397.474	465.44
397.698	461.44
397.922	432.44
398.147	472.44
398.371	504.44
398.595	474.44
398.82	466.44
399.044	490.44
399.268	517.44
399.492	535.44
399.717	588.44
399.941	602.44
400.165	612.44
400.389	598.44
400.613	531.44
400.837	517.44
401.062	516.44
401.286	506.44
401.51	499.44
401.734	480.44
401.958	492.44
402.182	497.44
402.406	492.44
402.63	495.44
402.854	486.44
403.078	502.44
403.302	482.44
403.526	512.44
403.75	490.44
403.974	489.44
404.198	520.44
404.422	540.44
404.645	506.44
404.869	540.44
405.093	519.44
405.317	551.44
405.541	555.44
405.765	539.44
405.988	534.44
406.212	505.44
406.436	520.44
406.66	553.44
406.883	536.44
407.107	568.44
407.331	602.44
407.555	634.44
407.778	624.44
408.002	598.44
408.226	553.44
408.449	543.44
408.673	525.44
408.896	558.44
409.12	579.44
409.344	556.44
409.567	508.44
409.791	508.44
410.014	514.44
410.238	480.44
410.461	508.44
410.685	519.44
410.908	497.44
411.132	526.44
411.355	566.44
411.578	520.44
411.802	517.44
412.025	489.44
412.249	481.44
412.472	512.44
412.695	558.44
412.919	536.44
413.142	510.44
413.365	482.44
413.589	505.44
413.812	472.44
414.035	466.44
414.258	464.44
414.482	470.44
414.705	459.44
414.928	471.44
415.151	463.44
415.374	472.44
415.597	484.44
415.821	475.44
416.044	445.44
416.267	482.44
416.49	462.44
416.713	454.44
416.936	457.44
417.159	470.44
417.382	475.44
417.605	479.44
417.828	501.44
418.051	472.44
418.274	491.44
418.497	460.44
418.72	462.44
418.943	476.44
419.166	487.44
419.389	509.44
419.611	519.44
419.834	494.44
420.057	486.44
420.28	501.44
420.503	471.44
420.726	487.44
420.948	505.44
421.171	542.44
421.394	541.44
421.617	497.44
421.839	491.44
422.062	482.44
422.285	518.44
422.507	558.44
422.73	603.44
422.953	593.44
423.175	538.44
423.398	489.44
423.621	504.44
423.843	516.44
424.066	513.44
424.288	506.44
424.511	543.44
424.733	576.44
424.956	620.44
425.178	618.44
425.401	598.44
425.623	651.44
425.846	550.44
426.068	512.44
426.291	504.44
426.513	509.44
426.735	528.44
426.958	536.44
427.18	619.44
427.402	721.44
427.625	768.44
427.847	664.44
428.069	577.44
428.292	524.44
428.514	489.44
428.736	476.44
428.958	504.44
429.181	467.44
429.403	465.44
429.625	471.44
429.847	494.44
430.069	560.44
430.292	563.44
430.514	498.44
430.736	476.44
430.958	464.44
431.18	444.44
431.402	445.44
431.624	432.44
431.846	430.44
432.068	443.44
432.29	440.44
432.512	451.44
432.734	456.44
432.956	455.44
433.178	440.44
433.4	465.44
433.622	436.44
433.844	437.44
434.066	436.44
434.287	446.44
434.509	476.44
434.731	456.44
434.953	465.44
435.175	490.44
435.397	503.44
435.618	470.44
435.84	537.44
436.062	620.44
436.284	660.44
436.505	555.44
436.727	509.44
436.949	463.44
437.17	461.44
437.392	460.44
437.614	484.44
437.835	495.44
438.057	568.44
438.278	623.44
438.5	641.44
438.721	708.44
438.943	680.44
439.165	530.44
439.386	512.44
439.608	474.44
439.829	496.44
440.05	518.44
440.272	574.44
440.493	514.44
440.715	471.44
440.936	461.44
441.158	481.44
441.379	480.44
441.6	493.44
441.822	495.44
442.043	530.44
442.264	588.44
442.486	610.44
442.707	536.44
442.928	510.44
443.149	509.44
443.371	507.44
443.592	580.44
443.813	646.44
444.034	685.44
444.255	607.44
444.476	540.44
444.698	518.44
444.919	520.44
445.14	580.44
445.361	569.44
445.582	540.44
445.803	583.44
446.024	640.44
446.245	654.44
446.466	616.44
446.687	520.44
446.908	492.44
447.129	460.44
447.35	457.44
447.571	453.44
447.792	461.44
448.013	449.44
448.234	466.44
448.455	504.44
448.675	610.44
448.896	679.44
449.117	607.44
449.338	569.44
449.559	647.44
449.779	736.44
450	578.44
450.221	486.44
450.442	470.44
450.662	439.44
450.883	441.44
451.104	454.44
451.324	450.44
451.545	420.44
451.766	409.44
451.986	416.44
452.207	395.44
452.428	420.44
452.648	415.44
452.869	396.44
453.089	420.44
453.31	449.44
453.53	424.44
453.751	421.44
453.971	415.44
454.192	423.44
454.412	404.44
454.633	407.44
454.853	403.44
455.073	416.44
455.294	430.44
455.514	473.44
455.734	467.44
455.955	427.44
456.175	386.44
456.395	373.44
456.616	395.44
456.836	392.44
457.056	386.44
457.276	398.44
457.497	404.44
457.717	390.44
457.937	411.44
458.157	412.44
458.377	405.44
458.598	426.44
458.818	463.44
459.038	490.44
459.258	533.44
459.478	462.44
459.698	446.44
459.918	433.44
460.138	453.44
460.358	453.44
460.578	456.44
460.798	484.44
461.018	464.44
461.238	447.44
461.458	439.44
461.678	477.44
461.898	469.44
462.118	483.44
462.338	459.44
462.558	483.44
462.777	479.44
462.997	496.44
463.217	501.44
463.437	515.44
463.657	482.44
463.876	495.44
464.096	517.44
464.316	492.44
464.536	503.44
464.755	495.44
464.975	494.44
465.195	487.44
465.414	544.44
465.634	478.44
465.854	451.44
466.073	455.44
466.293	458.44
466.512	436.44
466.732	419.44
466.951	444.44
467.171	427.44
467.391	419.44
467.61	432.44
467.829	427.44
468.049	418.44
468.268	420.44
468.488	414.44
468.707	416.44
468.927	413.44
469.146	411.44
469.365	420.44
469.585	407.44
469.804	414.44
470.023	406.44
470.243	441.44
470.462	448.44
470.681	442.44
470.901	430.44
471.12	422.44
471.339	432.44
471.558	419.44
471.777	414.44
471.997	412.44
472.216	439.44
472.435	451.44
472.654	426.44
472.873	415.44
473.092	423.44
473.311	429.44
473.53	426.44
473.749	439.44
473.968	454.44
474.187	526.44
474.406	550.44
474.625	481.44
474.844	436.44
475.063	424.44
475.282	412.44
475.501	442.44
475.72	410.44
475.939	437.44
476.158	438.44
476.377	418.44
476.596	448.44
476.814	448.44
477.033	440.44
477.252	429.44
477.471	444.44
477.69	471.44
477.908	455.44
478.127	466.44
478.346	477.44
478.564	458.44
478.783	466.44
479.002	501.44
479.22	485.44
479.439	477.44
479.658	484.44
479.876	503.44
480.095	505.44
480.313	531.44
480.532	520.44
480.751	528.44
480.969	515.44
481.188	549.44
481.406	561.44
481.624	529.44
481.843	489.44
482.061	513.44
482.28	496.44
482.498	486.44
482.717	502.44
482.935	497.44
483.153	481.44
483.372	503.44
483.59	480.44
483.808	476.44
484.027	494.44
484.245	481.44
484.463	485.44
484.681	493.44
484.9	503.44
485.118	504.44
485.336	487.44
485.554	501.44
485.772	497.44
485.99	516.44
486.209	489.44
486.427	491.44
486.645	498.44
486.863	511.44
487.081	516.44
487.299	511.44
487.517	524.44
487.735	493.44
487.953	490.44
488.171	510.44
488.389	510.44
488.607	511.44
488.825	526.44
489.043	497.44
489.261	502.44
489.479	528.44
489.696	529.44
489.914	536.44
490.132	543.44
490.35	535.44
490.568	549.44
490.786	532.44
491.003	560.44
491.221	558.44
491.439	565.44
491.657	574.44
491.874	574.44
492.092	598.44
492.31	592.44
492.527	591.44
492.745	577.44
492.963	593.44
493.18	608.44
493.398	612.44
493.615	583.44
493.833	611.44
494.05	606.44
494.268	621.44
494.485	609.44
494.703	599.44
494.92	592.44
495.138	580.44
495.355	612.44
495.573	599.44
495.79	588.44
496.008	614.44
496.225	608.44
496.442	595.44
496.66	596.44
496.877	616.44
497.094	610.44
497.312	617.44
497.529	641.44
497.746	628.44
497.963	652.44
498.181	658.44
498.398	677.44
498.615	694.44
498.832	705.44
499.049	729.44
499.267	765.44
499.484	780.44
499.701	786.44
499.918	829.44
500.135	876.44
500.352	929.44
500.569	950.44
500.786	935.44
501.003	924.44
501.22	900.44
501.437	875.44
501.654	833.44
501.871	832.44
502.088	780.44
