Data from 1977.PennyLincolnUp.Lamp.En5.5.200Scan.071719.P1_HRD10591_16-05-19-863.txt Node
Date: Thu Jul 18 16:05:19 EDT 2019
User: cochatt
Spectrometer: HR+D1059
Trigger mode: 1
Integration Time (sec): 1.000000E-1
Scans to average: 1
Electric dark correction enabled: true
Nonlinearity correction enabled: false
Boxcar width: 0
XAxis mode: Wavelengths
Number of Pixels in Spectrum: 2048
>>>>>Begin Spectral Data<<<<<
223.165	-6.12
223.4	-6.12
223.635	-6.12
223.869	-24.12
224.104	-24.12
224.338	-13.12
224.573	-7.12
224.808	-25.12
225.042	-13.12
225.277	-13.12
225.511	-1.12
225.746	0.88
225.98	8.88
226.215	16.88
226.449	6.88
226.683	29.88
226.918	29.88
227.152	33.88
227.387	50.88
227.621	40.88
227.856	42.88
228.09	44.88
228.324	50.88
228.559	49.88
228.793	68.88
229.027	90.88
229.262	102.88
229.496	110.88
229.73	128.88
229.964	137.88
230.199	123.88
230.433	90.88
230.667	111.88
230.901	120.88
231.136	110.88
231.37	122.88
231.604	111.88
231.838	101.88
232.072	113.88
232.306	104.88
232.541	116.88
232.775	103.88
233.009	111.88
233.243	103.88
233.477	108.88
233.711	122.88
233.945	122.88
234.179	117.88
234.413	111.88
234.647	122.88
234.881	120.88
235.115	128.88
235.349	114.88
235.583	124.88
235.817	127.88
236.051	114.88
236.285	118.88
236.519	121.88
236.753	114.88
236.987	131.88
237.221	165.88
237.455	167.88
237.689	152.88
237.922	132.88
238.156	125.88
238.39	123.88
238.624	121.88
238.858	130.88
239.091	114.88
239.325	127.88
239.559	121.88
239.793	138.88
240.027	129.88
240.26	132.88
240.494	153.88
240.728	135.88
240.961	155.88
241.195	147.88
241.429	139.88
241.662	129.88
241.896	124.88
242.13	122.88
242.363	115.88
242.597	129.88
242.83	139.88
243.064	132.88
243.298	141.88
243.531	136.88
243.765	138.88
243.998	142.88
244.232	143.88
244.465	139.88
244.699	144.88
244.932	161.88
245.166	133.88
245.399	162.88
245.633	149.88
245.866	137.88
246.099	144.88
246.333	142.88
246.566	142.88
246.8	147.88
247.033	163.88
247.266	161.88
247.5	161.88
247.733	156.88
247.966	151.88
248.2	165.88
248.433	167.88
248.666	156.88
248.899	169.88
249.133	175.88
249.366	170.88
249.599	175.88
249.832	186.88
250.066	174.88
250.299	167.88
250.532	166.88
250.765	173.88
250.998	190.88
251.231	207.88
251.465	212.88
251.698	191.88
251.931	192.88
252.164	185.88
252.397	199.88
252.63	194.88
252.863	200.88
253.096	205.88
253.329	205.88
253.562	184.88
253.795	194.88
254.028	199.88
254.261	186.88
254.494	217.88
254.727	216.88
254.96	236.88
255.193	240.88
255.426	229.88
255.659	230.88
255.892	211.88
256.124	192.88
256.357	197.88
256.59	216.88
256.823	208.88
257.056	217.88
257.289	190.88
257.521	208.88
257.754	197.88
257.987	182.88
258.22	201.88
258.452	214.88
258.685	209.88
258.918	200.88
259.151	200.88
259.383	210.88
259.616	208.88
259.849	221.88
260.081	217.88
260.314	218.88
260.547	246.88
260.779	226.88
261.012	216.88
261.244	220.88
261.477	204.88
261.71	212.88
261.942	212.88
262.175	220.88
262.407	225.88
262.64	217.88
262.872	225.88
263.105	209.88
263.337	203.88
263.57	222.88
263.802	211.88
264.035	210.88
264.267	215.88
264.499	211.88
264.732	218.88
264.964	223.88
265.197	221.88
265.429	222.88
265.661	217.88
265.894	234.88
266.126	218.88
266.358	215.88
266.591	210.88
266.823	215.88
267.055	234.88
267.287	236.88
267.52	226.88
267.752	222.88
267.984	216.88
268.216	224.88
268.448	240.88
268.681	227.88
268.913	240.88
269.145	242.88
269.377	251.88
269.609	258.88
269.841	274.88
270.073	250.88
270.306	261.88
270.538	289.88
270.77	291.88
271.002	278.88
271.234	284.88
271.466	281.88
271.698	295.88
271.93	284.88
272.162	280.88
272.394	289.88
272.626	285.88
272.858	273.88
273.09	279.88
273.322	287.88
273.553	264.88
273.785	273.88
274.017	250.88
274.249	250.88
274.481	250.88
274.713	262.88
274.945	254.88
275.176	272.88
275.408	261.88
275.64	246.88
275.872	247.88
276.104	260.88
276.335	283.88
276.567	250.88
276.799	254.88
277.031	281.88
277.262	306.88
277.494	293.88
277.726	281.88
277.957	265.88
278.189	275.88
278.421	274.88
278.652	276.88
278.884	275.88
279.115	288.88
279.347	270.88
279.579	277.88
279.81	258.88
280.042	281.88
280.273	257.88
280.505	268.88
280.736	269.88
280.968	272.88
281.199	270.88
281.431	279.88
281.662	272.88
281.894	267.88
282.125	267.88
282.356	280.88
282.588	306.88
282.819	313.88
283.051	278.88
283.282	281.88
283.513	271.88
283.745	290.88
283.976	300.88
284.207	296.88
284.439	291.88
284.67	299.88
284.901	304.88
285.132	288.88
285.364	268.88
285.595	279.88
285.826	279.88
286.057	284.88
286.288	289.88
286.52	290.88
286.751	280.88
286.982	298.88
287.213	275.88
287.444	295.88
287.675	302.88
287.906	307.88
288.138	305.88
288.369	316.88
288.6	297.88
288.831	303.88
289.062	286.88
289.293	326.88
289.524	302.88
289.755	294.88
289.986	305.88
290.217	314.88
290.448	294.88
290.679	302.88
290.91	300.88
291.141	303.88
291.371	292.88
291.602	316.88
291.833	311.88
292.064	289.88
292.295	301.88
292.526	305.88
292.757	281.88
292.987	306.88
293.218	285.88
293.449	305.88
293.68	308.88
293.91	291.88
294.141	313.88
294.372	282.88
294.603	317.88
294.833	322.88
295.064	320.88
295.295	314.88
295.525	313.88
295.756	313.88
295.987	329.88
296.217	315.88
296.448	337.88
296.679	312.88
296.909	318.88
297.14	305.88
297.37	321.88
297.601	313.88
297.831	332.88
298.062	318.88
298.292	314.88
298.523	317.88
298.753	329.88
298.984	330.88
299.214	322.88
299.445	327.88
299.675	320.88
299.905	316.88
300.136	328.88
300.366	325.88
300.597	327.88
300.827	333.88
301.057	336.88
301.288	330.88
301.518	335.88
301.748	338.88
301.979	331.88
302.209	340.88
302.439	345.88
302.669	351.88
302.9	310.88
303.13	326.88
303.36	321.88
303.59	338.88
303.82	346.88
304.051	344.88
304.281	315.88
304.511	328.88
304.741	344.88
304.971	368.88
305.201	354.88
305.431	339.88
305.661	348.88
305.891	328.88
306.121	333.88
306.352	328.88
306.582	330.88
306.812	339.88
307.042	333.88
307.272	334.88
307.502	336.88
307.731	349.88
307.961	343.88
308.191	345.88
308.421	337.88
308.651	355.88
308.881	346.88
309.111	366.88
309.341	355.88
309.571	358.88
309.8	373.88
310.03	354.88
310.26	373.88
310.49	367.88
310.72	357.88
310.949	394.88
311.179	343.88
311.409	351.88
311.639	367.88
311.868	377.88
312.098	360.88
312.328	365.88
312.557	377.88
312.787	399.88
313.017	387.88
313.246	389.88
313.476	377.88
313.706	384.88
313.935	385.88
314.165	402.88
314.394	413.88
314.624	366.88
314.853	381.88
315.083	377.88
315.312	386.88
315.542	377.88
315.771	365.88
316.001	360.88
316.23	365.88
316.46	374.88
316.689	383.88
316.919	365.88
317.148	376.88
317.377	389.88
317.607	382.88
317.836	383.88
318.065	371.88
318.295	381.88
318.524	378.88
318.753	369.88
318.983	370.88
319.212	368.88
319.441	394.88
319.67	373.88
319.9	366.88
320.129	409.88
320.358	382.88
320.587	365.88
320.816	389.88
321.046	382.88
321.275	399.88
321.504	374.88
321.733	393.88
321.962	402.88
322.191	406.88
322.42	399.88
322.649	415.88
322.878	410.88
323.108	427.88
323.337	430.88
323.566	448.88
323.795	449.88
324.024	488.88
324.253	592.88
324.482	703.88
324.71	1034.88
324.939	1421.88
325.168	1189.88
325.397	689.88
325.626	515.88
325.855	446.88
326.084	451.88
326.313	442.88
326.542	426.88
326.77	474.88
326.999	525.88
327.228	664.88
327.457	929.88
327.686	1073.88
327.914	769.88
328.143	543.88
328.372	519.88
328.6	468.88
328.829	482.88
329.058	492.88
329.287	489.88
329.515	453.88
329.744	449.88
329.972	470.88
330.201	453.88
330.43	476.88
330.658	489.88
330.887	504.88
331.115	476.88
331.344	453.88
331.572	434.88
331.801	444.88
332.03	475.88
332.258	443.88
332.486	441.88
332.715	431.88
332.943	441.88
333.172	441.88
333.4	442.88
333.629	470.88
333.857	492.88
334.085	478.88
334.314	490.88
334.542	488.88
334.771	479.88
334.999	472.88
335.227	471.88
335.455	470.88
335.684	453.88
335.912	460.88
336.14	452.88
336.369	446.88
336.597	434.88
336.825	432.88
337.053	425.88
337.281	422.88
337.51	433.88
337.738	441.88
337.966	418.88
338.194	434.88
338.422	447.88
338.65	433.88
338.878	432.88
339.106	432.88
339.334	415.88
339.562	439.88
339.79	413.88
340.018	411.88
340.246	415.88
340.474	417.88
340.702	423.88
340.93	425.88
341.158	399.88
341.386	411.88
341.614	438.88
341.842	414.88
342.07	437.88
342.298	400.88
342.526	407.88
342.754	427.88
342.981	416.88
343.209	404.88
343.437	432.88
343.665	449.88
343.893	427.88
344.12	437.88
344.348	449.88
344.576	444.88
344.804	446.88
345.031	416.88
345.259	429.88
345.487	408.88
345.714	415.88
345.942	397.88
346.17	423.88
346.397	420.88
346.625	408.88
346.853	417.88
347.08	423.88
347.308	415.88
347.535	427.88
347.763	408.88
347.99	399.88
348.218	397.88
348.445	409.88
348.673	398.88
348.9	391.88
349.128	395.88
349.355	386.88
349.583	395.88
349.81	371.88
350.037	390.88
350.265	391.88
350.492	397.88
350.72	390.88
350.947	385.88
351.174	384.88
351.402	368.88
351.629	365.88
351.856	422.88
352.083	412.88
352.311	403.88
352.538	389.88
352.765	391.88
352.992	406.88
353.22	379.88
353.447	381.88
353.674	409.88
353.901	375.88
354.128	383.88
354.355	405.88
354.583	399.88
354.81	378.88
355.037	373.88
355.264	365.88
355.491	384.88
355.718	386.88
355.945	376.88
356.172	398.88
356.399	398.88
356.626	385.88
356.853	384.88
357.08	383.88
357.307	369.88
357.534	369.88
357.761	385.88
357.988	396.88
358.215	390.88
358.441	387.88
358.668	377.88
358.895	382.88
359.122	375.88
359.349	387.88
359.576	389.88
359.802	395.88
360.029	391.88
360.256	408.88
360.483	404.88
360.709	408.88
360.936	399.88
361.163	383.88
361.39	383.88
361.616	406.88
361.843	381.88
362.07	393.88
362.296	409.88
362.523	388.88
362.749	390.88
362.976	382.88
363.203	399.88
363.429	383.88
363.656	362.88
363.882	378.88
364.109	393.88
364.335	379.88
364.562	394.88
364.788	379.88
365.015	376.88
365.241	383.88
365.468	361.88
365.694	352.88
365.92	372.88
366.147	371.88
366.373	381.88
366.599	389.88
366.826	382.88
367.052	384.88
367.278	378.88
367.505	380.88
367.731	371.88
367.957	343.88
368.184	380.88
368.41	379.88
368.636	399.88
368.862	377.88
369.089	398.88
369.315	381.88
369.541	362.88
369.767	373.88
369.993	380.88
370.219	366.88
370.445	363.88
370.672	365.88
370.898	372.88
371.124	388.88
371.35	412.88
371.576	380.88
371.802	361.88
372.028	389.88
372.254	399.88
372.48	370.88
372.706	381.88
372.932	377.88
373.158	372.88
373.384	383.88
373.61	387.88
373.835	396.88
374.061	382.88
374.287	397.88
374.513	387.88
374.739	378.88
374.965	405.88
375.191	383.88
375.416	402.88
375.642	400.88
375.868	385.88
376.094	394.88
376.319	397.88
376.545	400.88
376.771	378.88
376.997	378.88
377.222	393.88
377.448	381.88
377.674	379.88
377.899	376.88
378.125	382.88
378.35	387.88
378.576	381.88
378.802	364.88
379.027	395.88
379.253	379.88
379.478	388.88
379.704	378.88
379.929	399.88
380.155	381.88
380.38	377.88
380.606	380.88
380.831	373.88
381.057	387.88
381.282	368.88
381.507	378.88
381.733	368.88
381.958	385.88
382.184	391.88
382.409	383.88
382.634	397.88
382.86	393.88
383.085	382.88
383.31	383.88
383.535	406.88
383.761	406.88
383.986	414.88
384.211	408.88
384.436	397.88
384.662	410.88
384.887	411.88
385.112	413.88
385.337	401.88
385.562	426.88
385.787	426.88
386.013	434.88
386.238	422.88
386.463	403.88
386.688	426.88
386.913	398.88
387.138	412.88
387.363	428.88
387.588	402.88
387.813	410.88
388.038	403.88
388.263	395.88
388.488	422.88
388.713	409.88
388.938	408.88
389.163	432.88
389.387	416.88
389.612	400.88
389.837	423.88
390.062	409.88
390.287	418.88
390.512	407.88
390.736	427.88
390.961	419.88
391.186	427.88
391.411	430.88
391.636	426.88
391.86	453.88
392.085	416.88
392.31	421.88
392.534	422.88
392.759	423.88
392.984	431.88
393.208	413.88
393.433	421.88
393.658	428.88
393.882	418.88
394.107	423.88
394.331	413.88
394.556	405.88
394.78	430.88
395.005	426.88
395.229	415.88
395.454	408.88
395.678	421.88
395.903	453.88
396.127	448.88
396.352	466.88
396.576	437.88
396.801	435.88
397.025	463.88
397.249	424.88
397.474	426.88
397.698	434.88
397.922	478.88
398.147	459.88
398.371	463.88
398.595	470.88
398.82	476.88
399.044	497.88
399.268	515.88
399.492	539.88
399.717	558.88
399.941	568.88
400.165	588.88
400.389	587.88
400.613	526.88
400.837	491.88
401.062	505.88
401.286	478.88
401.51	479.88
401.734	470.88
401.958	476.88
402.182	507.88
402.406	477.88
402.63	475.88
402.854	494.88
403.078	479.88
403.302	493.88
403.526	507.88
403.75	498.88
403.974	497.88
404.198	503.88
404.422	488.88
404.645	503.88
404.869	496.88
405.093	519.88
405.317	553.88
405.541	544.88
405.765	527.88
405.988	527.88
406.212	524.88
406.436	504.88
406.66	530.88
406.883	514.88
407.107	540.88
407.331	567.88
407.555	621.88
407.778	604.88
408.002	565.88
408.226	555.88
408.449	501.88
408.673	513.88
408.896	551.88
409.12	560.88
409.344	535.88
409.567	511.88
409.791	492.88
410.014	496.88
410.238	489.88
410.461	484.88
410.685	474.88
410.908	509.88
411.132	517.88
411.355	541.88
411.578	521.88
411.802	493.88
412.025	468.88
412.249	469.88
412.472	494.88
412.695	535.88
412.919	504.88
413.142	493.88
413.365	465.88
413.589	479.88
413.812	479.88
414.035	467.88
414.258	457.88
414.482	465.88
414.705	460.88
414.928	484.88
415.151	462.88
415.374	470.88
415.597	481.88
415.821	465.88
416.044	458.88
416.267	461.88
416.49	455.88
416.713	459.88
416.936	453.88
417.159	468.88
417.382	450.88
417.605	462.88
417.828	450.88
418.051	473.88
418.274	465.88
418.497	488.88
418.72	467.88
418.943	468.88
419.166	466.88
419.389	489.88
419.611	474.88
419.834	462.88
420.057	470.88
420.28	471.88
420.503	459.88
420.726	462.88
420.948	447.88
421.171	496.88
421.394	525.88
421.617	477.88
421.839	449.88
422.062	451.88
422.285	460.88
422.507	540.88
422.73	588.88
422.953	557.88
423.175	486.88
423.398	471.88
423.621	458.88
423.843	489.88
424.066	487.88
424.288	495.88
424.511	490.88
424.733	542.88
424.956	577.88
425.178	567.88
425.401	565.88
425.623	597.88
425.846	504.88
426.068	470.88
426.291	466.88
426.513	466.88
426.735	473.88
426.958	538.88
427.18	577.88
427.402	658.88
427.625	712.88
427.847	632.88
428.069	545.88
428.292	480.88
428.514	464.88
428.736	463.88
428.958	471.88
429.181	431.88
429.403	436.88
429.625	461.88
429.847	470.88
430.069	525.88
430.292	492.88
430.514	449.88
430.736	435.88
430.958	446.88
431.18	437.88
431.402	420.88
431.624	424.88
431.846	424.88
432.068	417.88
432.29	422.88
432.512	421.88
432.734	468.88
432.956	445.88
433.178	412.88
433.4	428.88
433.622	426.88
433.844	430.88
434.066	428.88
434.287	450.88
434.509	422.88
434.731	442.88
434.953	462.88
435.175	457.88
435.397	484.88
435.618	495.88
435.84	526.88
436.062	579.88
436.284	626.88
436.505	509.88
436.727	480.88
436.949	462.88
437.17	437.88
437.392	442.88
437.614	443.88
437.835	465.88
438.057	531.88
438.278	603.88
438.5	600.88
438.721	663.88
438.943	638.88
439.165	522.88
439.386	478.88
439.608	461.88
439.829	475.88
440.05	480.88
440.272	487.88
440.493	466.88
440.715	453.88
440.936	467.88
441.158	417.88
441.379	432.88
441.6	481.88
441.822	497.88
442.043	497.88
442.264	551.88
442.486	584.88
442.707	519.88
442.928	481.88
443.149	496.88
443.371	519.88
443.592	565.88
443.813	598.88
444.034	657.88
444.255	547.88
444.476	510.88
444.698	506.88
444.919	497.88
445.14	577.88
445.361	557.88
445.582	513.88
445.803	528.88
446.024	618.88
446.245	630.88
446.466	573.88
446.687	498.88
446.908	462.88
447.129	431.88
447.35	443.88
447.571	452.88
447.792	427.88
448.013	410.88
448.234	426.88
448.455	477.88
448.675	557.88
448.896	651.88
449.117	536.88
449.338	536.88
449.559	593.88
449.779	683.88
450	530.88
450.221	467.88
450.442	455.88
450.662	416.88
450.883	420.88
451.104	432.88
451.324	423.88
451.545	395.88
451.766	400.88
451.986	386.88
452.207	378.88
452.428	400.88
452.648	400.88
452.869	391.88
453.089	411.88
453.31	409.88
453.53	380.88
453.751	413.88
453.971	389.88
454.192	412.88
454.412	393.88
454.633	373.88
454.853	385.88
455.073	386.88
455.294	405.88
455.514	450.88
455.734	438.88
455.955	404.88
456.175	381.88
456.395	373.88
456.616	394.88
456.836	386.88
457.056	355.88
457.276	364.88
457.497	384.88
457.717	382.88
457.937	373.88
458.157	370.88
458.377	387.88
458.598	402.88
458.818	434.88
459.038	464.88
459.258	515.88
459.478	465.88
459.698	413.88
459.918	429.88
460.138	442.88
460.358	417.88
460.578	449.88
460.798	442.88
461.018	458.88
461.238	456.88
461.458	448.88
461.678	453.88
461.898	453.88
462.118	440.88
462.338	463.88
462.558	443.88
462.777	467.88
462.997	484.88
463.217	503.88
463.437	518.88
463.657	479.88
463.876	474.88
464.096	490.88
464.316	462.88
464.536	466.88
464.755	466.88
464.975	477.88
465.195	498.88
465.414	486.88
465.634	481.88
465.854	433.88
466.073	428.88
466.293	425.88
466.512	421.88
466.732	422.88
466.951	424.88
467.171	408.88
467.391	432.88
467.61	418.88
467.829	415.88
468.049	420.88
468.268	411.88
468.488	384.88
468.707	391.88
468.927	391.88
469.146	385.88
469.365	415.88
469.585	397.88
469.804	404.88
470.023	430.88
470.243	413.88
470.462	434.88
470.681	425.88
470.901	431.88
471.12	422.88
471.339	410.88
471.558	438.88
471.777	419.88
471.997	401.88
472.216	404.88
472.435	403.88
472.654	420.88
472.873	408.88
473.092	409.88
473.311	412.88
473.53	421.88
473.749	424.88
473.968	461.88
474.187	493.88
474.406	496.88
474.625	453.88
474.844	429.88
475.063	406.88
475.282	417.88
475.501	404.88
475.72	423.88
475.939	401.88
476.158	405.88
476.377	393.88
476.596	430.88
476.814	439.88
477.033	452.88
477.252	441.88
477.471	446.88
477.69	436.88
477.908	449.88
478.127	467.88
478.346	451.88
478.564	462.88
478.783	455.88
479.002	471.88
479.22	466.88
479.439	481.88
479.658	480.88
479.876	488.88
480.095	489.88
480.313	511.88
480.532	525.88
480.751	501.88
480.969	517.88
481.188	514.88
481.406	522.88
481.624	499.88
481.843	487.88
482.061	473.88
482.28	471.88
482.498	478.88
482.717	464.88
482.935	453.88
483.153	476.88
483.372	459.88
483.59	478.88
483.808	474.88
484.027	473.88
484.245	473.88
484.463	470.88
484.681	502.88
484.9	486.88
485.118	467.88
485.336	489.88
485.554	493.88
485.772	486.88
485.99	478.88
486.209	486.88
486.427	493.88
486.645	481.88
486.863	513.88
487.081	494.88
487.299	490.88
487.517	506.88
487.735	506.88
487.953	495.88
488.171	489.88
488.389	474.88
488.607	489.88
488.825	511.88
489.043	501.88
489.261	514.88
489.479	486.88
489.696	493.88
489.914	507.88
490.132	503.88
490.35	514.88
490.568	499.88
490.786	527.88
491.003	509.88
491.221	523.88
491.439	526.88
491.657	539.88
491.874	546.88
492.092	542.88
492.31	546.88
492.527	546.88
492.745	546.88
492.963	579.88
493.18	558.88
493.398	549.88
493.615	555.88
493.833	569.88
494.05	557.88
494.268	557.88
494.485	582.88
494.703	565.88
494.92	559.88
495.138	575.88
495.355	581.88
495.573	582.88
495.79	581.88
496.008	585.88
496.225	581.88
496.442	586.88
496.66	557.88
496.877	590.88
497.094	585.88
497.312	587.88
497.529	597.88
497.746	605.88
497.963	622.88
498.181	631.88
498.398	669.88
498.615	659.88
498.832	673.88
499.049	689.88
499.267	735.88
499.484	761.88
499.701	793.88
499.918	831.88
500.135	873.88
500.352	938.88
500.569	925.88
500.786	938.88
501.003	901.88
501.22	873.88
501.437	831.88
501.654	793.88
501.871	782.88
502.088	733.88
