Data from 1977.PennyLincolnUp.Lamp.En5.5.200Scan.071719.P1_HRD10591_16-06-40-864.txt Node
Date: Thu Jul 18 16:06:40 EDT 2019
User: cochatt
Spectrometer: HR+D1059
Trigger mode: 1
Integration Time (sec): 1.000000E-1
Scans to average: 1
Electric dark correction enabled: true
Nonlinearity correction enabled: false
Boxcar width: 0
XAxis mode: Wavelengths
Number of Pixels in Spectrum: 2048
>>>>>Begin Spectral Data<<<<<
223.165	-10
223.4	-10
223.635	-10
223.869	-13
224.104	-13
224.338	-14
224.573	-19
224.808	-20
225.042	-11
225.277	-6
225.511	-10
225.746	-9
225.98	10
226.215	16
226.449	17
226.683	32
226.918	21
227.152	29
227.387	42
227.621	42
227.856	41
228.09	43
228.324	47
228.559	60
228.793	77
229.027	101
229.262	104
229.496	110
229.73	117
229.964	142
230.199	108
230.433	103
230.667	105
230.901	115
231.136	100
231.37	102
231.604	120
231.838	115
232.072	111
232.306	115
232.541	112
232.775	111
233.009	118
233.243	111
233.477	123
233.711	125
233.945	99
234.179	108
234.413	117
234.647	123
234.881	121
235.115	120
235.349	123
235.583	126
235.817	123
236.051	119
236.285	140
236.519	134
236.753	150
236.987	141
237.221	162
237.455	216
237.689	163
237.922	131
238.156	132
238.39	131
238.624	128
238.858	120
239.091	107
239.325	126
239.559	125
239.793	123
240.027	142
240.26	143
240.494	152
240.728	139
240.961	144
241.195	154
241.429	140
241.662	127
241.896	122
242.13	122
242.363	134
242.597	136
242.83	146
243.064	150
243.298	138
243.531	130
243.765	131
243.998	136
244.232	137
244.465	139
244.699	130
244.932	154
245.166	164
245.399	149
245.633	148
245.866	148
246.099	123
246.333	137
246.566	156
246.8	157
247.033	179
247.266	138
247.5	151
247.733	173
247.966	172
248.2	159
248.433	158
248.666	162
248.899	181
249.133	192
249.366	189
249.599	197
249.832	173
250.066	150
250.299	158
250.532	199
250.765	194
250.998	204
251.231	207
251.465	207
251.698	193
251.931	188
252.164	198
252.397	207
252.63	196
252.863	195
253.096	215
253.329	219
253.562	214
253.795	211
254.028	220
254.261	211
254.494	222
254.727	239
254.96	270
255.193	246
255.426	234
255.659	214
255.892	230
256.124	219
256.357	240
256.59	217
256.823	218
257.056	214
257.289	203
257.521	216
257.754	206
257.987	210
258.22	209
258.452	209
258.685	209
258.918	198
259.151	231
259.383	214
259.616	233
259.849	238
260.081	227
260.314	259
260.547	243
260.779	239
261.012	229
261.244	232
261.477	243
261.71	230
261.942	220
262.175	220
262.407	231
262.64	218
262.872	215
263.105	220
263.337	216
263.57	207
263.802	215
264.035	228
264.267	220
264.499	238
264.732	228
264.964	217
265.197	216
265.429	214
265.661	218
265.894	221
266.126	234
266.358	233
266.591	221
266.823	222
267.055	243
267.287	232
267.52	247
267.752	238
267.984	245
268.216	235
268.448	254
268.681	262
268.913	264
269.145	283
269.377	284
269.609	278
269.841	272
270.073	285
270.306	300
270.538	302
270.77	302
271.002	299
271.234	285
271.466	308
271.698	304
271.93	301
272.162	318
272.394	335
272.626	307
272.858	287
273.09	284
273.322	274
273.553	279
273.785	263
274.017	278
274.249	267
274.481	284
274.713	277
274.945	269
275.176	282
275.408	287
275.64	286
275.872	263
276.104	274
276.335	272
276.567	281
276.799	288
277.031	313
277.262	328
277.494	312
277.726	315
277.957	310
278.189	298
278.421	284
278.652	290
278.884	280
279.115	274
279.347	299
279.579	287
279.81	282
280.042	273
280.273	279
280.505	287
280.736	293
280.968	293
281.199	305
281.431	280
281.662	282
281.894	279
282.125	296
282.356	314
282.588	310
282.819	300
283.051	291
283.282	287
283.513	285
283.745	311
283.976	299
284.207	297
284.439	306
284.67	310
284.901	315
285.132	290
285.364	293
285.595	290
285.826	283
286.057	295
286.288	282
286.52	317
286.751	292
286.982	306
287.213	303
287.444	312
287.675	303
287.906	307
288.138	327
288.369	321
288.6	323
288.831	322
289.062	315
289.293	300
289.524	324
289.755	302
289.986	302
290.217	317
290.448	310
290.679	313
290.91	303
291.141	316
291.371	307
291.602	295
291.833	331
292.064	308
292.295	310
292.526	301
292.757	304
292.987	327
293.218	309
293.449	310
293.68	316
293.91	317
294.141	299
294.372	309
294.603	293
294.833	309
295.064	321
295.295	327
295.525	313
295.756	342
295.987	331
296.217	338
296.448	342
296.679	328
296.909	317
297.14	317
297.37	314
297.601	340
297.831	336
298.062	341
298.292	330
298.523	336
298.753	344
298.984	329
299.214	338
299.445	340
299.675	346
299.905	325
300.136	325
300.366	328
300.597	320
300.827	352
301.057	368
301.288	354
301.518	336
301.748	327
301.979	342
302.209	347
302.439	354
302.669	344
302.9	355
303.13	341
303.36	364
303.59	364
303.82	358
304.051	354
304.281	367
304.511	365
304.741	355
304.971	336
305.201	347
305.431	335
305.661	348
305.891	346
306.121	339
306.352	335
306.582	342
306.812	348
307.042	359
307.272	353
307.502	360
307.731	361
307.961	353
308.191	365
308.421	350
308.651	373
308.881	359
309.111	370
309.341	370
309.571	367
309.8	365
310.03	410
310.26	372
310.49	386
310.72	394
310.949	414
311.179	411
311.409	390
311.639	386
311.868	397
312.098	394
312.328	396
312.557	399
312.787	423
313.017	399
313.246	370
313.476	379
313.706	413
313.935	388
314.165	422
314.394	402
314.624	410
314.853	398
315.083	388
315.312	399
315.542	395
315.771	387
316.001	407
316.23	373
316.46	374
316.689	395
316.919	402
317.148	411
317.377	392
317.607	386
317.836	386
318.065	406
318.295	400
318.524	404
318.753	403
318.983	368
319.212	381
319.441	400
319.67	418
319.9	402
320.129	400
320.358	397
320.587	400
320.816	424
321.046	411
321.275	414
321.504	396
321.733	411
321.962	415
322.191	422
322.42	434
322.649	442
322.878	430
323.108	463
323.337	457
323.566	481
323.795	508
324.024	548
324.253	620
324.482	848
324.71	1246
324.939	1692
325.168	1479
325.397	798
325.626	558
325.855	505
326.084	489
326.313	499
326.542	501
326.77	523
326.999	594
327.228	771
327.457	1142
327.686	1282
327.914	888
328.143	642
328.372	567
328.6	536
328.829	530
329.058	538
329.287	525
329.515	522
329.744	486
329.972	486
330.201	489
330.43	523
330.658	550
330.887	566
331.115	545
331.344	500
331.572	464
331.801	481
332.03	485
332.258	482
332.486	454
332.715	467
332.943	470
333.172	472
333.4	485
333.629	473
333.857	498
334.085	518
334.314	543
334.542	540
334.771	519
334.999	504
335.227	480
335.455	452
335.684	479
335.912	461
336.14	471
336.369	474
336.597	499
336.825	454
337.053	466
337.281	464
337.51	463
337.738	460
337.966	460
338.194	452
338.422	472
338.65	438
338.878	449
339.106	445
339.334	452
339.562	472
339.79	466
340.018	443
340.246	444
340.474	421
340.702	449
340.93	437
341.158	455
341.386	423
341.614	452
341.842	445
342.07	427
342.298	427
342.526	433
342.754	423
342.981	426
343.209	421
343.437	443
343.665	448
343.893	458
344.12	453
344.348	462
344.576	437
344.804	464
345.031	470
345.259	450
345.487	462
345.714	444
345.942	431
346.17	411
346.397	429
346.625	431
346.853	410
347.08	443
347.308	439
347.535	435
347.763	409
347.99	413
348.218	437
348.445	424
348.673	428
348.9	425
349.128	446
349.355	426
349.583	424
349.81	399
350.037	414
350.265	440
350.492	406
350.72	392
350.947	407
351.174	424
351.402	405
351.629	414
351.856	401
352.083	438
352.311	420
352.538	452
352.765	425
352.992	413
353.22	418
353.447	388
353.674	412
353.901	399
354.128	392
354.355	408
354.583	414
354.81	414
355.037	403
355.264	387
355.491	401
355.718	401
355.945	390
356.172	400
356.399	367
356.626	394
356.853	400
357.08	380
357.307	378
357.534	399
357.761	368
357.988	400
358.215	387
358.441	383
358.668	391
358.895	396
359.122	394
359.349	397
359.576	399
359.802	435
360.029	445
360.256	431
360.483	434
360.709	426
360.936	390
361.163	400
361.39	406
361.616	398
361.843	392
362.07	408
362.296	409
362.523	403
362.749	400
362.976	385
363.203	389
363.429	418
363.656	390
363.882	397
364.109	384
364.335	375
364.562	392
364.788	396
365.015	395
365.241	390
365.468	397
365.694	403
365.92	397
366.147	409
366.373	399
366.599	408
366.826	400
367.052	401
367.278	388
367.505	386
367.731	380
367.957	388
368.184	403
368.41	419
368.636	415
368.862	416
369.089	380
369.315	401
369.541	400
369.767	390
369.993	390
370.219	396
370.445	406
370.672	377
370.898	396
371.124	393
371.35	399
371.576	407
371.802	381
372.028	382
372.254	401
372.48	388
372.706	410
372.932	410
373.158	404
373.384	399
373.61	409
373.835	396
374.061	414
374.287	408
374.513	405
374.739	404
374.965	398
375.191	401
375.416	410
375.642	408
375.868	404
376.094	413
376.319	392
376.545	372
376.771	411
376.997	384
377.222	393
377.448	374
377.674	393
377.899	388
378.125	390
378.35	373
378.576	395
378.802	409
379.027	398
379.253	397
379.478	390
379.704	390
379.929	392
380.155	389
380.38	372
380.606	404
380.831	381
381.057	378
381.282	371
381.507	404
381.733	395
381.958	378
382.184	399
382.409	400
382.634	421
382.86	386
383.085	400
383.31	407
383.535	432
383.761	412
383.986	402
384.211	396
384.436	403
384.662	428
384.887	422
385.112	402
385.337	419
385.562	430
385.787	433
386.013	432
386.238	426
386.463	427
386.688	421
386.913	448
387.138	415
387.363	434
387.588	424
387.813	430
388.038	428
388.263	422
388.488	406
388.713	399
388.938	409
389.163	418
389.387	394
389.612	427
389.837	440
390.062	436
390.287	412
390.512	415
390.736	423
390.961	404
391.186	422
391.411	443
391.636	448
391.86	434
392.085	452
392.31	450
392.534	446
392.759	412
392.984	446
393.208	428
393.433	437
393.658	432
393.882	418
394.107	430
394.331	420
394.556	431
394.78	440
395.005	438
395.229	442
395.454	469
395.678	441
395.903	456
396.127	464
396.352	458
396.576	446
396.801	434
397.025	446
397.249	445
397.474	456
397.698	476
397.922	475
398.147	468
398.371	487
398.595	472
398.82	467
399.044	487
399.268	519
399.492	556
399.717	594
399.941	604
400.165	596
400.389	601
400.613	562
400.837	529
401.062	484
401.286	505
401.51	489
401.734	481
401.958	495
402.182	495
402.406	526
402.63	504
402.854	495
403.078	515
403.302	493
403.526	513
403.75	498
403.974	498
404.198	520
404.422	509
404.645	507
404.869	495
405.093	540
405.317	565
405.541	591
405.765	545
405.988	530
406.212	525
406.436	548
406.66	554
406.883	534
407.107	572
407.331	600
407.555	636
407.778	621
408.002	582
408.226	568
408.449	564
408.673	543
408.896	536
409.12	602
409.344	564
409.567	524
409.791	499
410.014	489
410.238	498
410.461	505
410.685	504
410.908	509
411.132	548
411.355	552
411.578	546
411.802	499
412.025	479
412.249	516
412.472	526
412.695	536
412.919	540
413.142	505
413.365	474
413.589	486
413.812	457
414.035	471
414.258	477
414.482	452
414.705	493
414.928	482
415.151	451
415.374	467
415.597	456
415.821	462
416.044	471
416.267	492
416.49	463
416.713	478
416.936	447
417.159	474
417.382	452
417.605	466
417.828	485
418.051	478
418.274	480
418.497	478
418.72	456
418.943	472
419.166	495
419.389	528
419.611	484
419.834	475
420.057	514
420.28	502
420.503	494
420.726	487
420.948	501
421.171	534
421.394	558
421.617	486
421.839	474
422.062	478
422.285	489
422.507	550
422.73	593
422.953	574
423.175	549
423.398	480
423.621	510
423.843	505
424.066	512
424.288	528
424.511	522
424.733	551
424.956	648
425.178	612
425.401	601
425.623	617
425.846	562
426.068	516
426.291	501
426.513	502
426.735	525
426.958	558
427.18	634
427.402	711
427.625	796
427.847	680
428.069	592
428.292	546
428.514	486
428.736	490
428.958	474
429.181	470
429.403	470
429.625	444
429.847	484
430.069	543
430.292	550
430.514	468
430.736	468
430.958	469
431.18	463
431.402	463
431.624	452
431.846	446
432.068	473
432.29	458
432.512	438
432.734	457
432.956	456
433.178	458
433.4	450
433.622	458
433.844	466
434.066	447
434.287	445
434.509	462
434.731	471
434.953	476
435.175	481
435.397	498
435.618	495
435.84	548
436.062	622
436.284	644
436.505	587
436.727	517
436.949	478
437.17	471
437.392	451
437.614	462
437.835	487
438.057	580
438.278	667
438.5	636
438.721	691
438.943	699
439.165	557
439.386	505
439.608	483
439.829	502
440.05	520
440.272	544
440.493	520
440.715	487
440.936	482
441.158	463
441.379	454
441.6	506
441.822	490
442.043	520
442.264	628
442.486	629
442.707	542
442.928	543
443.149	492
443.371	534
443.592	574
443.813	654
444.034	708
444.255	603
444.476	545
444.698	524
444.919	499
445.14	587
445.361	556
445.582	512
445.803	572
446.024	652
446.245	690
446.466	630
446.687	528
446.908	495
447.129	473
447.35	450
447.571	442
447.792	450
448.013	463
448.234	474
448.455	506
448.675	605
448.896	700
449.117	597
449.338	553
449.559	628
449.779	750
450	588
450.221	488
450.442	465
450.662	433
450.883	445
451.104	455
451.324	443
451.545	446
451.766	444
451.986	430
452.207	427
452.428	397
452.648	411
452.869	400
453.089	425
453.31	429
453.53	407
453.751	420
453.971	424
454.192	406
454.412	396
454.633	403
454.853	402
455.073	408
455.294	425
455.514	472
455.734	461
455.955	428
456.175	381
456.395	374
456.616	383
456.836	380
457.056	386
457.276	385
457.497	397
457.717	410
457.937	417
458.157	405
458.377	383
458.598	414
458.818	465
459.038	504
459.258	525
459.478	474
459.698	431
459.918	443
460.138	436
460.358	447
460.578	445
460.798	475
461.018	460
461.238	472
461.458	470
461.678	460
461.898	478
462.118	454
462.338	454
462.558	491
462.777	487
462.997	493
463.217	517
463.437	510
463.657	508
463.876	484
464.096	498
464.316	473
464.536	523
464.755	506
464.975	482
465.195	506
465.414	523
465.634	483
465.854	448
466.073	455
466.293	424
466.512	426
466.732	410
466.951	445
467.171	411
467.391	403
467.61	434
467.829	436
468.049	445
468.268	463
468.488	414
468.707	414
468.927	399
469.146	408
469.365	391
469.585	410
469.804	398
470.023	450
470.243	418
470.462	422
470.681	438
470.901	428
471.12	428
471.339	416
471.558	394
471.777	420
471.997	433
472.216	419
472.435	460
472.654	427
472.873	428
473.092	410
473.311	398
473.53	423
473.749	435
473.968	459
474.187	538
474.406	558
474.625	475
474.844	425
475.063	427
475.282	435
475.501	423
475.72	426
475.939	425
476.158	430
476.377	446
476.596	440
476.814	431
477.033	466
477.252	454
477.471	462
477.69	444
477.908	449
478.127	471
478.346	463
478.564	476
478.783	489
479.002	479
479.22	469
479.439	481
479.658	504
479.876	512
480.095	525
480.313	565
480.532	534
480.751	522
480.969	526
481.188	558
481.406	557
481.624	527
481.843	495
482.061	506
482.28	488
482.498	494
482.717	495
482.935	491
483.153	475
483.372	484
483.59	480
483.808	493
484.027	496
484.245	478
484.463	501
484.681	500
484.9	478
485.118	503
485.336	501
485.554	498
485.772	524
485.99	500
486.209	492
486.427	505
486.645	528
486.863	488
487.081	504
487.299	526
487.517	508
487.735	516
487.953	528
488.171	533
488.389	520
488.607	495
488.825	528
489.043	505
489.261	522
489.479	529
489.696	512
489.914	524
490.132	546
490.35	536
490.568	536
490.786	548
491.003	546
491.221	566
491.439	555
491.657	567
491.874	610
492.092	582
492.31	578
492.527	563
492.745	583
492.963	584
493.18	576
493.398	603
493.615	617
493.833	594
494.05	594
494.268	612
494.485	599
494.703	608
494.92	596
495.138	606
495.355	591
495.573	606
495.79	593
496.008	604
496.225	609
496.442	612
496.66	630
496.877	603
497.094	600
497.312	631
497.529	614
497.746	651
497.963	633
498.181	661
498.398	698
498.615	677
498.832	704
499.049	720
499.267	746
499.484	788
499.701	823
499.918	836
500.135	888
500.352	942
500.569	935
500.786	953
501.003	922
501.22	910
501.437	887
501.654	820
501.871	833
502.088	778
502.305	739
502.522	731
502.739	706
502.956	652
503.172	661
503.389	676
503.606	660
503.823	630
504.04	640
504.256	630
504.473	608
504.69	635
504.907	625
505.123	632
505.34	582
505.557	610
505.773	595
505.99	572
506.207	579
506.423	590
506.64	551
506.856	555
507.073	558
507.289	556
507.506	550
507.722	554
507.939	560
508.155	559
508.372	542
508.588	525
508.805	550
509.021	552
509.238	554
509.454	538
509.67	545
509.887	530
510.103	515
510.319	539
510.536	604
510.752	917
510.968	714
511.184	534
511.401	522
511.617	529
511.833	538
512.049	492
512.265	506
512.481	500
512.698	529
512.914	504
513.13	493
513.346	493
513.562	514
513.778	495
513.994	520
514.21	526
514.426	512
514.642	534
514.858	546
515.074	593
515.29	662
515.506	883
515.721	768
515.937	592
516.153	541
516.369	542
516.585	538
516.801	538
517.016	533
517.232	546
517.448	546
517.664	549
517.879	568
518.095	535
518.311	544
518.527	550
518.742	544
518.958	527
519.173	500
519.389	516
519.605	535
519.82	531
520.036	527
520.251	563
520.467	551
520.682	538
520.898	564
521.113	555
521.329	590
521.544	615
521.76	700
521.975	1089
522.19	1045
522.406	655
522.621	551
522.836	519
523.052	486
523.267	468
523.482	452
523.698	462
523.913	461
524.128	456
524.343	442
524.559	453
524.774	446
524.989	457
525.204	454
525.419	466
525.634	445
525.849	445
526.064	451
526.28	444
526.495	429
526.71	454
526.925	442
527.14	435
527.355	412
527.57	437
527.785	448
527.999	445
528.214	438
528.429	428
528.644	444
528.859	428
529.074	442
529.289	439
529.503	491
529.718	464
529.933	434
530.148	410
530.363	439
530.577	416
530.792	434
531.007	431
531.221	420
531.436	419
531.651	414
531.865	433
532.08	420
532.295	434
532.509	418
532.724	407
532.938	412
533.153	404
533.367	409
533.582	414
533.796	410
534.011	406
534.225	409
534.44	420
534.654	421
534.868	416
535.083	409
535.297	400
535.511	408
535.726	409
535.94	406
536.154	400
536.369	418
536.583	410
536.797	405
537.011	399
537.225	401
537.44	402
537.654	405
537.868	389
538.082	394
538.296	395
538.51	408
538.724	388
538.938	389
539.153	404
539.367	383
539.581	389
539.795	390
540.009	395
540.222	400
540.436	416
540.65	396
540.864	395
541.078	396
541.292	398
541.506	387
541.72	389
541.934	376
542.147	386
542.361	359
542.575	400
542.789	404
543.002	390
543.216	396
543.43	388
543.644	398
543.857	400
544.071	404
544.285	401
544.498	389
544.712	395
544.925	377
545.139	400
545.352	374
545.566	363
545.779	379
545.993	388
546.206	388
546.42	391
546.633	388
546.847	395
547.06	371
547.274	371
547.487	382
547.7	377
547.914	361
548.127	354
548.34	395
548.554	365
548.767	373
548.98	367
549.193	357
549.407	391
549.62	374
549.833	374
550.046	372
550.259	379
550.473	366
550.686	390
550.899	364
551.112	368
551.325	370
551.538	378
551.751	389
551.964	376
552.177	382
552.39	371
552.603	377
552.816	388
553.029	382
553.242	386
553.455	402
553.667	391
553.88	421
554.093	398
554.306	408
554.519	386
554.732	383
554.944	363
555.157	352
555.37	380
555.583	375
555.795	358
556.008	355
556.221	364
556.433	351
556.646	350
556.859	353
557.071	334
557.284	343
557.496	357
557.709	352
557.921	354
558.134	342
558.346	328
558.559	330
558.771	332
558.984	328
559.196	354
559.409	325
559.621	334
559.833	332
560.046	334
560.258	318
560.47	340
560.683	342
560.895	359
561.107	314
561.32	336
561.532	334
561.744	339
561.956	327
562.168	362
562.381	343
562.593	341
562.805	357
563.017	351
563.229	335
563.441	345
