Data from 1977.PennyLincolnUp.Lamp.En5.5.200Scan.071719.P1_HRD10591_16-05-23-863.txt Node
Date: Thu Jul 18 16:05:23 EDT 2019
User: cochatt
Spectrometer: HR+D1059
Trigger mode: 1
Integration Time (sec): 1.000000E-1
Scans to average: 1
Electric dark correction enabled: true
Nonlinearity correction enabled: false
Boxcar width: 0
XAxis mode: Wavelengths
Number of Pixels in Spectrum: 2048
>>>>>Begin Spectral Data<<<<<
223.165	-12.81
223.4	-12.81
223.635	-12.81
223.869	-14.81
224.104	-11.81
224.338	-10.81
224.573	-20.81
224.808	-19.81
225.042	-8.81
225.277	3.19
225.511	5.19
225.746	-5.81
225.98	-5.81
226.215	21.19
226.449	14.19
226.683	16.19
226.918	35.19
227.152	16.19
227.387	29.19
227.621	33.19
227.856	37.19
228.09	42.19
228.324	61.19
228.559	57.19
228.793	74.19
229.027	102.19
229.262	94.19
229.496	102.19
229.73	112.19
229.964	117.19
230.199	102.19
230.433	115.19
230.667	91.19
230.901	116.19
231.136	110.19
231.37	109.19
231.604	118.19
231.838	104.19
232.072	113.19
232.306	114.19
232.541	125.19
232.775	115.19
233.009	119.19
233.243	103.19
233.477	117.19
233.711	113.19
233.945	116.19
234.179	125.19
234.413	115.19
234.647	117.19
234.881	117.19
235.115	115.19
235.349	103.19
235.583	109.19
235.817	128.19
236.051	134.19
236.285	122.19
236.519	108.19
236.753	119.19
236.987	121.19
237.221	168.19
237.455	190.19
237.689	151.19
237.922	124.19
238.156	139.19
238.39	113.19
238.624	113.19
238.858	121.19
239.091	124.19
239.325	130.19
239.559	104.19
239.793	114.19
240.027	133.19
240.26	126.19
240.494	142.19
240.728	136.19
240.961	142.19
241.195	137.19
241.429	150.19
241.662	129.19
241.896	120.19
242.13	131.19
242.363	132.19
242.597	129.19
242.83	139.19
243.064	132.19
243.298	139.19
243.531	133.19
243.765	124.19
243.998	124.19
244.232	140.19
244.465	128.19
244.699	129.19
244.932	149.19
245.166	126.19
245.399	135.19
245.633	150.19
245.866	135.19
246.099	153.19
246.333	139.19
246.566	145.19
246.8	151.19
247.033	127.19
247.266	156.19
247.5	142.19
247.733	165.19
247.966	171.19
248.2	172.19
248.433	161.19
248.666	163.19
248.899	181.19
249.133	190.19
249.366	170.19
249.599	162.19
249.832	166.19
250.066	172.19
250.299	173.19
250.532	170.19
250.765	193.19
250.998	202.19
251.231	212.19
251.465	185.19
251.698	195.19
251.931	171.19
252.164	189.19
252.397	202.19
252.63	190.19
252.863	202.19
253.096	177.19
253.329	209.19
253.562	207.19
253.795	189.19
254.028	202.19
254.261	210.19
254.494	217.19
254.727	235.19
254.96	265.19
255.193	242.19
255.426	220.19
255.659	234.19
255.892	224.19
256.124	212.19
256.357	225.19
256.59	212.19
256.823	194.19
257.056	216.19
257.289	197.19
257.521	199.19
257.754	202.19
257.987	182.19
258.22	196.19
258.452	201.19
258.685	196.19
258.918	202.19
259.151	192.19
259.383	214.19
259.616	207.19
259.849	215.19
260.081	218.19
260.314	212.19
260.547	253.19
260.779	213.19
261.012	219.19
261.244	214.19
261.477	220.19
261.71	230.19
261.942	224.19
262.175	217.19
262.407	222.19
262.64	198.19
262.872	234.19
263.105	227.19
263.337	208.19
263.57	210.19
263.802	200.19
264.035	211.19
264.267	206.19
264.499	210.19
264.732	190.19
264.964	210.19
265.197	209.19
265.429	238.19
265.661	211.19
265.894	215.19
266.126	206.19
266.358	212.19
266.591	235.19
266.823	234.19
267.055	228.19
267.287	205.19
267.52	238.19
267.752	226.19
267.984	241.19
268.216	227.19
268.448	226.19
268.681	229.19
268.913	223.19
269.145	254.19
269.377	258.19
269.609	250.19
269.841	242.19
270.073	262.19
270.306	259.19
270.538	295.19
270.77	299.19
271.002	290.19
271.234	261.19
271.466	285.19
271.698	277.19
271.93	303.19
272.162	286.19
272.394	296.19
272.626	275.19
272.858	275.19
273.09	277.19
273.322	271.19
273.553	271.19
273.785	249.19
274.017	261.19
274.249	257.19
274.481	271.19
274.713	263.19
274.945	264.19
275.176	279.19
275.408	275.19
275.64	258.19
275.872	262.19
276.104	269.19
276.335	266.19
276.567	266.19
276.799	277.19
277.031	301.19
277.262	292.19
277.494	290.19
277.726	284.19
277.957	286.19
278.189	286.19
278.421	272.19
278.652	281.19
278.884	270.19
279.115	275.19
279.347	275.19
279.579	276.19
279.81	277.19
280.042	272.19
280.273	278.19
280.505	271.19
280.736	278.19
280.968	273.19
281.199	299.19
281.431	285.19
281.662	277.19
281.894	280.19
282.125	273.19
282.356	285.19
282.588	273.19
282.819	300.19
283.051	283.19
283.282	264.19
283.513	295.19
283.745	267.19
283.976	286.19
284.207	295.19
284.439	279.19
284.67	277.19
284.901	281.19
285.132	301.19
285.364	293.19
285.595	285.19
285.826	298.19
286.057	288.19
286.288	279.19
286.52	283.19
286.751	307.19
286.982	298.19
287.213	290.19
287.444	289.19
287.675	301.19
287.906	325.19
288.138	308.19
288.369	318.19
288.6	314.19
288.831	324.19
289.062	322.19
289.293	302.19
289.524	301.19
289.755	302.19
289.986	293.19
290.217	329.19
290.448	302.19
290.679	313.19
290.91	297.19
291.141	305.19
291.371	292.19
291.602	329.19
291.833	284.19
292.064	294.19
292.295	295.19
292.526	294.19
292.757	297.19
292.987	312.19
293.218	303.19
293.449	298.19
293.68	304.19
293.91	313.19
294.141	301.19
294.372	294.19
294.603	295.19
294.833	307.19
295.064	308.19
295.295	305.19
295.525	300.19
295.756	313.19
295.987	320.19
296.217	333.19
296.448	340.19
296.679	330.19
296.909	305.19
297.14	325.19
297.37	326.19
297.601	316.19
297.831	318.19
298.062	319.19
298.292	330.19
298.523	323.19
298.753	334.19
298.984	307.19
299.214	326.19
299.445	323.19
299.675	327.19
299.905	320.19
300.136	315.19
300.366	307.19
300.597	317.19
300.827	337.19
301.057	324.19
301.288	360.19
301.518	331.19
301.748	341.19
301.979	335.19
302.209	333.19
302.439	336.19
302.669	340.19
302.9	346.19
303.13	359.19
303.36	346.19
303.59	333.19
303.82	339.19
304.051	334.19
304.281	337.19
304.511	336.19
304.741	346.19
304.971	360.19
305.201	332.19
305.431	343.19
305.661	361.19
305.891	328.19
306.121	338.19
306.352	357.19
306.582	340.19
306.812	364.19
307.042	339.19
307.272	323.19
307.502	330.19
307.731	342.19
307.961	348.19
308.191	342.19
308.421	340.19
308.651	344.19
308.881	350.19
309.111	347.19
309.341	333.19
309.571	357.19
309.8	357.19
310.03	355.19
310.26	415.19
310.49	372.19
310.72	356.19
310.949	378.19
311.179	371.19
311.409	357.19
311.639	370.19
311.868	367.19
312.098	373.19
312.328	360.19
312.557	379.19
312.787	385.19
313.017	387.19
313.246	400.19
313.476	372.19
313.706	374.19
313.935	374.19
314.165	377.19
314.394	390.19
314.624	401.19
314.853	394.19
315.083	377.19
315.312	364.19
315.542	376.19
315.771	375.19
316.001	374.19
316.23	380.19
316.46	379.19
316.689	381.19
316.919	378.19
317.148	386.19
317.377	385.19
317.607	379.19
317.836	376.19
318.065	381.19
318.295	380.19
318.524	378.19
318.753	403.19
318.983	394.19
319.212	377.19
319.441	362.19
319.67	389.19
319.9	370.19
320.129	389.19
320.358	372.19
320.587	400.19
320.816	386.19
321.046	403.19
321.275	396.19
321.504	394.19
321.733	394.19
321.962	392.19
322.191	417.19
322.42	405.19
322.649	422.19
322.878	418.19
323.108	424.19
323.337	443.19
323.566	477.19
323.795	479.19
324.024	487.19
324.253	546.19
324.482	723.19
324.71	1073.19
324.939	1435.19
325.168	1229.19
325.397	695.19
325.626	499.19
325.855	469.19
326.084	447.19
326.313	451.19
326.542	447.19
326.77	461.19
326.999	541.19
327.228	678.19
327.457	985.19
327.686	1132.19
327.914	770.19
328.143	583.19
328.372	525.19
328.6	486.19
328.829	475.19
329.058	498.19
329.287	502.19
329.515	480.19
329.744	462.19
329.972	469.19
330.201	481.19
330.43	495.19
330.658	500.19
330.887	512.19
331.115	486.19
331.344	481.19
331.572	450.19
331.801	439.19
332.03	446.19
332.258	442.19
332.486	447.19
332.715	439.19
332.943	453.19
333.172	472.19
333.4	459.19
333.629	459.19
333.857	466.19
334.085	475.19
334.314	498.19
334.542	475.19
334.771	503.19
334.999	487.19
335.227	464.19
335.455	457.19
335.684	458.19
335.912	462.19
336.14	452.19
336.369	438.19
336.597	438.19
336.825	444.19
337.053	443.19
337.281	445.19
337.51	445.19
337.738	459.19
337.966	451.19
338.194	451.19
338.422	410.19
338.65	433.19
338.878	430.19
339.106	441.19
339.334	439.19
339.562	434.19
339.79	415.19
340.018	446.19
340.246	418.19
340.474	433.19
340.702	423.19
340.93	425.19
341.158	415.19
341.386	395.19
341.614	429.19
341.842	412.19
342.07	431.19
342.298	413.19
342.526	428.19
342.754	421.19
342.981	416.19
343.209	426.19
343.437	432.19
343.665	428.19
343.893	441.19
344.12	428.19
344.348	463.19
344.576	452.19
344.804	449.19
345.031	409.19
345.259	436.19
345.487	401.19
345.714	406.19
345.942	418.19
346.17	413.19
346.397	403.19
346.625	396.19
346.853	393.19
347.08	405.19
347.308	410.19
347.535	417.19
347.763	408.19
347.99	416.19
348.218	414.19
348.445	420.19
348.673	388.19
348.9	393.19
349.128	413.19
349.355	396.19
349.583	404.19
349.81	385.19
350.037	393.19
350.265	405.19
350.492	387.19
350.72	397.19
350.947	385.19
351.174	410.19
351.402	405.19
351.629	382.19
351.856	394.19
352.083	406.19
352.311	410.19
352.538	393.19
352.765	417.19
352.992	394.19
353.22	410.19
353.447	405.19
353.674	379.19
353.901	403.19
354.128	390.19
354.355	379.19
354.583	367.19
354.81	376.19
355.037	379.19
355.264	383.19
355.491	383.19
355.718	380.19
355.945	363.19
356.172	378.19
356.399	362.19
356.626	359.19
356.853	360.19
357.08	360.19
357.307	398.19
357.534	394.19
357.761	378.19
357.988	376.19
358.215	379.19
358.441	395.19
358.668	381.19
358.895	387.19
359.122	387.19
359.349	380.19
359.576	399.19
359.802	408.19
360.029	431.19
360.256	423.19
360.483	416.19
360.709	396.19
360.936	400.19
361.163	389.19
361.39	380.19
361.616	373.19
361.843	382.19
362.07	398.19
362.296	385.19
362.523	397.19
362.749	391.19
362.976	385.19
363.203	404.19
363.429	383.19
363.656	393.19
363.882	394.19
364.109	391.19
364.335	371.19
364.562	375.19
364.788	379.19
365.015	389.19
365.241	379.19
365.468	381.19
365.694	387.19
365.92	412.19
366.147	395.19
366.373	359.19
366.599	363.19
366.826	377.19
367.052	378.19
367.278	381.19
367.505	382.19
367.731	373.19
367.957	391.19
368.184	385.19
368.41	393.19
368.636	388.19
368.862	388.19
369.089	390.19
369.315	381.19
369.541	389.19
369.767	396.19
369.993	369.19
370.219	387.19
370.445	392.19
370.672	384.19
370.898	389.19
371.124	397.19
371.35	382.19
371.576	380.19
371.802	379.19
372.028	381.19
372.254	382.19
372.48	375.19
372.706	377.19
372.932	390.19
373.158	389.19
373.384	409.19
373.61	396.19
373.835	383.19
374.061	402.19
374.287	385.19
374.513	389.19
374.739	370.19
374.965	392.19
375.191	391.19
375.416	385.19
375.642	375.19
375.868	381.19
376.094	381.19
376.319	378.19
376.545	383.19
376.771	361.19
376.997	373.19
377.222	389.19
377.448	374.19
377.674	382.19
377.899	365.19
378.125	383.19
378.35	370.19
378.576	371.19
378.802	378.19
379.027	377.19
379.253	382.19
379.478	377.19
379.704	384.19
379.929	374.19
380.155	378.19
380.38	390.19
380.606	390.19
380.831	379.19
381.057	381.19
381.282	386.19
381.507	401.19
381.733	364.19
381.958	387.19
382.184	381.19
382.409	396.19
382.634	377.19
382.86	369.19
383.085	402.19
383.31	404.19
383.535	406.19
383.761	395.19
383.986	389.19
384.211	385.19
384.436	422.19
384.662	415.19
384.887	417.19
385.112	398.19
385.337	412.19
385.562	419.19
385.787	419.19
386.013	405.19
386.238	422.19
386.463	430.19
386.688	422.19
386.913	425.19
387.138	416.19
387.363	424.19
387.588	431.19
387.813	443.19
388.038	408.19
388.263	427.19
388.488	423.19
388.713	423.19
388.938	428.19
389.163	420.19
389.387	415.19
389.612	421.19
389.837	417.19
390.062	421.19
390.287	402.19
390.512	421.19
390.736	418.19
390.961	421.19
391.186	411.19
391.411	422.19
391.636	433.19
391.86	433.19
392.085	431.19
392.31	429.19
392.534	436.19
392.759	429.19
392.984	429.19
393.208	424.19
393.433	447.19
393.658	411.19
393.882	426.19
394.107	441.19
394.331	459.19
394.556	417.19
394.78	419.19
395.005	444.19
395.229	407.19
395.454	447.19
395.678	430.19
395.903	454.19
396.127	454.19
396.352	469.19
396.576	441.19
396.801	443.19
397.025	466.19
397.249	451.19
397.474	437.19
397.698	453.19
397.922	455.19
398.147	473.19
398.371	465.19
398.595	473.19
398.82	482.19
399.044	527.19
399.268	529.19
399.492	547.19
399.717	601.19
399.941	577.19
400.165	579.19
400.389	606.19
400.613	546.19
400.837	494.19
401.062	481.19
401.286	477.19
401.51	481.19
401.734	470.19
401.958	468.19
402.182	497.19
402.406	485.19
402.63	479.19
402.854	467.19
403.078	488.19
403.302	459.19
403.526	477.19
403.75	499.19
403.974	497.19
404.198	483.19
404.422	491.19
404.645	506.19
404.869	481.19
405.093	512.19
405.317	556.19
405.541	575.19
405.765	507.19
405.988	509.19
406.212	518.19
406.436	527.19
406.66	529.19
406.883	538.19
407.107	552.19
407.331	580.19
407.555	618.19
407.778	625.19
408.002	574.19
408.226	549.19
408.449	531.19
408.673	520.19
408.896	556.19
409.12	589.19
409.344	550.19
409.567	490.19
409.791	499.19
410.014	483.19
410.238	477.19
410.461	476.19
410.685	502.19
410.908	503.19
411.132	523.19
411.355	551.19
411.578	516.19
411.802	498.19
412.025	457.19
412.249	503.19
412.472	479.19
412.695	511.19
412.919	515.19
413.142	491.19
413.365	452.19
413.589	482.19
413.812	492.19
414.035	468.19
414.258	455.19
414.482	463.19
414.705	466.19
414.928	474.19
415.151	456.19
415.374	452.19
415.597	467.19
415.821	455.19
416.044	462.19
416.267	457.19
416.49	450.19
416.713	427.19
416.936	443.19
417.159	466.19
417.382	444.19
417.605	450.19
417.828	475.19
418.051	472.19
418.274	462.19
418.497	471.19
418.72	454.19
418.943	444.19
419.166	473.19
419.389	499.19
419.611	482.19
419.834	486.19
420.057	468.19
420.28	480.19
420.503	470.19
420.726	471.19
420.948	482.19
421.171	495.19
421.394	505.19
421.617	486.19
421.839	484.19
422.062	480.19
422.285	482.19
422.507	529.19
422.73	582.19
422.953	545.19
423.175	503.19
423.398	501.19
423.621	495.19
423.843	501.19
424.066	480.19
424.288	499.19
424.511	521.19
424.733	542.19
424.956	613.19
425.178	599.19
425.401	567.19
425.623	589.19
425.846	534.19
426.068	486.19
426.291	475.19
426.513	477.19
426.735	495.19
426.958	515.19
427.18	595.19
427.402	682.19
427.625	737.19
427.847	635.19
428.069	553.19
428.292	497.19
428.514	480.19
428.736	473.19
428.958	464.19
429.181	461.19
429.403	451.19
429.625	467.19
429.847	497.19
430.069	527.19
430.292	527.19
430.514	458.19
430.736	456.19
430.958	445.19
431.18	437.19
431.402	431.19
431.624	432.19
431.846	416.19
432.068	432.19
432.29	420.19
432.512	444.19
432.734	419.19
432.956	435.19
433.178	444.19
433.4	443.19
433.622	439.19
433.844	425.19
434.066	438.19
434.287	429.19
434.509	447.19
434.731	439.19
434.953	452.19
435.175	460.19
435.397	497.19
435.618	501.19
435.84	510.19
436.062	602.19
436.284	625.19
436.505	522.19
436.727	471.19
436.949	459.19
437.17	455.19
437.392	451.19
437.614	458.19
437.835	463.19
438.057	543.19
438.278	595.19
438.5	604.19
438.721	669.19
438.943	652.19
439.165	537.19
439.386	475.19
439.608	468.19
439.829	491.19
440.05	515.19
440.272	514.19
440.493	510.19
440.715	486.19
440.936	451.19
441.158	469.19
441.379	450.19
441.6	456.19
441.822	463.19
442.043	493.19
442.264	558.19
442.486	583.19
442.707	525.19
442.928	486.19
443.149	482.19
443.371	498.19
443.592	548.19
443.813	591.19
444.034	673.19
444.255	567.19
444.476	519.19
444.698	492.19
444.919	501.19
445.14	575.19
445.361	558.19
445.582	527.19
445.803	514.19
446.024	613.19
446.245	618.19
446.466	597.19
446.687	501.19
446.908	458.19
447.129	464.19
447.35	452.19
447.571	438.19
447.792	429.19
448.013	438.19
448.234	448.19
448.455	487.19
448.675	549.19
448.896	666.19
449.117	567.19
449.338	536.19
449.559	605.19
449.779	684.19
450	566.19
450.221	453.19
450.442	436.19
450.662	416.19
450.883	414.19
451.104	435.19
451.324	422.19
451.545	400.19
451.766	397.19
451.986	392.19
452.207	385.19
452.428	385.19
452.648	390.19
452.869	387.19
453.089	389.19
453.31	402.19
453.53	398.19
453.751	399.19
453.971	378.19
454.192	395.19
454.412	397.19
454.633	397.19
454.853	391.19
455.073	385.19
455.294	387.19
455.514	442.19
455.734	459.19
455.955	390.19
456.175	395.19
456.395	382.19
456.616	379.19
456.836	399.19
457.056	366.19
457.276	373.19
457.497	366.19
457.717	391.19
457.937	383.19
458.157	374.19
458.377	385.19
458.598	406.19
458.818	451.19
459.038	472.19
459.258	519.19
459.478	444.19
459.698	429.19
459.918	422.19
460.138	439.19
460.358	439.19
460.578	443.19
460.798	455.19
461.018	447.19
461.238	450.19
461.458	456.19
461.678	434.19
461.898	450.19
462.118	445.19
462.338	488.19
462.558	462.19
462.777	481.19
462.997	507.19
463.217	508.19
463.437	517.19
463.657	494.19
463.876	473.19
464.096	479.19
464.316	479.19
464.536	477.19
464.755	481.19
464.975	468.19
465.195	490.19
465.414	517.19
465.634	460.19
465.854	433.19
466.073	433.19
466.293	425.19
466.512	418.19
466.732	399.19
466.951	388.19
467.171	407.19
467.391	403.19
467.61	410.19
467.829	422.19
468.049	403.19
468.268	395.19
468.488	413.19
468.707	403.19
468.927	404.19
469.146	399.19
469.365	393.19
469.585	389.19
469.804	418.19
470.023	421.19
470.243	411.19
470.462	413.19
470.681	417.19
470.901	421.19
471.12	416.19
471.339	429.19
471.558	426.19
471.777	416.19
471.997	416.19
472.216	420.19
472.435	408.19
472.654	403.19
472.873	400.19
473.092	406.19
473.311	411.19
473.53	410.19
473.749	430.19
473.968	463.19
474.187	508.19
474.406	517.19
474.625	444.19
474.844	424.19
475.063	411.19
475.282	424.19
475.501	425.19
475.72	437.19
475.939	409.19
476.158	408.19
476.377	429.19
476.596	427.19
476.814	428.19
477.033	423.19
477.252	436.19
477.471	423.19
477.69	455.19
477.908	425.19
478.127	437.19
478.346	451.19
478.564	441.19
478.783	469.19
479.002	466.19
479.22	477.19
479.439	466.19
479.658	500.19
479.876	490.19
480.095	490.19
480.313	542.19
480.532	502.19
480.751	517.19
480.969	493.19
481.188	504.19
481.406	506.19
481.624	485.19
481.843	473.19
482.061	469.19
482.28	473.19
482.498	478.19
482.717	466.19
482.935	482.19
483.153	469.19
483.372	469.19
483.59	486.19
483.808	477.19
484.027	451.19
484.245	485.19
484.463	464.19
484.681	486.19
484.9	478.19
485.118	469.19
485.336	481.19
485.554	481.19
485.772	483.19
485.99	511.19
486.209	499.19
486.427	499.19
486.645	502.19
486.863	483.19
487.081	493.19
487.299	501.19
487.517	500.19
487.735	497.19
487.953	494.19
488.171	515.19
488.389	494.19
488.607	490.19
488.825	486.19
489.043	516.19
489.261	521.19
489.479	505.19
489.696	517.19
489.914	530.19
490.132	512.19
490.35	516.19
490.568	503.19
490.786	512.19
491.003	523.19
491.221	530.19
491.439	567.19
491.657	562.19
491.874	561.19
492.092	561.19
492.31	548.19
492.527	548.19
492.745	521.19
492.963	572.19
493.18	554.19
493.398	568.19
493.615	570.19
493.833	565.19
494.05	565.19
494.268	564.19
494.485	557.19
494.703	563.19
494.92	567.19
495.138	570.19
495.355	594.19
495.573	578.19
495.79	608.19
496.008	581.19
496.225	588.19
496.442	575.19
496.66	596.19
496.877	598.19
497.094	573.19
497.312	602.19
497.529	615.19
497.746	604.19
497.963	608.19
498.181	647.19
498.398	632.19
498.615	675.19
498.832	686.19
499.049	702.19
499.267	716.19
499.484	790.19
499.701	801.19
499.918	824.19
500.135	841.19
500.352	927.19
500.569	954.19
500.786	945.19
501.003	896.19
501.22	876.19
501.437	833.19
501.654	806.19
501.871	789.19
