Data from 1977.PennyLincolnUp.Lamp.En5.5.200Scan.071719.P1_HRD10591_16-06-16-864.txt Node
Date: Thu Jul 18 16:06:16 EDT 2019
User: cochatt
Spectrometer: HR+D1059
Trigger mode: 1
Integration Time (sec): 1.000000E-1
Scans to average: 1
Electric dark correction enabled: true
Nonlinearity correction enabled: false
Boxcar width: 0
XAxis mode: Wavelengths
Number of Pixels in Spectrum: 2048
>>>>>Begin Spectral Data<<<<<
223.165	-8.81
223.4	-8.81
223.635	-8.81
223.869	-10.81
224.104	-17.81
224.338	-17.81
224.573	-19.81
224.808	-12.81
225.042	0.19
225.277	4.19
225.511	-1.81
225.746	1.19
225.98	5.19
226.215	24.19
226.449	-0.81
226.683	17.19
226.918	10.19
227.152	28.19
227.387	25.19
227.621	44.19
227.856	39.19
228.09	40.19
228.324	57.19
228.559	53.19
228.793	51.19
229.027	106.19
229.262	99.19
229.496	95.19
229.73	130.19
229.964	155.19
230.199	130.19
230.433	108.19
230.667	104.19
230.901	117.19
231.136	104.19
231.37	123.19
231.604	100.19
231.838	97.19
232.072	102.19
232.306	115.19
232.541	115.19
232.775	126.19
233.009	116.19
233.243	107.19
233.477	116.19
233.711	133.19
233.945	120.19
234.179	128.19
234.413	100.19
234.647	100.19
234.881	105.19
235.115	109.19
235.349	120.19
235.583	108.19
235.817	117.19
236.051	98.19
236.285	129.19
236.519	108.19
236.753	130.19
236.987	133.19
237.221	161.19
237.455	197.19
237.689	161.19
237.922	123.19
238.156	131.19
238.39	125.19
238.624	121.19
238.858	122.19
239.091	125.19
239.325	116.19
239.559	127.19
239.793	127.19
240.027	120.19
240.26	123.19
240.494	137.19
240.728	139.19
240.961	141.19
241.195	149.19
241.429	140.19
241.662	128.19
241.896	128.19
242.13	123.19
242.363	123.19
242.597	137.19
242.83	136.19
243.064	143.19
243.298	141.19
243.531	149.19
243.765	131.19
243.998	135.19
244.232	139.19
244.465	147.19
244.699	147.19
244.932	142.19
245.166	145.19
245.399	149.19
245.633	146.19
245.866	137.19
246.099	130.19
246.333	140.19
246.566	140.19
246.8	170.19
247.033	158.19
247.266	149.19
247.5	153.19
247.733	162.19
247.966	178.19
248.2	166.19
248.433	172.19
248.666	188.19
248.899	180.19
249.133	197.19
249.366	202.19
249.599	187.19
249.832	179.19
250.066	186.19
250.299	180.19
250.532	181.19
250.765	211.19
250.998	218.19
251.231	232.19
251.465	207.19
251.698	188.19
251.931	207.19
252.164	220.19
252.397	190.19
252.63	204.19
252.863	204.19
253.096	217.19
253.329	226.19
253.562	234.19
253.795	217.19
254.028	218.19
254.261	204.19
254.494	232.19
254.727	238.19
254.96	267.19
255.193	279.19
255.426	236.19
255.659	227.19
255.892	221.19
256.124	233.19
256.357	224.19
256.59	231.19
256.823	200.19
257.056	212.19
257.289	199.19
257.521	215.19
257.754	204.19
257.987	221.19
258.22	235.19
258.452	227.19
258.685	200.19
258.918	195.19
259.151	210.19
259.383	225.19
259.616	218.19
259.849	214.19
260.081	213.19
260.314	250.19
260.547	271.19
260.779	232.19
261.012	245.19
261.244	216.19
261.477	217.19
261.71	235.19
261.942	225.19
262.175	235.19
262.407	232.19
262.64	207.19
262.872	213.19
263.105	210.19
263.337	203.19
263.57	222.19
263.802	203.19
264.035	215.19
264.267	209.19
264.499	213.19
264.732	232.19
264.964	236.19
265.197	232.19
265.429	227.19
265.661	223.19
265.894	232.19
266.126	230.19
266.358	235.19
266.591	233.19
266.823	238.19
267.055	236.19
267.287	236.19
267.52	222.19
267.752	225.19
267.984	234.19
268.216	251.19
268.448	241.19
268.681	243.19
268.913	256.19
269.145	264.19
269.377	275.19
269.609	269.19
269.841	276.19
270.073	292.19
270.306	300.19
270.538	314.19
270.77	282.19
271.002	302.19
271.234	293.19
271.466	303.19
271.698	317.19
271.93	307.19
272.162	323.19
272.394	299.19
272.626	300.19
272.858	286.19
273.09	272.19
273.322	281.19
273.553	265.19
273.785	266.19
274.017	278.19
274.249	281.19
274.481	285.19
274.713	286.19
274.945	277.19
275.176	285.19
275.408	277.19
275.64	291.19
275.872	249.19
276.104	284.19
276.335	274.19
276.567	283.19
276.799	305.19
277.031	317.19
277.262	321.19
277.494	326.19
277.726	318.19
277.957	313.19
278.189	297.19
278.421	286.19
278.652	285.19
278.884	276.19
279.115	289.19
279.347	288.19
279.579	289.19
279.81	273.19
280.042	269.19
280.273	289.19
280.505	295.19
280.736	282.19
280.968	284.19
281.199	275.19
281.431	287.19
281.662	286.19
281.894	292.19
282.125	280.19
282.356	312.19
282.588	294.19
282.819	299.19
283.051	301.19
283.282	290.19
283.513	291.19
283.745	265.19
283.976	297.19
284.207	303.19
284.439	298.19
284.67	290.19
284.901	308.19
285.132	300.19
285.364	298.19
285.595	306.19
285.826	296.19
286.057	300.19
286.288	306.19
286.52	283.19
286.751	285.19
286.982	285.19
287.213	309.19
287.444	313.19
287.675	283.19
287.906	320.19
288.138	315.19
288.369	311.19
288.6	315.19
288.831	321.19
289.062	327.19
289.293	315.19
289.524	329.19
289.755	322.19
289.986	316.19
290.217	318.19
290.448	326.19
290.679	293.19
290.91	334.19
291.141	324.19
291.371	310.19
291.602	318.19
291.833	314.19
292.064	314.19
292.295	319.19
292.526	301.19
292.757	333.19
292.987	314.19
293.218	297.19
293.449	313.19
293.68	313.19
293.91	325.19
294.141	305.19
294.372	328.19
294.603	300.19
294.833	321.19
295.064	309.19
295.295	327.19
295.525	308.19
295.756	313.19
295.987	317.19
296.217	336.19
296.448	339.19
296.679	312.19
296.909	323.19
297.14	320.19
297.37	325.19
297.601	344.19
297.831	334.19
298.062	319.19
298.292	317.19
298.523	328.19
298.753	334.19
298.984	330.19
299.214	341.19
299.445	323.19
299.675	335.19
299.905	329.19
300.136	341.19
300.366	341.19
300.597	349.19
300.827	350.19
301.057	358.19
301.288	344.19
301.518	350.19
301.748	337.19
301.979	338.19
302.209	345.19
302.439	331.19
302.669	340.19
302.9	359.19
303.13	354.19
303.36	355.19
303.59	357.19
303.82	349.19
304.051	353.19
304.281	356.19
304.511	352.19
304.741	350.19
304.971	344.19
305.201	355.19
305.431	353.19
305.661	351.19
305.891	355.19
306.121	351.19
306.352	366.19
306.582	365.19
306.812	356.19
307.042	366.19
307.272	362.19
307.502	360.19
307.731	341.19
307.961	342.19
308.191	357.19
308.421	357.19
308.651	345.19
308.881	360.19
309.111	356.19
309.341	360.19
309.571	390.19
309.8	355.19
310.03	394.19
310.26	374.19
310.49	382.19
310.72	384.19
310.949	385.19
311.179	405.19
311.409	395.19
311.639	382.19
311.868	386.19
312.098	398.19
312.328	392.19
312.557	390.19
312.787	422.19
313.017	419.19
313.246	410.19
313.476	398.19
313.706	365.19
313.935	415.19
314.165	385.19
314.394	405.19
314.624	402.19
314.853	411.19
315.083	430.19
315.312	397.19
315.542	390.19
315.771	402.19
316.001	385.19
316.23	396.19
316.46	410.19
316.689	415.19
316.919	399.19
317.148	396.19
317.377	376.19
317.607	398.19
317.836	389.19
318.065	380.19
318.295	386.19
318.524	382.19
318.753	385.19
318.983	403.19
319.212	397.19
319.441	380.19
319.67	393.19
319.9	390.19
320.129	397.19
320.358	400.19
320.587	393.19
320.816	379.19
321.046	393.19
321.275	418.19
321.504	393.19
321.733	402.19
321.962	415.19
322.191	413.19
322.42	414.19
322.649	460.19
322.878	452.19
323.108	457.19
323.337	472.19
323.566	480.19
323.795	526.19
324.024	533.19
324.253	610.19
324.482	839.19
324.71	1262.19
324.939	1724.19
325.168	1427.19
325.397	804.19
325.626	586.19
325.855	520.19
326.084	479.19
326.313	497.19
326.542	487.19
326.77	517.19
326.999	596.19
327.228	775.19
327.457	1068.19
327.686	1292.19
327.914	892.19
328.143	633.19
328.372	565.19
328.6	565.19
328.829	540.19
329.058	541.19
329.287	521.19
329.515	505.19
329.744	506.19
329.972	490.19
330.201	485.19
330.43	518.19
330.658	546.19
330.887	558.19
331.115	537.19
331.344	525.19
331.572	486.19
331.801	497.19
332.03	477.19
332.258	492.19
332.486	476.19
332.715	446.19
332.943	476.19
333.172	470.19
333.4	456.19
333.629	474.19
333.857	503.19
334.085	517.19
334.314	513.19
334.542	518.19
334.771	536.19
334.999	485.19
335.227	496.19
335.455	488.19
335.684	486.19
335.912	478.19
336.14	461.19
336.369	455.19
336.597	474.19
336.825	459.19
337.053	469.19
337.281	463.19
337.51	474.19
337.738	469.19
337.966	459.19
338.194	463.19
338.422	461.19
338.65	450.19
338.878	436.19
339.106	443.19
339.334	452.19
339.562	433.19
339.79	428.19
340.018	441.19
340.246	437.19
340.474	434.19
340.702	463.19
340.93	443.19
341.158	441.19
341.386	464.19
341.614	455.19
341.842	437.19
342.07	449.19
342.298	445.19
342.526	446.19
342.754	413.19
342.981	422.19
343.209	437.19
343.437	437.19
343.665	446.19
343.893	460.19
344.12	478.19
344.348	462.19
344.576	456.19
344.804	450.19
345.031	450.19
345.259	445.19
345.487	451.19
345.714	425.19
345.942	435.19
346.17	438.19
346.397	409.19
346.625	423.19
346.853	441.19
347.08	418.19
347.308	427.19
347.535	433.19
347.763	433.19
347.99	424.19
348.218	431.19
348.445	411.19
348.673	421.19
348.9	404.19
349.128	430.19
349.355	400.19
349.583	396.19
349.81	405.19
350.037	412.19
350.265	405.19
350.492	382.19
350.72	413.19
350.947	405.19
351.174	406.19
351.402	415.19
351.629	420.19
351.856	427.19
352.083	418.19
352.311	413.19
352.538	433.19
352.765	441.19
352.992	404.19
353.22	419.19
353.447	409.19
353.674	419.19
353.901	407.19
354.128	370.19
354.355	402.19
354.583	399.19
354.81	404.19
355.037	402.19
355.264	400.19
355.491	392.19
355.718	393.19
355.945	391.19
356.172	399.19
356.399	408.19
356.626	407.19
356.853	381.19
357.08	395.19
357.307	386.19
357.534	391.19
357.761	403.19
357.988	397.19
358.215	385.19
358.441	393.19
358.668	386.19
358.895	385.19
359.122	410.19
359.349	404.19
359.576	397.19
359.802	443.19
360.029	437.19
360.256	441.19
360.483	445.19
360.709	409.19
360.936	409.19
361.163	414.19
361.39	417.19
361.616	428.19
361.843	406.19
362.07	399.19
362.296	413.19
362.523	423.19
362.749	395.19
362.976	402.19
363.203	404.19
363.429	378.19
363.656	395.19
363.882	396.19
364.109	385.19
364.335	388.19
364.562	380.19
364.788	401.19
365.015	395.19
365.241	389.19
365.468	393.19
365.694	404.19
365.92	407.19
366.147	398.19
366.373	406.19
366.599	398.19
366.826	379.19
367.052	378.19
367.278	399.19
367.505	387.19
367.731	396.19
367.957	377.19
368.184	378.19
368.41	412.19
368.636	384.19
368.862	420.19
369.089	406.19
369.315	418.19
369.541	391.19
369.767	395.19
369.993	400.19
370.219	402.19
370.445	386.19
370.672	390.19
370.898	399.19
371.124	369.19
371.35	380.19
371.576	410.19
371.802	379.19
372.028	404.19
372.254	383.19
372.48	388.19
372.706	390.19
372.932	406.19
373.158	400.19
373.384	419.19
373.61	386.19
373.835	402.19
374.061	398.19
374.287	393.19
374.513	398.19
374.739	410.19
374.965	402.19
375.191	426.19
375.416	397.19
375.642	394.19
375.868	422.19
376.094	408.19
376.319	397.19
376.545	413.19
376.771	395.19
376.997	388.19
377.222	407.19
377.448	372.19
377.674	390.19
377.899	387.19
378.125	375.19
378.35	403.19
378.576	388.19
378.802	379.19
379.027	382.19
379.253	395.19
379.478	389.19
379.704	384.19
379.929	395.19
380.155	386.19
380.38	384.19
380.606	384.19
380.831	376.19
381.057	390.19
381.282	386.19
381.507	394.19
381.733	410.19
381.958	396.19
382.184	391.19
382.409	378.19
382.634	426.19
382.86	405.19
383.085	402.19
383.31	394.19
383.535	399.19
383.761	391.19
383.986	395.19
384.211	415.19
384.436	430.19
384.662	418.19
384.887	419.19
385.112	409.19
385.337	435.19
385.562	416.19
385.787	413.19
386.013	422.19
386.238	437.19
386.463	433.19
386.688	441.19
386.913	430.19
387.138	419.19
387.363	433.19
387.588	433.19
387.813	408.19
388.038	410.19
388.263	435.19
388.488	414.19
388.713	413.19
388.938	419.19
389.163	417.19
389.387	427.19
389.612	412.19
389.837	413.19
390.062	427.19
390.287	437.19
390.512	409.19
390.736	411.19
390.961	425.19
391.186	430.19
391.411	439.19
391.636	435.19
391.86	438.19
392.085	427.19
392.31	449.19
392.534	443.19
392.759	422.19
392.984	419.19
393.208	423.19
393.433	428.19
393.658	442.19
393.882	405.19
394.107	437.19
394.331	447.19
394.556	423.19
394.78	425.19
395.005	436.19
395.229	434.19
395.454	439.19
395.678	447.19
395.903	460.19
396.127	501.19
396.352	474.19
396.576	452.19
396.801	454.19
397.025	449.19
397.249	444.19
397.474	450.19
397.698	457.19
397.922	473.19
398.147	451.19
398.371	476.19
398.595	500.19
398.82	481.19
399.044	491.19
399.268	522.19
399.492	550.19
399.717	592.19
399.941	601.19
400.165	622.19
400.389	624.19
400.613	550.19
400.837	511.19
401.062	497.19
401.286	485.19
401.51	463.19
401.734	471.19
401.958	480.19
402.182	483.19
402.406	475.19
402.63	509.19
402.854	498.19
403.078	517.19
403.302	501.19
403.526	519.19
403.75	505.19
403.974	499.19
404.198	500.19
404.422	506.19
404.645	522.19
404.869	522.19
405.093	551.19
405.317	583.19
405.541	572.19
405.765	550.19
405.988	520.19
406.212	529.19
406.436	543.19
406.66	545.19
406.883	554.19
407.107	559.19
407.331	592.19
407.555	650.19
407.778	645.19
408.002	621.19
408.226	585.19
408.449	553.19
408.673	568.19
408.896	580.19
409.12	616.19
409.344	582.19
409.567	543.19
409.791	531.19
410.014	516.19
410.238	504.19
410.461	511.19
410.685	519.19
410.908	499.19
411.132	541.19
411.355	579.19
411.578	556.19
411.802	519.19
412.025	515.19
412.249	522.19
412.472	535.19
412.695	543.19
412.919	538.19
413.142	490.19
413.365	487.19
413.589	477.19
413.812	485.19
414.035	466.19
414.258	466.19
414.482	447.19
414.705	467.19
414.928	461.19
415.151	463.19
415.374	475.19
415.597	471.19
415.821	458.19
416.044	455.19
416.267	447.19
416.49	455.19
416.713	476.19
416.936	465.19
417.159	472.19
417.382	452.19
417.605	472.19
417.828	476.19
418.051	478.19
418.274	491.19
418.497	478.19
418.72	482.19
418.943	453.19
419.166	475.19
419.389	497.19
419.611	493.19
419.834	496.19
420.057	485.19
420.28	490.19
420.503	474.19
420.726	485.19
420.948	483.19
421.171	532.19
421.394	561.19
421.617	502.19
421.839	469.19
422.062	481.19
422.285	498.19
422.507	571.19
422.73	600.19
422.953	582.19
423.175	543.19
423.398	520.19
423.621	500.19
423.843	520.19
424.066	521.19
424.288	507.19
424.511	534.19
424.733	555.19
424.956	648.19
425.178	629.19
425.401	605.19
425.623	625.19
425.846	565.19
426.068	521.19
426.291	507.19
426.513	515.19
426.735	514.19
426.958	554.19
427.18	604.19
427.402	723.19
427.625	780.19
427.847	671.19
428.069	599.19
428.292	543.19
428.514	499.19
428.736	466.19
428.958	456.19
429.181	473.19
429.403	463.19
429.625	478.19
429.847	494.19
430.069	547.19
430.292	556.19
430.514	471.19
430.736	469.19
430.958	430.19
431.18	456.19
431.402	446.19
431.624	440.19
431.846	442.19
432.068	443.19
432.29	465.19
432.512	428.19
432.734	459.19
432.956	452.19
433.178	443.19
433.4	442.19
433.622	456.19
433.844	437.19
434.066	455.19
434.287	444.19
434.509	455.19
434.731	481.19
434.953	469.19
435.175	501.19
435.397	501.19
435.618	515.19
435.84	548.19
436.062	575.19
436.284	649.19
436.505	546.19
436.727	502.19
436.949	481.19
437.17	470.19
437.392	448.19
437.614	477.19
437.835	510.19
438.057	590.19
438.278	651.19
438.5	682.19
438.721	724.19
438.943	693.19
439.165	571.19
439.386	525.19
439.608	511.19
439.829	496.19
440.05	511.19
440.272	549.19
440.493	537.19
440.715	482.19
440.936	466.19
441.158	458.19
441.379	490.19
441.6	497.19
441.822	497.19
442.043	535.19
442.264	598.19
442.486	636.19
442.707	566.19
442.928	507.19
443.149	529.19
443.371	536.19
443.592	586.19
443.813	645.19
444.034	705.19
444.255	579.19
444.476	523.19
444.698	500.19
444.919	524.19
445.14	634.19
445.361	552.19
445.582	532.19
445.803	589.19
446.024	651.19
446.245	674.19
446.466	614.19
446.687	526.19
446.908	512.19
447.129	489.19
447.35	450.19
447.571	456.19
447.792	453.19
448.013	467.19
448.234	469.19
448.455	519.19
448.675	611.19
448.896	693.19
449.117	575.19
449.338	574.19
449.559	658.19
449.779	725.19
450	606.19
450.221	484.19
450.442	492.19
450.662	456.19
450.883	435.19
451.104	442.19
451.324	421.19
451.545	430.19
451.766	421.19
451.986	414.19
452.207	422.19
452.428	391.19
452.648	395.19
452.869	408.19
453.089	427.19
453.31	435.19
453.53	409.19
453.751	412.19
453.971	415.19
454.192	422.19
454.412	418.19
454.633	388.19
454.853	406.19
455.073	420.19
455.294	431.19
455.514	486.19
455.734	476.19
455.955	411.19
456.175	415.19
456.395	377.19
456.616	387.19
456.836	398.19
457.056	382.19
457.276	396.19
457.497	389.19
457.717	396.19
457.937	387.19
458.157	402.19
458.377	409.19
458.598	413.19
458.818	462.19
459.038	533.19
459.258	529.19
459.478	463.19
459.698	449.19
459.918	449.19
460.138	444.19
460.358	460.19
460.578	458.19
460.798	459.19
461.018	475.19
461.238	460.19
461.458	470.19
461.678	471.19
461.898	477.19
462.118	469.19
462.338	478.19
462.558	485.19
462.777	499.19
462.997	507.19
463.217	509.19
463.437	529.19
463.657	506.19
463.876	474.19
464.096	488.19
464.316	498.19
464.536	473.19
464.755	492.19
464.975	472.19
465.195	527.19
465.414	531.19
465.634	485.19
465.854	477.19
466.073	452.19
466.293	457.19
466.512	413.19
466.732	421.19
466.951	421.19
467.171	441.19
467.391	414.19
467.61	433.19
467.829	413.19
468.049	421.19
468.268	422.19
468.488	426.19
468.707	402.19
468.927	433.19
469.146	413.19
469.365	423.19
469.585	424.19
469.804	417.19
470.023	425.19
470.243	433.19
470.462	453.19
470.681	453.19
470.901	437.19
471.12	416.19
471.339	408.19
471.558	415.19
471.777	438.19
471.997	418.19
472.216	426.19
472.435	456.19
472.654	414.19
472.873	418.19
473.092	410.19
473.311	417.19
473.53	429.19
473.749	430.19
473.968	452.19
474.187	538.19
474.406	550.19
474.625	469.19
474.844	439.19
475.063	425.19
475.282	444.19
475.501	438.19
475.72	437.19
475.939	417.19
476.158	440.19
476.377	447.19
476.596	435.19
476.814	450.19
477.033	458.19
477.252	462.19
477.471	451.19
477.69	460.19
477.908	435.19
478.127	458.19
478.346	443.19
478.564	457.19
478.783	480.19
479.002	515.19
479.22	491.19
479.439	516.19
479.658	516.19
479.876	523.19
480.095	530.19
480.313	535.19
480.532	518.19
480.751	524.19
480.969	547.19
481.188	553.19
481.406	539.19
481.624	520.19
481.843	508.19
482.061	531.19
482.28	491.19
482.498	476.19
482.717	475.19
482.935	492.19
483.153	492.19
483.372	496.19
483.59	492.19
483.808	467.19
484.027	474.19
484.245	475.19
484.463	519.19
484.681	499.19
484.9	495.19
485.118	497.19
485.336	492.19
485.554	521.19
485.772	510.19
485.99	519.19
486.209	514.19
486.427	497.19
486.645	512.19
486.863	539.19
487.081	532.19
487.299	494.19
487.517	498.19
487.735	484.19
487.953	501.19
488.171	528.19
488.389	519.19
488.607	543.19
488.825	512.19
489.043	503.19
489.261	531.19
489.479	541.19
489.696	519.19
489.914	529.19
490.132	538.19
490.35	543.19
490.568	530.19
490.786	539.19
491.003	556.19
491.221	548.19
491.439	564.19
491.657	553.19
491.874	580.19
492.092	558.19
492.31	599.19
492.527	586.19
492.745	611.19
492.963	594.19
493.18	586.19
493.398	592.19
493.615	621.19
493.833	604.19
494.05	607.19
494.268	574.19
494.485	612.19
494.703	602.19
494.92	623.19
495.138	593.19
495.355	610.19
495.573	621.19
495.79	592.19
496.008	641.19
496.225	612.19
496.442	613.19
496.66	627.19
496.877	625.19
497.094	611.19
497.312	616.19
497.529	637.19
497.746	637.19
497.963	659.19
498.181	673.19
498.398	695.19
498.615	707.19
498.832	708.19
499.049	711.19
499.267	756.19
499.484	800.19
499.701	819.19
499.918	848.19
500.135	896.19
500.352	951.19
500.569	966.19
500.786	984.19
501.003	959.19
501.22	930.19
501.437	870.19
501.654	863.19
501.871	812.19
502.088	775.19
