Data from 1977.PennyLincolnUp.Lamp.En5.5.200Scan.071719.P1_HRD10591_16-07-48-865.txt Node
Date: Thu Jul 18 16:07:48 EDT 2019
User: cochatt
Spectrometer: HR+D1059
Trigger mode: 1
Integration Time (sec): 1.000000E-1
Scans to average: 1
Electric dark correction enabled: true
Nonlinearity correction enabled: false
Boxcar width: 0
XAxis mode: Wavelengths
Number of Pixels in Spectrum: 2048
>>>>>Begin Spectral Data<<<<<
223.165	-12.25
223.4	-12.25
223.635	-12.25
223.869	-28.25
224.104	-14.25
224.338	-16.25
224.573	-21.25
224.808	-20.25
225.042	5.75
225.277	-12.25
225.511	-7.25
225.746	6.75
225.98	3.75
226.215	22.75
226.449	9.75
226.683	31.75
226.918	20.75
227.152	30.75
227.387	31.75
227.621	34.75
227.856	45.75
228.09	53.75
228.324	49.75
228.559	57.75
228.793	55.75
229.027	97.75
229.262	98.75
229.496	99.75
229.73	119.75
229.964	124.75
230.199	114.75
230.433	124.75
230.667	105.75
230.901	105.75
231.136	120.75
231.37	124.75
231.604	110.75
231.838	117.75
232.072	109.75
232.306	114.75
232.541	106.75
232.775	114.75
233.009	108.75
233.243	107.75
233.477	117.75
233.711	115.75
233.945	99.75
234.179	101.75
234.413	108.75
234.647	116.75
234.881	117.75
235.115	93.75
235.349	114.75
235.583	122.75
235.817	121.75
236.051	121.75
236.285	126.75
236.519	131.75
236.753	136.75
236.987	142.75
237.221	180.75
237.455	202.75
237.689	187.75
237.922	136.75
238.156	130.75
238.39	141.75
238.624	129.75
238.858	114.75
239.091	126.75
239.325	117.75
239.559	126.75
239.793	136.75
240.027	131.75
240.26	125.75
240.494	155.75
240.728	148.75
240.961	127.75
241.195	145.75
241.429	139.75
241.662	140.75
241.896	135.75
242.13	133.75
242.363	136.75
242.597	131.75
242.83	155.75
243.064	146.75
243.298	162.75
243.531	131.75
243.765	144.75
243.998	135.75
244.232	157.75
244.465	149.75
244.699	149.75
244.932	147.75
245.166	149.75
245.399	141.75
245.633	136.75
245.866	139.75
246.099	151.75
246.333	138.75
246.566	170.75
246.8	149.75
247.033	151.75
247.266	144.75
247.5	141.75
247.733	175.75
247.966	161.75
248.2	183.75
248.433	149.75
248.666	179.75
248.899	170.75
249.133	177.75
249.366	203.75
249.599	196.75
249.832	172.75
250.066	160.75
250.299	175.75
250.532	192.75
250.765	200.75
250.998	215.75
251.231	231.75
251.465	199.75
251.698	213.75
251.931	215.75
252.164	207.75
252.397	183.75
252.63	207.75
252.863	201.75
253.096	203.75
253.329	203.75
253.562	212.75
253.795	214.75
254.028	220.75
254.261	213.75
254.494	213.75
254.727	254.75
254.96	271.75
255.193	263.75
255.426	228.75
255.659	239.75
255.892	234.75
256.124	236.75
256.357	207.75
256.59	229.75
256.823	209.75
257.056	225.75
257.289	222.75
257.521	210.75
257.754	207.75
257.987	201.75
258.22	200.75
258.452	207.75
258.685	221.75
258.918	208.75
259.151	199.75
259.383	218.75
259.616	212.75
259.849	214.75
260.081	227.75
260.314	257.75
260.547	239.75
260.779	219.75
261.012	223.75
261.244	235.75
261.477	220.75
261.71	231.75
261.942	216.75
262.175	236.75
262.407	230.75
262.64	229.75
262.872	225.75
263.105	226.75
263.337	226.75
263.57	216.75
263.802	224.75
264.035	226.75
264.267	223.75
264.499	226.75
264.732	226.75
264.964	213.75
265.197	227.75
265.429	241.75
265.661	225.75
265.894	235.75
266.126	210.75
266.358	216.75
266.591	225.75
266.823	230.75
267.055	218.75
267.287	221.75
267.52	236.75
267.752	228.75
267.984	244.75
268.216	248.75
268.448	246.75
268.681	237.75
268.913	261.75
269.145	267.75
269.377	285.75
269.609	278.75
269.841	286.75
270.073	268.75
270.306	298.75
270.538	300.75
270.77	319.75
271.002	299.75
271.234	303.75
271.466	293.75
271.698	314.75
271.93	305.75
272.162	328.75
272.394	321.75
272.626	284.75
272.858	275.75
273.09	291.75
273.322	281.75
273.553	293.75
273.785	273.75
274.017	261.75
274.249	267.75
274.481	262.75
274.713	266.75
274.945	285.75
275.176	271.75
275.408	267.75
275.64	268.75
275.872	275.75
276.104	266.75
276.335	283.75
276.567	289.75
276.799	275.75
277.031	299.75
277.262	328.75
277.494	307.75
277.726	305.75
277.957	290.75
278.189	287.75
278.421	281.75
278.652	294.75
278.884	279.75
279.115	291.75
279.347	287.75
279.579	290.75
279.81	293.75
280.042	275.75
280.273	302.75
280.505	285.75
280.736	287.75
280.968	284.75
281.199	281.75
281.431	268.75
281.662	302.75
281.894	290.75
282.125	271.75
282.356	293.75
282.588	297.75
282.819	314.75
283.051	302.75
283.282	294.75
283.513	292.75
283.745	303.75
283.976	313.75
284.207	296.75
284.439	296.75
284.67	297.75
284.901	313.75
285.132	283.75
285.364	287.75
285.595	295.75
285.826	285.75
286.057	311.75
286.288	289.75
286.52	303.75
286.751	285.75
286.982	302.75
287.213	309.75
287.444	302.75
287.675	301.75
287.906	301.75
288.138	332.75
288.369	339.75
288.6	323.75
288.831	313.75
289.062	341.75
289.293	298.75
289.524	307.75
289.755	319.75
289.986	294.75
290.217	315.75
290.448	311.75
290.679	310.75
290.91	307.75
291.141	304.75
291.371	311.75
291.602	334.75
291.833	271.75
292.064	299.75
292.295	307.75
292.526	309.75
292.757	325.75
292.987	318.75
293.218	309.75
293.449	333.75
293.68	298.75
293.91	314.75
294.141	312.75
294.372	296.75
294.603	309.75
294.833	317.75
295.064	316.75
295.295	318.75
295.525	300.75
295.756	333.75
295.987	333.75
296.217	349.75
296.448	333.75
296.679	339.75
296.909	326.75
297.14	335.75
297.37	314.75
297.601	318.75
297.831	308.75
298.062	320.75
298.292	319.75
298.523	342.75
298.753	338.75
298.984	342.75
299.214	340.75
299.445	333.75
299.675	331.75
299.905	329.75
300.136	335.75
300.366	326.75
300.597	323.75
300.827	332.75
301.057	343.75
301.288	351.75
301.518	330.75
301.748	358.75
301.979	354.75
302.209	320.75
302.439	323.75
302.669	341.75
302.9	334.75
303.13	346.75
303.36	346.75
303.59	354.75
303.82	371.75
304.051	364.75
304.281	339.75
304.511	351.75
304.741	369.75
304.971	357.75
305.201	341.75
305.431	361.75
305.661	356.75
305.891	360.75
306.121	337.75
306.352	356.75
306.582	360.75
306.812	342.75
307.042	337.75
307.272	357.75
307.502	333.75
307.731	353.75
307.961	353.75
308.191	346.75
308.421	342.75
308.651	349.75
308.881	350.75
309.111	365.75
309.341	370.75
309.571	374.75
309.8	369.75
310.03	382.75
310.26	379.75
310.49	362.75
310.72	385.75
310.949	405.75
311.179	407.75
311.409	380.75
311.639	398.75
311.868	386.75
312.098	392.75
312.328	406.75
312.557	392.75
312.787	411.75
313.017	402.75
313.246	398.75
313.476	385.75
313.706	386.75
313.935	397.75
314.165	397.75
314.394	419.75
314.624	424.75
314.853	411.75
315.083	407.75
315.312	388.75
315.542	404.75
315.771	393.75
316.001	374.75
316.23	385.75
316.46	376.75
316.689	389.75
316.919	400.75
317.148	399.75
317.377	400.75
317.607	394.75
317.836	380.75
318.065	415.75
318.295	381.75
318.524	398.75
318.753	392.75
318.983	388.75
319.212	394.75
319.441	385.75
319.67	400.75
319.9	393.75
320.129	403.75
320.358	396.75
320.587	417.75
320.816	405.75
321.046	409.75
321.275	434.75
321.504	413.75
321.733	413.75
321.962	430.75
322.191	435.75
322.42	429.75
322.649	449.75
322.878	457.75
323.108	466.75
323.337	463.75
323.566	486.75
323.795	503.75
324.024	532.75
324.253	662.75
324.482	875.75
324.71	1310.75
324.939	1820.75
325.168	1575.75
325.397	833.75
325.626	599.75
325.855	525.75
326.084	503.75
326.313	504.75
326.542	487.75
326.77	536.75
326.999	606.75
327.228	791.75
327.457	1165.75
327.686	1416.75
327.914	935.75
328.143	657.75
328.372	563.75
328.6	561.75
328.829	536.75
329.058	553.75
329.287	532.75
329.515	526.75
329.744	513.75
329.972	481.75
330.201	494.75
330.43	514.75
330.658	539.75
330.887	565.75
331.115	556.75
331.344	515.75
331.572	488.75
331.801	473.75
332.03	469.75
332.258	493.75
332.486	463.75
332.715	484.75
332.943	481.75
333.172	497.75
333.4	499.75
333.629	470.75
333.857	486.75
334.085	515.75
334.314	503.75
334.542	517.75
334.771	538.75
334.999	494.75
335.227	488.75
335.455	528.75
335.684	479.75
335.912	470.75
336.14	467.75
336.369	453.75
336.597	461.75
336.825	481.75
337.053	458.75
337.281	452.75
337.51	453.75
337.738	479.75
337.966	454.75
338.194	463.75
338.422	442.75
338.65	443.75
338.878	468.75
339.106	434.75
339.334	440.75
339.562	455.75
339.79	443.75
340.018	445.75
340.246	447.75
340.474	435.75
340.702	447.75
340.93	433.75
341.158	425.75
341.386	419.75
341.614	439.75
341.842	425.75
342.07	428.75
342.298	443.75
342.526	437.75
342.754	421.75
342.981	428.75
343.209	400.75
343.437	439.75
343.665	461.75
343.893	470.75
344.12	467.75
344.348	462.75
344.576	445.75
344.804	465.75
345.031	431.75
345.259	455.75
345.487	421.75
345.714	445.75
345.942	428.75
346.17	437.75
346.397	420.75
346.625	439.75
346.853	435.75
347.08	436.75
347.308	411.75
347.535	431.75
347.763	424.75
347.99	415.75
348.218	426.75
348.445	419.75
348.673	420.75
348.9	401.75
349.128	429.75
349.355	412.75
349.583	425.75
349.81	404.75
350.037	417.75
350.265	398.75
350.492	402.75
350.72	405.75
350.947	408.75
351.174	414.75
351.402	422.75
351.629	417.75
351.856	421.75
352.083	412.75
352.311	406.75
352.538	427.75
352.765	429.75
352.992	431.75
353.22	433.75
353.447	393.75
353.674	397.75
353.901	402.75
354.128	383.75
354.355	385.75
354.583	404.75
354.81	410.75
355.037	395.75
355.264	404.75
355.491	402.75
355.718	391.75
355.945	387.75
356.172	377.75
356.399	389.75
356.626	384.75
356.853	396.75
357.08	388.75
357.307	398.75
357.534	385.75
357.761	369.75
357.988	381.75
358.215	392.75
358.441	383.75
358.668	382.75
358.895	394.75
359.122	399.75
359.349	422.75
359.576	414.75
359.802	435.75
360.029	453.75
360.256	449.75
360.483	409.75
360.709	432.75
360.936	411.75
361.163	387.75
361.39	393.75
361.616	405.75
361.843	415.75
362.07	407.75
362.296	408.75
362.523	410.75
362.749	398.75
362.976	395.75
363.203	399.75
363.429	382.75
363.656	381.75
363.882	378.75
364.109	399.75
364.335	389.75
364.562	390.75
364.788	395.75
365.015	393.75
365.241	379.75
365.468	393.75
365.694	394.75
365.92	386.75
366.147	375.75
366.373	388.75
366.599	408.75
366.826	389.75
367.052	385.75
367.278	378.75
367.505	385.75
367.731	392.75
367.957	365.75
368.184	394.75
368.41	399.75
368.636	378.75
368.862	393.75
369.089	385.75
369.315	390.75
369.541	381.75
369.767	389.75
369.993	382.75
370.219	395.75
370.445	402.75
370.672	393.75
370.898	378.75
371.124	385.75
371.35	385.75
371.576	386.75
371.802	399.75
372.028	376.75
372.254	396.75
372.48	406.75
372.706	391.75
372.932	390.75
373.158	393.75
373.384	396.75
373.61	392.75
373.835	398.75
374.061	389.75
374.287	405.75
374.513	407.75
374.739	390.75
374.965	397.75
375.191	419.75
375.416	413.75
375.642	391.75
375.868	413.75
376.094	401.75
376.319	410.75
376.545	390.75
376.771	377.75
376.997	395.75
377.222	399.75
377.448	386.75
377.674	398.75
377.899	383.75
378.125	389.75
378.35	392.75
378.576	378.75
378.802	376.75
379.027	404.75
379.253	398.75
379.478	385.75
379.704	372.75
379.929	399.75
380.155	380.75
380.38	400.75
380.606	396.75
380.831	373.75
381.057	412.75
381.282	387.75
381.507	393.75
381.733	406.75
381.958	391.75
382.184	389.75
382.409	409.75
382.634	387.75
382.86	402.75
383.085	403.75
383.31	413.75
383.535	395.75
383.761	407.75
383.986	415.75
384.211	403.75
384.436	407.75
384.662	415.75
384.887	427.75
385.112	428.75
385.337	430.75
385.562	418.75
385.787	419.75
386.013	449.75
386.238	403.75
386.463	427.75
386.688	427.75
386.913	421.75
387.138	416.75
387.363	421.75
387.588	419.75
387.813	443.75
388.038	417.75
388.263	427.75
388.488	428.75
388.713	436.75
388.938	441.75
389.163	429.75
389.387	437.75
389.612	413.75
389.837	425.75
390.062	418.75
390.287	424.75
390.512	426.75
390.736	403.75
390.961	426.75
391.186	427.75
391.411	436.75
391.636	441.75
391.86	442.75
392.085	438.75
392.31	435.75
392.534	460.75
392.759	447.75
392.984	437.75
393.208	456.75
393.433	433.75
393.658	415.75
393.882	426.75
394.107	416.75
394.331	418.75
394.556	426.75
394.78	427.75
395.005	412.75
395.229	439.75
395.454	429.75
395.678	437.75
395.903	453.75
396.127	468.75
396.352	447.75
396.576	420.75
396.801	421.75
397.025	450.75
397.249	441.75
397.474	469.75
397.698	472.75
397.922	470.75
398.147	465.75
398.371	460.75
398.595	480.75
398.82	487.75
399.044	513.75
399.268	527.75
399.492	565.75
399.717	579.75
399.941	597.75
400.165	599.75
400.389	611.75
400.613	562.75
400.837	526.75
401.062	517.75
401.286	495.75
401.51	476.75
401.734	477.75
401.958	483.75
402.182	479.75
402.406	495.75
402.63	492.75
402.854	484.75
403.078	487.75
403.302	494.75
403.526	491.75
403.75	530.75
403.974	499.75
404.198	494.75
404.422	498.75
404.645	513.75
404.869	529.75
405.093	536.75
405.317	564.75
405.541	588.75
405.765	552.75
405.988	503.75
406.212	513.75
406.436	535.75
406.66	547.75
406.883	533.75
407.107	565.75
407.331	609.75
407.555	633.75
407.778	638.75
408.002	604.75
408.226	563.75
408.449	530.75
408.673	543.75
408.896	573.75
409.12	601.75
409.344	589.75
409.567	532.75
409.791	482.75
410.014	481.75
410.238	498.75
410.461	481.75
410.685	497.75
410.908	535.75
411.132	529.75
411.355	563.75
411.578	544.75
411.802	499.75
412.025	485.75
412.249	508.75
412.472	525.75
412.695	545.75
412.919	525.75
413.142	501.75
413.365	494.75
413.589	493.75
413.812	467.75
414.035	476.75
414.258	457.75
414.482	482.75
414.705	461.75
414.928	469.75
415.151	468.75
415.374	466.75
415.597	447.75
415.821	470.75
416.044	468.75
416.267	464.75
416.49	464.75
416.713	460.75
416.936	459.75
417.159	461.75
417.382	465.75
417.605	484.75
417.828	465.75
418.051	473.75
418.274	494.75
418.497	475.75
418.72	484.75
418.943	472.75
419.166	489.75
419.389	513.75
419.611	500.75
419.834	487.75
420.057	502.75
420.28	485.75
420.503	465.75
420.726	482.75
420.948	481.75
421.171	553.75
421.394	553.75
421.617	502.75
421.839	473.75
422.062	486.75
422.285	488.75
422.507	545.75
422.73	590.75
422.953	586.75
423.175	531.75
423.398	509.75
423.621	504.75
423.843	526.75
424.066	531.75
424.288	515.75
424.511	520.75
424.733	585.75
424.956	638.75
425.178	617.75
425.401	616.75
425.623	650.75
425.846	546.75
426.068	504.75
426.291	494.75
426.513	506.75
426.735	489.75
426.958	534.75
427.18	625.75
427.402	707.75
427.625	804.75
427.847	677.75
428.069	588.75
428.292	547.75
428.514	490.75
428.736	483.75
428.958	475.75
429.181	469.75
429.403	469.75
429.625	445.75
429.847	509.75
430.069	557.75
430.292	549.75
430.514	461.75
430.736	470.75
430.958	453.75
431.18	467.75
431.402	453.75
431.624	438.75
431.846	452.75
432.068	448.75
432.29	456.75
432.512	451.75
432.734	445.75
432.956	433.75
433.178	482.75
433.4	455.75
433.622	439.75
433.844	446.75
434.066	447.75
434.287	439.75
434.509	455.75
434.731	481.75
434.953	469.75
435.175	476.75
435.397	479.75
435.618	496.75
435.84	522.75
436.062	627.75
436.284	663.75
436.505	567.75
436.727	525.75
436.949	467.75
437.17	464.75
437.392	472.75
437.614	481.75
437.835	519.75
438.057	562.75
438.278	661.75
438.5	668.75
438.721	719.75
438.943	679.75
439.165	564.75
439.386	491.75
439.608	511.75
439.829	503.75
440.05	547.75
440.272	572.75
440.493	518.75
440.715	473.75
440.936	494.75
441.158	474.75
441.379	475.75
441.6	478.75
441.822	488.75
442.043	528.75
442.264	605.75
442.486	631.75
442.707	541.75
442.928	517.75
443.149	512.75
443.371	531.75
443.592	553.75
443.813	646.75
444.034	683.75
444.255	592.75
444.476	548.75
444.698	508.75
444.919	530.75
445.14	610.75
445.361	570.75
445.582	540.75
445.803	580.75
446.024	674.75
446.245	663.75
446.466	633.75
446.687	519.75
446.908	507.75
447.129	484.75
447.35	476.75
447.571	454.75
447.792	453.75
448.013	473.75
448.234	459.75
448.455	531.75
448.675	614.75
448.896	700.75
449.117	605.75
449.338	579.75
449.559	666.75
449.779	767.75
450	593.75
450.221	525.75
450.442	460.75
450.662	465.75
450.883	425.75
451.104	463.75
451.324	442.75
451.545	438.75
451.766	417.75
451.986	421.75
452.207	405.75
452.428	387.75
452.648	421.75
452.869	417.75
453.089	423.75
453.31	423.75
453.53	417.75
453.751	421.75
453.971	419.75
454.192	410.75
454.412	409.75
454.633	392.75
454.853	421.75
455.073	389.75
455.294	428.75
455.514	466.75
455.734	473.75
455.955	415.75
456.175	405.75
456.395	393.75
456.616	421.75
456.836	392.75
457.056	389.75
457.276	382.75
457.497	393.75
457.717	371.75
457.937	400.75
458.157	403.75
458.377	414.75
458.598	425.75
458.818	461.75
459.038	519.75
459.258	556.75
459.478	479.75
459.698	447.75
459.918	457.75
460.138	485.75
460.358	462.75
460.578	454.75
460.798	434.75
461.018	453.75
461.238	442.75
461.458	450.75
461.678	456.75
461.898	468.75
462.118	461.75
462.338	459.75
462.558	464.75
462.777	486.75
462.997	502.75
463.217	509.75
463.437	513.75
463.657	491.75
463.876	475.75
464.096	476.75
464.316	490.75
464.536	491.75
464.755	486.75
464.975	486.75
465.195	518.75
465.414	536.75
465.634	490.75
465.854	474.75
466.073	428.75
466.293	436.75
466.512	455.75
466.732	425.75
466.951	432.75
467.171	431.75
467.391	416.75
467.61	433.75
467.829	419.75
468.049	435.75
468.268	430.75
468.488	416.75
468.707	404.75
468.927	423.75
469.146	399.75
469.365	405.75
469.585	406.75
469.804	409.75
470.023	440.75
470.243	427.75
470.462	421.75
470.681	438.75
470.901	438.75
471.12	402.75
471.339	411.75
471.558	418.75
471.777	451.75
471.997	404.75
472.216	418.75
472.435	444.75
472.654	439.75
472.873	416.75
473.092	425.75
473.311	412.75
473.53	411.75
473.749	418.75
473.968	450.75
474.187	550.75
474.406	569.75
474.625	466.75
474.844	419.75
475.063	440.75
475.282	427.75
475.501	424.75
475.72	427.75
475.939	415.75
476.158	429.75
476.377	447.75
476.596	420.75
476.814	465.75
477.033	434.75
477.252	439.75
477.471	454.75
477.69	442.75
477.908	448.75
478.127	459.75
478.346	465.75
478.564	450.75
478.783	467.75
479.002	461.75
479.22	494.75
479.439	503.75
479.658	500.75
479.876	505.75
480.095	511.75
480.313	550.75
480.532	526.75
480.751	503.75
480.969	514.75
481.188	552.75
481.406	557.75
481.624	541.75
481.843	488.75
482.061	495.75
482.28	500.75
482.498	504.75
482.717	478.75
482.935	488.75
483.153	498.75
483.372	496.75
483.59	496.75
483.808	487.75
484.027	503.75
484.245	489.75
484.463	483.75
484.681	487.75
484.9	479.75
485.118	535.75
485.336	508.75
485.554	501.75
485.772	468.75
485.99	506.75
486.209	499.75
486.427	515.75
486.645	519.75
486.863	514.75
487.081	530.75
487.299	504.75
487.517	517.75
487.735	511.75
487.953	511.75
488.171	519.75
488.389	522.75
488.607	494.75
488.825	524.75
489.043	519.75
489.261	534.75
489.479	545.75
489.696	539.75
489.914	548.75
490.132	534.75
490.35	533.75
490.568	518.75
490.786	533.75
491.003	567.75
491.221	578.75
491.439	572.75
491.657	596.75
491.874	580.75
492.092	580.75
492.31	573.75
492.527	593.75
492.745	581.75
492.963	583.75
493.18	589.75
493.398	590.75
493.615	603.75
493.833	603.75
494.05	614.75
494.268	590.75
494.485	611.75
494.703	596.75
494.92	604.75
495.138	623.75
495.355	608.75
495.573	620.75
495.79	596.75
496.008	611.75
496.225	613.75
496.442	629.75
496.66	636.75
496.877	638.75
497.094	627.75
497.312	592.75
497.529	639.75
497.746	637.75
497.963	625.75
498.181	669.75
498.398	686.75
498.615	692.75
498.832	726.75
499.049	718.75
499.267	751.75
499.484	779.75
499.701	806.75
499.918	833.75
500.135	907.75
500.352	965.75
500.569	924.75
500.786	947.75
501.003	905.75
501.22	909.75
501.437	874.75
501.654	837.75
501.871	823.75
502.088	801.75
