Data from 1977.PennyLincolnUp.Lamp.En5.5.200Scan.071719.P1_HRD10591_16-06-07-864.txt Node
Date: Thu Jul 18 16:06:07 EDT 2019
User: cochatt
Spectrometer: HR+D1059
Trigger mode: 1
Integration Time (sec): 1.000000E-1
Scans to average: 1
Electric dark correction enabled: true
Nonlinearity correction enabled: false
Boxcar width: 0
XAxis mode: Wavelengths
Number of Pixels in Spectrum: 2048
>>>>>Begin Spectral Data<<<<<
223.165	-12.69
223.4	-12.69
223.635	-12.69
223.869	-12.69
224.104	-20.69
224.338	-13.69
224.573	-0.69
224.808	-20.69
225.042	-5.69
225.277	-4.69
225.511	-4.69
225.746	-0.69
225.98	10.31
226.215	0.31
226.449	9.31
226.683	25.31
226.918	25.31
227.152	26.31
227.387	18.31
227.621	36.31
227.856	39.31
228.09	54.31
228.324	65.31
228.559	56.31
228.793	71.31
229.027	90.31
229.262	101.31
229.496	132.31
229.73	119.31
229.964	124.31
230.199	115.31
230.433	109.31
230.667	91.31
230.901	116.31
231.136	108.31
231.37	115.31
231.604	109.31
231.838	102.31
232.072	115.31
232.306	121.31
232.541	107.31
232.775	103.31
233.009	116.31
233.243	98.31
233.477	105.31
233.711	114.31
233.945	122.31
234.179	113.31
234.413	113.31
234.647	99.31
234.881	107.31
235.115	103.31
235.349	105.31
235.583	118.31
235.817	115.31
236.051	116.31
236.285	113.31
236.519	109.31
236.753	123.31
236.987	125.31
237.221	157.31
237.455	195.31
237.689	147.31
237.922	139.31
238.156	132.31
238.39	124.31
238.624	112.31
238.858	120.31
239.091	119.31
239.325	113.31
239.559	118.31
239.793	108.31
240.027	135.31
240.26	130.31
240.494	150.31
240.728	142.31
240.961	144.31
241.195	131.31
241.429	133.31
241.662	138.31
241.896	131.31
242.13	123.31
242.363	132.31
242.597	123.31
242.83	145.31
243.064	133.31
243.298	134.31
243.531	125.31
243.765	139.31
243.998	145.31
244.232	129.31
244.465	147.31
244.699	149.31
244.932	128.31
245.166	138.31
245.399	141.31
245.633	140.31
245.866	151.31
246.099	158.31
246.333	156.31
246.566	148.31
246.8	148.31
247.033	146.31
247.266	149.31
247.5	159.31
247.733	167.31
247.966	155.31
248.2	151.31
248.433	157.31
248.666	184.31
248.899	166.31
249.133	186.31
249.366	189.31
249.599	191.31
249.832	169.31
250.066	183.31
250.299	169.31
250.532	174.31
250.765	187.31
250.998	200.31
251.231	215.31
251.465	189.31
251.698	202.31
251.931	177.31
252.164	177.31
252.397	189.31
252.63	187.31
252.863	193.31
253.096	202.31
253.329	216.31
253.562	216.31
253.795	213.31
254.028	206.31
254.261	212.31
254.494	205.31
254.727	226.31
254.96	265.31
255.193	232.31
255.426	249.31
255.659	219.31
255.892	198.31
256.124	205.31
256.357	222.31
256.59	222.31
256.823	200.31
257.056	207.31
257.289	188.31
257.521	208.31
257.754	203.31
257.987	210.31
258.22	199.31
258.452	206.31
258.685	204.31
258.918	202.31
259.151	217.31
259.383	215.31
259.616	206.31
259.849	210.31
260.081	219.31
260.314	235.31
260.547	240.31
260.779	241.31
261.012	224.31
261.244	213.31
261.477	215.31
261.71	212.31
261.942	216.31
262.175	220.31
262.407	213.31
262.64	194.31
262.872	188.31
263.105	200.31
263.337	213.31
263.57	202.31
263.802	225.31
264.035	211.31
264.267	221.31
264.499	208.31
264.732	204.31
264.964	220.31
265.197	208.31
265.429	218.31
265.661	226.31
265.894	227.31
266.126	231.31
266.358	237.31
266.591	227.31
266.823	220.31
267.055	234.31
267.287	219.31
267.52	216.31
267.752	229.31
267.984	232.31
268.216	215.31
268.448	211.31
268.681	242.31
268.913	231.31
269.145	265.31
269.377	263.31
269.609	260.31
269.841	251.31
270.073	253.31
270.306	267.31
270.538	291.31
270.77	307.31
271.002	292.31
271.234	279.31
271.466	291.31
271.698	298.31
271.93	310.31
272.162	291.31
272.394	288.31
272.626	267.31
272.858	278.31
273.09	282.31
273.322	248.31
273.553	245.31
273.785	263.31
274.017	265.31
274.249	266.31
274.481	259.31
274.713	253.31
274.945	258.31
275.176	273.31
275.408	264.31
275.64	282.31
275.872	273.31
276.104	255.31
276.335	262.31
276.567	259.31
276.799	286.31
277.031	265.31
277.262	293.31
277.494	297.31
277.726	294.31
277.957	288.31
278.189	275.31
278.421	280.31
278.652	268.31
278.884	263.31
279.115	265.31
279.347	275.31
279.579	261.31
279.81	275.31
280.042	282.31
280.273	256.31
280.505	274.31
280.736	279.31
280.968	275.31
281.199	253.31
281.431	265.31
281.662	298.31
281.894	263.31
282.125	277.31
282.356	294.31
282.588	313.31
282.819	301.31
283.051	288.31
283.282	289.31
283.513	269.31
283.745	268.31
283.976	294.31
284.207	284.31
284.439	287.31
284.67	291.31
284.901	283.31
285.132	305.31
285.364	283.31
285.595	277.31
285.826	264.31
286.057	291.31
286.288	289.31
286.52	284.31
286.751	287.31
286.982	289.31
287.213	291.31
287.444	288.31
287.675	294.31
287.906	295.31
288.138	311.31
288.369	311.31
288.6	312.31
288.831	283.31
289.062	297.31
289.293	301.31
289.524	303.31
289.755	304.31
289.986	312.31
290.217	313.31
290.448	295.31
290.679	291.31
290.91	321.31
291.141	300.31
291.371	285.31
291.602	301.31
291.833	308.31
292.064	304.31
292.295	298.31
292.526	305.31
292.757	303.31
292.987	325.31
293.218	301.31
293.449	305.31
293.68	315.31
293.91	306.31
294.141	304.31
294.372	296.31
294.603	285.31
294.833	301.31
295.064	310.31
295.295	315.31
295.525	308.31
295.756	321.31
295.987	341.31
296.217	331.31
296.448	333.31
296.679	318.31
296.909	300.31
297.14	325.31
297.37	317.31
297.601	312.31
297.831	332.31
298.062	324.31
298.292	330.31
298.523	306.31
298.753	322.31
298.984	322.31
299.214	315.31
299.445	320.31
299.675	312.31
299.905	319.31
300.136	326.31
300.366	324.31
300.597	326.31
300.827	317.31
301.057	335.31
301.288	327.31
301.518	331.31
301.748	324.31
301.979	339.31
302.209	344.31
302.439	323.31
302.669	333.31
302.9	323.31
303.13	344.31
303.36	341.31
303.59	344.31
303.82	352.31
304.051	340.31
304.281	341.31
304.511	341.31
304.741	346.31
304.971	338.31
305.201	337.31
305.431	342.31
305.661	332.31
305.891	346.31
306.121	327.31
306.352	345.31
306.582	342.31
306.812	328.31
307.042	324.31
307.272	356.31
307.502	322.31
307.731	341.31
307.961	347.31
308.191	328.31
308.421	356.31
308.651	367.31
308.881	341.31
309.111	349.31
309.341	349.31
309.571	350.31
309.8	344.31
310.03	369.31
310.26	375.31
310.49	359.31
310.72	381.31
310.949	362.31
311.179	372.31
311.409	365.31
311.639	356.31
311.868	362.31
312.098	389.31
312.328	402.31
312.557	380.31
312.787	403.31
313.017	399.31
313.246	383.31
313.476	394.31
313.706	383.31
313.935	394.31
314.165	389.31
314.394	392.31
314.624	396.31
314.853	387.31
315.083	391.31
315.312	359.31
315.542	364.31
315.771	370.31
316.001	362.31
316.23	389.31
316.46	394.31
316.689	372.31
316.919	397.31
317.148	380.31
317.377	397.31
317.607	361.31
317.836	386.31
318.065	378.31
318.295	386.31
318.524	384.31
318.753	387.31
318.983	379.31
319.212	384.31
319.441	376.31
319.67	400.31
319.9	376.31
320.129	377.31
320.358	395.31
320.587	397.31
320.816	388.31
321.046	412.31
321.275	405.31
321.504	409.31
321.733	409.31
321.962	404.31
322.191	409.31
322.42	414.31
322.649	427.31
322.878	414.31
323.108	424.31
323.337	433.31
323.566	447.31
323.795	492.31
324.024	511.31
324.253	595.31
324.482	791.31
324.71	1143.31
324.939	1583.31
325.168	1351.31
325.397	764.31
325.626	545.31
325.855	485.31
326.084	468.31
326.313	459.31
326.542	426.31
326.77	500.31
326.999	571.31
327.228	723.31
327.457	1034.31
327.686	1189.31
327.914	825.31
328.143	582.31
328.372	507.31
328.6	502.31
328.829	484.31
329.058	499.31
329.287	502.31
329.515	496.31
329.744	460.31
329.972	470.31
330.201	472.31
330.43	491.31
330.658	501.31
330.887	529.31
331.115	524.31
331.344	486.31
331.572	466.31
331.801	433.31
332.03	479.31
332.258	445.31
332.486	472.31
332.715	446.31
332.943	454.31
333.172	476.31
333.4	454.31
333.629	460.31
333.857	473.31
334.085	499.31
334.314	513.31
334.542	497.31
334.771	511.31
334.999	476.31
335.227	458.31
335.455	447.31
335.684	437.31
335.912	461.31
336.14	458.31
336.369	452.31
336.597	430.31
336.825	453.31
337.053	461.31
337.281	444.31
337.51	457.31
337.738	460.31
337.966	440.31
338.194	433.31
338.422	425.31
338.65	409.31
338.878	435.31
339.106	429.31
339.334	428.31
339.562	431.31
339.79	429.31
340.018	421.31
340.246	445.31
340.474	405.31
340.702	419.31
340.93	391.31
341.158	416.31
341.386	419.31
341.614	423.31
341.842	415.31
342.07	403.31
342.298	415.31
342.526	399.31
342.754	418.31
342.981	431.31
343.209	394.31
343.437	404.31
343.665	407.31
343.893	422.31
344.12	454.31
344.348	447.31
344.576	447.31
344.804	437.31
345.031	441.31
345.259	421.31
345.487	426.31
345.714	417.31
345.942	394.31
346.17	383.31
346.397	393.31
346.625	389.31
346.853	407.31
347.08	387.31
347.308	414.31
347.535	410.31
347.763	393.31
347.99	402.31
348.218	415.31
348.445	423.31
348.673	421.31
348.9	381.31
349.128	398.31
349.355	402.31
349.583	409.31
349.81	400.31
350.037	393.31
350.265	361.31
350.492	381.31
350.72	391.31
350.947	379.31
351.174	387.31
351.402	390.31
351.629	385.31
351.856	412.31
352.083	405.31
352.311	384.31
352.538	392.31
352.765	417.31
352.992	409.31
353.22	383.31
353.447	379.31
353.674	378.31
353.901	373.31
354.128	371.31
354.355	358.31
354.583	375.31
354.81	392.31
355.037	375.31
355.264	364.31
355.491	369.31
355.718	381.31
355.945	377.31
356.172	376.31
356.399	367.31
356.626	358.31
356.853	368.31
357.08	365.31
357.307	379.31
357.534	356.31
357.761	381.31
357.988	377.31
358.215	388.31
358.441	371.31
358.668	367.31
358.895	387.31
359.122	389.31
359.349	378.31
359.576	384.31
359.802	409.31
360.029	408.31
360.256	407.31
360.483	415.31
360.709	383.31
360.936	381.31
361.163	380.31
361.39	383.31
361.616	409.31
361.843	381.31
362.07	386.31
362.296	395.31
362.523	380.31
362.749	403.31
362.976	399.31
363.203	381.31
363.429	379.31
363.656	379.31
363.882	376.31
364.109	375.31
364.335	376.31
364.562	362.31
364.788	344.31
365.015	371.31
365.241	367.31
365.468	378.31
365.694	381.31
365.92	372.31
366.147	391.31
366.373	383.31
366.599	381.31
366.826	375.31
367.052	354.31
367.278	363.31
367.505	375.31
367.731	363.31
367.957	383.31
368.184	382.31
368.41	363.31
368.636	390.31
368.862	384.31
369.089	398.31
369.315	384.31
369.541	375.31
369.767	382.31
369.993	389.31
370.219	371.31
370.445	373.31
370.672	380.31
370.898	375.31
371.124	368.31
371.35	385.31
371.576	385.31
371.802	383.31
372.028	399.31
372.254	375.31
372.48	391.31
372.706	391.31
372.932	387.31
373.158	380.31
373.384	375.31
373.61	368.31
373.835	378.31
374.061	387.31
374.287	388.31
374.513	357.31
374.739	379.31
374.965	387.31
375.191	400.31
375.416	393.31
375.642	385.31
375.868	369.31
376.094	395.31
376.319	398.31
376.545	374.31
376.771	371.31
376.997	367.31
377.222	376.31
377.448	371.31
377.674	375.31
377.899	369.31
378.125	377.31
378.35	363.31
378.576	364.31
378.802	358.31
379.027	380.31
379.253	383.31
379.478	375.31
379.704	380.31
379.929	361.31
380.155	392.31
380.38	381.31
380.606	379.31
380.831	386.31
381.057	378.31
381.282	360.31
381.507	364.31
381.733	382.31
381.958	380.31
382.184	363.31
382.409	381.31
382.634	393.31
382.86	381.31
383.085	382.31
383.31	395.31
383.535	385.31
383.761	392.31
383.986	393.31
384.211	391.31
384.436	392.31
384.662	397.31
384.887	418.31
385.112	410.31
385.337	413.31
385.562	405.31
385.787	415.31
386.013	404.31
386.238	424.31
386.463	423.31
386.688	400.31
386.913	411.31
387.138	411.31
387.363	403.31
387.588	395.31
387.813	400.31
388.038	421.31
388.263	409.31
388.488	402.31
388.713	407.31
388.938	405.31
389.163	409.31
389.387	432.31
389.612	395.31
389.837	403.31
390.062	395.31
390.287	413.31
390.512	400.31
390.736	409.31
390.961	396.31
391.186	426.31
391.411	415.31
391.636	412.31
391.86	438.31
392.085	417.31
392.31	414.31
392.534	427.31
392.759	426.31
392.984	420.31
393.208	408.31
393.433	432.31
393.658	414.31
393.882	413.31
394.107	431.31
394.331	420.31
394.556	398.31
394.78	405.31
395.005	435.31
395.229	403.31
395.454	451.31
395.678	426.31
395.903	433.31
396.127	431.31
396.352	458.31
396.576	435.31
396.801	424.31
397.025	439.31
397.249	435.31
397.474	451.31
397.698	439.31
397.922	441.31
398.147	458.31
398.371	483.31
398.595	472.31
398.82	474.31
399.044	484.31
399.268	486.31
399.492	521.31
399.717	578.31
399.941	593.31
400.165	575.31
400.389	615.31
400.613	540.31
400.837	493.31
401.062	451.31
401.286	467.31
401.51	476.31
401.734	464.31
401.958	470.31
402.182	472.31
402.406	474.31
402.63	501.31
402.854	480.31
403.078	467.31
403.302	481.31
403.526	489.31
403.75	480.31
403.974	489.31
404.198	467.31
404.422	507.31
404.645	512.31
404.869	487.31
405.093	525.31
405.317	546.31
405.541	558.31
405.765	531.31
405.988	498.31
406.212	511.31
406.436	538.31
406.66	523.31
406.883	504.31
407.107	548.31
407.331	576.31
407.555	626.31
407.778	632.31
408.002	592.31
408.226	547.31
408.449	519.31
408.673	532.31
408.896	564.31
409.12	563.31
409.344	555.31
409.567	496.31
409.791	504.31
410.014	487.31
410.238	476.31
410.461	461.31
410.685	464.31
410.908	477.31
411.132	525.31
411.355	534.31
411.578	519.31
411.802	505.31
412.025	478.31
412.249	481.31
412.472	497.31
412.695	515.31
412.919	511.31
413.142	491.31
413.365	474.31
413.589	488.31
413.812	480.31
414.035	472.31
414.258	452.31
414.482	441.31
414.705	454.31
414.928	453.31
415.151	454.31
415.374	462.31
415.597	450.31
415.821	466.31
416.044	469.31
416.267	440.31
416.49	445.31
416.713	454.31
416.936	433.31
417.159	437.31
417.382	471.31
417.605	469.31
417.828	478.31
418.051	463.31
418.274	473.31
418.497	436.31
418.72	455.31
418.943	458.31
419.166	469.31
419.389	469.31
419.611	472.31
419.834	481.31
420.057	458.31
420.28	474.31
420.503	469.31
420.726	444.31
420.948	478.31
421.171	519.31
421.394	533.31
421.617	485.31
421.839	464.31
422.062	470.31
422.285	470.31
422.507	516.31
422.73	602.31
422.953	572.31
423.175	514.31
423.398	479.31
423.621	484.31
423.843	490.31
424.066	516.31
424.288	481.31
424.511	486.31
424.733	543.31
424.956	623.31
425.178	569.31
425.401	594.31
425.623	591.31
425.846	524.31
426.068	479.31
426.291	457.31
426.513	486.31
426.735	486.31
426.958	516.31
427.18	596.31
427.402	700.31
427.625	743.31
427.847	633.31
428.069	566.31
428.292	500.31
428.514	487.31
428.736	472.31
428.958	462.31
429.181	435.31
429.403	465.31
429.625	443.31
429.847	487.31
430.069	542.31
430.292	525.31
430.514	458.31
430.736	442.31
430.958	474.31
431.18	443.31
431.402	433.31
431.624	402.31
431.846	427.31
432.068	428.31
432.29	423.31
432.512	431.31
432.734	436.31
432.956	431.31
433.178	461.31
433.4	449.31
433.622	427.31
433.844	438.31
434.066	432.31
434.287	436.31
434.509	419.31
434.731	449.31
434.953	467.31
435.175	444.31
435.397	490.31
435.618	499.31
435.84	503.31
436.062	562.31
436.284	630.31
436.505	554.31
436.727	499.31
436.949	464.31
437.17	457.31
437.392	456.31
437.614	461.31
437.835	472.31
438.057	543.31
438.278	620.31
438.5	615.31
438.721	681.31
438.943	652.31
439.165	534.31
439.386	497.31
439.608	458.31
439.829	461.31
440.05	498.31
440.272	535.31
440.493	487.31
440.715	469.31
440.936	459.31
441.158	437.31
441.379	454.31
441.6	465.31
441.822	475.31
442.043	524.31
442.264	556.31
442.486	591.31
442.707	526.31
442.928	493.31
443.149	495.31
443.371	505.31
443.592	561.31
443.813	614.31
444.034	633.31
444.255	557.31
444.476	505.31
444.698	499.31
444.919	533.31
445.14	594.31
445.361	531.31
445.582	521.31
445.803	559.31
446.024	610.31
446.245	631.31
446.466	587.31
446.687	507.31
446.908	459.31
447.129	444.31
447.35	453.31
447.571	447.31
447.792	445.31
448.013	429.31
448.234	444.31
448.455	503.31
448.675	589.31
448.896	680.31
449.117	559.31
449.338	531.31
449.559	634.31
449.779	677.31
450	570.31
450.221	481.31
450.442	458.31
450.662	419.31
450.883	411.31
451.104	417.31
451.324	424.31
451.545	393.31
451.766	420.31
451.986	416.31
452.207	388.31
452.428	376.31
452.648	377.31
452.869	385.31
453.089	396.31
453.31	416.31
453.53	396.31
453.751	413.31
453.971	386.31
454.192	402.31
454.412	402.31
454.633	384.31
454.853	389.31
455.073	372.31
455.294	397.31
455.514	433.31
455.734	458.31
455.955	396.31
456.175	378.31
456.395	372.31
456.616	370.31
456.836	383.31
457.056	396.31
457.276	362.31
457.497	396.31
457.717	385.31
457.937	374.31
458.157	391.31
458.377	389.31
458.598	424.31
458.818	427.31
459.038	500.31
459.258	505.31
459.478	444.31
459.698	413.31
459.918	417.31
460.138	416.31
460.358	449.31
460.578	445.31
460.798	430.31
461.018	453.31
461.238	448.31
461.458	448.31
461.678	442.31
461.898	440.31
462.118	458.31
462.338	443.31
462.558	456.31
462.777	457.31
462.997	500.31
463.217	491.31
463.437	515.31
463.657	504.31
463.876	481.31
464.096	490.31
464.316	475.31
464.536	467.31
464.755	484.31
464.975	478.31
465.195	500.31
465.414	521.31
465.634	458.31
465.854	439.31
466.073	431.31
466.293	415.31
466.512	412.31
466.732	421.31
466.951	403.31
467.171	407.31
467.391	407.31
467.61	416.31
467.829	421.31
468.049	408.31
468.268	409.31
468.488	402.31
468.707	407.31
468.927	391.31
469.146	393.31
469.365	399.31
469.585	387.31
469.804	390.31
470.023	412.31
470.243	403.31
470.462	424.31
470.681	410.31
470.901	423.31
471.12	412.31
471.339	422.31
471.558	406.31
471.777	432.31
471.997	412.31
472.216	391.31
472.435	431.31
472.654	432.31
472.873	397.31
473.092	412.31
473.311	387.31
473.53	409.31
473.749	413.31
473.968	455.31
474.187	519.31
474.406	516.31
474.625	449.31
474.844	409.31
475.063	412.31
475.282	393.31
475.501	422.31
475.72	431.31
475.939	403.31
476.158	422.31
476.377	417.31
476.596	426.31
476.814	430.31
477.033	429.31
477.252	449.31
477.471	427.31
477.69	435.31
477.908	444.31
478.127	448.31
478.346	438.31
478.564	451.31
478.783	443.31
479.002	472.31
479.22	474.31
479.439	472.31
479.658	501.31
479.876	485.31
480.095	521.31
480.313	540.31
480.532	495.31
480.751	516.31
480.969	503.31
481.188	549.31
481.406	526.31
481.624	495.31
481.843	493.31
482.061	484.31
482.28	481.31
482.498	472.31
482.717	471.31
482.935	462.31
483.153	476.31
483.372	465.31
483.59	473.31
483.808	468.31
484.027	467.31
484.245	474.31
484.463	472.31
484.681	469.31
484.9	461.31
485.118	471.31
485.336	466.31
485.554	471.31
485.772	497.31
485.99	508.31
486.209	488.31
486.427	485.31
486.645	484.31
486.863	526.31
487.081	495.31
487.299	504.31
487.517	475.31
487.735	489.31
487.953	497.31
488.171	507.31
488.389	515.31
488.607	507.31
488.825	504.31
489.043	484.31
489.261	495.31
489.479	515.31
489.696	535.31
489.914	513.31
490.132	511.31
490.35	506.31
490.568	505.31
490.786	536.31
491.003	536.31
491.221	523.31
491.439	548.31
491.657	552.31
491.874	560.31
492.092	544.31
492.31	549.31
492.527	555.31
492.745	552.31
492.963	567.31
493.18	555.31
493.398	576.31
493.615	569.31
493.833	572.31
494.05	587.31
494.268	561.31
494.485	584.31
494.703	582.31
494.92	566.31
495.138	572.31
495.355	572.31
495.573	559.31
495.79	569.31
496.008	594.31
496.225	584.31
496.442	564.31
496.66	588.31
496.877	592.31
497.094	604.31
497.312	597.31
497.529	595.31
497.746	616.31
497.963	601.31
498.181	648.31
498.398	670.31
498.615	653.31
498.832	697.31
499.049	715.31
499.267	756.31
499.484	763.31
499.701	779.31
499.918	786.31
500.135	866.31
500.352	931.31
500.569	931.31
500.786	938.31
501.003	905.31
501.22	852.31
501.437	824.31
501.654	811.31
501.871	790.31
502.088	744.31
