Data from 1977.PennyLincolnUp.Lamp.En5.5.200Scan.071719.P1_HRD10591_16-07-55-865.txt Node
Date: Thu Jul 18 16:07:55 EDT 2019
User: cochatt
Spectrometer: HR+D1059
Trigger mode: 1
Integration Time (sec): 1.000000E-1
Scans to average: 1
Electric dark correction enabled: true
Nonlinearity correction enabled: false
Boxcar width: 0
XAxis mode: Wavelengths
Number of Pixels in Spectrum: 2048
>>>>>Begin Spectral Data<<<<<
223.165	-10.62
223.4	-10.62
223.635	-10.62
223.869	-23.62
224.104	-23.62
224.338	-15.62
224.573	-4.62
224.808	-10.62
225.042	-8.62
225.277	1.38
225.511	-0.62
225.746	-10.62
225.98	6.38
226.215	13.38
226.449	17.38
226.683	15.38
226.918	19.38
227.152	35.38
227.387	21.38
227.621	46.38
227.856	50.38
228.09	49.38
228.324	50.38
228.559	58.38
228.793	63.38
229.027	98.38
229.262	112.38
229.496	109.38
229.73	123.38
229.964	161.38
230.199	130.38
230.433	115.38
230.667	107.38
230.901	92.38
231.136	120.38
231.37	105.38
231.604	125.38
231.838	114.38
232.072	139.38
232.306	116.38
232.541	123.38
232.775	115.38
233.009	116.38
233.243	121.38
233.477	123.38
233.711	131.38
233.945	104.38
234.179	109.38
234.413	135.38
234.647	130.38
234.881	126.38
235.115	132.38
235.349	106.38
235.583	125.38
235.817	118.38
236.051	131.38
236.285	132.38
236.519	123.38
236.753	140.38
236.987	132.38
237.221	179.38
237.455	202.38
237.689	171.38
237.922	140.38
238.156	138.38
238.39	129.38
238.624	145.38
238.858	138.38
239.091	137.38
239.325	129.38
239.559	131.38
239.793	129.38
240.027	124.38
240.26	140.38
240.494	161.38
240.728	143.38
240.961	167.38
241.195	165.38
241.429	135.38
241.662	144.38
241.896	138.38
242.13	133.38
242.363	139.38
242.597	143.38
242.83	137.38
243.064	141.38
243.298	125.38
243.531	140.38
243.765	137.38
243.998	132.38
244.232	137.38
244.465	150.38
244.699	161.38
244.932	141.38
245.166	144.38
245.399	143.38
245.633	163.38
245.866	161.38
246.099	154.38
246.333	163.38
246.566	149.38
246.8	143.38
247.033	162.38
247.266	153.38
247.5	141.38
247.733	178.38
247.966	176.38
248.2	164.38
248.433	162.38
248.666	182.38
248.899	203.38
249.133	203.38
249.366	199.38
249.599	176.38
249.832	167.38
250.066	196.38
250.299	186.38
250.532	189.38
250.765	202.38
250.998	218.38
251.231	226.38
251.465	224.38
251.698	208.38
251.931	211.38
252.164	191.38
252.397	203.38
252.63	207.38
252.863	218.38
253.096	199.38
253.329	218.38
253.562	226.38
253.795	232.38
254.028	211.38
254.261	218.38
254.494	233.38
254.727	252.38
254.96	267.38
255.193	284.38
255.426	251.38
255.659	236.38
255.892	233.38
256.124	225.38
256.357	249.38
256.59	212.38
256.823	229.38
257.056	223.38
257.289	225.38
257.521	209.38
257.754	236.38
257.987	218.38
258.22	227.38
258.452	209.38
258.685	216.38
258.918	220.38
259.151	235.38
259.383	227.38
259.616	231.38
259.849	228.38
260.081	237.38
260.314	248.38
260.547	261.38
260.779	249.38
261.012	242.38
261.244	224.38
261.477	240.38
261.71	238.38
261.942	244.38
262.175	236.38
262.407	232.38
262.64	219.38
262.872	211.38
263.105	215.38
263.337	226.38
263.57	231.38
263.802	236.38
264.035	215.38
264.267	221.38
264.499	231.38
264.732	222.38
264.964	227.38
265.197	210.38
265.429	209.38
265.661	232.38
265.894	234.38
266.126	238.38
266.358	220.38
266.591	243.38
266.823	215.38
267.055	244.38
267.287	242.38
267.52	258.38
267.752	237.38
267.984	255.38
268.216	258.38
268.448	224.38
268.681	244.38
268.913	266.38
269.145	274.38
269.377	312.38
269.609	301.38
269.841	280.38
270.073	295.38
270.306	319.38
270.538	289.38
270.77	313.38
271.002	311.38
271.234	307.38
271.466	317.38
271.698	333.38
271.93	324.38
272.162	327.38
272.394	308.38
272.626	319.38
272.858	279.38
273.09	283.38
273.322	290.38
273.553	268.38
273.785	284.38
274.017	295.38
274.249	260.38
274.481	279.38
274.713	274.38
274.945	293.38
275.176	291.38
275.408	280.38
275.64	283.38
275.872	286.38
276.104	279.38
276.335	291.38
276.567	293.38
276.799	288.38
277.031	303.38
277.262	316.38
277.494	312.38
277.726	304.38
277.957	292.38
278.189	297.38
278.421	297.38
278.652	277.38
278.884	280.38
279.115	288.38
279.347	311.38
279.579	280.38
279.81	292.38
280.042	292.38
280.273	280.38
280.505	304.38
280.736	294.38
280.968	288.38
281.199	311.38
281.431	301.38
281.662	308.38
281.894	300.38
282.125	292.38
282.356	291.38
282.588	317.38
282.819	322.38
283.051	304.38
283.282	291.38
283.513	293.38
283.745	312.38
283.976	308.38
284.207	315.38
284.439	294.38
284.67	301.38
284.901	304.38
285.132	286.38
285.364	297.38
285.595	300.38
285.826	304.38
286.057	315.38
286.288	296.38
286.52	292.38
286.751	305.38
286.982	320.38
287.213	298.38
287.444	312.38
287.675	335.38
287.906	318.38
288.138	319.38
288.369	323.38
288.6	350.38
288.831	304.38
289.062	323.38
289.293	325.38
289.524	308.38
289.755	328.38
289.986	313.38
290.217	318.38
290.448	319.38
290.679	314.38
290.91	302.38
291.141	320.38
291.371	325.38
291.602	339.38
291.833	323.38
292.064	332.38
292.295	323.38
292.526	323.38
292.757	315.38
292.987	329.38
293.218	319.38
293.449	315.38
293.68	324.38
293.91	329.38
294.141	320.38
294.372	340.38
294.603	316.38
294.833	296.38
295.064	324.38
295.295	315.38
295.525	331.38
295.756	331.38
295.987	309.38
296.217	340.38
296.448	339.38
296.679	343.38
296.909	327.38
297.14	319.38
297.37	344.38
297.601	325.38
297.831	345.38
298.062	329.38
298.292	331.38
298.523	344.38
298.753	335.38
298.984	329.38
299.214	338.38
299.445	327.38
299.675	365.38
299.905	340.38
300.136	336.38
300.366	348.38
300.597	344.38
300.827	351.38
301.057	379.38
301.288	359.38
301.518	352.38
301.748	365.38
301.979	353.38
302.209	373.38
302.439	357.38
302.669	347.38
302.9	356.38
303.13	337.38
303.36	356.38
303.59	372.38
303.82	344.38
304.051	361.38
304.281	370.38
304.511	352.38
304.741	347.38
304.971	349.38
305.201	338.38
305.431	352.38
305.661	357.38
305.891	378.38
306.121	353.38
306.352	353.38
306.582	365.38
306.812	345.38
307.042	380.38
307.272	362.38
307.502	352.38
307.731	366.38
307.961	350.38
308.191	367.38
308.421	360.38
308.651	370.38
308.881	371.38
309.111	356.38
309.341	363.38
309.571	368.38
309.8	363.38
310.03	380.38
310.26	391.38
310.49	400.38
310.72	391.38
310.949	425.38
311.179	415.38
311.409	407.38
311.639	397.38
311.868	395.38
312.098	393.38
312.328	397.38
312.557	397.38
312.787	417.38
313.017	412.38
313.246	401.38
313.476	387.38
313.706	420.38
313.935	407.38
314.165	406.38
314.394	399.38
314.624	423.38
314.853	435.38
315.083	401.38
315.312	401.38
315.542	416.38
315.771	405.38
316.001	399.38
316.23	408.38
316.46	398.38
316.689	409.38
316.919	419.38
317.148	395.38
317.377	393.38
317.607	418.38
317.836	409.38
318.065	414.38
318.295	395.38
318.524	399.38
318.753	388.38
318.983	402.38
319.212	396.38
319.441	398.38
319.67	417.38
319.9	394.38
320.129	412.38
320.358	405.38
320.587	417.38
320.816	417.38
321.046	394.38
321.275	406.38
321.504	414.38
321.733	420.38
321.962	415.38
322.191	460.38
322.42	437.38
322.649	453.38
322.878	449.38
323.108	461.38
323.337	500.38
323.566	484.38
323.795	533.38
324.024	569.38
324.253	639.38
324.482	878.38
324.71	1301.38
324.939	1805.38
325.168	1578.38
325.397	840.38
325.626	594.38
325.855	533.38
326.084	494.38
326.313	516.38
326.542	487.38
326.77	541.38
326.999	628.38
327.228	807.38
327.457	1168.38
327.686	1397.38
327.914	937.38
328.143	647.38
328.372	592.38
328.6	551.38
328.829	551.38
329.058	526.38
329.287	552.38
329.515	532.38
329.744	495.38
329.972	492.38
330.201	519.38
330.43	556.38
330.658	555.38
330.887	581.38
331.115	585.38
331.344	518.38
331.572	506.38
331.801	505.38
332.03	501.38
332.258	488.38
332.486	464.38
332.715	455.38
332.943	467.38
333.172	480.38
333.4	483.38
333.629	493.38
333.857	504.38
334.085	516.38
334.314	526.38
334.542	545.38
334.771	551.38
334.999	521.38
335.227	499.38
335.455	492.38
335.684	473.38
335.912	478.38
336.14	479.38
336.369	467.38
336.597	490.38
336.825	464.38
337.053	462.38
337.281	452.38
337.51	468.38
337.738	482.38
337.966	460.38
338.194	473.38
338.422	481.38
338.65	466.38
338.878	465.38
339.106	459.38
339.334	439.38
339.562	446.38
339.79	432.38
340.018	443.38
340.246	455.38
340.474	450.38
340.702	442.38
340.93	470.38
341.158	447.38
341.386	436.38
341.614	451.38
341.842	472.38
342.07	450.38
342.298	434.38
342.526	425.38
342.754	436.38
342.981	453.38
343.209	452.38
343.437	448.38
343.665	466.38
343.893	475.38
344.12	488.38
344.348	478.38
344.576	465.38
344.804	458.38
345.031	456.38
345.259	456.38
345.487	446.38
345.714	435.38
345.942	419.38
346.17	440.38
346.397	421.38
346.625	436.38
346.853	420.38
347.08	430.38
347.308	429.38
347.535	433.38
347.763	455.38
347.99	428.38
348.218	441.38
348.445	413.38
348.673	417.38
348.9	424.38
349.128	426.38
349.355	426.38
349.583	420.38
349.81	411.38
350.037	418.38
350.265	419.38
350.492	416.38
350.72	385.38
350.947	416.38
351.174	437.38
351.402	443.38
351.629	442.38
351.856	441.38
352.083	436.38
352.311	429.38
352.538	431.38
352.765	432.38
352.992	431.38
353.22	426.38
353.447	421.38
353.674	423.38
353.901	398.38
354.128	405.38
354.355	406.38
354.583	392.38
354.81	402.38
355.037	405.38
355.264	397.38
355.491	388.38
355.718	387.38
355.945	395.38
356.172	413.38
356.399	390.38
356.626	387.38
356.853	368.38
357.08	397.38
357.307	388.38
357.534	411.38
357.761	401.38
357.988	394.38
358.215	411.38
358.441	403.38
358.668	387.38
358.895	417.38
359.122	409.38
359.349	397.38
359.576	440.38
359.802	450.38
360.029	462.38
360.256	463.38
360.483	442.38
360.709	436.38
360.936	425.38
361.163	423.38
361.39	409.38
361.616	417.38
361.843	399.38
362.07	399.38
362.296	400.38
362.523	401.38
362.749	423.38
362.976	409.38
363.203	412.38
363.429	400.38
363.656	415.38
363.882	412.38
364.109	397.38
364.335	405.38
364.562	394.38
364.788	377.38
365.015	390.38
365.241	391.38
365.468	403.38
365.694	385.38
365.92	404.38
366.147	380.38
366.373	384.38
366.599	386.38
366.826	388.38
367.052	396.38
367.278	382.38
367.505	397.38
367.731	389.38
367.957	393.38
368.184	381.38
368.41	408.38
368.636	411.38
368.862	415.38
369.089	411.38
369.315	392.38
369.541	404.38
369.767	395.38
369.993	398.38
370.219	397.38
370.445	400.38
370.672	397.38
370.898	403.38
371.124	391.38
371.35	411.38
371.576	411.38
371.802	396.38
372.028	384.38
372.254	395.38
372.48	415.38
372.706	404.38
372.932	396.38
373.158	410.38
373.384	397.38
373.61	392.38
373.835	408.38
374.061	389.38
374.287	390.38
374.513	409.38
374.739	419.38
374.965	411.38
375.191	416.38
375.416	413.38
375.642	404.38
375.868	415.38
376.094	402.38
376.319	406.38
376.545	394.38
376.771	394.38
376.997	412.38
377.222	397.38
377.448	389.38
377.674	399.38
377.899	389.38
378.125	381.38
378.35	410.38
378.576	395.38
378.802	395.38
379.027	372.38
379.253	397.38
379.478	391.38
379.704	381.38
379.929	398.38
380.155	405.38
380.38	402.38
380.606	380.38
380.831	408.38
381.057	393.38
381.282	388.38
381.507	375.38
381.733	410.38
381.958	409.38
382.184	400.38
382.409	377.38
382.634	393.38
382.86	411.38
383.085	402.38
383.31	401.38
383.535	389.38
383.761	425.38
383.986	436.38
384.211	401.38
384.436	415.38
384.662	422.38
384.887	442.38
385.112	421.38
385.337	431.38
385.562	412.38
385.787	427.38
386.013	428.38
386.238	416.38
386.463	441.38
386.688	443.38
386.913	420.38
387.138	439.38
387.363	425.38
387.588	417.38
387.813	441.38
388.038	434.38
388.263	426.38
388.488	441.38
388.713	415.38
388.938	420.38
389.163	423.38
389.387	453.38
389.612	420.38
389.837	426.38
390.062	417.38
390.287	440.38
390.512	433.38
390.736	411.38
390.961	434.38
391.186	421.38
391.411	453.38
391.636	440.38
391.86	433.38
392.085	478.38
392.31	451.38
392.534	461.38
392.759	438.38
392.984	443.38
393.208	433.38
393.433	434.38
393.658	439.38
393.882	428.38
394.107	435.38
394.331	450.38
394.556	449.38
394.78	439.38
395.005	443.38
395.229	433.38
395.454	437.38
395.678	438.38
395.903	451.38
396.127	474.38
396.352	470.38
396.576	449.38
396.801	436.38
397.025	447.38
397.249	458.38
397.474	496.38
397.698	441.38
397.922	465.38
398.147	487.38
398.371	488.38
398.595	477.38
398.82	483.38
399.044	495.38
399.268	532.38
399.492	559.38
399.717	572.38
399.941	587.38
400.165	619.38
400.389	603.38
400.613	553.38
400.837	513.38
401.062	499.38
401.286	505.38
401.51	503.38
401.734	482.38
401.958	492.38
402.182	512.38
402.406	506.38
402.63	476.38
402.854	506.38
403.078	522.38
403.302	489.38
403.526	524.38
403.75	494.38
403.974	511.38
404.198	504.38
404.422	509.38
404.645	521.38
404.869	527.38
405.093	535.38
405.317	560.38
405.541	617.38
405.765	552.38
405.988	547.38
406.212	544.38
406.436	534.38
406.66	567.38
406.883	541.38
407.107	555.38
407.331	635.38
407.555	657.38
407.778	643.38
408.002	626.38
408.226	556.38
408.449	556.38
408.673	570.38
408.896	583.38
409.12	615.38
409.344	572.38
409.567	539.38
409.791	535.38
410.014	514.38
410.238	505.38
410.461	523.38
410.685	503.38
410.908	514.38
411.132	547.38
411.355	559.38
411.578	519.38
411.802	488.38
412.025	508.38
412.249	515.38
412.472	535.38
412.695	551.38
412.919	546.38
413.142	481.38
413.365	483.38
413.589	480.38
413.812	455.38
414.035	484.38
414.258	459.38
414.482	473.38
414.705	467.38
414.928	486.38
415.151	456.38
415.374	464.38
415.597	480.38
415.821	487.38
416.044	489.38
416.267	492.38
416.49	480.38
416.713	479.38
416.936	475.38
417.159	460.38
417.382	473.38
417.605	491.38
417.828	496.38
418.051	481.38
418.274	469.38
418.497	463.38
418.72	476.38
418.943	465.38
419.166	496.38
419.389	507.38
419.611	481.38
419.834	482.38
420.057	497.38
420.28	500.38
420.503	490.38
420.726	493.38
420.948	513.38
421.171	537.38
421.394	547.38
421.617	498.38
421.839	477.38
422.062	496.38
422.285	504.38
422.507	557.38
422.73	616.38
422.953	596.38
423.175	511.38
423.398	513.38
423.621	504.38
423.843	527.38
424.066	539.38
424.288	525.38
424.511	546.38
424.733	572.38
424.956	647.38
425.178	631.38
425.401	634.38
425.623	654.38
425.846	557.38
426.068	525.38
426.291	507.38
426.513	506.38
426.735	514.38
426.958	564.38
427.18	636.38
427.402	723.38
427.625	769.38
427.847	688.38
428.069	620.38
428.292	527.38
428.514	503.38
428.736	478.38
428.958	487.38
429.181	495.38
429.403	476.38
429.625	484.38
429.847	491.38
430.069	559.38
430.292	557.38
430.514	495.38
430.736	473.38
430.958	465.38
431.18	465.38
431.402	452.38
431.624	434.38
431.846	477.38
432.068	460.38
432.29	463.38
432.512	459.38
432.734	467.38
432.956	457.38
433.178	451.38
433.4	463.38
433.622	478.38
433.844	468.38
434.066	443.38
434.287	457.38
434.509	453.38
434.731	452.38
434.953	477.38
435.175	487.38
435.397	511.38
435.618	523.38
435.84	553.38
436.062	640.38
436.284	669.38
436.505	579.38
436.727	501.38
436.949	467.38
437.17	457.38
437.392	491.38
437.614	465.38
437.835	520.38
438.057	570.38
438.278	676.38
438.5	669.38
438.721	735.38
438.943	709.38
439.165	588.38
439.386	519.38
439.608	508.38
439.829	513.38
440.05	527.38
440.272	571.38
440.493	557.38
440.715	512.38
440.936	473.38
441.158	496.38
441.379	495.38
441.6	487.38
441.822	519.38
442.043	557.38
442.264	605.38
442.486	644.38
442.707	545.38
442.928	539.38
443.149	521.38
443.371	559.38
443.592	610.38
443.813	644.38
444.034	702.38
444.255	619.38
444.476	556.38
444.698	544.38
444.919	534.38
445.14	632.38
445.361	584.38
445.582	530.38
445.803	609.38
446.024	673.38
446.245	688.38
446.466	624.38
446.687	533.38
446.908	515.38
447.129	484.38
447.35	458.38
447.571	467.38
447.792	457.38
448.013	468.38
448.234	469.38
448.455	519.38
448.675	619.38
448.896	722.38
449.117	594.38
449.338	595.38
449.559	664.38
449.779	749.38
450	601.38
450.221	510.38
450.442	459.38
450.662	455.38
450.883	430.38
451.104	460.38
451.324	443.38
451.545	442.38
451.766	444.38
451.986	417.38
452.207	412.38
452.428	411.38
452.648	402.38
452.869	419.38
453.089	421.38
453.31	420.38
453.53	433.38
453.751	412.38
453.971	402.38
454.192	443.38
454.412	411.38
454.633	414.38
454.853	434.38
455.073	409.38
455.294	435.38
455.514	512.38
455.734	495.38
455.955	419.38
456.175	398.38
456.395	380.38
456.616	381.38
456.836	385.38
457.056	381.38
457.276	377.38
457.497	397.38
457.717	399.38
457.937	411.38
458.157	400.38
458.377	407.38
458.598	428.38
458.818	464.38
459.038	519.38
459.258	537.38
459.478	492.38
459.698	458.38
459.918	450.38
460.138	441.38
460.358	469.38
460.578	472.38
460.798	455.38
461.018	467.38
461.238	467.38
461.458	460.38
461.678	468.38
461.898	464.38
462.118	479.38
462.338	468.38
462.558	480.38
462.777	485.38
462.997	483.38
463.217	515.38
463.437	488.38
463.657	498.38
463.876	500.38
464.096	501.38
464.316	530.38
464.536	480.38
464.755	503.38
464.975	501.38
465.195	504.38
465.414	537.38
465.634	479.38
465.854	461.38
466.073	451.38
466.293	447.38
466.512	423.38
466.732	432.38
466.951	431.38
467.171	421.38
467.391	447.38
467.61	424.38
467.829	428.38
468.049	437.38
468.268	430.38
468.488	418.38
468.707	425.38
468.927	432.38
469.146	417.38
469.365	429.38
469.585	399.38
469.804	442.38
470.023	441.38
470.243	432.38
470.462	449.38
470.681	455.38
470.901	460.38
471.12	425.38
471.339	438.38
471.558	444.38
471.777	421.38
471.997	432.38
472.216	446.38
472.435	455.38
472.654	449.38
472.873	413.38
473.092	412.38
473.311	452.38
473.53	421.38
473.749	438.38
473.968	476.38
474.187	539.38
474.406	574.38
474.625	481.38
474.844	444.38
475.063	435.38
475.282	447.38
475.501	434.38
475.72	439.38
475.939	424.38
476.158	453.38
476.377	447.38
476.596	428.38
476.814	447.38
477.033	449.38
477.252	448.38
477.471	444.38
477.69	455.38
477.908	455.38
478.127	477.38
478.346	478.38
478.564	481.38
478.783	485.38
479.002	474.38
479.22	485.38
479.439	503.38
479.658	502.38
479.876	508.38
480.095	550.38
480.313	551.38
480.532	518.38
480.751	504.38
480.969	506.38
481.188	557.38
481.406	569.38
481.624	525.38
481.843	526.38
482.061	477.38
482.28	505.38
482.498	470.38
482.717	489.38
482.935	483.38
483.153	486.38
483.372	492.38
483.59	516.38
483.808	488.38
484.027	511.38
484.245	499.38
484.463	511.38
484.681	495.38
484.9	513.38
485.118	488.38
485.336	525.38
485.554	508.38
485.772	510.38
485.99	532.38
486.209	508.38
486.427	529.38
486.645	527.38
486.863	521.38
487.081	531.38
487.299	536.38
487.517	539.38
487.735	525.38
487.953	530.38
488.171	523.38
488.389	540.38
488.607	544.38
488.825	520.38
489.043	509.38
489.261	535.38
489.479	527.38
489.696	534.38
489.914	527.38
490.132	547.38
490.35	548.38
490.568	551.38
490.786	568.38
491.003	559.38
491.221	567.38
491.439	575.38
491.657	589.38
491.874	581.38
492.092	600.38
492.31	587.38
492.527	614.38
492.745	590.38
492.963	612.38
493.18	633.38
493.398	605.38
493.615	627.38
493.833	604.38
494.05	624.38
494.268	589.38
494.485	612.38
494.703	601.38
494.92	613.38
495.138	627.38
495.355	612.38
495.573	616.38
495.79	623.38
496.008	610.38
496.225	627.38
496.442	617.38
496.66	610.38
496.877	628.38
497.094	635.38
497.312	625.38
497.529	639.38
497.746	651.38
497.963	657.38
498.181	677.38
498.398	680.38
498.615	688.38
498.832	718.38
499.049	719.38
499.267	744.38
499.484	781.38
499.701	807.38
499.918	833.38
500.135	890.38
500.352	941.38
500.569	956.38
500.786	943.38
501.003	957.38
501.22	923.38
501.437	873.38
501.654	809.38
501.871	819.38
