Data from 1977.PennyLincolnUp.Lamp.En5.5.200Scan.071719.P1_HRD10591_16-06-43-863.txt Node
Date: Thu Jul 18 16:06:43 EDT 2019
User: cochatt
Spectrometer: HR+D1059
Trigger mode: 1
Integration Time (sec): 1.000000E-1
Scans to average: 1
Electric dark correction enabled: true
Nonlinearity correction enabled: false
Boxcar width: 0
XAxis mode: Wavelengths
Number of Pixels in Spectrum: 2048
>>>>>Begin Spectral Data<<<<<
223.165	-14.12
223.4	-14.12
223.635	-14.12
223.869	-19.12
224.104	-23.12
224.338	-22.12
224.573	-0.12
224.808	-7.12
225.042	-11.12
225.277	-11.12
225.511	-7.12
225.746	7.88
225.98	8.88
226.215	12.88
226.449	16.88
226.683	16.88
226.918	26.88
227.152	24.88
227.387	29.88
227.621	33.88
227.856	51.88
228.09	44.88
228.324	47.88
228.559	57.88
228.793	56.88
229.027	99.88
229.262	100.88
229.496	105.88
229.73	118.88
229.964	133.88
230.199	125.88
230.433	103.88
230.667	102.88
230.901	122.88
231.136	99.88
231.37	116.88
231.604	103.88
231.838	123.88
232.072	113.88
232.306	107.88
232.541	96.88
232.775	119.88
233.009	111.88
233.243	120.88
233.477	124.88
233.711	119.88
233.945	87.88
234.179	111.88
234.413	109.88
234.647	113.88
234.881	123.88
235.115	111.88
235.349	89.88
235.583	119.88
235.817	128.88
236.051	102.88
236.285	119.88
236.519	116.88
236.753	131.88
236.987	129.88
237.221	162.88
237.455	183.88
237.689	168.88
237.922	141.88
238.156	124.88
238.39	130.88
238.624	126.88
238.858	109.88
239.091	133.88
239.325	124.88
239.559	112.88
239.793	119.88
240.027	134.88
240.26	149.88
240.494	145.88
240.728	146.88
240.961	148.88
241.195	140.88
241.429	129.88
241.662	132.88
241.896	130.88
242.13	131.88
242.363	135.88
242.597	128.88
242.83	140.88
243.064	125.88
243.298	120.88
243.531	131.88
243.765	131.88
243.998	145.88
244.232	133.88
244.465	121.88
244.699	138.88
244.932	149.88
245.166	138.88
245.399	139.88
245.633	155.88
245.866	141.88
246.099	132.88
246.333	137.88
246.566	131.88
246.8	136.88
247.033	151.88
247.266	131.88
247.5	141.88
247.733	178.88
247.966	164.88
248.2	166.88
248.433	163.88
248.666	176.88
248.899	175.88
249.133	184.88
249.366	191.88
249.599	177.88
249.832	175.88
250.066	185.88
250.299	192.88
250.532	183.88
250.765	203.88
250.998	206.88
251.231	215.88
251.465	211.88
251.698	204.88
251.931	202.88
252.164	188.88
252.397	178.88
252.63	195.88
252.863	205.88
253.096	208.88
253.329	207.88
253.562	197.88
253.795	200.88
254.028	215.88
254.261	209.88
254.494	237.88
254.727	239.88
254.96	241.88
255.193	245.88
255.426	234.88
255.659	207.88
255.892	213.88
256.124	229.88
256.357	216.88
256.59	219.88
256.823	200.88
257.056	220.88
257.289	212.88
257.521	201.88
257.754	205.88
257.987	200.88
258.22	202.88
258.452	205.88
258.685	227.88
258.918	207.88
259.151	209.88
259.383	209.88
259.616	229.88
259.849	205.88
260.081	233.88
260.314	245.88
260.547	237.88
260.779	232.88
261.012	241.88
261.244	217.88
261.477	227.88
261.71	218.88
261.942	199.88
262.175	237.88
262.407	235.88
262.64	219.88
262.872	221.88
263.105	193.88
263.337	209.88
263.57	224.88
263.802	231.88
264.035	200.88
264.267	228.88
264.499	217.88
264.732	218.88
264.964	225.88
265.197	236.88
265.429	204.88
265.661	220.88
265.894	197.88
266.126	225.88
266.358	220.88
266.591	234.88
266.823	229.88
267.055	219.88
267.287	218.88
267.52	234.88
267.752	224.88
267.984	233.88
268.216	230.88
268.448	245.88
268.681	247.88
268.913	259.88
269.145	252.88
269.377	271.88
269.609	279.88
269.841	269.88
270.073	292.88
270.306	286.88
270.538	291.88
270.77	306.88
271.002	283.88
271.234	293.88
271.466	290.88
271.698	299.88
271.93	290.88
272.162	318.88
272.394	291.88
272.626	295.88
272.858	293.88
273.09	289.88
273.322	275.88
273.553	281.88
273.785	268.88
274.017	281.88
274.249	261.88
274.481	261.88
274.713	262.88
274.945	284.88
275.176	274.88
275.408	269.88
275.64	267.88
275.872	272.88
276.104	282.88
276.335	270.88
276.567	263.88
276.799	273.88
277.031	314.88
277.262	315.88
277.494	295.88
277.726	300.88
277.957	296.88
278.189	293.88
278.421	295.88
278.652	267.88
278.884	277.88
279.115	284.88
279.347	275.88
279.579	277.88
279.81	277.88
280.042	274.88
280.273	273.88
280.505	276.88
280.736	277.88
280.968	279.88
281.199	271.88
281.431	297.88
281.662	286.88
281.894	292.88
282.125	291.88
282.356	291.88
282.588	314.88
282.819	317.88
283.051	295.88
283.282	274.88
283.513	297.88
283.745	285.88
283.976	290.88
284.207	294.88
284.439	319.88
284.67	296.88
284.901	296.88
285.132	296.88
285.364	299.88
285.595	301.88
285.826	291.88
286.057	304.88
286.288	305.88
286.52	299.88
286.751	295.88
286.982	297.88
287.213	303.88
287.444	291.88
287.675	287.88
287.906	316.88
288.138	307.88
288.369	311.88
288.6	324.88
288.831	306.88
289.062	291.88
289.293	303.88
289.524	317.88
289.755	297.88
289.986	304.88
290.217	308.88
290.448	298.88
290.679	306.88
290.91	312.88
291.141	318.88
291.371	302.88
291.602	307.88
291.833	315.88
292.064	294.88
292.295	295.88
292.526	307.88
292.757	299.88
292.987	305.88
293.218	311.88
293.449	304.88
293.68	293.88
293.91	303.88
294.141	303.88
294.372	327.88
294.603	332.88
294.833	305.88
295.064	314.88
295.295	327.88
295.525	305.88
295.756	315.88
295.987	340.88
296.217	337.88
296.448	328.88
296.679	321.88
296.909	311.88
297.14	330.88
297.37	307.88
297.601	309.88
297.831	319.88
298.062	323.88
298.292	339.88
298.523	330.88
298.753	342.88
298.984	330.88
299.214	321.88
299.445	332.88
299.675	340.88
299.905	329.88
300.136	324.88
300.366	338.88
300.597	314.88
300.827	344.88
301.057	346.88
301.288	342.88
301.518	347.88
301.748	342.88
301.979	335.88
302.209	341.88
302.439	358.88
302.669	359.88
302.9	328.88
303.13	338.88
303.36	352.88
303.59	353.88
303.82	358.88
304.051	354.88
304.281	339.88
304.511	336.88
304.741	339.88
304.971	347.88
305.201	347.88
305.431	341.88
305.661	344.88
305.891	354.88
306.121	355.88
306.352	368.88
306.582	359.88
306.812	318.88
307.042	368.88
307.272	360.88
307.502	369.88
307.731	359.88
307.961	367.88
308.191	356.88
308.421	365.88
308.651	336.88
308.881	371.88
309.111	349.88
309.341	340.88
309.571	364.88
309.8	348.88
310.03	382.88
310.26	369.88
310.49	370.88
310.72	374.88
310.949	382.88
311.179	381.88
311.409	381.88
311.639	382.88
311.868	364.88
312.098	381.88
312.328	398.88
312.557	409.88
312.787	412.88
313.017	408.88
313.246	409.88
313.476	392.88
313.706	392.88
313.935	406.88
314.165	406.88
314.394	389.88
314.624	409.88
314.853	385.88
315.083	413.88
315.312	406.88
315.542	400.88
315.771	394.88
316.001	378.88
316.23	389.88
316.46	380.88
316.689	393.88
316.919	397.88
317.148	392.88
317.377	394.88
317.607	390.88
317.836	391.88
318.065	384.88
318.295	412.88
318.524	377.88
318.753	398.88
318.983	375.88
319.212	405.88
319.441	397.88
319.67	408.88
319.9	379.88
320.129	385.88
320.358	396.88
320.587	412.88
320.816	424.88
321.046	414.88
321.275	407.88
321.504	412.88
321.733	412.88
321.962	413.88
322.191	421.88
322.42	423.88
322.649	428.88
322.878	441.88
323.108	444.88
323.337	474.88
323.566	450.88
323.795	508.88
324.024	526.88
324.253	618.88
324.482	865.88
324.71	1261.88
324.939	1703.88
325.168	1448.88
325.397	804.88
325.626	588.88
325.855	524.88
326.084	478.88
326.313	470.88
326.542	477.88
326.77	516.88
326.999	599.88
327.228	805.88
327.457	1097.88
327.686	1291.88
327.914	897.88
328.143	628.88
328.372	576.88
328.6	542.88
328.829	505.88
329.058	541.88
329.287	532.88
329.515	500.88
329.744	499.88
329.972	503.88
330.201	496.88
330.43	541.88
330.658	537.88
330.887	555.88
331.115	546.88
331.344	498.88
331.572	471.88
331.801	489.88
332.03	482.88
332.258	476.88
332.486	474.88
332.715	476.88
332.943	454.88
333.172	465.88
333.4	468.88
333.629	483.88
333.857	505.88
334.085	501.88
334.314	518.88
334.542	515.88
334.771	514.88
334.999	512.88
335.227	485.88
335.455	464.88
335.684	478.88
335.912	462.88
336.14	463.88
336.369	465.88
336.597	460.88
336.825	485.88
337.053	454.88
337.281	451.88
337.51	436.88
337.738	424.88
337.966	457.88
338.194	454.88
338.422	457.88
338.65	429.88
338.878	442.88
339.106	443.88
339.334	441.88
339.562	448.88
339.79	435.88
340.018	408.88
340.246	443.88
340.474	445.88
340.702	436.88
340.93	431.88
341.158	431.88
341.386	424.88
341.614	439.88
341.842	450.88
342.07	403.88
342.298	436.88
342.526	439.88
342.754	423.88
342.981	420.88
343.209	431.88
343.437	426.88
343.665	441.88
343.893	445.88
344.12	453.88
344.348	446.88
344.576	441.88
344.804	432.88
345.031	450.88
345.259	448.88
345.487	432.88
345.714	423.88
345.942	445.88
346.17	430.88
346.397	442.88
346.625	421.88
346.853	429.88
347.08	398.88
347.308	413.88
347.535	427.88
347.763	414.88
347.99	439.88
348.218	421.88
348.445	409.88
348.673	429.88
348.9	423.88
349.128	396.88
349.355	395.88
349.583	398.88
349.81	407.88
350.037	390.88
350.265	406.88
350.492	380.88
350.72	404.88
350.947	408.88
351.174	393.88
351.402	401.88
351.629	419.88
351.856	406.88
352.083	409.88
352.311	413.88
352.538	409.88
352.765	415.88
352.992	424.88
353.22	401.88
353.447	414.88
353.674	389.88
353.901	388.88
354.128	403.88
354.355	385.88
354.583	398.88
354.81	377.88
355.037	411.88
355.264	399.88
355.491	385.88
355.718	369.88
355.945	377.88
356.172	387.88
356.399	409.88
356.626	376.88
356.853	376.88
357.08	385.88
357.307	392.88
357.534	379.88
357.761	383.88
357.988	406.88
358.215	381.88
358.441	377.88
358.668	374.88
358.895	397.88
359.122	387.88
359.349	407.88
359.576	400.88
359.802	431.88
360.029	418.88
360.256	438.88
360.483	438.88
360.709	397.88
360.936	406.88
361.163	390.88
361.39	383.88
361.616	395.88
361.843	405.88
362.07	390.88
362.296	417.88
362.523	393.88
362.749	408.88
362.976	382.88
363.203	402.88
363.429	397.88
363.656	410.88
363.882	389.88
364.109	392.88
364.335	389.88
364.562	391.88
364.788	380.88
365.015	393.88
365.241	382.88
365.468	391.88
365.694	394.88
365.92	392.88
366.147	410.88
366.373	401.88
366.599	387.88
366.826	405.88
367.052	384.88
367.278	381.88
367.505	403.88
367.731	401.88
367.957	381.88
368.184	389.88
368.41	379.88
368.636	401.88
368.862	401.88
369.089	372.88
369.315	392.88
369.541	376.88
369.767	386.88
369.993	389.88
370.219	387.88
370.445	395.88
370.672	387.88
370.898	387.88
371.124	391.88
371.35	391.88
371.576	383.88
371.802	369.88
372.028	414.88
372.254	379.88
372.48	394.88
372.706	390.88
372.932	389.88
373.158	391.88
373.384	387.88
373.61	383.88
373.835	392.88
374.061	379.88
374.287	402.88
374.513	401.88
374.739	403.88
374.965	413.88
375.191	403.88
375.416	417.88
375.642	395.88
375.868	410.88
376.094	383.88
376.319	379.88
376.545	406.88
376.771	396.88
376.997	388.88
377.222	376.88
377.448	388.88
377.674	392.88
377.899	381.88
378.125	375.88
378.35	386.88
378.576	377.88
378.802	389.88
379.027	377.88
379.253	393.88
379.478	379.88
379.704	384.88
379.929	407.88
380.155	378.88
380.38	370.88
380.606	385.88
380.831	413.88
381.057	377.88
381.282	388.88
381.507	387.88
381.733	391.88
381.958	379.88
382.184	395.88
382.409	395.88
382.634	418.88
382.86	378.88
383.085	390.88
383.31	417.88
383.535	396.88
383.761	399.88
383.986	413.88
384.211	402.88
384.436	422.88
384.662	411.88
384.887	411.88
385.112	402.88
385.337	392.88
385.562	426.88
385.787	434.88
386.013	409.88
386.238	421.88
386.463	419.88
386.688	430.88
386.913	416.88
387.138	413.88
387.363	417.88
387.588	441.88
387.813	428.88
388.038	439.88
388.263	406.88
388.488	430.88
388.713	437.88
388.938	417.88
389.163	431.88
389.387	424.88
389.612	436.88
389.837	431.88
390.062	429.88
390.287	427.88
390.512	416.88
390.736	420.88
390.961	437.88
391.186	435.88
391.411	443.88
391.636	436.88
391.86	435.88
392.085	440.88
392.31	427.88
392.534	450.88
392.759	433.88
392.984	425.88
393.208	440.88
393.433	443.88
393.658	427.88
393.882	407.88
394.107	421.88
394.331	433.88
394.556	411.88
394.78	433.88
395.005	439.88
395.229	451.88
395.454	468.88
395.678	440.88
395.903	461.88
396.127	479.88
396.352	471.88
396.576	441.88
396.801	427.88
397.025	442.88
397.249	449.88
397.474	461.88
397.698	451.88
397.922	455.88
398.147	466.88
398.371	469.88
398.595	485.88
398.82	479.88
399.044	491.88
399.268	515.88
399.492	553.88
399.717	592.88
399.941	604.88
400.165	600.88
400.389	618.88
400.613	541.88
400.837	522.88
401.062	495.88
401.286	491.88
401.51	488.88
401.734	484.88
401.958	472.88
402.182	479.88
402.406	514.88
402.63	513.88
402.854	504.88
403.078	495.88
403.302	512.88
403.526	504.88
403.75	508.88
403.974	498.88
404.198	481.88
404.422	506.88
404.645	500.88
404.869	515.88
405.093	528.88
405.317	561.88
405.541	577.88
405.765	541.88
405.988	525.88
406.212	521.88
406.436	532.88
406.66	545.88
406.883	561.88
407.107	563.88
407.331	615.88
407.555	669.88
407.778	647.88
408.002	578.88
408.226	547.88
408.449	523.88
408.673	560.88
408.896	579.88
409.12	577.88
409.344	551.88
409.567	525.88
409.791	499.88
410.014	509.88
410.238	492.88
410.461	492.88
410.685	516.88
410.908	525.88
411.132	549.88
411.355	575.88
411.578	527.88
411.802	502.88
412.025	488.88
412.249	495.88
412.472	515.88
412.695	514.88
412.919	537.88
413.142	523.88
413.365	503.88
413.589	482.88
413.812	462.88
414.035	459.88
414.258	475.88
414.482	469.88
414.705	469.88
414.928	480.88
415.151	456.88
415.374	480.88
415.597	448.88
415.821	445.88
416.044	471.88
416.267	459.88
416.49	448.88
416.713	487.88
416.936	470.88
417.159	451.88
417.382	448.88
417.605	475.88
417.828	468.88
418.051	485.88
418.274	490.88
418.497	465.88
418.72	457.88
418.943	446.88
419.166	496.88
419.389	501.88
419.611	517.88
419.834	500.88
420.057	477.88
420.28	484.88
420.503	485.88
420.726	483.88
420.948	488.88
421.171	522.88
421.394	565.88
421.617	495.88
421.839	482.88
422.062	486.88
422.285	474.88
422.507	540.88
422.73	626.88
422.953	594.88
423.175	503.88
423.398	489.88
423.621	512.88
423.843	528.88
424.066	532.88
424.288	525.88
424.511	519.88
424.733	583.88
424.956	653.88
425.178	602.88
425.401	617.88
425.623	617.88
425.846	540.88
426.068	498.88
426.291	515.88
426.513	499.88
426.735	517.88
426.958	531.88
427.18	608.88
427.402	725.88
427.625	789.88
427.847	681.88
428.069	587.88
428.292	534.88
428.514	483.88
428.736	476.88
428.958	481.88
429.181	459.88
429.403	466.88
429.625	480.88
429.847	490.88
430.069	563.88
430.292	539.88
430.514	486.88
430.736	478.88
430.958	459.88
431.18	452.88
431.402	445.88
431.624	426.88
431.846	434.88
432.068	421.88
432.29	454.88
432.512	441.88
432.734	435.88
432.956	452.88
433.178	449.88
433.4	467.88
433.622	456.88
433.844	454.88
434.066	453.88
434.287	445.88
434.509	460.88
434.731	466.88
434.953	450.88
435.175	501.88
435.397	486.88
435.618	515.88
435.84	556.88
436.062	591.88
436.284	660.88
436.505	546.88
436.727	481.88
436.949	472.88
437.17	490.88
437.392	482.88
437.614	481.88
437.835	509.88
438.057	584.88
438.278	657.88
438.5	650.88
438.721	717.88
438.943	692.88
439.165	554.88
439.386	488.88
439.608	482.88
439.829	468.88
440.05	509.88
440.272	535.88
440.493	511.88
440.715	502.88
440.936	479.88
441.158	464.88
441.379	489.88
441.6	481.88
441.822	497.88
442.043	541.88
442.264	579.88
442.486	633.88
442.707	560.88
442.928	519.88
443.149	531.88
443.371	541.88
443.592	589.88
443.813	653.88
444.034	715.88
444.255	589.88
444.476	549.88
444.698	518.88
444.919	517.88
445.14	600.88
445.361	552.88
445.582	541.88
445.803	588.88
446.024	651.88
446.245	653.88
446.466	625.88
446.687	540.88
446.908	493.88
447.129	508.88
447.35	456.88
447.571	446.88
447.792	455.88
448.013	457.88
448.234	456.88
448.455	505.88
448.675	602.88
448.896	715.88
449.117	593.88
449.338	535.88
449.559	667.88
449.779	747.88
450	602.88
450.221	494.88
450.442	471.88
450.662	457.88
450.883	445.88
451.104	456.88
451.324	427.88
451.545	448.88
451.766	421.88
451.986	423.88
452.207	401.88
452.428	416.88
452.648	407.88
452.869	415.88
453.089	411.88
453.31	421.88
453.53	419.88
453.751	414.88
453.971	416.88
454.192	421.88
454.412	404.88
454.633	379.88
454.853	413.88
455.073	423.88
455.294	435.88
455.514	482.88
455.734	453.88
455.955	415.88
456.175	395.88
456.395	379.88
456.616	385.88
456.836	390.88
457.056	383.88
457.276	371.88
457.497	372.88
457.717	377.88
457.937	397.88
458.157	389.88
458.377	409.88
458.598	425.88
458.818	476.88
459.038	509.88
459.258	535.88
459.478	451.88
459.698	445.88
459.918	432.88
460.138	447.88
460.358	452.88
460.578	435.88
460.798	473.88
461.018	454.88
461.238	445.88
461.458	437.88
461.678	448.88
461.898	469.88
462.118	432.88
462.338	467.88
462.558	460.88
462.777	463.88
462.997	505.88
463.217	506.88
463.437	525.88
463.657	484.88
463.876	499.88
464.096	500.88
464.316	483.88
464.536	484.88
464.755	483.88
464.975	473.88
465.195	497.88
465.414	532.88
465.634	482.88
465.854	456.88
466.073	443.88
466.293	424.88
466.512	411.88
466.732	423.88
466.951	428.88
467.171	409.88
467.391	427.88
467.61	417.88
467.829	423.88
468.049	418.88
468.268	429.88
468.488	416.88
468.707	392.88
468.927	400.88
469.146	398.88
469.365	421.88
469.585	403.88
469.804	422.88
470.023	414.88
470.243	426.88
470.462	436.88
470.681	453.88
470.901	417.88
471.12	415.88
471.339	424.88
471.558	435.88
471.777	431.88
471.997	418.88
472.216	403.88
472.435	447.88
472.654	416.88
472.873	425.88
473.092	424.88
473.311	433.88
473.53	412.88
473.749	407.88
473.968	465.88
474.187	545.88
474.406	543.88
474.625	459.88
474.844	445.88
475.063	423.88
475.282	425.88
475.501	423.88
475.72	425.88
475.939	447.88
476.158	406.88
476.377	445.88
476.596	425.88
476.814	440.88
477.033	434.88
477.252	443.88
477.471	438.88
477.69	474.88
477.908	458.88
478.127	451.88
478.346	460.88
478.564	468.88
478.783	493.88
479.002	481.88
479.22	476.88
479.439	489.88
479.658	511.88
479.876	494.88
480.095	506.88
480.313	539.88
480.532	537.88
480.751	514.88
480.969	533.88
481.188	563.88
481.406	563.88
481.624	520.88
481.843	488.88
482.061	493.88
482.28	488.88
482.498	476.88
482.717	480.88
482.935	489.88
483.153	476.88
483.372	517.88
483.59	480.88
483.808	499.88
484.027	495.88
484.245	490.88
484.463	497.88
484.681	505.88
484.9	482.88
485.118	513.88
485.336	490.88
485.554	513.88
485.772	497.88
485.99	472.88
486.209	505.88
486.427	516.88
486.645	524.88
486.863	539.88
487.081	529.88
487.299	513.88
487.517	520.88
487.735	507.88
487.953	537.88
488.171	520.88
488.389	514.88
488.607	521.88
488.825	512.88
489.043	515.88
489.261	507.88
489.479	510.88
489.696	531.88
489.914	540.88
490.132	526.88
490.35	547.88
490.568	535.88
490.786	521.88
491.003	566.88
491.221	563.88
491.439	560.88
491.657	581.88
491.874	564.88
492.092	571.88
492.31	568.88
492.527	569.88
492.745	592.88
492.963	595.88
493.18	602.88
493.398	581.88
493.615	590.88
493.833	597.88
494.05	592.88
494.268	586.88
494.485	595.88
494.703	588.88
494.92	604.88
495.138	599.88
495.355	607.88
495.573	591.88
495.79	563.88
496.008	597.88
496.225	629.88
496.442	618.88
496.66	606.88
496.877	618.88
497.094	603.88
497.312	612.88
497.529	618.88
497.746	645.88
497.963	662.88
498.181	642.88
498.398	678.88
498.615	703.88
498.832	715.88
499.049	729.88
499.267	735.88
499.484	765.88
499.701	828.88
499.918	840.88
500.135	889.88
500.352	953.88
500.569	965.88
500.786	947.88
501.003	916.88
501.22	932.88
501.437	830.88
501.654	856.88
501.871	823.88
502.088	800.88
