Data from 1977.PennyLincolnUp.Lamp.En5.5.200Scan.071719.P1_HRD10591_16-08-03-865.txt Node
Date: Thu Jul 18 16:08:03 EDT 2019
User: cochatt
Spectrometer: HR+D1059
Trigger mode: 1
Integration Time (sec): 1.000000E-1
Scans to average: 1
Electric dark correction enabled: true
Nonlinearity correction enabled: false
Boxcar width: 0
XAxis mode: Wavelengths
Number of Pixels in Spectrum: 2048
>>>>>Begin Spectral Data<<<<<
223.165	-27.88
223.4	-27.88
223.635	-27.88
223.869	-9.88
224.104	-15.88
224.338	-6.88
224.573	-8.88
224.808	-2.88
225.042	-19.88
225.277	-3.88
225.511	-4.88
225.746	4.12
225.98	11.12
226.215	-3.88
226.449	7.12
226.683	26.12
226.918	26.12
227.152	30.12
227.387	32.12
227.621	25.12
227.856	43.12
228.09	42.12
228.324	42.12
228.559	57.12
228.793	67.12
229.027	100.12
229.262	90.12
229.496	108.12
229.73	116.12
229.964	142.12
230.199	124.12
230.433	103.12
230.667	127.12
230.901	127.12
231.136	105.12
231.37	122.12
231.604	108.12
231.838	103.12
232.072	115.12
232.306	120.12
232.541	110.12
232.775	111.12
233.009	121.12
233.243	111.12
233.477	114.12
233.711	118.12
233.945	114.12
234.179	110.12
234.413	100.12
234.647	118.12
234.881	121.12
235.115	114.12
235.349	118.12
235.583	127.12
235.817	118.12
236.051	123.12
236.285	136.12
236.519	131.12
236.753	111.12
236.987	128.12
237.221	171.12
237.455	223.12
237.689	182.12
237.922	142.12
238.156	144.12
238.39	128.12
238.624	120.12
238.858	120.12
239.091	123.12
239.325	116.12
239.559	145.12
239.793	123.12
240.027	151.12
240.26	140.12
240.494	151.12
240.728	146.12
240.961	148.12
241.195	128.12
241.429	144.12
241.662	133.12
241.896	138.12
242.13	144.12
242.363	142.12
242.597	127.12
242.83	133.12
243.064	151.12
243.298	133.12
243.531	143.12
243.765	128.12
243.998	138.12
244.232	135.12
244.465	150.12
244.699	136.12
244.932	144.12
245.166	165.12
245.399	144.12
245.633	146.12
245.866	159.12
246.099	149.12
246.333	144.12
246.566	154.12
246.8	159.12
247.033	165.12
247.266	160.12
247.5	168.12
247.733	155.12
247.966	167.12
248.2	176.12
248.433	169.12
248.666	167.12
248.899	182.12
249.133	185.12
249.366	207.12
249.599	182.12
249.832	167.12
250.066	176.12
250.299	185.12
250.532	197.12
250.765	218.12
250.998	204.12
251.231	219.12
251.465	203.12
251.698	193.12
251.931	188.12
252.164	196.12
252.397	198.12
252.63	199.12
252.863	200.12
253.096	207.12
253.329	214.12
253.562	228.12
253.795	214.12
254.028	216.12
254.261	216.12
254.494	210.12
254.727	235.12
254.96	258.12
255.193	246.12
255.426	244.12
255.659	227.12
255.892	205.12
256.124	235.12
256.357	215.12
256.59	237.12
256.823	213.12
257.056	216.12
257.289	218.12
257.521	224.12
257.754	206.12
257.987	225.12
258.22	231.12
258.452	203.12
258.685	220.12
258.918	216.12
259.151	207.12
259.383	230.12
259.616	215.12
259.849	217.12
260.081	232.12
260.314	264.12
260.547	254.12
260.779	242.12
261.012	246.12
261.244	216.12
261.477	217.12
261.71	219.12
261.942	228.12
262.175	232.12
262.407	231.12
262.64	219.12
262.872	223.12
263.105	230.12
263.337	206.12
263.57	220.12
263.802	219.12
264.035	221.12
264.267	208.12
264.499	219.12
264.732	224.12
264.964	233.12
265.197	225.12
265.429	217.12
265.661	220.12
265.894	231.12
266.126	230.12
266.358	238.12
266.591	211.12
266.823	247.12
267.055	232.12
267.287	233.12
267.52	236.12
267.752	232.12
267.984	249.12
268.216	229.12
268.448	252.12
268.681	266.12
268.913	252.12
269.145	271.12
269.377	279.12
269.609	275.12
269.841	285.12
270.073	278.12
270.306	311.12
270.538	315.12
270.77	312.12
271.002	301.12
271.234	300.12
271.466	310.12
271.698	314.12
271.93	321.12
272.162	324.12
272.394	335.12
272.626	303.12
272.858	292.12
273.09	279.12
273.322	278.12
273.553	272.12
273.785	269.12
274.017	282.12
274.249	276.12
274.481	275.12
274.713	284.12
274.945	301.12
275.176	282.12
275.408	291.12
275.64	290.12
275.872	281.12
276.104	276.12
276.335	263.12
276.567	272.12
276.799	284.12
277.031	294.12
277.262	306.12
277.494	328.12
277.726	311.12
277.957	290.12
278.189	295.12
278.421	289.12
278.652	282.12
278.884	281.12
279.115	276.12
279.347	290.12
279.579	277.12
279.81	282.12
280.042	290.12
280.273	291.12
280.505	272.12
280.736	287.12
280.968	269.12
281.199	284.12
281.431	297.12
281.662	286.12
281.894	272.12
282.125	278.12
282.356	315.12
282.588	306.12
282.819	312.12
283.051	315.12
283.282	274.12
283.513	303.12
283.745	295.12
283.976	309.12
284.207	310.12
284.439	294.12
284.67	299.12
284.901	295.12
285.132	265.12
285.364	284.12
285.595	298.12
285.826	316.12
286.057	306.12
286.288	306.12
286.52	296.12
286.751	316.12
286.982	295.12
287.213	328.12
287.444	315.12
287.675	318.12
287.906	307.12
288.138	333.12
288.369	309.12
288.6	332.12
288.831	307.12
289.062	310.12
289.293	311.12
289.524	324.12
289.755	308.12
289.986	315.12
290.217	313.12
290.448	297.12
290.679	324.12
290.91	306.12
291.141	307.12
291.371	314.12
291.602	316.12
291.833	312.12
292.064	291.12
292.295	309.12
292.526	316.12
292.757	307.12
292.987	326.12
293.218	308.12
293.449	322.12
293.68	319.12
293.91	300.12
294.141	292.12
294.372	306.12
294.603	321.12
294.833	338.12
295.064	324.12
295.295	326.12
295.525	317.12
295.756	313.12
295.987	330.12
296.217	347.12
296.448	347.12
296.679	325.12
296.909	314.12
297.14	328.12
297.37	335.12
297.601	319.12
297.831	330.12
298.062	312.12
298.292	336.12
298.523	327.12
298.753	328.12
298.984	331.12
299.214	328.12
299.445	319.12
299.675	343.12
299.905	336.12
300.136	346.12
300.366	356.12
300.597	350.12
300.827	333.12
301.057	361.12
301.288	358.12
301.518	346.12
301.748	338.12
301.979	344.12
302.209	348.12
302.439	358.12
302.669	361.12
302.9	361.12
303.13	355.12
303.36	360.12
303.59	344.12
303.82	363.12
304.051	370.12
304.281	376.12
304.511	373.12
304.741	345.12
304.971	332.12
305.201	374.12
305.431	357.12
305.661	352.12
305.891	353.12
306.121	334.12
306.352	352.12
306.582	351.12
306.812	356.12
307.042	356.12
307.272	356.12
307.502	356.12
307.731	351.12
307.961	370.12
308.191	372.12
308.421	362.12
308.651	346.12
308.881	344.12
309.111	375.12
309.341	355.12
309.571	367.12
309.8	367.12
310.03	370.12
310.26	372.12
310.49	372.12
310.72	378.12
310.949	390.12
311.179	435.12
311.409	386.12
311.639	370.12
311.868	395.12
312.098	383.12
312.328	400.12
312.557	391.12
312.787	410.12
313.017	418.12
313.246	404.12
313.476	395.12
313.706	407.12
313.935	394.12
314.165	400.12
314.394	405.12
314.624	414.12
314.853	396.12
315.083	408.12
315.312	411.12
315.542	401.12
315.771	398.12
316.001	397.12
316.23	405.12
316.46	387.12
316.689	379.12
316.919	384.12
317.148	428.12
317.377	424.12
317.607	419.12
317.836	400.12
318.065	388.12
318.295	397.12
318.524	412.12
318.753	394.12
318.983	396.12
319.212	398.12
319.441	404.12
319.67	407.12
319.9	400.12
320.129	405.12
320.358	406.12
320.587	407.12
320.816	423.12
321.046	411.12
321.275	410.12
321.504	401.12
321.733	412.12
321.962	423.12
322.191	436.12
322.42	446.12
322.649	476.12
322.878	444.12
323.108	452.12
323.337	478.12
323.566	475.12
323.795	513.12
324.024	556.12
324.253	649.12
324.482	859.12
324.71	1298.12
324.939	1749.12
325.168	1534.12
325.397	834.12
325.626	600.12
325.855	520.12
326.084	483.12
326.313	479.12
326.542	492.12
326.77	537.12
326.999	620.12
327.228	789.12
327.457	1132.12
327.686	1338.12
327.914	929.12
328.143	636.12
328.372	564.12
328.6	568.12
328.829	564.12
329.058	568.12
329.287	565.12
329.515	534.12
329.744	509.12
329.972	502.12
330.201	514.12
330.43	519.12
330.658	547.12
330.887	577.12
331.115	555.12
331.344	497.12
331.572	461.12
331.801	476.12
332.03	472.12
332.258	473.12
332.486	469.12
332.715	479.12
332.943	470.12
333.172	464.12
333.4	463.12
333.629	475.12
333.857	496.12
334.085	501.12
334.314	536.12
334.542	538.12
334.771	535.12
334.999	528.12
335.227	489.12
335.455	487.12
335.684	501.12
335.912	487.12
336.14	452.12
336.369	474.12
336.597	479.12
336.825	480.12
337.053	463.12
337.281	444.12
337.51	468.12
337.738	443.12
337.966	459.12
338.194	472.12
338.422	450.12
338.65	440.12
338.878	452.12
339.106	436.12
339.334	446.12
339.562	452.12
339.79	435.12
340.018	455.12
340.246	418.12
340.474	444.12
340.702	426.12
340.93	454.12
341.158	440.12
341.386	463.12
341.614	440.12
341.842	442.12
342.07	444.12
342.298	446.12
342.526	436.12
342.754	424.12
342.981	427.12
343.209	453.12
343.437	442.12
343.665	453.12
343.893	464.12
344.12	464.12
344.348	460.12
344.576	439.12
344.804	448.12
345.031	421.12
345.259	454.12
345.487	446.12
345.714	427.12
345.942	426.12
346.17	427.12
346.397	416.12
346.625	430.12
346.853	411.12
347.08	400.12
347.308	436.12
347.535	426.12
347.763	429.12
347.99	412.12
348.218	411.12
348.445	426.12
348.673	438.12
348.9	428.12
349.128	435.12
349.355	420.12
349.583	401.12
349.81	408.12
350.037	410.12
350.265	412.12
350.492	419.12
350.72	391.12
350.947	415.12
351.174	408.12
351.402	443.12
351.629	441.12
351.856	419.12
352.083	431.12
352.311	438.12
352.538	434.12
352.765	411.12
352.992	402.12
353.22	420.12
353.447	398.12
353.674	402.12
353.901	415.12
354.128	412.12
354.355	393.12
354.583	399.12
354.81	404.12
355.037	394.12
355.264	384.12
355.491	406.12
355.718	390.12
355.945	395.12
356.172	401.12
356.399	392.12
356.626	400.12
356.853	406.12
357.08	388.12
357.307	388.12
357.534	395.12
357.761	389.12
357.988	384.12
358.215	380.12
358.441	392.12
358.668	399.12
358.895	393.12
359.122	406.12
359.349	416.12
359.576	405.12
359.802	419.12
360.029	436.12
360.256	431.12
360.483	432.12
360.709	406.12
360.936	407.12
361.163	428.12
361.39	409.12
361.616	422.12
361.843	418.12
362.07	395.12
362.296	416.12
362.523	406.12
362.749	408.12
362.976	381.12
363.203	413.12
363.429	400.12
363.656	411.12
363.882	418.12
364.109	412.12
364.335	398.12
364.562	387.12
364.788	400.12
365.015	387.12
365.241	403.12
365.468	380.12
365.694	402.12
365.92	415.12
366.147	393.12
366.373	390.12
366.599	380.12
366.826	404.12
367.052	387.12
367.278	389.12
367.505	386.12
367.731	406.12
367.957	404.12
368.184	380.12
368.41	392.12
368.636	406.12
368.862	424.12
369.089	371.12
369.315	389.12
369.541	393.12
369.767	389.12
369.993	391.12
370.219	409.12
370.445	389.12
370.672	382.12
370.898	386.12
371.124	381.12
371.35	399.12
371.576	397.12
371.802	416.12
372.028	403.12
372.254	394.12
372.48	398.12
372.706	404.12
372.932	410.12
373.158	393.12
373.384	407.12
373.61	406.12
373.835	414.12
374.061	389.12
374.287	415.12
374.513	417.12
374.739	416.12
374.965	408.12
375.191	411.12
375.416	400.12
375.642	385.12
375.868	394.12
376.094	401.12
376.319	397.12
376.545	411.12
376.771	398.12
376.997	386.12
377.222	390.12
377.448	405.12
377.674	399.12
377.899	385.12
378.125	387.12
378.35	380.12
378.576	379.12
378.802	398.12
379.027	383.12
379.253	370.12
379.478	395.12
379.704	385.12
379.929	392.12
380.155	392.12
380.38	397.12
380.606	398.12
380.831	393.12
381.057	416.12
381.282	383.12
381.507	388.12
381.733	395.12
381.958	384.12
382.184	390.12
382.409	403.12
382.634	381.12
382.86	401.12
383.085	392.12
383.31	409.12
383.535	398.12
383.761	391.12
383.986	403.12
384.211	411.12
384.436	407.12
384.662	429.12
384.887	411.12
385.112	419.12
385.337	423.12
385.562	423.12
385.787	424.12
386.013	447.12
386.238	415.12
386.463	438.12
386.688	445.12
386.913	410.12
387.138	424.12
387.363	429.12
387.588	434.12
387.813	424.12
388.038	428.12
388.263	436.12
388.488	432.12
388.713	424.12
388.938	419.12
389.163	436.12
389.387	430.12
389.612	429.12
389.837	431.12
390.062	416.12
390.287	440.12
390.512	423.12
390.736	423.12
390.961	408.12
391.186	438.12
391.411	435.12
391.636	445.12
391.86	442.12
392.085	445.12
392.31	432.12
392.534	442.12
392.759	451.12
392.984	434.12
393.208	426.12
393.433	422.12
393.658	415.12
393.882	432.12
394.107	423.12
394.331	454.12
394.556	423.12
394.78	443.12
395.005	440.12
395.229	455.12
395.454	440.12
395.678	462.12
395.903	467.12
396.127	475.12
396.352	466.12
396.576	442.12
396.801	463.12
397.025	446.12
397.249	442.12
397.474	447.12
397.698	444.12
397.922	448.12
398.147	471.12
398.371	501.12
398.595	481.12
398.82	476.12
399.044	489.12
399.268	519.12
399.492	550.12
399.717	589.12
399.941	604.12
400.165	602.12
400.389	608.12
400.613	564.12
400.837	536.12
401.062	514.12
401.286	516.12
401.51	510.12
401.734	492.12
401.958	491.12
402.182	489.12
402.406	510.12
402.63	493.12
402.854	487.12
403.078	503.12
403.302	488.12
403.526	512.12
403.75	504.12
403.974	502.12
404.198	518.12
404.422	493.12
404.645	520.12
404.869	532.12
405.093	552.12
405.317	587.12
405.541	619.12
405.765	559.12
405.988	531.12
406.212	554.12
406.436	536.12
406.66	557.12
406.883	537.12
407.107	590.12
407.331	605.12
407.555	637.12
407.778	647.12
408.002	618.12
408.226	570.12
408.449	581.12
408.673	571.12
408.896	568.12
409.12	605.12
409.344	560.12
409.567	522.12
409.791	532.12
410.014	523.12
410.238	492.12
410.461	498.12
410.685	502.12
410.908	507.12
411.132	516.12
411.355	587.12
411.578	558.12
411.802	488.12
412.025	471.12
412.249	511.12
412.472	530.12
412.695	568.12
412.919	536.12
413.142	515.12
413.365	500.12
413.589	508.12
413.812	484.12
414.035	484.12
414.258	442.12
414.482	482.12
414.705	474.12
414.928	471.12
415.151	471.12
415.374	474.12
415.597	458.12
415.821	470.12
416.044	455.12
416.267	479.12
416.49	489.12
416.713	460.12
416.936	480.12
417.159	482.12
417.382	476.12
417.605	481.12
417.828	493.12
418.051	486.12
418.274	490.12
418.497	465.12
418.72	491.12
418.943	468.12
419.166	503.12
419.389	497.12
419.611	514.12
419.834	518.12
420.057	502.12
420.28	520.12
420.503	492.12
420.726	484.12
420.948	487.12
421.171	538.12
421.394	548.12
421.617	514.12
421.839	505.12
422.062	483.12
422.285	496.12
422.507	545.12
422.73	615.12
422.953	595.12
423.175	540.12
423.398	511.12
423.621	526.12
423.843	527.12
424.066	526.12
424.288	542.12
424.511	531.12
424.733	572.12
424.956	660.12
425.178	621.12
425.401	616.12
425.623	640.12
425.846	540.12
426.068	540.12
426.291	516.12
426.513	504.12
426.735	523.12
426.958	555.12
427.18	613.12
427.402	724.12
427.625	771.12
427.847	670.12
428.069	586.12
428.292	543.12
428.514	516.12
428.736	479.12
428.958	494.12
429.181	471.12
429.403	476.12
429.625	471.12
429.847	511.12
430.069	549.12
430.292	545.12
430.514	476.12
430.736	436.12
430.958	468.12
431.18	456.12
431.402	446.12
431.624	458.12
431.846	445.12
432.068	463.12
432.29	417.12
432.512	442.12
432.734	454.12
432.956	474.12
433.178	465.12
433.4	462.12
433.622	452.12
433.844	433.12
434.066	461.12
434.287	470.12
434.509	462.12
434.731	479.12
434.953	487.12
435.175	493.12
435.397	502.12
435.618	518.12
435.84	524.12
436.062	599.12
436.284	666.12
436.505	554.12
436.727	523.12
436.949	500.12
437.17	478.12
437.392	455.12
437.614	488.12
437.835	496.12
438.057	582.12
438.278	661.12
438.5	648.12
438.721	731.12
438.943	714.12
439.165	555.12
439.386	528.12
439.608	502.12
439.829	512.12
440.05	547.12
440.272	546.12
440.493	527.12
440.715	493.12
440.936	477.12
441.158	485.12
441.379	485.12
441.6	490.12
441.822	486.12
442.043	526.12
442.264	609.12
442.486	625.12
442.707	554.12
442.928	539.12
443.149	548.12
443.371	546.12
443.592	561.12
443.813	674.12
444.034	714.12
444.255	601.12
444.476	541.12
444.698	534.12
444.919	506.12
445.14	638.12
445.361	570.12
445.582	541.12
445.803	599.12
446.024	662.12
446.245	656.12
446.466	636.12
446.687	542.12
446.908	519.12
447.129	486.12
447.35	474.12
447.571	449.12
447.792	444.12
448.013	483.12
448.234	494.12
448.455	527.12
448.675	607.12
448.896	700.12
449.117	589.12
449.338	569.12
449.559	677.12
449.779	743.12
450	607.12
450.221	500.12
450.442	462.12
450.662	442.12
450.883	452.12
451.104	470.12
451.324	430.12
451.545	429.12
451.766	424.12
451.986	418.12
452.207	414.12
452.428	427.12
452.648	411.12
452.869	409.12
453.089	421.12
453.31	430.12
453.53	395.12
453.751	403.12
453.971	408.12
454.192	438.12
454.412	431.12
454.633	399.12
454.853	403.12
455.073	406.12
455.294	428.12
455.514	474.12
455.734	483.12
455.955	422.12
456.175	402.12
456.395	384.12
456.616	401.12
456.836	389.12
457.056	414.12
457.276	391.12
457.497	405.12
457.717	395.12
457.937	408.12
458.157	394.12
458.377	418.12
458.598	413.12
458.818	450.12
459.038	513.12
459.258	528.12
459.478	465.12
459.698	458.12
459.918	450.12
460.138	437.12
460.358	458.12
460.578	445.12
460.798	463.12
461.018	472.12
461.238	475.12
461.458	462.12
461.678	476.12
461.898	464.12
462.118	464.12
462.338	511.12
462.558	460.12
462.777	494.12
462.997	513.12
463.217	512.12
463.437	526.12
463.657	536.12
463.876	479.12
464.096	509.12
464.316	483.12
464.536	488.12
464.755	510.12
464.975	497.12
465.195	510.12
465.414	523.12
465.634	481.12
465.854	474.12
466.073	456.12
466.293	450.12
466.512	438.12
466.732	435.12
466.951	416.12
467.171	421.12
467.391	424.12
467.61	410.12
467.829	419.12
468.049	438.12
468.268	440.12
468.488	421.12
468.707	412.12
468.927	420.12
469.146	419.12
469.365	438.12
469.585	410.12
469.804	428.12
470.023	437.12
470.243	424.12
470.462	429.12
470.681	435.12
470.901	434.12
471.12	418.12
471.339	431.12
471.558	430.12
471.777	414.12
471.997	423.12
472.216	446.12
472.435	440.12
472.654	454.12
472.873	435.12
473.092	430.12
473.311	418.12
473.53	428.12
473.749	442.12
473.968	469.12
474.187	556.12
474.406	569.12
474.625	476.12
474.844	421.12
475.063	432.12
475.282	439.12
475.501	440.12
475.72	436.12
475.939	431.12
476.158	427.12
476.377	434.12
476.596	430.12
476.814	437.12
477.033	443.12
477.252	467.12
477.471	455.12
477.69	441.12
477.908	468.12
478.127	477.12
478.346	460.12
478.564	484.12
478.783	480.12
479.002	470.12
479.22	479.12
479.439	502.12
479.658	492.12
479.876	532.12
480.095	520.12
480.313	541.12
480.532	530.12
480.751	538.12
480.969	512.12
481.188	558.12
481.406	569.12
481.624	529.12
481.843	520.12
482.061	508.12
482.28	527.12
482.498	508.12
482.717	506.12
482.935	490.12
483.153	490.12
483.372	488.12
483.59	500.12
483.808	490.12
484.027	496.12
484.245	467.12
484.463	500.12
484.681	494.12
484.9	495.12
485.118	494.12
485.336	510.12
485.554	522.12
485.772	481.12
485.99	508.12
486.209	490.12
486.427	494.12
486.645	493.12
486.863	503.12
487.081	532.12
487.299	543.12
487.517	527.12
487.735	520.12
487.953	533.12
488.171	531.12
488.389	530.12
488.607	517.12
488.825	532.12
489.043	522.12
489.261	528.12
489.479	520.12
489.696	501.12
489.914	542.12
490.132	534.12
490.35	554.12
490.568	538.12
490.786	575.12
491.003	568.12
491.221	563.12
491.439	594.12
491.657	590.12
491.874	603.12
492.092	599.12
492.31	585.12
492.527	577.12
492.745	590.12
492.963	616.12
493.18	586.12
493.398	592.12
493.615	598.12
493.833	607.12
494.05	604.12
494.268	608.12
494.485	613.12
494.703	611.12
494.92	611.12
495.138	606.12
495.355	602.12
495.573	606.12
495.79	608.12
496.008	624.12
496.225	631.12
496.442	618.12
496.66	604.12
496.877	626.12
497.094	633.12
497.312	635.12
497.529	645.12
497.746	664.12
497.963	670.12
498.181	703.12
498.398	679.12
498.615	719.12
498.832	732.12
499.049	717.12
499.267	767.12
499.484	781.12
499.701	820.12
499.918	843.12
500.135	889.12
500.352	943.12
500.569	942.12
500.786	972.12
501.003	961.12
501.22	918.12
501.437	878.12
501.654	841.12
501.871	808.12
502.088	806.12
