Data from 1977.PennyLincolnUp.Lamp.En5.5.200Scan.071719.P1_HRD10591_16-07-13-865.txt Node
Date: Thu Jul 18 16:07:13 EDT 2019
User: cochatt
Spectrometer: HR+D1059
Trigger mode: 1
Integration Time (sec): 1.000000E-1
Scans to average: 1
Electric dark correction enabled: true
Nonlinearity correction enabled: false
Boxcar width: 0
XAxis mode: Wavelengths
Number of Pixels in Spectrum: 2048
>>>>>Begin Spectral Data<<<<<
223.165	-5.94
223.4	-5.94
223.635	-5.94
223.869	-5.94
224.104	-27.94
224.338	-16.94
224.573	-7.94
224.808	-29.94
225.042	-8.94
225.277	-15.94
225.511	-6.94
225.746	17.06
225.98	10.06
226.215	30.06
226.449	15.06
226.683	13.06
226.918	17.06
227.152	24.06
227.387	38.06
227.621	49.06
227.856	42.06
228.09	41.06
228.324	49.06
228.559	72.06
228.793	74.06
229.027	108.06
229.262	100.06
229.496	90.06
229.73	114.06
229.964	142.06
230.199	117.06
230.433	120.06
230.667	115.06
230.901	110.06
231.136	105.06
231.37	100.06
231.604	116.06
231.838	108.06
232.072	119.06
232.306	117.06
232.541	118.06
232.775	110.06
233.009	101.06
233.243	122.06
233.477	117.06
233.711	121.06
233.945	120.06
234.179	120.06
234.413	127.06
234.647	125.06
234.881	114.06
235.115	117.06
235.349	117.06
235.583	124.06
235.817	125.06
236.051	114.06
236.285	125.06
236.519	125.06
236.753	137.06
236.987	157.06
237.221	189.06
237.455	202.06
237.689	157.06
237.922	140.06
238.156	137.06
238.39	135.06
238.624	136.06
238.858	111.06
239.091	135.06
239.325	121.06
239.559	123.06
239.793	130.06
240.027	130.06
240.26	140.06
240.494	159.06
240.728	149.06
240.961	148.06
241.195	133.06
241.429	127.06
241.662	145.06
241.896	131.06
242.13	133.06
242.363	142.06
242.597	130.06
242.83	136.06
243.064	137.06
243.298	141.06
243.531	139.06
243.765	144.06
243.998	136.06
244.232	150.06
244.465	146.06
244.699	148.06
244.932	153.06
245.166	153.06
245.399	153.06
245.633	150.06
245.866	139.06
246.099	154.06
246.333	163.06
246.566	151.06
246.8	138.06
247.033	156.06
247.266	153.06
247.5	158.06
247.733	174.06
247.966	173.06
248.2	169.06
248.433	162.06
248.666	170.06
248.899	170.06
249.133	188.06
249.366	189.06
249.599	198.06
249.832	187.06
250.066	178.06
250.299	173.06
250.532	181.06
250.765	197.06
250.998	223.06
251.231	227.06
251.465	209.06
251.698	187.06
251.931	194.06
252.164	190.06
252.397	196.06
252.63	206.06
252.863	200.06
253.096	210.06
253.329	229.06
253.562	222.06
253.795	230.06
254.028	227.06
254.261	207.06
254.494	234.06
254.727	229.06
254.96	276.06
255.193	254.06
255.426	242.06
255.659	245.06
255.892	254.06
256.124	221.06
256.357	231.06
256.59	233.06
256.823	227.06
257.056	217.06
257.289	200.06
257.521	215.06
257.754	206.06
257.987	198.06
258.22	205.06
258.452	211.06
258.685	200.06
258.918	214.06
259.151	220.06
259.383	232.06
259.616	225.06
259.849	235.06
260.081	236.06
260.314	258.06
260.547	287.06
260.779	237.06
261.012	259.06
261.244	231.06
261.477	228.06
261.71	210.06
261.942	229.06
262.175	221.06
262.407	226.06
262.64	229.06
262.872	219.06
263.105	216.06
263.337	215.06
263.57	232.06
263.802	221.06
264.035	219.06
264.267	225.06
264.499	212.06
264.732	218.06
264.964	208.06
265.197	227.06
265.429	223.06
265.661	230.06
265.894	217.06
266.126	222.06
266.358	227.06
266.591	226.06
266.823	235.06
267.055	239.06
267.287	231.06
267.52	234.06
267.752	231.06
267.984	248.06
268.216	243.06
268.448	251.06
268.681	245.06
268.913	242.06
269.145	261.06
269.377	288.06
269.609	288.06
269.841	276.06
270.073	272.06
270.306	297.06
270.538	311.06
270.77	303.06
271.002	294.06
271.234	288.06
271.466	307.06
271.698	306.06
271.93	324.06
272.162	307.06
272.394	308.06
272.626	302.06
272.858	277.06
273.09	290.06
273.322	267.06
273.553	247.06
273.785	279.06
274.017	274.06
274.249	272.06
274.481	279.06
274.713	280.06
274.945	286.06
275.176	273.06
275.408	293.06
275.64	276.06
275.872	271.06
276.104	286.06
276.335	274.06
276.567	287.06
276.799	301.06
277.031	331.06
277.262	325.06
277.494	331.06
277.726	305.06
277.957	301.06
278.189	282.06
278.421	285.06
278.652	302.06
278.884	274.06
279.115	280.06
279.347	277.06
279.579	287.06
279.81	272.06
280.042	268.06
280.273	272.06
280.505	296.06
280.736	263.06
280.968	288.06
281.199	273.06
281.431	275.06
281.662	279.06
281.894	284.06
282.125	283.06
282.356	310.06
282.588	319.06
282.819	300.06
283.051	294.06
283.282	293.06
283.513	291.06
283.745	284.06
283.976	299.06
284.207	302.06
284.439	303.06
284.67	300.06
284.901	306.06
285.132	309.06
285.364	288.06
285.595	311.06
285.826	306.06
286.057	317.06
286.288	291.06
286.52	295.06
286.751	304.06
286.982	292.06
287.213	300.06
287.444	300.06
287.675	325.06
287.906	317.06
288.138	335.06
288.369	322.06
288.6	347.06
288.831	288.06
289.062	305.06
289.293	329.06
289.524	307.06
289.755	297.06
289.986	305.06
290.217	301.06
290.448	317.06
290.679	287.06
290.91	327.06
291.141	301.06
291.371	323.06
291.602	293.06
291.833	309.06
292.064	313.06
292.295	313.06
292.526	306.06
292.757	299.06
292.987	311.06
293.218	313.06
293.449	314.06
293.68	315.06
293.91	327.06
294.141	302.06
294.372	307.06
294.603	314.06
294.833	309.06
295.064	330.06
295.295	325.06
295.525	328.06
295.756	322.06
295.987	336.06
296.217	340.06
296.448	357.06
296.679	349.06
296.909	329.06
297.14	342.06
297.37	323.06
297.601	345.06
297.831	336.06
298.062	331.06
298.292	323.06
298.523	350.06
298.753	347.06
298.984	334.06
299.214	336.06
299.445	337.06
299.675	342.06
299.905	343.06
300.136	343.06
300.366	335.06
300.597	349.06
300.827	337.06
301.057	374.06
301.288	339.06
301.518	343.06
301.748	338.06
301.979	364.06
302.209	352.06
302.439	359.06
302.669	335.06
302.9	339.06
303.13	352.06
303.36	333.06
303.59	362.06
303.82	358.06
304.051	360.06
304.281	345.06
304.511	348.06
304.741	369.06
304.971	341.06
305.201	351.06
305.431	344.06
305.661	334.06
305.891	345.06
306.121	368.06
306.352	366.06
306.582	349.06
306.812	362.06
307.042	347.06
307.272	351.06
307.502	375.06
307.731	381.06
307.961	315.06
308.191	359.06
308.421	365.06
308.651	383.06
308.881	364.06
309.111	362.06
309.341	351.06
309.571	358.06
309.8	374.06
310.03	375.06
310.26	394.06
310.49	384.06
310.72	381.06
310.949	380.06
311.179	388.06
311.409	401.06
311.639	397.06
311.868	383.06
312.098	396.06
312.328	399.06
312.557	406.06
312.787	411.06
313.017	402.06
313.246	417.06
313.476	375.06
313.706	409.06
313.935	392.06
314.165	394.06
314.394	390.06
314.624	394.06
314.853	381.06
315.083	376.06
315.312	399.06
315.542	391.06
315.771	399.06
316.001	389.06
316.23	404.06
316.46	387.06
316.689	421.06
316.919	399.06
317.148	402.06
317.377	418.06
317.607	414.06
317.836	403.06
318.065	398.06
318.295	416.06
318.524	393.06
318.753	403.06
318.983	400.06
319.212	413.06
319.441	413.06
319.67	387.06
319.9	407.06
320.129	400.06
320.358	408.06
320.587	399.06
320.816	411.06
321.046	418.06
321.275	421.06
321.504	423.06
321.733	419.06
321.962	422.06
322.191	438.06
322.42	439.06
322.649	442.06
322.878	458.06
323.108	450.06
323.337	466.06
323.566	489.06
323.795	502.06
324.024	537.06
324.253	655.06
324.482	852.06
324.71	1312.06
324.939	1773.06
325.168	1525.06
325.397	819.06
325.626	576.06
325.855	506.06
326.084	495.06
326.313	500.06
326.542	519.06
326.77	528.06
326.999	632.06
327.228	806.06
327.457	1128.06
327.686	1338.06
327.914	902.06
328.143	653.06
328.372	573.06
328.6	557.06
328.829	515.06
329.058	527.06
329.287	546.06
329.515	502.06
329.744	498.06
329.972	507.06
330.201	525.06
330.43	565.06
330.658	543.06
330.887	563.06
331.115	553.06
331.344	515.06
331.572	474.06
331.801	493.06
332.03	499.06
332.258	495.06
332.486	479.06
332.715	485.06
332.943	484.06
333.172	470.06
333.4	473.06
333.629	478.06
333.857	498.06
334.085	496.06
334.314	519.06
334.542	510.06
334.771	513.06
334.999	497.06
335.227	501.06
335.455	469.06
335.684	461.06
335.912	478.06
336.14	467.06
336.369	449.06
336.597	471.06
336.825	460.06
337.053	434.06
337.281	453.06
337.51	458.06
337.738	461.06
337.966	455.06
338.194	477.06
338.422	465.06
338.65	452.06
338.878	430.06
339.106	442.06
339.334	425.06
339.562	450.06
339.79	449.06
340.018	438.06
340.246	450.06
340.474	441.06
340.702	460.06
340.93	426.06
341.158	437.06
341.386	431.06
341.614	431.06
341.842	440.06
342.07	423.06
342.298	463.06
342.526	438.06
342.754	448.06
342.981	429.06
343.209	427.06
343.437	434.06
343.665	438.06
343.893	455.06
344.12	468.06
344.348	447.06
344.576	444.06
344.804	446.06
345.031	451.06
345.259	462.06
345.487	447.06
345.714	457.06
345.942	432.06
346.17	420.06
346.397	431.06
346.625	414.06
346.853	419.06
347.08	410.06
347.308	434.06
347.535	428.06
347.763	447.06
347.99	421.06
348.218	439.06
348.445	432.06
348.673	416.06
348.9	424.06
349.128	429.06
349.355	399.06
349.583	409.06
349.81	409.06
350.037	409.06
350.265	402.06
350.492	417.06
350.72	419.06
350.947	410.06
351.174	408.06
351.402	417.06
351.629	406.06
351.856	415.06
352.083	421.06
352.311	431.06
352.538	414.06
352.765	435.06
352.992	407.06
353.22	409.06
353.447	410.06
353.674	393.06
353.901	389.06
354.128	404.06
354.355	410.06
354.583	396.06
354.81	412.06
355.037	393.06
355.264	394.06
355.491	399.06
355.718	387.06
355.945	381.06
356.172	383.06
356.399	393.06
356.626	379.06
356.853	393.06
357.08	368.06
357.307	390.06
357.534	391.06
357.761	370.06
357.988	380.06
358.215	383.06
358.441	395.06
358.668	386.06
358.895	395.06
359.122	396.06
359.349	411.06
359.576	406.06
359.802	408.06
360.029	429.06
360.256	433.06
360.483	421.06
360.709	419.06
360.936	401.06
361.163	411.06
361.39	407.06
361.616	411.06
361.843	401.06
362.07	398.06
362.296	409.06
362.523	407.06
362.749	409.06
362.976	393.06
363.203	397.06
363.429	394.06
363.656	417.06
363.882	389.06
364.109	404.06
364.335	396.06
364.562	386.06
364.788	389.06
365.015	410.06
365.241	383.06
365.468	390.06
365.694	406.06
365.92	389.06
366.147	396.06
366.373	376.06
366.599	383.06
366.826	409.06
367.052	388.06
367.278	383.06
367.505	396.06
367.731	414.06
367.957	397.06
368.184	394.06
368.41	402.06
368.636	430.06
368.862	403.06
369.089	403.06
369.315	378.06
369.541	381.06
369.767	382.06
369.993	389.06
370.219	403.06
370.445	390.06
370.672	383.06
370.898	383.06
371.124	388.06
371.35	373.06
371.576	394.06
371.802	403.06
372.028	415.06
372.254	390.06
372.48	384.06
372.706	426.06
372.932	388.06
373.158	395.06
373.384	382.06
373.61	404.06
373.835	389.06
374.061	383.06
374.287	403.06
374.513	416.06
374.739	422.06
374.965	393.06
375.191	434.06
375.416	408.06
375.642	412.06
375.868	386.06
376.094	409.06
376.319	377.06
376.545	404.06
376.771	391.06
376.997	382.06
377.222	397.06
377.448	383.06
377.674	388.06
377.899	374.06
378.125	391.06
378.35	365.06
378.576	374.06
378.802	377.06
379.027	386.06
379.253	380.06
379.478	390.06
379.704	389.06
379.929	380.06
380.155	398.06
380.38	390.06
380.606	402.06
380.831	399.06
381.057	397.06
381.282	389.06
381.507	365.06
381.733	391.06
381.958	404.06
382.184	405.06
382.409	404.06
382.634	396.06
382.86	389.06
383.085	396.06
383.31	421.06
383.535	412.06
383.761	406.06
383.986	413.06
384.211	430.06
384.436	421.06
384.662	434.06
384.887	428.06
385.112	418.06
385.337	421.06
385.562	430.06
385.787	420.06
386.013	446.06
386.238	420.06
386.463	432.06
386.688	430.06
386.913	414.06
387.138	429.06
387.363	429.06
387.588	412.06
387.813	426.06
388.038	415.06
388.263	425.06
388.488	428.06
388.713	412.06
388.938	422.06
389.163	415.06
389.387	445.06
389.612	435.06
389.837	427.06
390.062	437.06
390.287	439.06
390.512	422.06
390.736	415.06
390.961	427.06
391.186	433.06
391.411	433.06
391.636	430.06
391.86	432.06
392.085	447.06
392.31	446.06
392.534	438.06
392.759	432.06
392.984	443.06
393.208	428.06
393.433	417.06
393.658	430.06
393.882	410.06
394.107	432.06
394.331	422.06
394.556	441.06
394.78	437.06
395.005	443.06
395.229	459.06
395.454	468.06
395.678	447.06
395.903	451.06
396.127	481.06
396.352	461.06
396.576	437.06
396.801	445.06
397.025	445.06
397.249	458.06
397.474	466.06
397.698	459.06
397.922	474.06
398.147	477.06
398.371	488.06
398.595	491.06
398.82	480.06
399.044	483.06
399.268	540.06
399.492	550.06
399.717	591.06
399.941	594.06
400.165	601.06
400.389	594.06
400.613	547.06
400.837	521.06
401.062	489.06
401.286	510.06
401.51	501.06
401.734	472.06
401.958	495.06
402.182	485.06
402.406	479.06
402.63	494.06
402.854	488.06
403.078	489.06
403.302	524.06
403.526	497.06
403.75	524.06
403.974	526.06
404.198	496.06
404.422	509.06
404.645	509.06
404.869	517.06
405.093	535.06
405.317	588.06
405.541	574.06
405.765	553.06
405.988	531.06
406.212	542.06
406.436	555.06
406.66	529.06
406.883	552.06
407.107	545.06
407.331	594.06
407.555	661.06
407.778	648.06
408.002	599.06
408.226	557.06
408.449	538.06
408.673	539.06
408.896	579.06
409.12	609.06
409.344	558.06
409.567	530.06
409.791	511.06
410.014	482.06
410.238	501.06
410.461	496.06
410.685	523.06
410.908	530.06
411.132	541.06
411.355	573.06
411.578	557.06
411.802	521.06
412.025	507.06
412.249	511.06
412.472	517.06
412.695	534.06
412.919	555.06
413.142	506.06
413.365	484.06
413.589	463.06
413.812	475.06
414.035	463.06
414.258	494.06
414.482	467.06
414.705	475.06
414.928	465.06
415.151	476.06
415.374	466.06
415.597	471.06
415.821	451.06
416.044	486.06
416.267	469.06
416.49	456.06
416.713	473.06
416.936	490.06
417.159	466.06
417.382	465.06
417.605	467.06
417.828	484.06
418.051	509.06
418.274	489.06
418.497	478.06
418.72	473.06
418.943	475.06
419.166	519.06
419.389	507.06
419.611	499.06
419.834	496.06
420.057	491.06
420.28	485.06
420.503	459.06
420.726	491.06
420.948	489.06
421.171	536.06
421.394	553.06
421.617	508.06
421.839	481.06
422.062	507.06
422.285	502.06
422.507	555.06
422.73	627.06
422.953	604.06
423.175	523.06
423.398	525.06
423.621	521.06
423.843	513.06
424.066	506.06
424.288	521.06
424.511	532.06
424.733	550.06
424.956	621.06
425.178	622.06
425.401	581.06
425.623	624.06
425.846	558.06
426.068	501.06
426.291	521.06
426.513	508.06
426.735	547.06
426.958	545.06
427.18	611.06
427.402	739.06
427.625	785.06
427.847	670.06
428.069	592.06
428.292	503.06
428.514	503.06
428.736	470.06
428.958	491.06
429.181	456.06
429.403	486.06
429.625	465.06
429.847	504.06
430.069	561.06
430.292	548.06
430.514	494.06
430.736	466.06
430.958	489.06
431.18	432.06
431.402	441.06
431.624	449.06
431.846	454.06
432.068	441.06
432.29	451.06
432.512	450.06
432.734	451.06
432.956	446.06
433.178	461.06
433.4	442.06
433.622	446.06
433.844	452.06
434.066	457.06
434.287	470.06
434.509	462.06
434.731	473.06
434.953	492.06
435.175	478.06
435.397	537.06
435.618	487.06
435.84	523.06
436.062	597.06
436.284	673.06
436.505	567.06
436.727	511.06
436.949	468.06
437.17	451.06
437.392	476.06
437.614	482.06
437.835	502.06
438.057	569.06
438.278	667.06
438.5	659.06
438.721	737.06
438.943	697.06
439.165	556.06
439.386	507.06
439.608	517.06
439.829	505.06
440.05	527.06
440.272	557.06
440.493	503.06
440.715	488.06
440.936	469.06
441.158	487.06
441.379	467.06
441.6	519.06
441.822	517.06
442.043	521.06
442.264	614.06
442.486	643.06
442.707	555.06
442.928	505.06
443.149	514.06
443.371	550.06
443.592	576.06
443.813	682.06
444.034	695.06
444.255	573.06
444.476	541.06
444.698	520.06
444.919	517.06
445.14	629.06
445.361	568.06
445.582	541.06
445.803	586.06
446.024	663.06
446.245	657.06
446.466	633.06
446.687	544.06
446.908	516.06
447.129	471.06
447.35	484.06
447.571	464.06
447.792	466.06
448.013	480.06
448.234	484.06
448.455	521.06
448.675	617.06
448.896	694.06
449.117	588.06
449.338	571.06
449.559	673.06
449.779	752.06
450	605.06
450.221	501.06
450.442	466.06
450.662	446.06
450.883	425.06
451.104	449.06
451.324	468.06
451.545	426.06
451.766	427.06
451.986	437.06
452.207	401.06
452.428	420.06
452.648	413.06
452.869	400.06
453.089	402.06
453.31	409.06
453.53	401.06
453.751	411.06
453.971	412.06
454.192	430.06
454.412	429.06
454.633	399.06
454.853	434.06
455.073	400.06
455.294	413.06
455.514	489.06
455.734	464.06
455.955	424.06
456.175	408.06
456.395	395.06
456.616	400.06
456.836	386.06
457.056	407.06
457.276	392.06
457.497	399.06
457.717	410.06
457.937	401.06
458.157	407.06
458.377	398.06
458.598	409.06
458.818	472.06
459.038	557.06
459.258	546.06
459.478	472.06
459.698	457.06
459.918	448.06
460.138	441.06
460.358	474.06
460.578	479.06
460.798	460.06
461.018	458.06
461.238	453.06
461.458	466.06
461.678	452.06
461.898	450.06
462.118	451.06
462.338	489.06
462.558	493.06
462.777	489.06
462.997	495.06
463.217	518.06
463.437	529.06
463.657	507.06
463.876	498.06
464.096	506.06
464.316	494.06
464.536	506.06
464.755	498.06
464.975	473.06
465.195	489.06
465.414	540.06
465.634	509.06
465.854	462.06
466.073	451.06
466.293	429.06
466.512	434.06
466.732	433.06
466.951	417.06
467.171	435.06
467.391	416.06
467.61	441.06
467.829	434.06
468.049	430.06
468.268	428.06
468.488	417.06
468.707	416.06
468.927	407.06
469.146	395.06
469.365	427.06
469.585	435.06
469.804	434.06
470.023	421.06
470.243	419.06
470.462	431.06
470.681	451.06
470.901	441.06
471.12	432.06
471.339	438.06
471.558	422.06
471.777	421.06
471.997	441.06
472.216	417.06
472.435	466.06
472.654	442.06
472.873	419.06
473.092	411.06
473.311	426.06
473.53	417.06
473.749	442.06
473.968	473.06
474.187	536.06
474.406	558.06
474.625	450.06
474.844	437.06
475.063	441.06
475.282	438.06
475.501	424.06
475.72	427.06
475.939	440.06
476.158	452.06
476.377	438.06
476.596	431.06
476.814	453.06
477.033	436.06
477.252	450.06
477.471	454.06
477.69	455.06
477.908	462.06
478.127	465.06
478.346	465.06
478.564	465.06
478.783	480.06
479.002	472.06
479.22	493.06
479.439	506.06
479.658	518.06
479.876	523.06
480.095	494.06
480.313	539.06
480.532	541.06
480.751	528.06
480.969	518.06
481.188	543.06
481.406	558.06
481.624	521.06
481.843	491.06
482.061	493.06
482.28	484.06
482.498	494.06
482.717	494.06
482.935	474.06
483.153	483.06
483.372	496.06
483.59	494.06
483.808	489.06
484.027	496.06
484.245	501.06
484.463	509.06
484.681	486.06
484.9	490.06
485.118	525.06
485.336	503.06
485.554	516.06
485.772	506.06
485.99	495.06
486.209	507.06
486.427	511.06
486.645	501.06
486.863	510.06
487.081	519.06
487.299	523.06
487.517	527.06
487.735	503.06
487.953	502.06
488.171	520.06
488.389	520.06
488.607	511.06
488.825	522.06
489.043	511.06
489.261	538.06
489.479	514.06
489.696	527.06
489.914	540.06
490.132	550.06
490.35	541.06
490.568	548.06
490.786	551.06
491.003	545.06
491.221	549.06
491.439	576.06
491.657	573.06
491.874	586.06
492.092	586.06
492.31	561.06
492.527	585.06
492.745	594.06
492.963	586.06
493.18	582.06
493.398	609.06
493.615	594.06
493.833	588.06
494.05	594.06
494.268	624.06
494.485	595.06
494.703	640.06
494.92	605.06
495.138	603.06
495.355	592.06
495.573	591.06
495.79	613.06
496.008	604.06
496.225	598.06
496.442	632.06
496.66	613.06
496.877	631.06
497.094	642.06
497.312	640.06
497.529	641.06
497.746	647.06
497.963	643.06
498.181	691.06
498.398	670.06
498.615	696.06
498.832	715.06
499.049	728.06
499.267	741.06
499.484	778.06
499.701	794.06
499.918	845.06
500.135	911.06
500.352	918.06
500.569	945.06
500.786	957.06
501.003	948.06
501.22	897.06
501.437	860.06
501.654	827.06
501.871	834.06
