Data from 1977.PennyLincolnUp.Lamp.En5.5.200Scan.071719.P1_HRD10591_16-06-24-863.txt Node
Date: Thu Jul 18 16:06:24 EDT 2019
User: cochatt
Spectrometer: HR+D1059
Trigger mode: 1
Integration Time (sec): 1.000000E-1
Scans to average: 1
Electric dark correction enabled: true
Nonlinearity correction enabled: false
Boxcar width: 0
XAxis mode: Wavelengths
Number of Pixels in Spectrum: 2048
>>>>>Begin Spectral Data<<<<<
223.165	-17.69
223.4	-17.69
223.635	-17.69
223.869	-20.69
224.104	-19.69
224.338	-15.69
224.573	-7.69
224.808	-14.69
225.042	-9.69
225.277	11.31
225.511	-14.69
225.746	2.31
225.98	5.31
226.215	7.31
226.449	16.31
226.683	33.31
226.918	21.31
227.152	23.31
227.387	34.31
227.621	28.31
227.856	46.31
228.09	45.31
228.324	56.31
228.559	58.31
228.793	66.31
229.027	94.31
229.262	112.31
229.496	108.31
229.73	104.31
229.964	130.31
230.199	116.31
230.433	103.31
230.667	105.31
230.901	94.31
231.136	116.31
231.37	117.31
231.604	102.31
231.838	100.31
232.072	107.31
232.306	110.31
232.541	105.31
232.775	118.31
233.009	116.31
233.243	117.31
233.477	122.31
233.711	114.31
233.945	124.31
234.179	101.31
234.413	112.31
234.647	112.31
234.881	107.31
235.115	104.31
235.349	114.31
235.583	128.31
235.817	119.31
236.051	121.31
236.285	107.31
236.519	126.31
236.753	130.31
236.987	135.31
237.221	159.31
237.455	183.31
237.689	154.31
237.922	134.31
238.156	128.31
238.39	136.31
238.624	128.31
238.858	128.31
239.091	133.31
239.325	125.31
239.559	140.31
239.793	128.31
240.027	134.31
240.26	140.31
240.494	145.31
240.728	149.31
240.961	156.31
241.195	132.31
241.429	136.31
241.662	130.31
241.896	129.31
242.13	129.31
242.363	135.31
242.597	115.31
242.83	132.31
243.064	131.31
243.298	151.31
243.531	143.31
243.765	131.31
243.998	131.31
244.232	156.31
244.465	139.31
244.699	141.31
244.932	149.31
245.166	139.31
245.399	134.31
245.633	126.31
245.866	148.31
246.099	160.31
246.333	138.31
246.566	144.31
246.8	150.31
247.033	158.31
247.266	149.31
247.5	152.31
247.733	166.31
247.966	162.31
248.2	170.31
248.433	168.31
248.666	159.31
248.899	183.31
249.133	178.31
249.366	190.31
249.599	174.31
249.832	174.31
250.066	172.31
250.299	180.31
250.532	179.31
250.765	204.31
250.998	208.31
251.231	198.31
251.465	191.31
251.698	180.31
251.931	191.31
252.164	187.31
252.397	185.31
252.63	183.31
252.863	197.31
253.096	198.31
253.329	211.31
253.562	226.31
253.795	191.31
254.028	195.31
254.261	208.31
254.494	218.31
254.727	226.31
254.96	239.31
255.193	219.31
255.426	215.31
255.659	218.31
255.892	216.31
256.124	215.31
256.357	203.31
256.59	199.31
256.823	208.31
257.056	201.31
257.289	196.31
257.521	206.31
257.754	194.31
257.987	208.31
258.22	218.31
258.452	198.31
258.685	190.31
258.918	226.31
259.151	203.31
259.383	211.31
259.616	216.31
259.849	207.31
260.081	233.31
260.314	243.31
260.547	255.31
260.779	226.31
261.012	212.31
261.244	212.31
261.477	215.31
261.71	214.31
261.942	205.31
262.175	211.31
262.407	212.31
262.64	218.31
262.872	200.31
263.105	207.31
263.337	216.31
263.57	201.31
263.802	205.31
264.035	198.31
264.267	211.31
264.499	214.31
264.732	211.31
264.964	195.31
265.197	213.31
265.429	220.31
265.661	219.31
265.894	207.31
266.126	218.31
266.358	222.31
266.591	215.31
266.823	229.31
267.055	231.31
267.287	229.31
267.52	223.31
267.752	235.31
267.984	234.31
268.216	230.31
268.448	246.31
268.681	242.31
268.913	231.31
269.145	250.31
269.377	264.31
269.609	258.31
269.841	278.31
270.073	265.31
270.306	290.31
270.538	301.31
270.77	310.31
271.002	271.31
271.234	284.31
271.466	303.31
271.698	312.31
271.93	306.31
272.162	310.31
272.394	291.31
272.626	289.31
272.858	287.31
273.09	285.31
273.322	267.31
273.553	282.31
273.785	263.31
274.017	272.31
274.249	271.31
274.481	270.31
274.713	277.31
274.945	283.31
275.176	270.31
275.408	258.31
275.64	262.31
275.872	260.31
276.104	271.31
276.335	283.31
276.567	282.31
276.799	284.31
277.031	299.31
277.262	299.31
277.494	312.31
277.726	299.31
277.957	298.31
278.189	302.31
278.421	264.31
278.652	284.31
278.884	283.31
279.115	285.31
279.347	288.31
279.579	291.31
279.81	283.31
280.042	274.31
280.273	272.31
280.505	263.31
280.736	287.31
280.968	277.31
281.199	286.31
281.431	267.31
281.662	278.31
281.894	274.31
282.125	288.31
282.356	301.31
282.588	309.31
282.819	295.31
283.051	280.31
283.282	294.31
283.513	290.31
283.745	279.31
283.976	303.31
284.207	294.31
284.439	282.31
284.67	296.31
284.901	289.31
285.132	287.31
285.364	282.31
285.595	286.31
285.826	296.31
286.057	280.31
286.288	306.31
286.52	303.31
286.751	294.31
286.982	297.31
287.213	309.31
287.444	310.31
287.675	321.31
287.906	300.31
288.138	310.31
288.369	315.31
288.6	317.31
288.831	316.31
289.062	306.31
289.293	309.31
289.524	302.31
289.755	299.31
289.986	298.31
290.217	294.31
290.448	313.31
290.679	316.31
290.91	311.31
291.141	300.31
291.371	304.31
291.602	306.31
291.833	307.31
292.064	312.31
292.295	299.31
292.526	316.31
292.757	312.31
292.987	295.31
293.218	293.31
293.449	310.31
293.68	296.31
293.91	315.31
294.141	310.31
294.372	306.31
294.603	311.31
294.833	316.31
295.064	307.31
295.295	319.31
295.525	307.31
295.756	331.31
295.987	326.31
296.217	326.31
296.448	331.31
296.679	317.31
296.909	314.31
297.14	323.31
297.37	316.31
297.601	320.31
297.831	302.31
298.062	328.31
298.292	326.31
298.523	326.31
298.753	337.31
298.984	318.31
299.214	332.31
299.445	332.31
299.675	316.31
299.905	324.31
300.136	315.31
300.366	338.31
300.597	330.31
300.827	354.31
301.057	333.31
301.288	351.31
301.518	340.31
301.748	318.31
301.979	335.31
302.209	348.31
302.439	336.31
302.669	327.31
302.9	329.31
303.13	333.31
303.36	329.31
303.59	346.31
303.82	350.31
304.051	352.31
304.281	338.31
304.511	326.31
304.741	330.31
304.971	332.31
305.201	342.31
305.431	332.31
305.661	339.31
305.891	342.31
306.121	342.31
306.352	358.31
306.582	355.31
306.812	344.31
307.042	349.31
307.272	340.31
307.502	342.31
307.731	354.31
307.961	350.31
308.191	334.31
308.421	372.31
308.651	335.31
308.881	360.31
309.111	370.31
309.341	350.31
309.571	357.31
309.8	379.31
310.03	381.31
310.26	359.31
310.49	380.31
310.72	374.31
310.949	404.31
311.179	367.31
311.409	372.31
311.639	371.31
311.868	387.31
312.098	393.31
312.328	384.31
312.557	388.31
312.787	410.31
313.017	390.31
313.246	382.31
313.476	379.31
313.706	384.31
313.935	380.31
314.165	400.31
314.394	387.31
314.624	405.31
314.853	396.31
315.083	395.31
315.312	378.31
315.542	387.31
315.771	392.31
316.001	366.31
316.23	404.31
316.46	392.31
316.689	372.31
316.919	397.31
317.148	406.31
317.377	397.31
317.607	388.31
317.836	381.31
318.065	382.31
318.295	373.31
318.524	386.31
318.753	380.31
318.983	391.31
319.212	384.31
319.441	381.31
319.67	382.31
319.9	391.31
320.129	389.31
320.358	397.31
320.587	374.31
320.816	397.31
321.046	412.31
321.275	381.31
321.504	400.31
321.733	388.31
321.962	412.31
322.191	420.31
322.42	415.31
322.649	412.31
322.878	413.31
323.108	455.31
323.337	452.31
323.566	469.31
323.795	489.31
324.024	528.31
324.253	628.31
324.482	834.31
324.71	1236.31
324.939	1633.31
325.168	1400.31
325.397	757.31
325.626	569.31
325.855	496.31
326.084	482.31
326.313	487.31
326.542	481.31
326.77	513.31
326.999	590.31
327.228	788.31
327.457	1075.31
327.686	1243.31
327.914	850.31
328.143	611.31
328.372	558.31
328.6	514.31
328.829	519.31
329.058	543.31
329.287	518.31
329.515	500.31
329.744	474.31
329.972	458.31
330.201	481.31
330.43	485.31
330.658	532.31
330.887	539.31
331.115	528.31
331.344	514.31
331.572	468.31
331.801	498.31
332.03	468.31
332.258	461.31
332.486	461.31
332.715	451.31
332.943	460.31
333.172	457.31
333.4	470.31
333.629	468.31
333.857	484.31
334.085	489.31
334.314	500.31
334.542	516.31
334.771	504.31
334.999	487.31
335.227	476.31
335.455	476.31
335.684	455.31
335.912	452.31
336.14	449.31
336.369	452.31
336.597	467.31
336.825	447.31
337.053	468.31
337.281	461.31
337.51	446.31
337.738	438.31
337.966	454.31
338.194	426.31
338.422	422.31
338.65	448.31
338.878	431.31
339.106	434.31
339.334	430.31
339.562	425.31
339.79	413.31
340.018	432.31
340.246	431.31
340.474	432.31
340.702	416.31
340.93	438.31
341.158	426.31
341.386	425.31
341.614	435.31
341.842	438.31
342.07	438.31
342.298	424.31
342.526	405.31
342.754	407.31
342.981	403.31
343.209	437.31
343.437	432.31
343.665	451.31
343.893	451.31
344.12	444.31
344.348	457.31
344.576	454.31
344.804	448.31
345.031	437.31
345.259	460.31
345.487	423.31
345.714	413.31
345.942	421.31
346.17	418.31
346.397	418.31
346.625	432.31
346.853	430.31
347.08	411.31
347.308	414.31
347.535	404.31
347.763	418.31
347.99	413.31
348.218	409.31
348.445	418.31
348.673	395.31
348.9	411.31
349.128	395.31
349.355	394.31
349.583	391.31
349.81	412.31
350.037	391.31
350.265	392.31
350.492	395.31
350.72	387.31
350.947	396.31
351.174	398.31
351.402	390.31
351.629	404.31
351.856	412.31
352.083	392.31
352.311	396.31
352.538	416.31
352.765	405.31
352.992	425.31
353.22	384.31
353.447	400.31
353.674	400.31
353.901	405.31
354.128	386.31
354.355	374.31
354.583	390.31
354.81	383.31
355.037	395.31
355.264	374.31
355.491	387.31
355.718	372.31
355.945	390.31
356.172	387.31
356.399	400.31
356.626	386.31
356.853	389.31
357.08	396.31
357.307	398.31
357.534	385.31
357.761	377.31
357.988	367.31
358.215	394.31
358.441	390.31
358.668	360.31
358.895	377.31
359.122	390.31
359.349	378.31
359.576	400.31
359.802	408.31
360.029	431.31
360.256	436.31
360.483	426.31
360.709	410.31
360.936	407.31
361.163	383.31
361.39	391.31
361.616	405.31
361.843	421.31
362.07	383.31
362.296	395.31
362.523	386.31
362.749	385.31
362.976	382.31
363.203	401.31
363.429	388.31
363.656	390.31
363.882	383.31
364.109	388.31
364.335	374.31
364.562	389.31
364.788	375.31
365.015	404.31
365.241	392.31
365.468	392.31
365.694	397.31
365.92	378.31
366.147	371.31
366.373	384.31
366.599	382.31
366.826	372.31
367.052	388.31
367.278	402.31
367.505	383.31
367.731	358.31
367.957	381.31
368.184	374.31
368.41	391.31
368.636	408.31
368.862	402.31
369.089	372.31
369.315	397.31
369.541	388.31
369.767	373.31
369.993	399.31
370.219	372.31
370.445	384.31
370.672	399.31
370.898	382.31
371.124	372.31
371.35	376.31
371.576	384.31
371.802	392.31
372.028	378.31
372.254	383.31
372.48	382.31
372.706	390.31
372.932	403.31
373.158	396.31
373.384	408.31
373.61	397.31
373.835	395.31
374.061	361.31
374.287	384.31
374.513	408.31
374.739	382.31
374.965	386.31
375.191	405.31
375.416	400.31
375.642	404.31
375.868	386.31
376.094	379.31
376.319	395.31
376.545	387.31
376.771	364.31
376.997	377.31
377.222	388.31
377.448	380.31
377.674	379.31
377.899	363.31
378.125	378.31
378.35	375.31
378.576	383.31
378.802	368.31
379.027	390.31
379.253	391.31
379.478	382.31
379.704	384.31
379.929	386.31
380.155	406.31
380.38	371.31
380.606	384.31
380.831	367.31
381.057	389.31
381.282	378.31
381.507	373.31
381.733	385.31
381.958	370.31
382.184	392.31
382.409	381.31
382.634	382.31
382.86	396.31
383.085	384.31
383.31	396.31
383.535	394.31
383.761	405.31
383.986	387.31
384.211	402.31
384.436	398.31
384.662	389.31
384.887	408.31
385.112	398.31
385.337	405.31
385.562	423.31
385.787	402.31
386.013	426.31
386.238	422.31
386.463	436.31
386.688	427.31
386.913	426.31
387.138	400.31
387.363	415.31
387.588	408.31
387.813	416.31
388.038	414.31
388.263	411.31
388.488	423.31
388.713	419.31
388.938	424.31
389.163	412.31
389.387	425.31
389.612	402.31
389.837	419.31
390.062	402.31
390.287	418.31
390.512	427.31
390.736	428.31
390.961	410.31
391.186	411.31
391.411	431.31
391.636	434.31
391.86	424.31
392.085	440.31
392.31	436.31
392.534	422.31
392.759	449.31
392.984	416.31
393.208	429.31
393.433	443.31
393.658	431.31
393.882	428.31
394.107	407.31
394.331	425.31
394.556	436.31
394.78	420.31
395.005	435.31
395.229	418.31
395.454	441.31
395.678	446.31
395.903	440.31
396.127	460.31
396.352	462.31
396.576	450.31
396.801	422.31
397.025	425.31
397.249	439.31
397.474	456.31
397.698	444.31
397.922	476.31
398.147	460.31
398.371	464.31
398.595	469.31
398.82	469.31
399.044	483.31
399.268	500.31
399.492	538.31
399.717	567.31
399.941	590.31
400.165	595.31
400.389	593.31
400.613	551.31
400.837	514.31
401.062	489.31
401.286	481.31
401.51	464.31
401.734	475.31
401.958	468.31
402.182	463.31
402.406	475.31
402.63	474.31
402.854	472.31
403.078	501.31
403.302	487.31
403.526	518.31
403.75	506.31
403.974	494.31
404.198	506.31
404.422	495.31
404.645	513.31
404.869	488.31
405.093	510.31
405.317	542.31
405.541	562.31
405.765	544.31
405.988	516.31
406.212	511.31
406.436	543.31
406.66	535.31
406.883	545.31
407.107	554.31
407.331	581.31
407.555	597.31
407.778	658.31
408.002	590.31
408.226	558.31
408.449	560.31
408.673	546.31
408.896	531.31
409.12	573.31
409.344	568.31
409.567	516.31
409.791	515.31
410.014	521.31
410.238	498.31
410.461	476.31
410.685	481.31
410.908	513.31
411.132	548.31
411.355	573.31
411.578	504.31
411.802	494.31
412.025	473.31
412.249	508.31
412.472	489.31
412.695	551.31
412.919	493.31
413.142	488.31
413.365	462.31
413.589	495.31
413.812	475.31
414.035	458.31
414.258	462.31
414.482	458.31
414.705	462.31
414.928	459.31
415.151	458.31
415.374	457.31
415.597	460.31
415.821	451.31
416.044	455.31
416.267	462.31
416.49	450.31
416.713	444.31
416.936	447.31
417.159	445.31
417.382	460.31
417.605	468.31
417.828	466.31
418.051	446.31
418.274	490.31
418.497	463.31
418.72	460.31
418.943	466.31
419.166	501.31
419.389	486.31
419.611	483.31
419.834	478.31
420.057	503.31
420.28	480.31
420.503	471.31
420.726	467.31
420.948	460.31
421.171	502.31
421.394	549.31
421.617	495.31
421.839	473.31
422.062	464.31
422.285	476.31
422.507	510.31
422.73	589.31
422.953	581.31
423.175	513.31
423.398	492.31
423.621	488.31
423.843	519.31
424.066	516.31
424.288	483.31
424.511	495.31
424.733	550.31
424.956	615.31
425.178	589.31
425.401	597.31
425.623	608.31
425.846	568.31
426.068	493.31
426.291	500.31
426.513	514.31
426.735	512.31
426.958	512.31
427.18	614.31
427.402	714.31
427.625	780.31
427.847	654.31
428.069	570.31
428.292	537.31
428.514	475.31
428.736	486.31
428.958	466.31
429.181	465.31
429.403	443.31
429.625	454.31
429.847	491.31
430.069	560.31
430.292	555.31
430.514	475.31
430.736	463.31
430.958	441.31
431.18	437.31
431.402	438.31
431.624	419.31
431.846	428.31
432.068	429.31
432.29	454.31
432.512	453.31
432.734	447.31
432.956	452.31
433.178	444.31
433.4	455.31
433.622	438.31
433.844	434.31
434.066	417.31
434.287	450.31
434.509	442.31
434.731	456.31
434.953	461.31
435.175	470.31
435.397	485.31
435.618	514.31
435.84	516.31
436.062	593.31
436.284	627.31
436.505	544.31
436.727	504.31
436.949	468.31
437.17	462.31
437.392	463.31
437.614	457.31
437.835	488.31
438.057	556.31
438.278	648.31
438.5	626.31
438.721	707.31
438.943	662.31
439.165	536.31
439.386	501.31
439.608	476.31
439.829	482.31
440.05	512.31
440.272	515.31
440.493	512.31
440.715	469.31
440.936	468.31
441.158	453.31
441.379	458.31
441.6	469.31
441.822	481.31
442.043	537.31
442.264	592.31
442.486	613.31
442.707	564.31
442.928	512.31
443.149	491.31
443.371	536.31
443.592	566.31
443.813	636.31
444.034	664.31
444.255	576.31
444.476	534.31
444.698	514.31
444.919	503.31
445.14	596.31
445.361	544.31
445.582	533.31
445.803	572.31
446.024	642.31
446.245	661.31
446.466	594.31
446.687	500.31
446.908	509.31
447.129	453.31
447.35	466.31
447.571	448.31
447.792	452.31
448.013	436.31
448.234	457.31
448.455	514.31
448.675	586.31
448.896	660.31
449.117	590.31
449.338	548.31
449.559	631.31
449.779	686.31
450	573.31
450.221	496.31
450.442	452.31
450.662	434.31
450.883	445.31
451.104	451.31
451.324	441.31
451.545	427.31
451.766	419.31
451.986	408.31
452.207	390.31
452.428	380.31
452.648	407.31
452.869	404.31
453.089	420.31
453.31	406.31
453.53	394.31
453.751	382.31
453.971	396.31
454.192	421.31
454.412	408.31
454.633	408.31
454.853	391.31
455.073	407.31
455.294	420.31
455.514	484.31
455.734	459.31
455.955	391.31
456.175	371.31
456.395	392.31
456.616	356.31
456.836	376.31
457.056	376.31
457.276	374.31
457.497	391.31
457.717	409.31
457.937	406.31
458.157	390.31
458.377	400.31
458.598	415.31
458.818	446.31
459.038	507.31
459.258	533.31
459.478	472.31
459.698	431.31
459.918	451.31
460.138	437.31
460.358	418.31
460.578	452.31
460.798	463.31
461.018	450.31
461.238	413.31
461.458	438.31
461.678	443.31
461.898	440.31
462.118	467.31
462.338	465.31
462.558	465.31
462.777	491.31
462.997	496.31
463.217	484.31
463.437	520.31
463.657	476.31
463.876	460.31
464.096	488.31
464.316	489.31
464.536	474.31
464.755	475.31
464.975	491.31
465.195	486.31
465.414	506.31
465.634	470.31
465.854	456.31
466.073	436.31
466.293	445.31
466.512	418.31
466.732	431.31
466.951	408.31
467.171	397.31
467.391	407.31
467.61	409.31
467.829	432.31
468.049	415.31
468.268	427.31
468.488	425.31
468.707	390.31
468.927	393.31
469.146	410.31
469.365	406.31
469.585	405.31
469.804	401.31
470.023	401.31
470.243	408.31
470.462	420.31
470.681	426.31
470.901	444.31
471.12	406.31
471.339	427.31
471.558	418.31
471.777	429.31
471.997	414.31
472.216	402.31
472.435	413.31
472.654	411.31
472.873	404.31
473.092	411.31
473.311	415.31
473.53	406.31
473.749	423.31
473.968	443.31
474.187	500.31
474.406	535.31
474.625	449.31
474.844	445.31
475.063	424.31
475.282	406.31
475.501	420.31
475.72	421.31
475.939	443.31
476.158	418.31
476.377	441.31
476.596	428.31
476.814	447.31
477.033	432.31
477.252	446.31
477.471	436.31
477.69	454.31
477.908	446.31
478.127	464.31
478.346	474.31
478.564	452.31
478.783	466.31
479.002	468.31
479.22	463.31
479.439	494.31
479.658	491.31
479.876	503.31
480.095	509.31
480.313	516.31
480.532	533.31
480.751	511.31
480.969	506.31
481.188	513.31
481.406	541.31
481.624	519.31
481.843	505.31
482.061	492.31
482.28	503.31
482.498	482.31
482.717	483.31
482.935	485.31
483.153	463.31
483.372	484.31
483.59	472.31
483.808	475.31
484.027	487.31
484.245	494.31
484.463	481.31
484.681	493.31
484.9	503.31
485.118	458.31
485.336	490.31
485.554	487.31
485.772	491.31
485.99	513.31
486.209	472.31
486.427	496.31
486.645	488.31
486.863	484.31
487.081	514.31
487.299	512.31
487.517	516.31
487.735	491.31
487.953	526.31
488.171	500.31
488.389	502.31
488.607	489.31
488.825	512.31
489.043	483.31
489.261	512.31
489.479	536.31
489.696	518.31
489.914	531.31
490.132	515.31
490.35	527.31
490.568	532.31
490.786	548.31
491.003	547.31
491.221	553.31
491.439	557.31
491.657	570.31
491.874	567.31
492.092	564.31
492.31	572.31
492.527	575.31
492.745	554.31
492.963	572.31
493.18	604.31
493.398	581.31
493.615	575.31
493.833	590.31
494.05	597.31
494.268	608.31
494.485	585.31
494.703	584.31
494.92	590.31
495.138	590.31
495.355	580.31
495.573	598.31
495.79	584.31
496.008	602.31
496.225	596.31
496.442	610.31
496.66	597.31
496.877	622.31
497.094	586.31
497.312	608.31
497.529	595.31
497.746	621.31
497.963	627.31
498.181	650.31
498.398	663.31
498.615	683.31
498.832	691.31
499.049	708.31
499.267	740.31
499.484	754.31
499.701	812.31
499.918	832.31
500.135	873.31
500.352	934.31
500.569	950.31
500.786	936.31
501.003	923.31
501.22	848.31
501.437	838.31
501.654	812.31
501.871	782.31
