Data from 1977.PennyLincolnUp.Lamp.En5.5.200Scan.071719.P1_HRD10591_16-05-05-863.txt Node
Date: Thu Jul 18 16:05:05 EDT 2019
User: cochatt
Spectrometer: HR+D1059
Trigger mode: 1
Integration Time (sec): 1.000000E-1
Scans to average: 1
Electric dark correction enabled: true
Nonlinearity correction enabled: false
Boxcar width: 0
XAxis mode: Wavelengths
Number of Pixels in Spectrum: 2048
>>>>>Begin Spectral Data<<<<<
223.165	-11.19
223.4	-11.19
223.635	-11.19
223.869	-15.19
224.104	-16.19
224.338	-6.19
224.573	-13.19
224.808	-12.19
225.042	-25.19
225.277	6.81
225.511	6.81
225.746	-12.19
225.98	4.81
226.215	11.81
226.449	25.81
226.683	12.81
226.918	1.81
227.152	40.81
227.387	38.81
227.621	55.81
227.856	60.81
228.09	54.81
228.324	49.81
228.559	56.81
228.793	72.81
229.027	89.81
229.262	102.81
229.496	102.81
229.73	111.81
229.964	123.81
230.199	102.81
230.433	109.81
230.667	110.81
230.901	102.81
231.136	120.81
231.37	109.81
231.604	104.81
231.838	113.81
232.072	106.81
232.306	105.81
232.541	99.81
232.775	104.81
233.009	121.81
233.243	124.81
233.477	106.81
233.711	118.81
233.945	120.81
234.179	127.81
234.413	129.81
234.647	116.81
234.881	118.81
235.115	125.81
235.349	123.81
235.583	113.81
235.817	127.81
236.051	124.81
236.285	128.81
236.519	107.81
236.753	122.81
236.987	138.81
237.221	153.81
237.455	168.81
237.689	158.81
237.922	135.81
238.156	128.81
238.39	113.81
238.624	102.81
238.858	123.81
239.091	110.81
239.325	113.81
239.559	136.81
239.793	120.81
240.027	103.81
240.26	119.81
240.494	130.81
240.728	140.81
240.961	130.81
241.195	126.81
241.429	114.81
241.662	128.81
241.896	136.81
242.13	131.81
242.363	126.81
242.597	135.81
242.83	140.81
243.064	149.81
243.298	126.81
243.531	123.81
243.765	129.81
243.998	136.81
244.232	134.81
244.465	132.81
244.699	137.81
244.932	142.81
245.166	146.81
245.399	151.81
245.633	147.81
245.866	134.81
246.099	136.81
246.333	152.81
246.566	139.81
246.8	128.81
247.033	144.81
247.266	151.81
247.5	142.81
247.733	158.81
247.966	167.81
248.2	162.81
248.433	161.81
248.666	158.81
248.899	167.81
249.133	170.81
249.366	188.81
249.599	164.81
249.832	169.81
250.066	162.81
250.299	174.81
250.532	168.81
250.765	177.81
250.998	183.81
251.231	194.81
251.465	175.81
251.698	174.81
251.931	187.81
252.164	195.81
252.397	188.81
252.63	185.81
252.863	164.81
253.096	190.81
253.329	190.81
253.562	201.81
253.795	182.81
254.028	198.81
254.261	203.81
254.494	185.81
254.727	213.81
254.96	224.81
255.193	231.81
255.426	210.81
255.659	207.81
255.892	209.81
256.124	205.81
256.357	193.81
256.59	191.81
256.823	201.81
257.056	186.81
257.289	219.81
257.521	197.81
257.754	188.81
257.987	191.81
258.22	186.81
258.452	179.81
258.685	218.81
258.918	193.81
259.151	195.81
259.383	211.81
259.616	204.81
259.849	209.81
260.081	216.81
260.314	220.81
260.547	216.81
260.779	213.81
261.012	202.81
261.244	212.81
261.477	204.81
261.71	194.81
261.942	208.81
262.175	210.81
262.407	206.81
262.64	218.81
262.872	197.81
263.105	184.81
263.337	216.81
263.57	194.81
263.802	202.81
264.035	196.81
264.267	204.81
264.499	208.81
264.732	200.81
264.964	207.81
265.197	204.81
265.429	195.81
265.661	194.81
265.894	204.81
266.126	211.81
266.358	208.81
266.591	222.81
266.823	224.81
267.055	219.81
267.287	213.81
267.52	200.81
267.752	218.81
267.984	201.81
268.216	208.81
268.448	225.81
268.681	212.81
268.913	224.81
269.145	225.81
269.377	243.81
269.609	242.81
269.841	245.81
270.073	241.81
270.306	252.81
270.538	274.81
270.77	278.81
271.002	247.81
271.234	272.81
271.466	250.81
271.698	255.81
271.93	272.81
272.162	269.81
272.394	283.81
272.626	276.81
272.858	262.81
273.09	254.81
273.322	264.81
273.553	238.81
273.785	238.81
274.017	238.81
274.249	258.81
274.481	248.81
274.713	255.81
274.945	252.81
275.176	257.81
275.408	237.81
275.64	248.81
275.872	246.81
276.104	251.81
276.335	247.81
276.567	255.81
276.799	250.81
277.031	263.81
277.262	286.81
277.494	278.81
277.726	285.81
277.957	254.81
278.189	250.81
278.421	251.81
278.652	260.81
278.884	264.81
279.115	265.81
279.347	275.81
279.579	255.81
279.81	250.81
280.042	258.81
280.273	269.81
280.505	259.81
280.736	270.81
280.968	264.81
281.199	253.81
281.431	255.81
281.662	257.81
281.894	253.81
282.125	273.81
282.356	275.81
282.588	288.81
282.819	276.81
283.051	271.81
283.282	287.81
283.513	284.81
283.745	263.81
283.976	273.81
284.207	272.81
284.439	277.81
284.67	266.81
284.901	294.81
285.132	274.81
285.364	271.81
285.595	274.81
285.826	276.81
286.057	289.81
286.288	275.81
286.52	270.81
286.751	276.81
286.982	264.81
287.213	292.81
287.444	296.81
287.675	292.81
287.906	277.81
288.138	299.81
288.369	290.81
288.6	288.81
288.831	276.81
289.062	286.81
289.293	289.81
289.524	299.81
289.755	266.81
289.986	298.81
290.217	279.81
290.448	277.81
290.679	294.81
290.91	272.81
291.141	267.81
291.371	276.81
291.602	283.81
291.833	291.81
292.064	281.81
292.295	292.81
292.526	298.81
292.757	300.81
292.987	284.81
293.218	305.81
293.449	296.81
293.68	289.81
293.91	302.81
294.141	292.81
294.372	296.81
294.603	304.81
294.833	294.81
295.064	303.81
295.295	286.81
295.525	293.81
295.756	305.81
295.987	312.81
296.217	314.81
296.448	315.81
296.679	306.81
296.909	294.81
297.14	291.81
297.37	302.81
297.601	310.81
297.831	311.81
298.062	287.81
298.292	314.81
298.523	313.81
298.753	311.81
298.984	286.81
299.214	296.81
299.445	323.81
299.675	294.81
299.905	310.81
300.136	298.81
300.366	287.81
300.597	310.81
300.827	318.81
301.057	323.81
301.288	325.81
301.518	310.81
301.748	320.81
301.979	323.81
302.209	318.81
302.439	318.81
302.669	319.81
302.9	334.81
303.13	332.81
303.36	335.81
303.59	315.81
303.82	329.81
304.051	335.81
304.281	329.81
304.511	343.81
304.741	333.81
304.971	312.81
305.201	305.81
305.431	320.81
305.661	337.81
305.891	338.81
306.121	323.81
306.352	321.81
306.582	300.81
306.812	317.81
307.042	330.81
307.272	313.81
307.502	303.81
307.731	324.81
307.961	320.81
308.191	316.81
308.421	315.81
308.651	321.81
308.881	330.81
309.111	329.81
309.341	318.81
309.571	340.81
309.8	349.81
310.03	350.81
310.26	346.81
310.49	347.81
310.72	336.81
310.949	349.81
311.179	356.81
311.409	351.81
311.639	358.81
311.868	354.81
312.098	348.81
312.328	350.81
312.557	357.81
312.787	350.81
313.017	369.81
313.246	371.81
313.476	363.81
313.706	356.81
313.935	343.81
314.165	364.81
314.394	379.81
314.624	355.81
314.853	354.81
315.083	362.81
315.312	354.81
315.542	353.81
315.771	353.81
316.001	351.81
316.23	367.81
316.46	359.81
316.689	374.81
316.919	355.81
317.148	348.81
317.377	359.81
317.607	354.81
317.836	356.81
318.065	353.81
318.295	348.81
318.524	356.81
318.753	373.81
318.983	329.81
319.212	344.81
319.441	360.81
319.67	367.81
319.9	356.81
320.129	370.81
320.358	367.81
320.587	358.81
320.816	377.81
321.046	363.81
321.275	360.81
321.504	370.81
321.733	365.81
321.962	374.81
322.191	386.81
322.42	390.81
322.649	384.81
322.878	375.81
323.108	365.81
323.337	386.81
323.566	402.81
323.795	405.81
324.024	455.81
324.253	493.81
324.482	640.81
324.71	901.81
324.939	1212.81
325.168	1076.81
325.397	610.81
325.626	459.81
325.855	443.81
326.084	417.81
326.313	410.81
326.542	416.81
326.77	440.81
326.999	485.81
327.228	606.81
327.457	831.81
327.686	948.81
327.914	661.81
328.143	498.81
328.372	473.81
328.6	468.81
328.829	440.81
329.058	445.81
329.287	444.81
329.515	448.81
329.744	439.81
329.972	419.81
330.201	439.81
330.43	429.81
330.658	456.81
330.887	470.81
331.115	474.81
331.344	407.81
331.572	408.81
331.801	428.81
332.03	408.81
332.258	410.81
332.486	424.81
332.715	399.81
332.943	415.81
333.172	426.81
333.4	445.81
333.629	436.81
333.857	454.81
334.085	442.81
334.314	419.81
334.542	446.81
334.771	431.81
334.999	444.81
335.227	429.81
335.455	435.81
335.684	411.81
335.912	418.81
336.14	430.81
336.369	418.81
336.597	431.81
336.825	428.81
337.053	425.81
337.281	399.81
337.51	384.81
337.738	418.81
337.966	402.81
338.194	416.81
338.422	429.81
338.65	403.81
338.878	403.81
339.106	397.81
339.334	412.81
339.562	407.81
339.79	382.81
340.018	404.81
340.246	387.81
340.474	399.81
340.702	383.81
340.93	384.81
341.158	391.81
341.386	395.81
341.614	385.81
341.842	389.81
342.07	414.81
342.298	382.81
342.526	379.81
342.754	392.81
342.981	381.81
343.209	398.81
343.437	399.81
343.665	414.81
343.893	426.81
344.12	418.81
344.348	428.81
344.576	422.81
344.804	422.81
345.031	416.81
345.259	412.81
345.487	414.81
345.714	397.81
345.942	387.81
346.17	393.81
346.397	387.81
346.625	401.81
346.853	371.81
347.08	373.81
347.308	390.81
347.535	378.81
347.763	397.81
347.99	385.81
348.218	387.81
348.445	386.81
348.673	368.81
348.9	386.81
349.128	385.81
349.355	375.81
349.583	379.81
349.81	366.81
350.037	370.81
350.265	376.81
350.492	381.81
350.72	362.81
350.947	378.81
351.174	384.81
351.402	383.81
351.629	388.81
351.856	369.81
352.083	376.81
352.311	368.81
352.538	372.81
352.765	382.81
352.992	384.81
353.22	362.81
353.447	382.81
353.674	362.81
353.901	342.81
354.128	365.81
354.355	349.81
354.583	362.81
354.81	361.81
355.037	356.81
355.264	355.81
355.491	358.81
355.718	368.81
355.945	366.81
356.172	355.81
356.399	362.81
356.626	368.81
356.853	361.81
357.08	367.81
357.307	343.81
357.534	350.81
357.761	356.81
357.988	346.81
358.215	367.81
358.441	362.81
358.668	350.81
358.895	349.81
359.122	361.81
359.349	347.81
359.576	364.81
359.802	370.81
360.029	382.81
360.256	386.81
360.483	386.81
360.709	388.81
360.936	375.81
361.163	348.81
361.39	376.81
361.616	380.81
361.843	365.81
362.07	392.81
362.296	372.81
362.523	376.81
362.749	367.81
362.976	362.81
363.203	374.81
363.429	343.81
363.656	368.81
363.882	371.81
364.109	362.81
364.335	370.81
364.562	368.81
364.788	375.81
365.015	355.81
365.241	361.81
365.468	343.81
365.694	335.81
365.92	354.81
366.147	363.81
366.373	386.81
366.599	382.81
366.826	349.81
367.052	362.81
367.278	357.81
367.505	375.81
367.731	364.81
367.957	340.81
368.184	340.81
368.41	361.81
368.636	359.81
368.862	365.81
369.089	366.81
369.315	372.81
369.541	371.81
369.767	359.81
369.993	360.81
370.219	363.81
370.445	362.81
370.672	370.81
370.898	385.81
371.124	355.81
371.35	356.81
371.576	380.81
371.802	387.81
372.028	375.81
372.254	374.81
372.48	366.81
372.706	371.81
372.932	369.81
373.158	350.81
373.384	368.81
373.61	360.81
373.835	387.81
374.061	365.81
374.287	353.81
374.513	372.81
374.739	386.81
374.965	369.81
375.191	379.81
375.416	396.81
375.642	378.81
375.868	353.81
376.094	386.81
376.319	374.81
376.545	391.81
376.771	361.81
376.997	363.81
377.222	358.81
377.448	363.81
377.674	363.81
377.899	369.81
378.125	373.81
378.35	366.81
378.576	352.81
378.802	376.81
379.027	374.81
379.253	374.81
379.478	364.81
379.704	349.81
379.929	376.81
380.155	351.81
380.38	349.81
380.606	365.81
380.831	352.81
381.057	343.81
381.282	365.81
381.507	376.81
381.733	366.81
381.958	351.81
382.184	384.81
382.409	366.81
382.634	380.81
382.86	365.81
383.085	382.81
383.31	360.81
383.535	378.81
383.761	390.81
383.986	369.81
384.211	379.81
384.436	376.81
384.662	403.81
384.887	379.81
385.112	386.81
385.337	391.81
385.562	398.81
385.787	422.81
386.013	411.81
386.238	401.81
386.463	396.81
386.688	393.81
386.913	406.81
387.138	402.81
387.363	386.81
387.588	394.81
387.813	411.81
388.038	385.81
388.263	392.81
388.488	396.81
388.713	398.81
388.938	387.81
389.163	401.81
389.387	395.81
389.612	388.81
389.837	407.81
390.062	394.81
390.287	398.81
390.512	381.81
390.736	377.81
390.961	395.81
391.186	399.81
391.411	411.81
391.636	406.81
391.86	417.81
392.085	411.81
392.31	418.81
392.534	406.81
392.759	398.81
392.984	413.81
393.208	418.81
393.433	390.81
393.658	400.81
393.882	393.81
394.107	395.81
394.331	398.81
394.556	414.81
394.78	387.81
395.005	409.81
395.229	419.81
395.454	427.81
395.678	436.81
395.903	419.81
396.127	430.81
396.352	425.81
396.576	422.81
396.801	422.81
397.025	439.81
397.249	422.81
397.474	421.81
397.698	432.81
397.922	442.81
398.147	446.81
398.371	440.81
398.595	444.81
398.82	449.81
399.044	474.81
399.268	465.81
399.492	495.81
399.717	551.81
399.941	557.81
400.165	572.81
400.389	554.81
400.613	520.81
400.837	464.81
401.062	469.81
401.286	450.81
401.51	443.81
401.734	446.81
401.958	452.81
402.182	470.81
402.406	448.81
402.63	478.81
402.854	466.81
403.078	464.81
403.302	473.81
403.526	452.81
403.75	474.81
403.974	481.81
404.198	482.81
404.422	479.81
404.645	476.81
404.869	464.81
405.093	506.81
405.317	527.81
405.541	537.81
405.765	503.81
405.988	478.81
406.212	474.81
406.436	472.81
406.66	483.81
406.883	497.81
407.107	510.81
407.331	528.81
407.555	585.81
407.778	596.81
408.002	533.81
408.226	505.81
408.449	509.81
408.673	520.81
408.896	507.81
409.12	520.81
409.344	514.81
409.567	474.81
409.791	489.81
410.014	470.81
410.238	454.81
410.461	475.81
410.685	466.81
410.908	470.81
411.132	502.81
411.355	519.81
411.578	512.81
411.802	464.81
412.025	428.81
412.249	452.81
412.472	474.81
412.695	484.81
412.919	491.81
413.142	481.81
413.365	450.81
413.589	467.81
413.812	451.81
414.035	414.81
414.258	429.81
414.482	411.81
414.705	456.81
414.928	451.81
415.151	442.81
415.374	428.81
415.597	427.81
415.821	430.81
416.044	434.81
416.267	434.81
416.49	442.81
416.713	423.81
416.936	434.81
417.159	422.81
417.382	442.81
417.605	435.81
417.828	427.81
418.051	443.81
418.274	457.81
418.497	427.81
418.72	445.81
418.943	434.81
419.166	445.81
419.389	462.81
419.611	461.81
419.834	480.81
420.057	476.81
420.28	443.81
420.503	451.81
420.726	452.81
420.948	435.81
421.171	500.81
421.394	477.81
421.617	435.81
421.839	462.81
422.062	452.81
422.285	446.81
422.507	464.81
422.73	551.81
422.953	528.81
423.175	484.81
423.398	470.81
423.621	456.81
423.843	467.81
424.066	491.81
424.288	463.81
424.511	476.81
424.733	526.81
424.956	566.81
425.178	531.81
425.401	532.81
425.623	576.81
425.846	459.81
426.068	462.81
426.291	459.81
426.513	452.81
426.735	462.81
426.958	503.81
427.18	543.81
427.402	644.81
427.625	698.81
427.847	592.81
428.069	499.81
428.292	447.81
428.514	439.81
428.736	424.81
428.958	440.81
429.181	419.81
429.403	439.81
429.625	434.81
429.847	454.81
430.069	490.81
430.292	487.81
430.514	420.81
430.736	411.81
430.958	425.81
431.18	412.81
431.402	422.81
431.624	396.81
431.846	419.81
432.068	412.81
432.29	436.81
432.512	416.81
432.734	413.81
432.956	409.81
433.178	413.81
433.4	421.81
433.622	412.81
433.844	408.81
434.066	394.81
434.287	402.81
434.509	428.81
434.731	433.81
434.953	429.81
435.175	442.81
435.397	452.81
435.618	439.81
435.84	467.81
436.062	544.81
436.284	610.81
436.505	511.81
436.727	447.81
436.949	428.81
437.17	424.81
437.392	431.81
437.614	416.81
437.835	450.81
438.057	490.81
438.278	582.81
438.5	560.81
438.721	632.81
438.943	605.81
439.165	485.81
439.386	431.81
439.608	425.81
439.829	451.81
440.05	453.81
440.272	466.81
440.493	452.81
440.715	439.81
440.936	428.81
441.158	431.81
441.379	420.81
441.6	434.81
441.822	457.81
442.043	469.81
442.264	518.81
442.486	556.81
442.707	499.81
442.928	450.81
443.149	443.81
443.371	465.81
443.592	489.81
443.813	573.81
444.034	604.81
444.255	520.81
444.476	473.81
444.698	481.81
444.919	479.81
445.14	550.81
445.361	507.81
445.582	494.81
445.803	505.81
446.024	568.81
446.245	558.81
446.466	527.81
446.687	463.81
446.908	441.81
447.129	431.81
447.35	417.81
447.571	431.81
447.792	411.81
448.013	413.81
448.234	426.81
448.455	446.81
448.675	524.81
448.896	623.81
449.117	530.81
449.338	481.81
449.559	560.81
449.779	617.81
450	514.81
450.221	432.81
450.442	386.81
450.662	388.81
450.883	394.81
451.104	397.81
451.324	388.81
451.545	400.81
451.766	403.81
451.986	366.81
452.207	366.81
452.428	371.81
452.648	374.81
452.869	388.81
453.089	386.81
453.31	366.81
453.53	363.81
453.751	367.81
453.971	365.81
454.192	371.81
454.412	378.81
454.633	360.81
454.853	366.81
455.073	363.81
455.294	389.81
455.514	442.81
455.734	409.81
455.955	390.81
456.175	374.81
456.395	351.81
456.616	347.81
456.836	357.81
457.056	373.81
457.276	357.81
457.497	354.81
457.717	367.81
457.937	378.81
458.157	371.81
458.377	358.81
458.598	385.81
458.818	410.81
459.038	439.81
459.258	478.81
459.478	400.81
459.698	420.81
459.918	418.81
460.138	432.81
460.358	422.81
460.578	434.81
460.798	435.81
461.018	449.81
461.238	425.81
461.458	421.81
461.678	416.81
461.898	425.81
462.118	420.81
462.338	432.81
462.558	433.81
462.777	461.81
462.997	475.81
463.217	482.81
463.437	482.81
463.657	471.81
463.876	467.81
464.096	451.81
464.316	455.81
464.536	448.81
464.755	458.81
464.975	454.81
465.195	439.81
465.414	451.81
465.634	440.81
465.854	411.81
466.073	401.81
466.293	401.81
466.512	391.81
466.732	392.81
466.951	389.81
467.171	378.81
467.391	404.81
467.61	401.81
467.829	384.81
468.049	412.81
468.268	396.81
468.488	389.81
468.707	400.81
468.927	392.81
469.146	363.81
469.365	365.81
469.585	355.81
469.804	378.81
470.023	380.81
470.243	393.81
470.462	390.81
470.681	423.81
470.901	407.81
471.12	400.81
471.339	391.81
471.558	378.81
471.777	381.81
471.997	378.81
472.216	401.81
472.435	388.81
472.654	399.81
472.873	382.81
473.092	396.81
473.311	376.81
473.53	399.81
473.749	389.81
473.968	398.81
474.187	485.81
474.406	480.81
474.625	423.81
474.844	406.81
475.063	390.81
475.282	410.81
475.501	390.81
475.72	382.81
475.939	408.81
476.158	394.81
476.377	403.81
476.596	422.81
476.814	414.81
477.033	389.81
477.252	410.81
477.471	416.81
477.69	413.81
477.908	412.81
478.127	433.81
478.346	418.81
478.564	427.81
478.783	448.81
479.002	430.81
479.22	425.81
479.439	443.81
479.658	464.81
479.876	458.81
480.095	467.81
480.313	476.81
480.532	484.81
480.751	467.81
480.969	484.81
481.188	482.81
481.406	493.81
481.624	465.81
481.843	463.81
482.061	449.81
482.28	457.81
482.498	451.81
482.717	446.81
482.935	447.81
483.153	433.81
483.372	442.81
483.59	444.81
483.808	435.81
484.027	443.81
484.245	436.81
484.463	456.81
484.681	442.81
484.9	451.81
485.118	459.81
485.336	462.81
485.554	474.81
485.772	459.81
485.99	455.81
486.209	465.81
486.427	455.81
486.645	463.81
486.863	470.81
487.081	478.81
487.299	466.81
487.517	466.81
487.735	474.81
487.953	475.81
488.171	472.81
488.389	469.81
488.607	485.81
488.825	475.81
489.043	474.81
489.261	486.81
489.479	471.81
489.696	484.81
489.914	487.81
490.132	467.81
490.35	459.81
490.568	470.81
490.786	503.81
491.003	497.81
491.221	500.81
491.439	494.81
491.657	507.81
491.874	503.81
492.092	502.81
492.31	524.81
492.527	518.81
492.745	525.81
492.963	507.81
493.18	540.81
493.398	518.81
493.615	499.81
493.833	518.81
494.05	545.81
494.268	552.81
494.485	550.81
494.703	515.81
494.92	534.81
495.138	549.81
495.355	534.81
495.573	520.81
495.79	534.81
496.008	556.81
496.225	548.81
496.442	543.81
496.66	552.81
496.877	551.81
497.094	574.81
497.312	572.81
497.529	576.81
497.746	583.81
497.963	577.81
498.181	617.81
498.398	631.81
498.615	623.81
498.832	633.81
499.049	656.81
499.267	685.81
499.484	733.81
499.701	780.81
499.918	786.81
500.135	836.81
500.352	862.81
500.569	878.81
500.786	878.81
501.003	840.81
501.22	835.81
501.437	822.81
501.654	791.81
501.871	726.81
502.088	691.81
