Data from 1977.PennyLincolnUp.Lamp.En5.5.200Scan.071719.P1_HRD10591_16-07-57-865.txt Node
Date: Thu Jul 18 16:07:57 EDT 2019
User: cochatt
Spectrometer: HR+D1059
Trigger mode: 1
Integration Time (sec): 1.000000E-1
Scans to average: 1
Electric dark correction enabled: true
Nonlinearity correction enabled: false
Boxcar width: 0
XAxis mode: Wavelengths
Number of Pixels in Spectrum: 2048
>>>>>Begin Spectral Data<<<<<
223.165	-9.94
223.4	-9.94
223.635	-9.94
223.869	-17.94
224.104	-14.94
224.338	-11.94
224.573	-32.94
224.808	-8.94
225.042	-1.94
225.277	-12.94
225.511	-5.94
225.746	0.06
225.98	2.06
226.215	17.06
226.449	28.06
226.683	24.06
226.918	8.06
227.152	38.06
227.387	33.06
227.621	30.06
227.856	40.06
228.09	50.06
228.324	46.06
228.559	54.06
228.793	59.06
229.027	99.06
229.262	97.06
229.496	104.06
229.73	130.06
229.964	140.06
230.199	119.06
230.433	108.06
230.667	114.06
230.901	112.06
231.136	115.06
231.37	114.06
231.604	100.06
231.838	110.06
232.072	120.06
232.306	118.06
232.541	111.06
232.775	103.06
233.009	102.06
233.243	112.06
233.477	112.06
233.711	119.06
233.945	105.06
234.179	105.06
234.413	136.06
234.647	122.06
234.881	122.06
235.115	113.06
235.349	120.06
235.583	121.06
235.817	120.06
236.051	139.06
236.285	127.06
236.519	120.06
236.753	124.06
236.987	112.06
237.221	175.06
237.455	208.06
237.689	158.06
237.922	147.06
238.156	129.06
238.39	128.06
238.624	129.06
238.858	119.06
239.091	121.06
239.325	122.06
239.559	113.06
239.793	118.06
240.027	120.06
240.26	129.06
240.494	140.06
240.728	142.06
240.961	146.06
241.195	148.06
241.429	142.06
241.662	136.06
241.896	131.06
242.13	138.06
242.363	142.06
242.597	131.06
242.83	144.06
243.064	132.06
243.298	137.06
243.531	128.06
243.765	139.06
243.998	140.06
244.232	148.06
244.465	152.06
244.699	137.06
244.932	147.06
245.166	126.06
245.399	144.06
245.633	134.06
245.866	135.06
246.099	124.06
246.333	137.06
246.566	151.06
246.8	145.06
247.033	151.06
247.266	158.06
247.5	166.06
247.733	155.06
247.966	171.06
248.2	157.06
248.433	171.06
248.666	187.06
248.899	171.06
249.133	176.06
249.366	198.06
249.599	187.06
249.832	192.06
250.066	178.06
250.299	174.06
250.532	195.06
250.765	194.06
250.998	211.06
251.231	218.06
251.465	215.06
251.698	193.06
251.931	200.06
252.164	180.06
252.397	209.06
252.63	209.06
252.863	179.06
253.096	202.06
253.329	216.06
253.562	199.06
253.795	226.06
254.028	211.06
254.261	220.06
254.494	220.06
254.727	235.06
254.96	263.06
255.193	267.06
255.426	240.06
255.659	224.06
255.892	222.06
256.124	240.06
256.357	229.06
256.59	226.06
256.823	201.06
257.056	199.06
257.289	218.06
257.521	197.06
257.754	202.06
257.987	222.06
258.22	204.06
258.452	201.06
258.685	199.06
258.918	223.06
259.151	225.06
259.383	222.06
259.616	215.06
259.849	238.06
260.081	226.06
260.314	261.06
260.547	262.06
260.779	233.06
261.012	226.06
261.244	227.06
261.477	216.06
261.71	211.06
261.942	209.06
262.175	220.06
262.407	225.06
262.64	215.06
262.872	190.06
263.105	215.06
263.337	218.06
263.57	202.06
263.802	203.06
264.035	219.06
264.267	211.06
264.499	213.06
264.732	213.06
264.964	207.06
265.197	217.06
265.429	223.06
265.661	225.06
265.894	215.06
266.126	235.06
266.358	223.06
266.591	239.06
266.823	240.06
267.055	230.06
267.287	223.06
267.52	233.06
267.752	234.06
267.984	245.06
268.216	243.06
268.448	251.06
268.681	246.06
268.913	254.06
269.145	276.06
269.377	277.06
269.609	275.06
269.841	286.06
270.073	286.06
270.306	293.06
270.538	323.06
270.77	299.06
271.002	315.06
271.234	312.06
271.466	306.06
271.698	308.06
271.93	317.06
272.162	330.06
272.394	324.06
272.626	293.06
272.858	302.06
273.09	286.06
273.322	301.06
273.553	268.06
273.785	264.06
274.017	261.06
274.249	276.06
274.481	276.06
274.713	290.06
274.945	282.06
275.176	287.06
275.408	273.06
275.64	281.06
275.872	268.06
276.104	270.06
276.335	264.06
276.567	293.06
276.799	292.06
277.031	336.06
277.262	324.06
277.494	325.06
277.726	313.06
277.957	287.06
278.189	295.06
278.421	287.06
278.652	281.06
278.884	269.06
279.115	294.06
279.347	288.06
279.579	284.06
279.81	277.06
280.042	283.06
280.273	273.06
280.505	293.06
280.736	297.06
280.968	285.06
281.199	294.06
281.431	281.06
281.662	278.06
281.894	290.06
282.125	307.06
282.356	310.06
282.588	321.06
282.819	297.06
283.051	307.06
283.282	294.06
283.513	320.06
283.745	308.06
283.976	298.06
284.207	300.06
284.439	302.06
284.67	307.06
284.901	306.06
285.132	290.06
285.364	285.06
285.595	299.06
285.826	298.06
286.057	312.06
286.288	292.06
286.52	293.06
286.751	307.06
286.982	294.06
287.213	296.06
287.444	299.06
287.675	312.06
287.906	322.06
288.138	325.06
288.369	339.06
288.6	331.06
288.831	334.06
289.062	325.06
289.293	331.06
289.524	317.06
289.755	305.06
289.986	315.06
290.217	321.06
290.448	321.06
290.679	321.06
290.91	310.06
291.141	297.06
291.371	329.06
291.602	320.06
291.833	313.06
292.064	310.06
292.295	316.06
292.526	306.06
292.757	311.06
292.987	318.06
293.218	296.06
293.449	318.06
293.68	322.06
293.91	307.06
294.141	308.06
294.372	306.06
294.603	301.06
294.833	318.06
295.064	308.06
295.295	314.06
295.525	315.06
295.756	342.06
295.987	326.06
296.217	336.06
296.448	360.06
296.679	338.06
296.909	322.06
297.14	320.06
297.37	327.06
297.601	325.06
297.831	329.06
298.062	329.06
298.292	319.06
298.523	342.06
298.753	332.06
298.984	341.06
299.214	338.06
299.445	329.06
299.675	339.06
299.905	350.06
300.136	329.06
300.366	334.06
300.597	344.06
300.827	347.06
301.057	372.06
301.288	346.06
301.518	342.06
301.748	359.06
301.979	367.06
302.209	349.06
302.439	370.06
302.669	352.06
302.9	363.06
303.13	362.06
303.36	358.06
303.59	363.06
303.82	361.06
304.051	384.06
304.281	374.06
304.511	359.06
304.741	374.06
304.971	352.06
305.201	359.06
305.431	342.06
305.661	359.06
305.891	368.06
306.121	346.06
306.352	357.06
306.582	372.06
306.812	359.06
307.042	380.06
307.272	352.06
307.502	354.06
307.731	361.06
307.961	353.06
308.191	354.06
308.421	353.06
308.651	378.06
308.881	360.06
309.111	372.06
309.341	360.06
309.571	377.06
309.8	391.06
310.03	397.06
310.26	391.06
310.49	404.06
310.72	388.06
310.949	392.06
311.179	410.06
311.409	411.06
311.639	389.06
311.868	392.06
312.098	398.06
312.328	405.06
312.557	406.06
312.787	418.06
313.017	432.06
313.246	379.06
313.476	415.06
313.706	408.06
313.935	404.06
314.165	404.06
314.394	399.06
314.624	426.06
314.853	392.06
315.083	393.06
315.312	394.06
315.542	393.06
315.771	401.06
316.001	389.06
316.23	404.06
316.46	384.06
316.689	384.06
316.919	424.06
317.148	404.06
317.377	411.06
317.607	414.06
317.836	402.06
318.065	414.06
318.295	416.06
318.524	400.06
318.753	388.06
318.983	416.06
319.212	400.06
319.441	384.06
319.67	406.06
319.9	386.06
320.129	389.06
320.358	390.06
320.587	405.06
320.816	427.06
321.046	417.06
321.275	410.06
321.504	422.06
321.733	412.06
321.962	422.06
322.191	455.06
322.42	436.06
322.649	447.06
322.878	470.06
323.108	472.06
323.337	481.06
323.566	491.06
323.795	499.06
324.024	555.06
324.253	650.06
324.482	879.06
324.71	1370.06
324.939	1920.06
325.168	1608.06
325.397	882.06
325.626	603.06
325.855	528.06
326.084	532.06
326.313	498.06
326.542	489.06
326.77	542.06
326.999	628.06
327.228	806.06
327.457	1202.06
327.686	1400.06
327.914	952.06
328.143	666.06
328.372	564.06
328.6	554.06
328.829	534.06
329.058	546.06
329.287	539.06
329.515	514.06
329.744	512.06
329.972	503.06
330.201	508.06
330.43	548.06
330.658	551.06
330.887	569.06
331.115	547.06
331.344	504.06
331.572	516.06
331.801	490.06
332.03	520.06
332.258	479.06
332.486	489.06
332.715	507.06
332.943	473.06
333.172	476.06
333.4	491.06
333.629	492.06
333.857	527.06
334.085	521.06
334.314	524.06
334.542	543.06
334.771	564.06
334.999	519.06
335.227	478.06
335.455	485.06
335.684	487.06
335.912	475.06
336.14	458.06
336.369	491.06
336.597	490.06
336.825	479.06
337.053	463.06
337.281	473.06
337.51	471.06
337.738	476.06
337.966	479.06
338.194	449.06
338.422	453.06
338.65	452.06
338.878	440.06
339.106	463.06
339.334	425.06
339.562	444.06
339.79	447.06
340.018	446.06
340.246	452.06
340.474	458.06
340.702	443.06
340.93	448.06
341.158	437.06
341.386	451.06
341.614	449.06
341.842	440.06
342.07	440.06
342.298	460.06
342.526	440.06
342.754	419.06
342.981	430.06
343.209	425.06
343.437	424.06
343.665	445.06
343.893	473.06
344.12	459.06
344.348	476.06
344.576	461.06
344.804	447.06
345.031	432.06
345.259	461.06
345.487	435.06
345.714	445.06
345.942	438.06
346.17	415.06
346.397	420.06
346.625	431.06
346.853	424.06
347.08	418.06
347.308	430.06
347.535	422.06
347.763	410.06
347.99	414.06
348.218	406.06
348.445	428.06
348.673	437.06
348.9	427.06
349.128	428.06
349.355	431.06
349.583	424.06
349.81	431.06
350.037	407.06
350.265	426.06
350.492	404.06
350.72	403.06
350.947	407.06
351.174	416.06
351.402	434.06
351.629	424.06
351.856	410.06
352.083	410.06
352.311	437.06
352.538	430.06
352.765	431.06
352.992	441.06
353.22	427.06
353.447	417.06
353.674	404.06
353.901	422.06
354.128	412.06
354.355	403.06
354.583	404.06
354.81	404.06
355.037	416.06
355.264	398.06
355.491	386.06
355.718	390.06
355.945	380.06
356.172	385.06
356.399	389.06
356.626	400.06
356.853	405.06
357.08	397.06
357.307	410.06
357.534	389.06
357.761	387.06
357.988	379.06
358.215	390.06
358.441	382.06
358.668	397.06
358.895	420.06
359.122	400.06
359.349	403.06
359.576	428.06
359.802	425.06
360.029	441.06
360.256	444.06
360.483	435.06
360.709	419.06
360.936	418.06
361.163	407.06
361.39	400.06
361.616	429.06
361.843	402.06
362.07	416.06
362.296	412.06
362.523	401.06
362.749	410.06
362.976	367.06
363.203	409.06
363.429	379.06
363.656	392.06
363.882	382.06
364.109	404.06
364.335	382.06
364.562	374.06
364.788	402.06
365.015	398.06
365.241	392.06
365.468	419.06
365.694	399.06
365.92	390.06
366.147	402.06
366.373	401.06
366.599	379.06
366.826	374.06
367.052	387.06
367.278	368.06
367.505	376.06
367.731	385.06
367.957	391.06
368.184	381.06
368.41	395.06
368.636	400.06
368.862	411.06
369.089	407.06
369.315	372.06
369.541	393.06
369.767	408.06
369.993	402.06
370.219	416.06
370.445	402.06
370.672	396.06
370.898	402.06
371.124	397.06
371.35	405.06
371.576	406.06
371.802	406.06
372.028	388.06
372.254	397.06
372.48	396.06
372.706	402.06
372.932	408.06
373.158	398.06
373.384	412.06
373.61	420.06
373.835	400.06
374.061	409.06
374.287	413.06
374.513	423.06
374.739	426.06
374.965	431.06
375.191	382.06
375.416	405.06
375.642	417.06
375.868	390.06
376.094	408.06
376.319	386.06
376.545	391.06
376.771	398.06
376.997	396.06
377.222	389.06
377.448	366.06
377.674	402.06
377.899	388.06
378.125	380.06
378.35	382.06
378.576	372.06
378.802	389.06
379.027	386.06
379.253	400.06
379.478	382.06
379.704	394.06
379.929	401.06
380.155	387.06
380.38	392.06
380.606	390.06
380.831	367.06
381.057	392.06
381.282	391.06
381.507	391.06
381.733	409.06
381.958	390.06
382.184	387.06
382.409	378.06
382.634	399.06
382.86	400.06
383.085	417.06
383.31	419.06
383.535	406.06
383.761	414.06
383.986	435.06
384.211	425.06
384.436	419.06
384.662	421.06
384.887	435.06
385.112	414.06
385.337	418.06
385.562	439.06
385.787	438.06
386.013	433.06
386.238	447.06
386.463	448.06
386.688	428.06
386.913	433.06
387.138	438.06
387.363	440.06
387.588	424.06
387.813	427.06
388.038	446.06
388.263	446.06
388.488	440.06
388.713	445.06
388.938	454.06
389.163	455.06
389.387	435.06
389.612	438.06
389.837	416.06
390.062	437.06
390.287	428.06
390.512	446.06
390.736	422.06
390.961	436.06
391.186	414.06
391.411	453.06
391.636	433.06
391.86	448.06
392.085	462.06
392.31	432.06
392.534	448.06
392.759	446.06
392.984	456.06
393.208	435.06
393.433	450.06
393.658	429.06
393.882	435.06
394.107	427.06
394.331	434.06
394.556	429.06
394.78	422.06
395.005	444.06
395.229	420.06
395.454	446.06
395.678	472.06
395.903	469.06
396.127	479.06
396.352	476.06
396.576	460.06
396.801	451.06
397.025	442.06
397.249	460.06
397.474	462.06
397.698	463.06
397.922	479.06
398.147	472.06
398.371	484.06
398.595	476.06
398.82	458.06
399.044	489.06
399.268	516.06
399.492	560.06
399.717	595.06
399.941	600.06
400.165	628.06
400.389	631.06
400.613	580.06
400.837	500.06
401.062	494.06
401.286	499.06
401.51	512.06
401.734	496.06
401.958	500.06
402.182	492.06
402.406	516.06
402.63	496.06
402.854	504.06
403.078	509.06
403.302	505.06
403.526	526.06
403.75	518.06
403.974	502.06
404.198	512.06
404.422	521.06
404.645	528.06
404.869	528.06
405.093	543.06
405.317	592.06
405.541	607.06
405.765	573.06
405.988	548.06
406.212	532.06
406.436	565.06
406.66	561.06
406.883	559.06
407.107	586.06
407.331	608.06
407.555	642.06
407.778	678.06
408.002	616.06
408.226	583.06
408.449	575.06
408.673	547.06
408.896	587.06
409.12	625.06
409.344	590.06
409.567	530.06
409.791	526.06
410.014	521.06
410.238	506.06
410.461	523.06
410.685	498.06
410.908	536.06
411.132	563.06
411.355	579.06
411.578	560.06
411.802	505.06
412.025	491.06
412.249	522.06
412.472	530.06
412.695	558.06
412.919	549.06
413.142	501.06
413.365	503.06
413.589	479.06
413.812	492.06
414.035	482.06
414.258	471.06
414.482	462.06
414.705	481.06
414.928	481.06
415.151	498.06
415.374	464.06
415.597	457.06
415.821	461.06
416.044	473.06
416.267	482.06
416.49	486.06
416.713	468.06
416.936	485.06
417.159	468.06
417.382	460.06
417.605	499.06
417.828	493.06
418.051	498.06
418.274	486.06
418.497	471.06
418.72	468.06
418.943	486.06
419.166	500.06
419.389	514.06
419.611	514.06
419.834	509.06
420.057	510.06
420.28	510.06
420.503	479.06
420.726	505.06
420.948	508.06
421.171	555.06
421.394	545.06
421.617	507.06
421.839	494.06
422.062	524.06
422.285	491.06
422.507	560.06
422.73	601.06
422.953	607.06
423.175	523.06
423.398	521.06
423.621	517.06
423.843	522.06
424.066	520.06
424.288	539.06
424.511	546.06
424.733	584.06
424.956	650.06
425.178	630.06
425.401	609.06
425.623	638.06
425.846	569.06
426.068	532.06
426.291	518.06
426.513	521.06
426.735	532.06
426.958	572.06
427.18	628.06
427.402	754.06
427.625	807.06
427.847	690.06
428.069	594.06
428.292	539.06
428.514	523.06
428.736	482.06
428.958	484.06
429.181	472.06
429.403	468.06
429.625	509.06
429.847	513.06
430.069	558.06
430.292	567.06
430.514	479.06
430.736	467.06
430.958	452.06
431.18	458.06
431.402	457.06
431.624	437.06
431.846	442.06
432.068	446.06
432.29	460.06
432.512	456.06
432.734	475.06
432.956	440.06
433.178	463.06
433.4	452.06
433.622	453.06
433.844	465.06
434.066	450.06
434.287	457.06
434.509	498.06
434.731	468.06
434.953	460.06
435.175	488.06
435.397	500.06
435.618	508.06
435.84	552.06
436.062	618.06
436.284	677.06
436.505	571.06
436.727	521.06
436.949	495.06
437.17	459.06
437.392	466.06
437.614	474.06
437.835	512.06
438.057	582.06
438.278	654.06
438.5	679.06
438.721	747.06
438.943	709.06
439.165	553.06
439.386	544.06
439.608	531.06
439.829	519.06
440.05	542.06
440.272	596.06
440.493	547.06
440.715	502.06
440.936	495.06
441.158	500.06
441.379	478.06
441.6	494.06
441.822	500.06
442.043	543.06
442.264	615.06
442.486	646.06
442.707	566.06
442.928	543.06
443.149	530.06
443.371	538.06
443.592	578.06
443.813	675.06
444.034	707.06
444.255	612.06
444.476	554.06
444.698	538.06
444.919	530.06
445.14	658.06
445.361	585.06
445.582	547.06
445.803	598.06
446.024	688.06
446.245	675.06
446.466	614.06
446.687	560.06
446.908	519.06
447.129	482.06
447.35	461.06
447.571	456.06
447.792	461.06
448.013	474.06
448.234	477.06
448.455	539.06
448.675	627.06
448.896	714.06
449.117	609.06
449.338	561.06
449.559	683.06
449.779	759.06
450	609.06
450.221	516.06
450.442	467.06
450.662	458.06
450.883	467.06
451.104	454.06
451.324	476.06
451.545	433.06
451.766	438.06
451.986	417.06
452.207	423.06
452.428	428.06
452.648	403.06
452.869	427.06
453.089	433.06
453.31	416.06
453.53	426.06
453.751	392.06
453.971	419.06
454.192	421.06
454.412	432.06
454.633	424.06
454.853	415.06
455.073	420.06
455.294	433.06
455.514	486.06
455.734	475.06
455.955	420.06
456.175	420.06
456.395	406.06
456.616	398.06
456.836	401.06
457.056	388.06
457.276	391.06
457.497	382.06
457.717	383.06
457.937	391.06
458.157	428.06
458.377	419.06
458.598	436.06
458.818	470.06
459.038	547.06
459.258	566.06
459.478	458.06
459.698	441.06
459.918	463.06
460.138	441.06
460.358	425.06
460.578	469.06
460.798	460.06
461.018	467.06
461.238	447.06
461.458	467.06
461.678	482.06
461.898	457.06
462.118	459.06
462.338	470.06
462.558	472.06
462.777	485.06
462.997	493.06
463.217	513.06
463.437	531.06
463.657	505.06
463.876	500.06
464.096	514.06
464.316	499.06
464.536	494.06
464.755	505.06
464.975	500.06
465.195	496.06
465.414	519.06
465.634	495.06
465.854	460.06
466.073	467.06
466.293	454.06
466.512	430.06
466.732	430.06
466.951	432.06
467.171	433.06
467.391	418.06
467.61	438.06
467.829	439.06
468.049	428.06
468.268	430.06
468.488	415.06
468.707	409.06
468.927	423.06
469.146	412.06
469.365	426.06
469.585	408.06
469.804	432.06
470.023	448.06
470.243	428.06
470.462	427.06
470.681	442.06
470.901	420.06
471.12	395.06
471.339	433.06
471.558	445.06
471.777	411.06
471.997	423.06
472.216	421.06
472.435	449.06
472.654	455.06
472.873	434.06
473.092	417.06
473.311	416.06
473.53	433.06
473.749	454.06
473.968	460.06
474.187	547.06
474.406	561.06
474.625	502.06
474.844	448.06
475.063	428.06
475.282	428.06
475.501	435.06
475.72	429.06
475.939	426.06
476.158	432.06
476.377	446.06
476.596	438.06
476.814	441.06
477.033	448.06
477.252	448.06
477.471	451.06
477.69	468.06
477.908	462.06
478.127	474.06
478.346	488.06
478.564	481.06
478.783	485.06
479.002	493.06
479.22	494.06
479.439	498.06
479.658	512.06
479.876	517.06
480.095	522.06
480.313	532.06
480.532	543.06
480.751	543.06
480.969	522.06
481.188	583.06
481.406	581.06
481.624	535.06
481.843	516.06
482.061	527.06
482.28	506.06
482.498	498.06
482.717	505.06
482.935	489.06
483.153	490.06
483.372	499.06
483.59	522.06
483.808	508.06
484.027	488.06
484.245	501.06
484.463	487.06
484.681	501.06
484.9	502.06
485.118	494.06
485.336	503.06
485.554	497.06
485.772	510.06
485.99	488.06
486.209	498.06
486.427	514.06
486.645	523.06
486.863	550.06
487.081	553.06
487.299	526.06
487.517	538.06
487.735	522.06
487.953	522.06
488.171	523.06
488.389	524.06
488.607	534.06
488.825	516.06
489.043	510.06
489.261	519.06
489.479	545.06
489.696	540.06
489.914	513.06
490.132	528.06
490.35	564.06
490.568	529.06
490.786	544.06
491.003	550.06
491.221	566.06
491.439	563.06
491.657	585.06
491.874	577.06
492.092	602.06
492.31	593.06
492.527	603.06
492.745	596.06
492.963	592.06
493.18	604.06
493.398	612.06
493.615	598.06
493.833	627.06
494.05	630.06
494.268	608.06
494.485	619.06
494.703	614.06
494.92	601.06
495.138	622.06
495.355	615.06
495.573	610.06
495.79	620.06
496.008	628.06
496.225	625.06
496.442	622.06
496.66	623.06
496.877	640.06
497.094	631.06
497.312	646.06
497.529	642.06
497.746	655.06
497.963	660.06
498.181	677.06
498.398	710.06
498.615	712.06
498.832	715.06
499.049	736.06
499.267	798.06
499.484	806.06
499.701	818.06
499.918	855.06
500.135	898.06
500.352	952.06
500.569	983.06
500.786	968.06
501.003	959.06
501.22	910.06
501.437	892.06
501.654	818.06
501.871	807.06
502.088	788.06
