Data from 1977.PennyLincolnUp.Lamp.En5.5.200Scan.071719.P1_HRD10591_16-04-52-862.txt Node
Date: Thu Jul 18 16:04:52 EDT 2019
User: cochatt
Spectrometer: HR+D1059
Trigger mode: 1
Integration Time (sec): 1.000000E-1
Scans to average: 1
Electric dark correction enabled: true
Nonlinearity correction enabled: false
Boxcar width: 0
XAxis mode: Wavelengths
Number of Pixels in Spectrum: 2048
>>>>>Begin Spectral Data<<<<<
223.165	-13.5
223.4	-13.5
223.635	-13.5
223.869	-20.5
224.104	-9.5
224.338	-12.5
224.573	-14.5
224.808	-31.5
225.042	-2.5
225.277	-2.5
225.511	-8.5
225.746	18.5
225.98	6.5
226.215	-0.5
226.449	23.5
226.683	19.5
226.918	31.5
227.152	16.5
227.387	23.5
227.621	33.5
227.856	41.5
228.09	51.5
228.324	47.5
228.559	43.5
228.793	71.5
229.027	96.5
229.262	83.5
229.496	71.5
229.73	94.5
229.964	109.5
230.199	99.5
230.433	97.5
230.667	103.5
230.901	99.5
231.136	108.5
231.37	91.5
231.604	114.5
231.838	108.5
232.072	99.5
232.306	108.5
232.541	101.5
232.775	107.5
233.009	113.5
233.243	94.5
233.477	99.5
233.711	111.5
233.945	105.5
234.179	105.5
234.413	111.5
234.647	103.5
234.881	100.5
235.115	107.5
235.349	121.5
235.583	113.5
235.817	117.5
236.051	111.5
236.285	111.5
236.519	117.5
236.753	101.5
236.987	117.5
237.221	134.5
237.455	155.5
237.689	155.5
237.922	123.5
238.156	122.5
238.39	116.5
238.624	125.5
238.858	114.5
239.091	113.5
239.325	117.5
239.559	118.5
239.793	129.5
240.027	119.5
240.26	126.5
240.494	144.5
240.728	119.5
240.961	126.5
241.195	114.5
241.429	124.5
241.662	131.5
241.896	128.5
242.13	136.5
242.363	127.5
242.597	124.5
242.83	128.5
243.064	130.5
243.298	136.5
243.531	110.5
243.765	124.5
243.998	121.5
244.232	142.5
244.465	142.5
244.699	123.5
244.932	127.5
245.166	140.5
245.399	132.5
245.633	143.5
245.866	139.5
246.099	124.5
246.333	137.5
246.566	141.5
246.8	139.5
247.033	146.5
247.266	145.5
247.5	151.5
247.733	144.5
247.966	143.5
248.2	161.5
248.433	138.5
248.666	159.5
248.899	150.5
249.133	178.5
249.366	165.5
249.599	161.5
249.832	178.5
250.066	149.5
250.299	151.5
250.532	174.5
250.765	181.5
250.998	174.5
251.231	183.5
251.465	174.5
251.698	180.5
251.931	164.5
252.164	167.5
252.397	172.5
252.63	169.5
252.863	172.5
253.096	195.5
253.329	189.5
253.562	180.5
253.795	181.5
254.028	159.5
254.261	194.5
254.494	181.5
254.727	184.5
254.96	205.5
255.193	202.5
255.426	179.5
255.659	185.5
255.892	186.5
256.124	182.5
256.357	180.5
256.59	206.5
256.823	173.5
257.056	182.5
257.289	185.5
257.521	188.5
257.754	170.5
257.987	174.5
258.22	177.5
258.452	197.5
258.685	187.5
258.918	192.5
259.151	179.5
259.383	190.5
259.616	186.5
259.849	181.5
260.081	201.5
260.314	217.5
260.547	205.5
260.779	211.5
261.012	202.5
261.244	202.5
261.477	197.5
261.71	196.5
261.942	214.5
262.175	191.5
262.407	188.5
262.64	195.5
262.872	184.5
263.105	199.5
263.337	202.5
263.57	198.5
263.802	188.5
264.035	192.5
264.267	193.5
264.499	197.5
264.732	182.5
264.964	200.5
265.197	205.5
265.429	206.5
265.661	199.5
265.894	193.5
266.126	203.5
266.358	193.5
266.591	218.5
266.823	203.5
267.055	202.5
267.287	211.5
267.52	212.5
267.752	200.5
267.984	205.5
268.216	214.5
268.448	221.5
268.681	218.5
268.913	218.5
269.145	224.5
269.377	253.5
269.609	245.5
269.841	233.5
270.073	224.5
270.306	229.5
270.538	252.5
270.77	254.5
271.002	251.5
271.234	258.5
271.466	265.5
271.698	250.5
271.93	261.5
272.162	256.5
272.394	259.5
272.626	259.5
272.858	273.5
273.09	255.5
273.322	244.5
273.553	243.5
273.785	246.5
274.017	239.5
274.249	241.5
274.481	233.5
274.713	258.5
274.945	251.5
275.176	247.5
275.408	245.5
275.64	225.5
275.872	223.5
276.104	219.5
276.335	227.5
276.567	259.5
276.799	263.5
277.031	268.5
277.262	259.5
277.494	272.5
277.726	267.5
277.957	257.5
278.189	236.5
278.421	250.5
278.652	254.5
278.884	259.5
279.115	253.5
279.347	251.5
279.579	271.5
279.81	249.5
280.042	250.5
280.273	263.5
280.505	253.5
280.736	261.5
280.968	241.5
281.199	247.5
281.431	270.5
281.662	265.5
281.894	258.5
282.125	253.5
282.356	258.5
282.588	260.5
282.819	244.5
283.051	268.5
283.282	263.5
283.513	256.5
283.745	251.5
283.976	275.5
284.207	260.5
284.439	272.5
284.67	255.5
284.901	262.5
285.132	255.5
285.364	268.5
285.595	260.5
285.826	267.5
286.057	253.5
286.288	275.5
286.52	261.5
286.751	246.5
286.982	270.5
287.213	258.5
287.444	265.5
287.675	277.5
287.906	287.5
288.138	287.5
288.369	278.5
288.6	285.5
288.831	272.5
289.062	286.5
289.293	294.5
289.524	282.5
289.755	267.5
289.986	279.5
290.217	281.5
290.448	271.5
290.679	299.5
290.91	294.5
291.141	283.5
291.371	285.5
291.602	274.5
291.833	284.5
292.064	289.5
292.295	277.5
292.526	277.5
292.757	290.5
292.987	268.5
293.218	283.5
293.449	307.5
293.68	277.5
293.91	280.5
294.141	289.5
294.372	272.5
294.603	287.5
294.833	295.5
295.064	274.5
295.295	285.5
295.525	297.5
295.756	299.5
295.987	278.5
296.217	291.5
296.448	315.5
296.679	308.5
296.909	275.5
297.14	297.5
297.37	284.5
297.601	298.5
297.831	286.5
298.062	303.5
298.292	294.5
298.523	298.5
298.753	294.5
298.984	309.5
299.214	300.5
299.445	309.5
299.675	306.5
299.905	289.5
300.136	298.5
300.366	310.5
300.597	309.5
300.827	301.5
301.057	319.5
301.288	313.5
301.518	313.5
301.748	294.5
301.979	307.5
302.209	321.5
302.439	313.5
302.669	315.5
302.9	318.5
303.13	299.5
303.36	299.5
303.59	292.5
303.82	317.5
304.051	324.5
304.281	342.5
304.511	329.5
304.741	309.5
304.971	298.5
305.201	315.5
305.431	317.5
305.661	317.5
305.891	300.5
306.121	315.5
306.352	297.5
306.582	314.5
306.812	307.5
307.042	327.5
307.272	323.5
307.502	318.5
307.731	293.5
307.961	310.5
308.191	319.5
308.421	307.5
308.651	300.5
308.881	318.5
309.111	308.5
309.341	323.5
309.571	331.5
309.8	344.5
310.03	335.5
310.26	332.5
310.49	332.5
310.72	331.5
310.949	335.5
311.179	335.5
311.409	329.5
311.639	321.5
311.868	343.5
312.098	335.5
312.328	330.5
312.557	333.5
312.787	356.5
313.017	369.5
313.246	356.5
313.476	343.5
313.706	334.5
313.935	337.5
314.165	369.5
314.394	343.5
314.624	353.5
314.853	336.5
315.083	327.5
315.312	343.5
315.542	348.5
315.771	345.5
316.001	348.5
316.23	331.5
316.46	327.5
316.689	333.5
316.919	350.5
317.148	342.5
317.377	331.5
317.607	365.5
317.836	340.5
318.065	355.5
318.295	354.5
318.524	362.5
318.753	365.5
318.983	353.5
319.212	340.5
319.441	332.5
319.67	360.5
319.9	348.5
320.129	357.5
320.358	345.5
320.587	351.5
320.816	348.5
321.046	359.5
321.275	369.5
321.504	357.5
321.733	371.5
321.962	365.5
322.191	364.5
322.42	369.5
322.649	369.5
322.878	372.5
323.108	383.5
323.337	397.5
323.566	393.5
323.795	410.5
324.024	434.5
324.253	451.5
324.482	618.5
324.71	840.5
324.939	1110.5
325.168	943.5
325.397	549.5
325.626	422.5
325.855	406.5
326.084	413.5
326.313	396.5
326.542	394.5
326.77	410.5
326.999	459.5
327.228	552.5
327.457	769.5
327.686	880.5
327.914	605.5
328.143	513.5
328.372	445.5
328.6	413.5
328.829	403.5
329.058	415.5
329.287	411.5
329.515	406.5
329.744	413.5
329.972	389.5
330.201	399.5
330.43	426.5
330.658	413.5
330.887	416.5
331.115	417.5
331.344	407.5
331.572	406.5
331.801	415.5
332.03	386.5
332.258	397.5
332.486	401.5
332.715	400.5
332.943	405.5
333.172	426.5
333.4	437.5
333.629	453.5
333.857	423.5
334.085	427.5
334.314	428.5
334.542	435.5
334.771	450.5
334.999	422.5
335.227	435.5
335.455	422.5
335.684	413.5
335.912	419.5
336.14	429.5
336.369	410.5
336.597	427.5
336.825	418.5
337.053	407.5
337.281	417.5
337.51	379.5
337.738	402.5
337.966	386.5
338.194	397.5
338.422	399.5
338.65	389.5
338.878	394.5
339.106	385.5
339.334	399.5
339.562	382.5
339.79	389.5
340.018	396.5
340.246	385.5
340.474	387.5
340.702	378.5
340.93	387.5
341.158	401.5
341.386	385.5
341.614	386.5
341.842	408.5
342.07	378.5
342.298	383.5
342.526	378.5
342.754	381.5
342.981	383.5
343.209	403.5
343.437	403.5
343.665	422.5
343.893	397.5
344.12	392.5
344.348	413.5
344.576	383.5
344.804	414.5
345.031	406.5
345.259	376.5
345.487	393.5
345.714	382.5
345.942	354.5
346.17	381.5
346.397	384.5
346.625	373.5
346.853	376.5
347.08	363.5
347.308	367.5
347.535	382.5
347.763	375.5
347.99	365.5
348.218	358.5
348.445	386.5
348.673	366.5
348.9	360.5
349.128	359.5
349.355	357.5
349.583	361.5
349.81	383.5
350.037	355.5
350.265	367.5
350.492	374.5
350.72	377.5
350.947	358.5
351.174	366.5
351.402	378.5
351.629	375.5
351.856	359.5
352.083	381.5
352.311	368.5
352.538	369.5
352.765	367.5
352.992	337.5
353.22	363.5
353.447	383.5
353.674	359.5
353.901	350.5
354.128	352.5
354.355	346.5
354.583	360.5
354.81	364.5
355.037	354.5
355.264	380.5
355.491	357.5
355.718	346.5
355.945	356.5
356.172	362.5
356.399	359.5
356.626	350.5
356.853	369.5
357.08	343.5
357.307	348.5
357.534	343.5
357.761	348.5
357.988	364.5
358.215	338.5
358.441	358.5
358.668	345.5
358.895	360.5
359.122	349.5
359.349	366.5
359.576	371.5
359.802	372.5
360.029	359.5
360.256	363.5
360.483	377.5
360.709	358.5
360.936	350.5
361.163	396.5
361.39	362.5
361.616	356.5
361.843	352.5
362.07	345.5
362.296	353.5
362.523	354.5
362.749	363.5
362.976	350.5
363.203	349.5
363.429	360.5
363.656	337.5
363.882	343.5
364.109	351.5
364.335	333.5
364.562	333.5
364.788	343.5
365.015	348.5
365.241	351.5
365.468	347.5
365.694	357.5
365.92	354.5
366.147	342.5
366.373	369.5
366.599	341.5
366.826	350.5
367.052	344.5
367.278	358.5
367.505	359.5
367.731	361.5
367.957	375.5
368.184	349.5
368.41	360.5
368.636	362.5
368.862	360.5
369.089	347.5
369.315	352.5
369.541	341.5
369.767	351.5
369.993	352.5
370.219	349.5
370.445	361.5
370.672	340.5
370.898	366.5
371.124	358.5
371.35	360.5
371.576	344.5
371.802	345.5
372.028	375.5
372.254	367.5
372.48	374.5
372.706	343.5
372.932	375.5
373.158	352.5
373.384	359.5
373.61	359.5
373.835	357.5
374.061	346.5
374.287	365.5
374.513	364.5
374.739	370.5
374.965	361.5
375.191	368.5
375.416	379.5
375.642	367.5
375.868	363.5
376.094	363.5
376.319	363.5
376.545	371.5
376.771	363.5
376.997	352.5
377.222	369.5
377.448	354.5
377.674	350.5
377.899	340.5
378.125	345.5
378.35	357.5
378.576	358.5
378.802	373.5
379.027	353.5
379.253	354.5
379.478	347.5
379.704	361.5
379.929	362.5
380.155	354.5
380.38	356.5
380.606	351.5
380.831	345.5
381.057	359.5
381.282	357.5
381.507	377.5
381.733	367.5
381.958	348.5
382.184	365.5
382.409	369.5
382.634	371.5
382.86	382.5
383.085	361.5
383.31	393.5
383.535	393.5
383.761	383.5
383.986	398.5
384.211	389.5
384.436	391.5
384.662	387.5
384.887	400.5
385.112	397.5
385.337	397.5
385.562	408.5
385.787	395.5
386.013	410.5
386.238	395.5
386.463	411.5
386.688	418.5
386.913	385.5
387.138	403.5
387.363	410.5
387.588	402.5
387.813	416.5
388.038	398.5
388.263	400.5
388.488	422.5
388.713	408.5
388.938	409.5
389.163	382.5
389.387	393.5
389.612	397.5
389.837	385.5
390.062	379.5
390.287	404.5
390.512	397.5
390.736	382.5
390.961	395.5
391.186	405.5
391.411	404.5
391.636	407.5
391.86	401.5
392.085	423.5
392.31	407.5
392.534	413.5
392.759	404.5
392.984	409.5
393.208	389.5
393.433	412.5
393.658	422.5
393.882	420.5
394.107	399.5
394.331	402.5
394.556	373.5
394.78	403.5
395.005	393.5
395.229	425.5
395.454	403.5
395.678	421.5
395.903	422.5
396.127	428.5
396.352	416.5
396.576	414.5
396.801	406.5
397.025	403.5
397.249	399.5
397.474	392.5
397.698	410.5
397.922	428.5
398.147	425.5
398.371	426.5
398.595	439.5
398.82	449.5
399.044	460.5
399.268	494.5
399.492	514.5
399.717	533.5
399.941	561.5
400.165	555.5
400.389	537.5
400.613	512.5
400.837	480.5
401.062	461.5
401.286	462.5
401.51	441.5
401.734	449.5
401.958	443.5
402.182	440.5
402.406	436.5
402.63	443.5
402.854	463.5
403.078	460.5
403.302	473.5
403.526	490.5
403.75	454.5
403.974	471.5
404.198	448.5
404.422	447.5
404.645	458.5
404.869	459.5
405.093	475.5
405.317	490.5
405.541	507.5
405.765	492.5
405.988	482.5
406.212	487.5
406.436	479.5
406.66	492.5
406.883	501.5
407.107	494.5
407.331	516.5
407.555	581.5
407.778	584.5
408.002	541.5
408.226	519.5
408.449	495.5
408.673	512.5
408.896	541.5
409.12	548.5
409.344	515.5
409.567	488.5
409.791	482.5
410.014	447.5
410.238	450.5
410.461	464.5
410.685	450.5
410.908	470.5
411.132	497.5
411.355	492.5
411.578	463.5
411.802	451.5
412.025	428.5
412.249	473.5
412.472	456.5
412.695	475.5
412.919	462.5
413.142	435.5
413.365	441.5
413.589	449.5
413.812	431.5
414.035	441.5
414.258	437.5
414.482	435.5
414.705	453.5
414.928	422.5
415.151	435.5
415.374	430.5
415.597	426.5
415.821	413.5
416.044	418.5
416.267	409.5
416.49	435.5
416.713	435.5
416.936	443.5
417.159	420.5
417.382	435.5
417.605	405.5
417.828	420.5
418.051	442.5
418.274	435.5
418.497	429.5
418.72	422.5
418.943	447.5
419.166	436.5
419.389	461.5
419.611	441.5
419.834	445.5
420.057	435.5
420.28	417.5
420.503	440.5
420.726	432.5
420.948	418.5
421.171	471.5
421.394	501.5
421.617	455.5
421.839	447.5
422.062	439.5
422.285	426.5
422.507	506.5
422.73	508.5
422.953	500.5
423.175	465.5
423.398	445.5
423.621	455.5
423.843	446.5
424.066	456.5
424.288	453.5
424.511	456.5
424.733	503.5
424.956	537.5
425.178	533.5
425.401	517.5
425.623	528.5
425.846	483.5
426.068	450.5
426.291	459.5
426.513	462.5
426.735	441.5
426.958	475.5
427.18	519.5
427.402	617.5
427.625	665.5
427.847	570.5
428.069	476.5
428.292	453.5
428.514	411.5
428.736	423.5
428.958	440.5
429.181	421.5
429.403	419.5
429.625	426.5
429.847	433.5
430.069	471.5
430.292	470.5
430.514	442.5
430.736	425.5
430.958	431.5
431.18	400.5
431.402	399.5
431.624	417.5
431.846	385.5
432.068	411.5
432.29	430.5
432.512	397.5
432.734	393.5
432.956	385.5
433.178	417.5
433.4	413.5
433.622	385.5
433.844	425.5
434.066	422.5
434.287	408.5
434.509	422.5
434.731	420.5
434.953	434.5
435.175	412.5
435.397	435.5
435.618	445.5
435.84	461.5
436.062	498.5
436.284	557.5
436.505	466.5
436.727	435.5
436.949	425.5
437.17	409.5
437.392	414.5
437.614	424.5
437.835	427.5
438.057	462.5
438.278	544.5
438.5	546.5
438.721	589.5
438.943	574.5
439.165	482.5
439.386	422.5
439.608	426.5
439.829	429.5
440.05	431.5
440.272	458.5
440.493	432.5
440.715	438.5
440.936	428.5
441.158	413.5
441.379	430.5
441.6	422.5
441.822	450.5
442.043	488.5
442.264	505.5
442.486	527.5
442.707	448.5
442.928	458.5
443.149	456.5
443.371	460.5
443.592	483.5
443.813	517.5
444.034	579.5
444.255	493.5
444.476	443.5
444.698	459.5
444.919	448.5
445.14	554.5
445.361	491.5
445.582	465.5
445.803	507.5
446.024	548.5
446.245	549.5
446.466	513.5
446.687	446.5
446.908	438.5
447.129	425.5
447.35	411.5
447.571	414.5
447.792	398.5
448.013	420.5
448.234	417.5
448.455	429.5
448.675	489.5
448.896	581.5
449.117	483.5
449.338	465.5
449.559	532.5
449.779	618.5
450	502.5
450.221	417.5
450.442	419.5
450.662	397.5
450.883	400.5
451.104	383.5
451.324	376.5
451.545	395.5
451.766	379.5
451.986	364.5
452.207	375.5
452.428	385.5
452.648	381.5
452.869	359.5
453.089	357.5
453.31	371.5
453.53	370.5
453.751	355.5
453.971	358.5
454.192	379.5
454.412	367.5
454.633	381.5
454.853	357.5
455.073	366.5
455.294	392.5
455.514	407.5
455.734	421.5
455.955	371.5
456.175	356.5
456.395	363.5
456.616	348.5
456.836	369.5
457.056	351.5
457.276	353.5
457.497	359.5
457.717	345.5
457.937	355.5
458.157	369.5
458.377	372.5
458.598	380.5
458.818	398.5
459.038	427.5
459.258	444.5
459.478	407.5
459.698	404.5
459.918	411.5
460.138	412.5
460.358	422.5
460.578	415.5
460.798	415.5
461.018	429.5
461.238	430.5
461.458	434.5
461.678	408.5
461.898	411.5
462.118	429.5
462.338	426.5
462.558	438.5
462.777	454.5
462.997	481.5
463.217	474.5
463.437	487.5
463.657	453.5
463.876	447.5
464.096	443.5
464.316	472.5
464.536	473.5
464.755	454.5
464.975	427.5
465.195	432.5
465.414	463.5
465.634	414.5
465.854	401.5
466.073	390.5
466.293	405.5
466.512	387.5
466.732	392.5
466.951	379.5
467.171	393.5
467.391	392.5
467.61	385.5
467.829	377.5
468.049	382.5
468.268	384.5
468.488	382.5
468.707	375.5
468.927	366.5
469.146	368.5
469.365	381.5
469.585	375.5
469.804	379.5
470.023	384.5
470.243	389.5
470.462	375.5
470.681	394.5
470.901	399.5
471.12	384.5
471.339	395.5
471.558	394.5
471.777	384.5
471.997	394.5
472.216	382.5
472.435	386.5
472.654	370.5
472.873	377.5
473.092	375.5
473.311	391.5
473.53	376.5
473.749	395.5
473.968	404.5
474.187	460.5
474.406	477.5
474.625	413.5
474.844	381.5
475.063	367.5
475.282	377.5
475.501	371.5
475.72	393.5
475.939	380.5
476.158	414.5
476.377	399.5
476.596	422.5
476.814	401.5
477.033	414.5
477.252	387.5
477.471	407.5
477.69	422.5
477.908	425.5
478.127	413.5
478.346	410.5
478.564	445.5
478.783	436.5
479.002	439.5
479.22	438.5
479.439	453.5
479.658	461.5
479.876	463.5
480.095	468.5
480.313	482.5
480.532	478.5
480.751	476.5
480.969	483.5
481.188	469.5
481.406	481.5
481.624	459.5
481.843	448.5
482.061	425.5
482.28	456.5
482.498	448.5
482.717	463.5
482.935	434.5
483.153	428.5
483.372	453.5
483.59	470.5
483.808	454.5
484.027	449.5
484.245	428.5
484.463	436.5
484.681	459.5
484.9	413.5
485.118	458.5
485.336	457.5
485.554	452.5
485.772	464.5
485.99	459.5
486.209	464.5
486.427	462.5
486.645	467.5
486.863	454.5
487.081	472.5
487.299	453.5
487.517	486.5
487.735	486.5
487.953	471.5
488.171	472.5
488.389	449.5
488.607	474.5
488.825	455.5
489.043	475.5
489.261	465.5
489.479	461.5
489.696	474.5
489.914	473.5
490.132	471.5
490.35	484.5
490.568	491.5
490.786	513.5
491.003	507.5
491.221	513.5
491.439	503.5
491.657	484.5
491.874	503.5
492.092	521.5
492.31	489.5
492.527	514.5
492.745	485.5
492.963	517.5
493.18	522.5
493.398	515.5
493.615	537.5
493.833	534.5
494.05	517.5
494.268	523.5
494.485	514.5
494.703	520.5
494.92	520.5
495.138	534.5
495.355	533.5
495.573	531.5
495.79	526.5
496.008	517.5
496.225	554.5
496.442	534.5
496.66	544.5
496.877	543.5
497.094	568.5
497.312	530.5
497.529	562.5
497.746	572.5
497.963	575.5
498.181	587.5
498.398	613.5
498.615	633.5
498.832	654.5
499.049	660.5
499.267	679.5
499.484	716.5
499.701	769.5
499.918	769.5
500.135	837.5
500.352	908.5
500.569	886.5
500.786	870.5
501.003	884.5
501.22	846.5
501.437	811.5
501.654	758.5
501.871	730.5
502.088	682.5
502.305	686.5
502.522	631.5
502.739	633.5
502.956	597.5
503.172	595.5
503.389	581.5
503.606	565.5
503.823	578.5
504.04	579.5
504.256	590.5
504.473	538.5
504.69	547.5
504.907	548.5
505.123	565.5
505.34	551.5
505.557	523.5
505.773	535.5
505.99	537.5
506.207	525.5
506.423	504.5
506.64	501.5
506.856	492.5
507.073	485.5
507.289	499.5
507.506	499.5
507.722	494.5
507.939	503.5
508.155	492.5
508.372	479.5
508.588	468.5
508.805	462.5
509.021	463.5
509.238	489.5
509.454	476.5
509.67	475.5
509.887	452.5
510.103	463.5
510.319	455.5
510.536	497.5
510.752	606.5
510.968	555.5
511.184	475.5
511.401	445.5
511.617	449.5
511.833	467.5
512.049	446.5
512.265	451.5
512.481	436.5
512.698	455.5
512.914	435.5
513.13	443.5
513.346	440.5
513.562	431.5
513.778	445.5
513.994	449.5
514.21	423.5
514.426	461.5
514.642	457.5
514.858	469.5
515.074	486.5
515.29	537.5
515.506	615.5
515.721	562.5
515.937	485.5
516.153	462.5
516.369	460.5
516.585	470.5
516.801	461.5
517.016	482.5
517.232	484.5
517.448	497.5
517.664	511.5
517.879	514.5
518.095	477.5
518.311	495.5
518.527	488.5
518.742	502.5
518.958	448.5
519.173	468.5
519.389	471.5
519.605	448.5
519.82	449.5
520.036	446.5
