Data from 1977.PennyLincolnUp.Lamp.En5.5.200Scan.071719.P1_HRD10591_16-05-59-890.txt Node
Date: Thu Jul 18 16:05:59 EDT 2019
User: cochatt
Spectrometer: HR+D1059
Trigger mode: 1
Integration Time (sec): 1.000000E-1
Scans to average: 1
Electric dark correction enabled: true
Nonlinearity correction enabled: false
Boxcar width: 0
XAxis mode: Wavelengths
Number of Pixels in Spectrum: 2048
>>>>>Begin Spectral Data<<<<<
223.165	-8.75
223.4	-8.75
223.635	-8.75
223.869	-24.75
224.104	-27.75
224.338	0.25
224.573	-7.75
224.808	-8.75
225.042	-2.75
225.277	4.25
225.511	-17.75
225.746	-7.75
225.98	2.25
226.215	24.25
226.449	15.25
226.683	15.25
226.918	24.25
227.152	20.25
227.387	47.25
227.621	29.25
227.856	43.25
228.09	38.25
228.324	51.25
228.559	60.25
228.793	67.25
229.027	97.25
229.262	97.25
229.496	118.25
229.73	110.25
229.964	148.25
230.199	116.25
230.433	102.25
230.667	99.25
230.901	109.25
231.136	105.25
231.37	100.25
231.604	110.25
231.838	111.25
232.072	105.25
232.306	102.25
232.541	111.25
232.775	120.25
233.009	107.25
233.243	123.25
233.477	110.25
233.711	113.25
233.945	119.25
234.179	119.25
234.413	130.25
234.647	120.25
234.881	111.25
235.115	114.25
235.349	102.25
235.583	119.25
235.817	115.25
236.051	123.25
236.285	122.25
236.519	108.25
236.753	133.25
236.987	130.25
237.221	165.25
237.455	197.25
237.689	150.25
237.922	128.25
238.156	146.25
238.39	132.25
238.624	128.25
238.858	123.25
239.091	136.25
239.325	134.25
239.559	119.25
239.793	135.25
240.027	129.25
240.26	140.25
240.494	140.25
240.728	147.25
240.961	138.25
241.195	146.25
241.429	150.25
241.662	139.25
241.896	136.25
242.13	146.25
242.363	128.25
242.597	138.25
242.83	143.25
243.064	135.25
243.298	137.25
243.531	148.25
243.765	139.25
243.998	148.25
244.232	138.25
244.465	147.25
244.699	133.25
244.932	145.25
245.166	155.25
245.399	143.25
245.633	154.25
245.866	147.25
246.099	148.25
246.333	141.25
246.566	155.25
246.8	161.25
247.033	144.25
247.266	140.25
247.5	143.25
247.733	150.25
247.966	171.25
248.2	158.25
248.433	167.25
248.666	159.25
248.899	174.25
249.133	191.25
249.366	190.25
249.599	185.25
249.832	173.25
250.066	176.25
250.299	201.25
250.532	191.25
250.765	194.25
250.998	203.25
251.231	203.25
251.465	199.25
251.698	182.25
251.931	165.25
252.164	191.25
252.397	188.25
252.63	188.25
252.863	195.25
253.096	210.25
253.329	211.25
253.562	217.25
253.795	195.25
254.028	207.25
254.261	217.25
254.494	219.25
254.727	229.25
254.96	252.25
255.193	256.25
255.426	229.25
255.659	214.25
255.892	209.25
256.124	232.25
256.357	224.25
256.59	216.25
256.823	200.25
257.056	190.25
257.289	192.25
257.521	196.25
257.754	204.25
257.987	197.25
258.22	207.25
258.452	208.25
258.685	227.25
258.918	208.25
259.151	216.25
259.383	217.25
259.616	236.25
259.849	220.25
260.081	216.25
260.314	237.25
260.547	228.25
260.779	233.25
261.012	239.25
261.244	215.25
261.477	233.25
261.71	231.25
261.942	224.25
262.175	230.25
262.407	222.25
262.64	216.25
262.872	200.25
263.105	209.25
263.337	215.25
263.57	195.25
263.802	218.25
264.035	210.25
264.267	213.25
264.499	227.25
264.732	221.25
264.964	232.25
265.197	214.25
265.429	216.25
265.661	216.25
265.894	222.25
266.126	224.25
266.358	249.25
266.591	233.25
266.823	244.25
267.055	238.25
267.287	214.25
267.52	226.25
267.752	215.25
267.984	244.25
268.216	237.25
268.448	254.25
268.681	228.25
268.913	239.25
269.145	265.25
269.377	250.25
269.609	281.25
269.841	248.25
270.073	279.25
270.306	286.25
270.538	300.25
270.77	298.25
271.002	302.25
271.234	278.25
271.466	292.25
271.698	286.25
271.93	284.25
272.162	305.25
272.394	310.25
272.626	290.25
272.858	293.25
273.09	262.25
273.322	267.25
273.553	268.25
273.785	259.25
274.017	269.25
274.249	259.25
274.481	250.25
274.713	267.25
274.945	277.25
275.176	271.25
275.408	266.25
275.64	281.25
275.872	256.25
276.104	282.25
276.335	285.25
276.567	277.25
276.799	283.25
277.031	301.25
277.262	320.25
277.494	308.25
277.726	290.25
277.957	297.25
278.189	286.25
278.421	282.25
278.652	269.25
278.884	266.25
279.115	272.25
279.347	279.25
279.579	270.25
279.81	280.25
280.042	278.25
280.273	278.25
280.505	289.25
280.736	272.25
280.968	283.25
281.199	282.25
281.431	286.25
281.662	286.25
281.894	284.25
282.125	288.25
282.356	290.25
282.588	310.25
282.819	319.25
283.051	292.25
283.282	277.25
283.513	289.25
283.745	281.25
283.976	292.25
284.207	298.25
284.439	294.25
284.67	289.25
284.901	303.25
285.132	302.25
285.364	296.25
285.595	290.25
285.826	303.25
286.057	307.25
286.288	287.25
286.52	296.25
286.751	280.25
286.982	286.25
287.213	292.25
287.444	294.25
287.675	315.25
287.906	296.25
288.138	319.25
288.369	314.25
288.6	319.25
288.831	329.25
289.062	347.25
289.293	314.25
289.524	321.25
289.755	319.25
289.986	319.25
290.217	309.25
290.448	303.25
290.679	316.25
290.91	324.25
291.141	299.25
291.371	313.25
291.602	307.25
291.833	313.25
292.064	311.25
292.295	307.25
292.526	306.25
292.757	320.25
292.987	300.25
293.218	291.25
293.449	317.25
293.68	314.25
293.91	295.25
294.141	331.25
294.372	309.25
294.603	320.25
294.833	323.25
295.064	298.25
295.295	340.25
295.525	326.25
295.756	342.25
295.987	343.25
296.217	325.25
296.448	352.25
296.679	347.25
296.909	303.25
297.14	315.25
297.37	315.25
297.601	321.25
297.831	322.25
298.062	310.25
298.292	308.25
298.523	335.25
298.753	325.25
298.984	323.25
299.214	330.25
299.445	331.25
299.675	323.25
299.905	343.25
300.136	340.25
300.366	311.25
300.597	328.25
300.827	349.25
301.057	340.25
301.288	347.25
301.518	338.25
301.748	326.25
301.979	334.25
302.209	337.25
302.439	348.25
302.669	340.25
302.9	340.25
303.13	345.25
303.36	345.25
303.59	363.25
303.82	372.25
304.051	348.25
304.281	349.25
304.511	357.25
304.741	347.25
304.971	329.25
305.201	356.25
305.431	358.25
305.661	346.25
305.891	343.25
306.121	350.25
306.352	335.25
306.582	349.25
306.812	338.25
307.042	336.25
307.272	339.25
307.502	356.25
307.731	370.25
307.961	375.25
308.191	355.25
308.421	345.25
308.651	367.25
308.881	337.25
309.111	365.25
309.341	364.25
309.571	375.25
309.8	349.25
310.03	374.25
310.26	391.25
310.49	394.25
310.72	386.25
310.949	389.25
311.179	399.25
311.409	392.25
311.639	388.25
311.868	368.25
312.098	367.25
312.328	380.25
312.557	402.25
312.787	392.25
313.017	400.25
313.246	384.25
313.476	371.25
313.706	391.25
313.935	377.25
314.165	382.25
314.394	401.25
314.624	396.25
314.853	390.25
315.083	390.25
315.312	381.25
315.542	384.25
315.771	382.25
316.001	387.25
316.23	374.25
316.46	386.25
316.689	373.25
316.919	386.25
317.148	397.25
317.377	424.25
317.607	392.25
317.836	386.25
318.065	395.25
318.295	388.25
318.524	394.25
318.753	381.25
318.983	410.25
319.212	385.25
319.441	422.25
319.67	407.25
319.9	392.25
320.129	391.25
320.358	388.25
320.587	403.25
320.816	400.25
321.046	407.25
321.275	418.25
321.504	409.25
321.733	403.25
321.962	414.25
322.191	420.25
322.42	426.25
322.649	413.25
322.878	427.25
323.108	446.25
323.337	447.25
323.566	468.25
323.795	470.25
324.024	512.25
324.253	606.25
324.482	790.25
324.71	1160.25
324.939	1574.25
325.168	1337.25
325.397	763.25
325.626	563.25
325.855	504.25
326.084	487.25
326.313	491.25
326.542	460.25
326.77	504.25
326.999	569.25
327.228	733.25
327.457	1040.25
327.686	1184.25
327.914	838.25
328.143	589.25
328.372	548.25
328.6	542.25
328.829	531.25
329.058	505.25
329.287	531.25
329.515	495.25
329.744	482.25
329.972	484.25
330.201	486.25
330.43	499.25
330.658	514.25
330.887	528.25
331.115	518.25
331.344	480.25
331.572	475.25
331.801	487.25
332.03	466.25
332.258	452.25
332.486	461.25
332.715	480.25
332.943	470.25
333.172	445.25
333.4	481.25
333.629	470.25
333.857	481.25
334.085	492.25
334.314	512.25
334.542	495.25
334.771	486.25
334.999	511.25
335.227	483.25
335.455	495.25
335.684	471.25
335.912	460.25
336.14	461.25
336.369	447.25
336.597	460.25
336.825	458.25
337.053	452.25
337.281	461.25
337.51	452.25
337.738	456.25
337.966	433.25
338.194	462.25
338.422	428.25
338.65	438.25
338.878	448.25
339.106	436.25
339.334	455.25
339.562	428.25
339.79	442.25
340.018	452.25
340.246	446.25
340.474	419.25
340.702	460.25
340.93	434.25
341.158	419.25
341.386	448.25
341.614	451.25
341.842	415.25
342.07	424.25
342.298	438.25
342.526	424.25
342.754	420.25
342.981	425.25
343.209	438.25
343.437	427.25
343.665	444.25
343.893	451.25
344.12	471.25
344.348	469.25
344.576	461.25
344.804	435.25
345.031	459.25
345.259	426.25
345.487	442.25
345.714	428.25
345.942	426.25
346.17	421.25
346.397	411.25
346.625	421.25
346.853	439.25
347.08	418.25
347.308	421.25
347.535	403.25
347.763	415.25
347.99	427.25
348.218	407.25
348.445	428.25
348.673	423.25
348.9	416.25
349.128	418.25
349.355	420.25
349.583	392.25
349.81	415.25
350.037	418.25
350.265	412.25
350.492	392.25
350.72	417.25
350.947	427.25
351.174	381.25
351.402	403.25
351.629	408.25
351.856	424.25
352.083	415.25
352.311	419.25
352.538	415.25
352.765	427.25
352.992	410.25
353.22	390.25
353.447	416.25
353.674	404.25
353.901	391.25
354.128	390.25
354.355	382.25
354.583	378.25
354.81	386.25
355.037	383.25
355.264	399.25
355.491	384.25
355.718	401.25
355.945	384.25
356.172	404.25
356.399	393.25
356.626	380.25
356.853	368.25
357.08	376.25
357.307	382.25
357.534	381.25
357.761	394.25
357.988	382.25
358.215	399.25
358.441	406.25
358.668	390.25
358.895	388.25
359.122	383.25
359.349	406.25
359.576	414.25
359.802	427.25
360.029	425.25
360.256	421.25
360.483	436.25
360.709	404.25
360.936	405.25
361.163	388.25
361.39	393.25
361.616	413.25
361.843	415.25
362.07	413.25
362.296	379.25
362.523	395.25
362.749	386.25
362.976	398.25
363.203	386.25
363.429	380.25
363.656	384.25
363.882	391.25
364.109	398.25
364.335	391.25
364.562	396.25
364.788	380.25
365.015	397.25
365.241	382.25
365.468	412.25
365.694	411.25
365.92	403.25
366.147	392.25
366.373	408.25
366.599	381.25
366.826	398.25
367.052	385.25
367.278	387.25
367.505	387.25
367.731	386.25
367.957	376.25
368.184	401.25
368.41	402.25
368.636	396.25
368.862	391.25
369.089	381.25
369.315	391.25
369.541	398.25
369.767	396.25
369.993	390.25
370.219	383.25
370.445	374.25
370.672	397.25
370.898	387.25
371.124	378.25
371.35	384.25
371.576	408.25
371.802	406.25
372.028	409.25
372.254	406.25
372.48	404.25
372.706	402.25
372.932	391.25
373.158	396.25
373.384	398.25
373.61	386.25
373.835	404.25
374.061	377.25
374.287	388.25
374.513	404.25
374.739	390.25
374.965	408.25
375.191	407.25
375.416	397.25
375.642	397.25
375.868	403.25
376.094	392.25
376.319	381.25
376.545	382.25
376.771	399.25
376.997	412.25
377.222	402.25
377.448	404.25
377.674	384.25
377.899	374.25
378.125	398.25
378.35	362.25
378.576	376.25
378.802	379.25
379.027	376.25
379.253	377.25
379.478	383.25
379.704	379.25
379.929	392.25
380.155	378.25
380.38	375.25
380.606	376.25
380.831	377.25
381.057	379.25
381.282	355.25
381.507	368.25
381.733	397.25
381.958	382.25
382.184	389.25
382.409	394.25
382.634	390.25
382.86	404.25
383.085	378.25
383.31	390.25
383.535	407.25
383.761	402.25
383.986	394.25
384.211	396.25
384.436	406.25
384.662	392.25
384.887	397.25
385.112	424.25
385.337	434.25
385.562	434.25
385.787	438.25
386.013	442.25
386.238	432.25
386.463	421.25
386.688	442.25
386.913	440.25
387.138	423.25
387.363	427.25
387.588	414.25
387.813	444.25
388.038	416.25
388.263	400.25
388.488	408.25
388.713	409.25
388.938	441.25
389.163	436.25
389.387	424.25
389.612	427.25
389.837	424.25
390.062	444.25
390.287	403.25
390.512	423.25
390.736	424.25
390.961	423.25
391.186	422.25
391.411	434.25
391.636	436.25
391.86	461.25
392.085	449.25
392.31	458.25
392.534	442.25
392.759	433.25
392.984	442.25
393.208	456.25
393.433	421.25
393.658	410.25
393.882	432.25
394.107	422.25
394.331	439.25
394.556	454.25
394.78	427.25
395.005	421.25
395.229	420.25
395.454	447.25
395.678	445.25
395.903	448.25
396.127	483.25
396.352	466.25
396.576	425.25
396.801	460.25
397.025	456.25
397.249	430.25
397.474	462.25
397.698	468.25
397.922	463.25
398.147	490.25
398.371	500.25
398.595	463.25
398.82	494.25
399.044	506.25
399.268	528.25
399.492	555.25
399.717	576.25
399.941	584.25
400.165	600.25
400.389	620.25
400.613	558.25
400.837	515.25
401.062	484.25
401.286	485.25
401.51	504.25
401.734	476.25
401.958	481.25
402.182	476.25
402.406	487.25
402.63	471.25
402.854	504.25
403.078	495.25
403.302	510.25
403.526	491.25
403.75	521.25
403.974	487.25
404.198	499.25
404.422	484.25
404.645	511.25
404.869	510.25
405.093	545.25
405.317	549.25
405.541	569.25
405.765	546.25
405.988	514.25
406.212	527.25
406.436	548.25
406.66	555.25
406.883	521.25
407.107	547.25
407.331	582.25
407.555	642.25
407.778	620.25
408.002	581.25
408.226	551.25
408.449	552.25
408.673	546.25
408.896	580.25
409.12	595.25
409.344	569.25
409.567	536.25
409.791	492.25
410.014	492.25
410.238	514.25
410.461	503.25
410.685	498.25
410.908	506.25
411.132	535.25
411.355	538.25
411.578	536.25
411.802	510.25
412.025	486.25
412.249	517.25
412.472	515.25
412.695	526.25
412.919	525.25
413.142	510.25
413.365	491.25
413.589	490.25
413.812	487.25
414.035	468.25
414.258	467.25
414.482	494.25
414.705	451.25
414.928	477.25
415.151	501.25
415.374	464.25
415.597	476.25
415.821	458.25
416.044	456.25
416.267	465.25
416.49	473.25
416.713	447.25
416.936	458.25
417.159	472.25
417.382	464.25
417.605	445.25
417.828	467.25
418.051	477.25
418.274	466.25
418.497	470.25
418.72	461.25
418.943	446.25
419.166	485.25
419.389	502.25
419.611	516.25
419.834	488.25
420.057	488.25
420.28	477.25
420.503	479.25
420.726	496.25
420.948	490.25
421.171	500.25
421.394	538.25
421.617	477.25
421.839	472.25
422.062	478.25
422.285	451.25
422.507	540.25
422.73	605.25
422.953	569.25
423.175	504.25
423.398	485.25
423.621	500.25
423.843	508.25
424.066	499.25
424.288	500.25
424.511	532.25
424.733	563.25
424.956	623.25
425.178	616.25
425.401	587.25
425.623	636.25
425.846	547.25
426.068	498.25
426.291	482.25
426.513	490.25
426.735	514.25
426.958	528.25
427.18	615.25
427.402	726.25
427.625	772.25
427.847	626.25
428.069	554.25
428.292	495.25
428.514	479.25
428.736	476.25
428.958	469.25
429.181	456.25
429.403	442.25
429.625	467.25
429.847	493.25
430.069	538.25
430.292	524.25
430.514	469.25
430.736	441.25
430.958	462.25
431.18	446.25
431.402	421.25
431.624	446.25
431.846	464.25
432.068	452.25
432.29	438.25
432.512	446.25
432.734	468.25
432.956	453.25
433.178	454.25
433.4	454.25
433.622	447.25
433.844	442.25
434.066	449.25
434.287	437.25
434.509	456.25
434.731	470.25
434.953	458.25
435.175	459.25
435.397	510.25
435.618	504.25
435.84	525.25
436.062	586.25
436.284	645.25
436.505	547.25
436.727	493.25
436.949	459.25
437.17	463.25
437.392	460.25
437.614	464.25
437.835	486.25
438.057	544.25
438.278	652.25
438.5	632.25
438.721	710.25
438.943	642.25
439.165	534.25
439.386	496.25
439.608	494.25
439.829	486.25
440.05	485.25
440.272	546.25
440.493	506.25
440.715	472.25
440.936	469.25
441.158	455.25
441.379	462.25
441.6	487.25
441.822	494.25
442.043	533.25
442.264	580.25
442.486	621.25
442.707	539.25
442.928	503.25
443.149	504.25
443.371	522.25
443.592	566.25
443.813	633.25
444.034	651.25
444.255	595.25
444.476	522.25
444.698	528.25
444.919	507.25
445.14	626.25
445.361	562.25
445.582	528.25
445.803	558.25
446.024	620.25
446.245	659.25
446.466	598.25
446.687	516.25
446.908	487.25
447.129	468.25
447.35	442.25
447.571	450.25
447.792	428.25
448.013	456.25
448.234	460.25
448.455	492.25
448.675	591.25
448.896	708.25
449.117	562.25
449.338	539.25
449.559	636.25
449.779	731.25
450	592.25
450.221	471.25
450.442	423.25
450.662	409.25
450.883	446.25
451.104	435.25
451.324	430.25
451.545	429.25
451.766	411.25
451.986	400.25
452.207	399.25
452.428	396.25
452.648	413.25
452.869	382.25
453.089	408.25
453.31	424.25
453.53	397.25
453.751	398.25
453.971	403.25
454.192	389.25
454.412	397.25
454.633	390.25
454.853	400.25
455.073	391.25
455.294	444.25
455.514	446.25
455.734	464.25
455.955	402.25
456.175	399.25
456.395	399.25
456.616	384.25
456.836	387.25
457.056	399.25
457.276	372.25
457.497	383.25
457.717	394.25
457.937	408.25
458.157	395.25
458.377	404.25
458.598	412.25
458.818	454.25
459.038	503.25
459.258	514.25
459.478	462.25
459.698	444.25
459.918	480.25
460.138	431.25
460.358	440.25
460.578	458.25
460.798	435.25
461.018	478.25
461.238	460.25
461.458	456.25
461.678	452.25
461.898	461.25
462.118	458.25
462.338	485.25
462.558	467.25
462.777	472.25
462.997	498.25
463.217	499.25
463.437	537.25
463.657	494.25
463.876	486.25
464.096	519.25
464.316	502.25
464.536	485.25
464.755	485.25
464.975	504.25
465.195	488.25
465.414	514.25
465.634	482.25
465.854	443.25
466.073	454.25
466.293	438.25
466.512	427.25
466.732	397.25
466.951	423.25
467.171	405.25
467.391	430.25
467.61	412.25
467.829	453.25
468.049	439.25
468.268	427.25
468.488	394.25
468.707	408.25
468.927	421.25
469.146	412.25
469.365	406.25
469.585	406.25
469.804	429.25
470.023	438.25
470.243	416.25
470.462	417.25
470.681	442.25
470.901	414.25
471.12	424.25
471.339	401.25
471.558	402.25
471.777	426.25
471.997	415.25
472.216	444.25
472.435	439.25
472.654	438.25
472.873	410.25
473.092	435.25
473.311	402.25
473.53	400.25
473.749	444.25
473.968	457.25
474.187	520.25
474.406	526.25
474.625	482.25
474.844	445.25
475.063	422.25
475.282	416.25
475.501	436.25
475.72	435.25
475.939	432.25
476.158	439.25
476.377	443.25
476.596	435.25
476.814	438.25
477.033	429.25
477.252	441.25
477.471	448.25
477.69	455.25
477.908	436.25
478.127	452.25
478.346	455.25
478.564	463.25
478.783	476.25
479.002	471.25
479.22	486.25
479.439	475.25
479.658	486.25
479.876	510.25
480.095	511.25
480.313	542.25
480.532	519.25
480.751	516.25
480.969	513.25
481.188	538.25
481.406	536.25
481.624	515.25
481.843	503.25
482.061	491.25
482.28	460.25
482.498	477.25
482.717	471.25
482.935	489.25
483.153	486.25
483.372	487.25
483.59	493.25
483.808	478.25
484.027	480.25
484.245	483.25
484.463	503.25
484.681	486.25
484.9	499.25
485.118	492.25
485.336	477.25
485.554	507.25
485.772	506.25
485.99	499.25
486.209	495.25
486.427	500.25
486.645	520.25
486.863	496.25
487.081	543.25
487.299	510.25
487.517	517.25
487.735	532.25
487.953	529.25
488.171	499.25
488.389	506.25
488.607	511.25
488.825	513.25
489.043	500.25
489.261	518.25
489.479	507.25
489.696	512.25
489.914	532.25
490.132	523.25
490.35	519.25
490.568	547.25
490.786	527.25
491.003	539.25
491.221	543.25
491.439	557.25
491.657	587.25
491.874	564.25
492.092	548.25
492.31	589.25
492.527	595.25
492.745	595.25
492.963	562.25
493.18	568.25
493.398	596.25
493.615	603.25
493.833	585.25
494.05	584.25
494.268	595.25
494.485	590.25
494.703	584.25
494.92	589.25
495.138	601.25
495.355	603.25
495.573	590.25
495.79	569.25
496.008	589.25
496.225	588.25
496.442	590.25
496.66	622.25
496.877	584.25
497.094	611.25
497.312	621.25
497.529	603.25
497.746	618.25
497.963	654.25
498.181	668.25
498.398	680.25
498.615	698.25
498.832	729.25
499.049	713.25
499.267	717.25
499.484	788.25
499.701	802.25
499.918	843.25
500.135	892.25
500.352	932.25
500.569	958.25
500.786	938.25
501.003	947.25
501.22	900.25
501.437	868.25
501.654	825.25
501.871	814.25
502.088	747.25
