Data from 1977.PennyLincolnUp.Lamp.En5.5.200Scan.071719.P1_HRD10591_16-06-32-864.txt Node
Date: Thu Jul 18 16:06:32 EDT 2019
User: cochatt
Spectrometer: HR+D1059
Trigger mode: 1
Integration Time (sec): 1.000000E-1
Scans to average: 1
Electric dark correction enabled: true
Nonlinearity correction enabled: false
Boxcar width: 0
XAxis mode: Wavelengths
Number of Pixels in Spectrum: 2048
>>>>>Begin Spectral Data<<<<<
223.165	-12.5
223.4	-12.5
223.635	-12.5
223.869	-19.5
224.104	-24.5
224.338	-5.5
224.573	-16.5
224.808	-1.5
225.042	-13.5
225.277	-4.5
225.511	2.5
225.746	4.5
225.98	9.5
226.215	8.5
226.449	15.5
226.683	12.5
226.918	16.5
227.152	28.5
227.387	28.5
227.621	35.5
227.856	43.5
228.09	47.5
228.324	39.5
228.559	39.5
228.793	58.5
229.027	98.5
229.262	98.5
229.496	108.5
229.73	113.5
229.964	126.5
230.199	102.5
230.433	113.5
230.667	108.5
230.901	120.5
231.136	111.5
231.37	95.5
231.604	95.5
231.838	116.5
232.072	105.5
232.306	111.5
232.541	103.5
232.775	112.5
233.009	111.5
233.243	109.5
233.477	116.5
233.711	126.5
233.945	126.5
234.179	118.5
234.413	110.5
234.647	104.5
234.881	108.5
235.115	103.5
235.349	113.5
235.583	108.5
235.817	111.5
236.051	122.5
236.285	120.5
236.519	119.5
236.753	123.5
236.987	137.5
237.221	161.5
237.455	198.5
237.689	168.5
237.922	126.5
238.156	140.5
238.39	125.5
238.624	132.5
238.858	112.5
239.091	122.5
239.325	123.5
239.559	137.5
239.793	130.5
240.027	131.5
240.26	143.5
240.494	146.5
240.728	131.5
240.961	118.5
241.195	139.5
241.429	139.5
241.662	133.5
241.896	134.5
242.13	137.5
242.363	128.5
242.597	120.5
242.83	135.5
243.064	130.5
243.298	134.5
243.531	135.5
243.765	127.5
243.998	125.5
244.232	137.5
244.465	144.5
244.699	129.5
244.932	144.5
245.166	128.5
245.399	138.5
245.633	124.5
245.866	150.5
246.099	165.5
246.333	146.5
246.566	140.5
246.8	142.5
247.033	146.5
247.266	131.5
247.5	163.5
247.733	167.5
247.966	164.5
248.2	176.5
248.433	164.5
248.666	165.5
248.899	176.5
249.133	193.5
249.366	189.5
249.599	184.5
249.832	164.5
250.066	181.5
250.299	195.5
250.532	189.5
250.765	196.5
250.998	208.5
251.231	202.5
251.465	206.5
251.698	192.5
251.931	181.5
252.164	180.5
252.397	186.5
252.63	197.5
252.863	199.5
253.096	203.5
253.329	222.5
253.562	223.5
253.795	207.5
254.028	228.5
254.261	201.5
254.494	210.5
254.727	232.5
254.96	263.5
255.193	243.5
255.426	241.5
255.659	221.5
255.892	232.5
256.124	238.5
256.357	218.5
256.59	208.5
256.823	211.5
257.056	220.5
257.289	214.5
257.521	206.5
257.754	181.5
257.987	207.5
258.22	195.5
258.452	207.5
258.685	209.5
258.918	212.5
259.151	204.5
259.383	208.5
259.616	217.5
259.849	221.5
260.081	240.5
260.314	250.5
260.547	250.5
260.779	220.5
261.012	228.5
261.244	225.5
261.477	234.5
261.71	201.5
261.942	218.5
262.175	222.5
262.407	227.5
262.64	228.5
262.872	219.5
263.105	222.5
263.337	208.5
263.57	217.5
263.802	210.5
264.035	220.5
264.267	223.5
264.499	233.5
264.732	206.5
264.964	222.5
265.197	227.5
265.429	223.5
265.661	223.5
265.894	209.5
266.126	219.5
266.358	220.5
266.591	222.5
266.823	203.5
267.055	240.5
267.287	246.5
267.52	228.5
267.752	235.5
267.984	241.5
268.216	238.5
268.448	234.5
268.681	235.5
268.913	241.5
269.145	256.5
269.377	272.5
269.609	278.5
269.841	274.5
270.073	277.5
270.306	271.5
270.538	303.5
270.77	311.5
271.002	292.5
271.234	287.5
271.466	297.5
271.698	296.5
271.93	294.5
272.162	309.5
272.394	308.5
272.626	304.5
272.858	274.5
273.09	284.5
273.322	271.5
273.553	268.5
273.785	255.5
274.017	268.5
274.249	261.5
274.481	291.5
274.713	278.5
274.945	285.5
275.176	249.5
275.408	258.5
275.64	290.5
275.872	282.5
276.104	268.5
276.335	273.5
276.567	273.5
276.799	294.5
277.031	321.5
277.262	304.5
277.494	304.5
277.726	303.5
277.957	291.5
278.189	281.5
278.421	288.5
278.652	279.5
278.884	281.5
279.115	278.5
279.347	280.5
279.579	278.5
279.81	286.5
280.042	278.5
280.273	277.5
280.505	274.5
280.736	281.5
280.968	279.5
281.199	270.5
281.431	282.5
281.662	264.5
281.894	284.5
282.125	277.5
282.356	291.5
282.588	313.5
282.819	320.5
283.051	285.5
283.282	270.5
283.513	284.5
283.745	306.5
283.976	300.5
284.207	307.5
284.439	291.5
284.67	306.5
284.901	281.5
285.132	283.5
285.364	312.5
285.595	309.5
285.826	296.5
286.057	287.5
286.288	293.5
286.52	296.5
286.751	306.5
286.982	286.5
287.213	306.5
287.444	289.5
287.675	310.5
287.906	320.5
288.138	309.5
288.369	328.5
288.6	305.5
288.831	316.5
289.062	304.5
289.293	320.5
289.524	318.5
289.755	320.5
289.986	321.5
290.217	295.5
290.448	290.5
290.679	329.5
290.91	304.5
291.141	307.5
291.371	307.5
291.602	326.5
291.833	324.5
292.064	333.5
292.295	322.5
292.526	306.5
292.757	296.5
292.987	307.5
293.218	305.5
293.449	320.5
293.68	319.5
293.91	315.5
294.141	314.5
294.372	309.5
294.603	298.5
294.833	313.5
295.064	336.5
295.295	316.5
295.525	309.5
295.756	313.5
295.987	304.5
296.217	335.5
296.448	321.5
296.679	337.5
296.909	328.5
297.14	320.5
297.37	335.5
297.601	305.5
297.831	297.5
298.062	310.5
298.292	318.5
298.523	341.5
298.753	336.5
298.984	328.5
299.214	322.5
299.445	336.5
299.675	328.5
299.905	329.5
300.136	321.5
300.366	315.5
300.597	304.5
300.827	351.5
301.057	347.5
301.288	360.5
301.518	332.5
301.748	330.5
301.979	343.5
302.209	342.5
302.439	330.5
302.669	346.5
302.9	343.5
303.13	341.5
303.36	358.5
303.59	349.5
303.82	353.5
304.051	335.5
304.281	336.5
304.511	354.5
304.741	330.5
304.971	353.5
305.201	342.5
305.431	366.5
305.661	351.5
305.891	332.5
306.121	368.5
306.352	350.5
306.582	352.5
306.812	346.5
307.042	344.5
307.272	339.5
307.502	348.5
307.731	352.5
307.961	340.5
308.191	344.5
308.421	371.5
308.651	356.5
308.881	345.5
309.111	374.5
309.341	373.5
309.571	361.5
309.8	370.5
310.03	388.5
310.26	394.5
310.49	376.5
310.72	387.5
310.949	386.5
311.179	401.5
311.409	377.5
311.639	379.5
311.868	381.5
312.098	390.5
312.328	394.5
312.557	421.5
312.787	391.5
313.017	404.5
313.246	398.5
313.476	379.5
313.706	383.5
313.935	389.5
314.165	388.5
314.394	416.5
314.624	400.5
314.853	380.5
315.083	403.5
315.312	386.5
315.542	396.5
315.771	394.5
316.001	376.5
316.23	384.5
316.46	390.5
316.689	378.5
316.919	401.5
317.148	413.5
317.377	409.5
317.607	382.5
317.836	390.5
318.065	389.5
318.295	378.5
318.524	406.5
318.753	382.5
318.983	397.5
319.212	393.5
319.441	416.5
319.67	418.5
319.9	385.5
320.129	403.5
320.358	383.5
320.587	404.5
320.816	416.5
321.046	406.5
321.275	393.5
321.504	401.5
321.733	397.5
321.962	403.5
322.191	417.5
322.42	422.5
322.649	427.5
322.878	435.5
323.108	457.5
323.337	460.5
323.566	452.5
323.795	504.5
324.024	528.5
324.253	608.5
324.482	838.5
324.71	1237.5
324.939	1714.5
325.168	1451.5
325.397	769.5
325.626	586.5
325.855	507.5
326.084	464.5
326.313	476.5
326.542	480.5
326.77	520.5
326.999	598.5
327.228	777.5
327.457	1121.5
327.686	1311.5
327.914	903.5
328.143	628.5
328.372	547.5
328.6	514.5
328.829	516.5
329.058	533.5
329.287	524.5
329.515	506.5
329.744	481.5
329.972	481.5
330.201	481.5
330.43	541.5
330.658	540.5
330.887	577.5
331.115	524.5
331.344	489.5
331.572	478.5
331.801	497.5
332.03	469.5
332.258	451.5
332.486	475.5
332.715	446.5
332.943	476.5
333.172	465.5
333.4	476.5
333.629	487.5
333.857	483.5
334.085	492.5
334.314	521.5
334.542	511.5
334.771	519.5
334.999	506.5
335.227	479.5
335.455	443.5
335.684	488.5
335.912	464.5
336.14	463.5
336.369	458.5
336.597	471.5
336.825	455.5
337.053	476.5
337.281	444.5
337.51	446.5
337.738	451.5
337.966	460.5
338.194	456.5
338.422	449.5
338.65	455.5
338.878	436.5
339.106	435.5
339.334	464.5
339.562	450.5
339.79	445.5
340.018	428.5
340.246	442.5
340.474	444.5
340.702	455.5
340.93	449.5
341.158	425.5
341.386	431.5
341.614	427.5
341.842	411.5
342.07	404.5
342.298	435.5
342.526	437.5
342.754	417.5
342.981	430.5
343.209	425.5
343.437	446.5
343.665	445.5
343.893	458.5
344.12	467.5
344.348	456.5
344.576	455.5
344.804	458.5
345.031	438.5
345.259	437.5
345.487	453.5
345.714	414.5
345.942	420.5
346.17	415.5
346.397	397.5
346.625	408.5
346.853	400.5
347.08	395.5
347.308	425.5
347.535	409.5
347.763	418.5
347.99	419.5
348.218	407.5
348.445	415.5
348.673	427.5
348.9	414.5
349.128	392.5
349.355	412.5
349.583	422.5
349.81	414.5
350.037	399.5
350.265	401.5
350.492	399.5
350.72	407.5
350.947	403.5
351.174	421.5
351.402	409.5
351.629	416.5
351.856	400.5
352.083	430.5
352.311	399.5
352.538	407.5
352.765	408.5
352.992	389.5
353.22	400.5
353.447	398.5
353.674	416.5
353.901	388.5
354.128	384.5
354.355	380.5
354.583	398.5
354.81	371.5
355.037	412.5
355.264	392.5
355.491	392.5
355.718	387.5
355.945	382.5
356.172	370.5
356.399	388.5
356.626	407.5
356.853	382.5
357.08	386.5
357.307	380.5
357.534	382.5
357.761	379.5
357.988	408.5
358.215	413.5
358.441	387.5
358.668	390.5
358.895	386.5
359.122	365.5
359.349	414.5
359.576	391.5
359.802	418.5
360.029	431.5
360.256	446.5
360.483	406.5
360.709	408.5
360.936	399.5
361.163	387.5
361.39	400.5
361.616	420.5
361.843	404.5
362.07	387.5
362.296	399.5
362.523	397.5
362.749	414.5
362.976	405.5
363.203	377.5
363.429	383.5
363.656	379.5
363.882	388.5
364.109	379.5
364.335	398.5
364.562	382.5
364.788	370.5
365.015	392.5
365.241	406.5
365.468	378.5
365.694	393.5
365.92	384.5
366.147	370.5
366.373	391.5
366.599	393.5
366.826	396.5
367.052	378.5
367.278	391.5
367.505	385.5
367.731	395.5
367.957	386.5
368.184	397.5
368.41	410.5
368.636	385.5
368.862	413.5
369.089	390.5
369.315	393.5
369.541	393.5
369.767	387.5
369.993	404.5
370.219	390.5
370.445	385.5
370.672	378.5
370.898	380.5
371.124	380.5
371.35	397.5
371.576	376.5
371.802	393.5
372.028	382.5
372.254	403.5
372.48	369.5
372.706	400.5
372.932	389.5
373.158	404.5
373.384	426.5
373.61	398.5
373.835	407.5
374.061	396.5
374.287	401.5
374.513	390.5
374.739	387.5
374.965	402.5
375.191	391.5
375.416	420.5
375.642	382.5
375.868	397.5
376.094	385.5
376.319	400.5
376.545	386.5
376.771	407.5
376.997	396.5
377.222	374.5
377.448	375.5
377.674	369.5
377.899	397.5
378.125	384.5
378.35	402.5
378.576	379.5
378.802	379.5
379.027	379.5
379.253	390.5
379.478	391.5
379.704	387.5
379.929	365.5
380.155	390.5
380.38	395.5
380.606	365.5
380.831	414.5
381.057	410.5
381.282	395.5
381.507	391.5
381.733	405.5
381.958	392.5
382.184	384.5
382.409	396.5
382.634	396.5
382.86	402.5
383.085	394.5
383.31	388.5
383.535	403.5
383.761	399.5
383.986	402.5
384.211	400.5
384.436	408.5
384.662	402.5
384.887	406.5
385.112	416.5
385.337	424.5
385.562	430.5
385.787	426.5
386.013	430.5
386.238	442.5
386.463	410.5
386.688	423.5
386.913	410.5
387.138	415.5
387.363	430.5
387.588	414.5
387.813	417.5
388.038	437.5
388.263	416.5
388.488	415.5
388.713	414.5
388.938	417.5
389.163	412.5
389.387	449.5
389.612	434.5
389.837	411.5
390.062	422.5
390.287	419.5
390.512	401.5
390.736	411.5
390.961	425.5
391.186	431.5
391.411	439.5
391.636	419.5
391.86	413.5
392.085	435.5
392.31	440.5
392.534	443.5
392.759	443.5
392.984	430.5
393.208	413.5
393.433	419.5
393.658	433.5
393.882	411.5
394.107	427.5
394.331	422.5
394.556	436.5
394.78	434.5
395.005	443.5
395.229	438.5
395.454	438.5
395.678	442.5
395.903	452.5
396.127	452.5
396.352	439.5
396.576	441.5
396.801	427.5
397.025	427.5
397.249	457.5
397.474	423.5
397.698	454.5
397.922	473.5
398.147	448.5
398.371	488.5
398.595	494.5
398.82	490.5
399.044	488.5
399.268	527.5
399.492	551.5
399.717	573.5
399.941	582.5
400.165	634.5
400.389	592.5
400.613	551.5
400.837	513.5
401.062	512.5
401.286	477.5
401.51	484.5
401.734	508.5
401.958	508.5
402.182	488.5
402.406	494.5
402.63	492.5
402.854	503.5
403.078	464.5
403.302	498.5
403.526	512.5
403.75	517.5
403.974	518.5
404.198	495.5
404.422	516.5
404.645	505.5
404.869	528.5
405.093	538.5
405.317	567.5
405.541	619.5
405.765	544.5
405.988	511.5
406.212	534.5
406.436	538.5
406.66	547.5
406.883	550.5
407.107	553.5
407.331	614.5
407.555	637.5
407.778	660.5
408.002	564.5
408.226	558.5
408.449	575.5
408.673	560.5
408.896	571.5
409.12	606.5
409.344	555.5
409.567	546.5
409.791	524.5
410.014	487.5
410.238	496.5
410.461	495.5
410.685	499.5
410.908	524.5
411.132	551.5
411.355	554.5
411.578	550.5
411.802	498.5
412.025	515.5
412.249	508.5
412.472	494.5
412.695	525.5
412.919	532.5
413.142	504.5
413.365	489.5
413.589	472.5
413.812	499.5
414.035	471.5
414.258	466.5
414.482	470.5
414.705	468.5
414.928	462.5
415.151	464.5
415.374	459.5
415.597	455.5
415.821	456.5
416.044	458.5
416.267	467.5
416.49	445.5
416.713	450.5
416.936	465.5
417.159	475.5
417.382	433.5
417.605	451.5
417.828	473.5
418.051	486.5
418.274	454.5
418.497	468.5
418.72	466.5
418.943	475.5
419.166	493.5
419.389	528.5
419.611	495.5
419.834	476.5
420.057	470.5
420.28	484.5
420.503	482.5
420.726	504.5
420.948	482.5
421.171	506.5
421.394	527.5
421.617	506.5
421.839	480.5
422.062	472.5
422.285	486.5
422.507	561.5
422.73	586.5
422.953	567.5
423.175	529.5
423.398	521.5
423.621	501.5
423.843	533.5
424.066	492.5
424.288	523.5
424.511	505.5
424.733	554.5
424.956	618.5
425.178	591.5
425.401	582.5
425.623	645.5
425.846	523.5
426.068	508.5
426.291	496.5
426.513	497.5
426.735	510.5
426.958	531.5
427.18	603.5
427.402	713.5
427.625	757.5
427.847	647.5
428.069	592.5
428.292	531.5
428.514	485.5
428.736	469.5
428.958	462.5
429.181	465.5
429.403	457.5
429.625	451.5
429.847	488.5
430.069	543.5
430.292	551.5
430.514	496.5
430.736	473.5
430.958	469.5
431.18	452.5
431.402	450.5
431.624	425.5
431.846	443.5
432.068	442.5
432.29	452.5
432.512	446.5
432.734	429.5
432.956	455.5
433.178	457.5
433.4	463.5
433.622	449.5
433.844	443.5
434.066	449.5
434.287	437.5
434.509	466.5
434.731	455.5
434.953	470.5
435.175	470.5
435.397	507.5
435.618	507.5
435.84	529.5
436.062	598.5
436.284	655.5
436.505	553.5
436.727	498.5
436.949	483.5
437.17	440.5
437.392	446.5
437.614	470.5
437.835	466.5
438.057	567.5
438.278	628.5
438.5	633.5
438.721	713.5
438.943	670.5
439.165	550.5
439.386	518.5
439.608	505.5
439.829	486.5
440.05	526.5
440.272	541.5
440.493	523.5
440.715	478.5
440.936	450.5
441.158	467.5
441.379	470.5
441.6	488.5
441.822	486.5
442.043	527.5
442.264	600.5
442.486	643.5
442.707	565.5
442.928	496.5
443.149	526.5
443.371	542.5
443.592	552.5
443.813	641.5
444.034	670.5
444.255	585.5
444.476	526.5
444.698	537.5
444.919	530.5
445.14	595.5
445.361	556.5
445.582	544.5
445.803	593.5
446.024	634.5
446.245	656.5
446.466	621.5
446.687	524.5
446.908	484.5
447.129	478.5
447.35	463.5
447.571	467.5
447.792	453.5
448.013	454.5
448.234	468.5
448.455	500.5
448.675	594.5
448.896	683.5
449.117	592.5
449.338	573.5
449.559	635.5
449.779	707.5
450	587.5
450.221	482.5
450.442	468.5
450.662	443.5
450.883	439.5
451.104	451.5
451.324	447.5
451.545	428.5
451.766	404.5
451.986	384.5
452.207	405.5
452.428	418.5
452.648	407.5
452.869	412.5
453.089	421.5
453.31	420.5
453.53	401.5
453.751	384.5
453.971	414.5
454.192	411.5
454.412	398.5
454.633	395.5
454.853	418.5
455.073	394.5
455.294	415.5
455.514	470.5
455.734	460.5
455.955	400.5
456.175	394.5
456.395	373.5
456.616	370.5
456.836	396.5
457.056	386.5
457.276	367.5
457.497	407.5
457.717	407.5
457.937	396.5
458.157	390.5
458.377	411.5
458.598	449.5
458.818	465.5
459.038	511.5
459.258	527.5
459.478	484.5
459.698	442.5
459.918	442.5
460.138	460.5
460.358	443.5
460.578	470.5
460.798	459.5
461.018	466.5
461.238	440.5
461.458	465.5
461.678	440.5
461.898	472.5
462.118	464.5
462.338	469.5
462.558	502.5
462.777	487.5
462.997	502.5
463.217	480.5
463.437	516.5
463.657	489.5
463.876	475.5
464.096	505.5
464.316	470.5
464.536	487.5
464.755	472.5
464.975	460.5
465.195	529.5
465.414	540.5
465.634	487.5
465.854	445.5
466.073	426.5
466.293	432.5
466.512	413.5
466.732	423.5
466.951	421.5
467.171	413.5
467.391	415.5
467.61	414.5
467.829	420.5
468.049	408.5
468.268	391.5
468.488	383.5
468.707	419.5
468.927	419.5
469.146	416.5
469.365	414.5
469.585	403.5
469.804	412.5
470.023	413.5
470.243	417.5
470.462	417.5
470.681	440.5
470.901	442.5
471.12	397.5
471.339	439.5
471.558	425.5
471.777	450.5
471.997	429.5
472.216	403.5
472.435	438.5
472.654	427.5
472.873	418.5
473.092	401.5
473.311	431.5
473.53	416.5
473.749	418.5
473.968	469.5
474.187	550.5
474.406	556.5
474.625	456.5
474.844	439.5
475.063	422.5
475.282	428.5
475.501	401.5
475.72	425.5
475.939	405.5
476.158	432.5
476.377	440.5
476.596	429.5
476.814	449.5
477.033	425.5
477.252	430.5
477.471	460.5
477.69	459.5
477.908	463.5
478.127	453.5
478.346	454.5
478.564	446.5
478.783	476.5
479.002	482.5
479.22	481.5
479.439	490.5
479.658	512.5
479.876	512.5
480.095	499.5
480.313	525.5
480.532	534.5
480.751	534.5
480.969	525.5
481.188	564.5
481.406	551.5
481.624	492.5
481.843	496.5
482.061	497.5
482.28	488.5
482.498	487.5
482.717	478.5
482.935	474.5
483.153	465.5
483.372	491.5
483.59	481.5
483.808	479.5
484.027	504.5
484.245	491.5
484.463	508.5
484.681	500.5
484.9	514.5
485.118	484.5
485.336	497.5
485.554	492.5
485.772	492.5
485.99	492.5
486.209	491.5
486.427	519.5
486.645	515.5
486.863	527.5
487.081	519.5
487.299	523.5
487.517	504.5
487.735	508.5
487.953	505.5
488.171	519.5
488.389	516.5
488.607	511.5
488.825	524.5
489.043	509.5
489.261	547.5
489.479	506.5
489.696	510.5
489.914	516.5
490.132	533.5
490.35	536.5
490.568	543.5
490.786	534.5
491.003	551.5
491.221	568.5
491.439	539.5
491.657	567.5
491.874	582.5
492.092	578.5
492.31	568.5
492.527	544.5
492.745	573.5
492.963	572.5
493.18	574.5
493.398	589.5
493.615	595.5
493.833	586.5
494.05	600.5
494.268	578.5
494.485	604.5
494.703	592.5
494.92	597.5
495.138	584.5
495.355	614.5
495.573	595.5
495.79	609.5
496.008	602.5
496.225	626.5
496.442	596.5
496.66	612.5
496.877	585.5
497.094	601.5
497.312	611.5
497.529	642.5
497.746	642.5
497.963	655.5
498.181	664.5
498.398	686.5
498.615	690.5
498.832	711.5
499.049	711.5
499.267	744.5
499.484	786.5
499.701	831.5
499.918	843.5
500.135	890.5
500.352	946.5
500.569	954.5
500.786	1009.5
501.003	936.5
501.22	909.5
501.437	840.5
501.654	847.5
501.871	830.5
502.088	764.5
502.305	735.5
502.522	711.5
502.739	681.5
502.956	695.5
503.172	665.5
503.389	660.5
503.606	652.5
503.823	640.5
504.04	627.5
504.256	614.5
504.473	602.5
504.69	639.5
504.907	617.5
505.123	596.5
505.34	598.5
505.557	560.5
505.773	591.5
505.99	551.5
506.207	541.5
506.423	568.5
506.64	562.5
506.856	574.5
507.073	564.5
507.289	544.5
507.506	551.5
507.722	559.5
507.939	560.5
508.155	554.5
508.372	524.5
508.588	521.5
508.805	520.5
509.021	541.5
509.238	577.5
509.454	538.5
509.67	533.5
509.887	532.5
510.103	539.5
510.319	535.5
510.536	599.5
510.752	894.5
510.968	743.5
511.184	544.5
511.401	534.5
511.617	507.5
511.833	506.5
512.049	522.5
512.265	495.5
512.481	512.5
512.698	503.5
512.914	489.5
513.13	498.5
513.346	510.5
513.562	480.5
513.778	502.5
513.994	506.5
514.21	507.5
514.426	515.5
514.642	558.5
514.858	566.5
515.074	595.5
515.29	648.5
515.506	884.5
515.721	744.5
515.937	582.5
516.153	550.5
516.369	542.5
516.585	554.5
516.801	533.5
517.016	532.5
517.232	555.5
517.448	551.5
517.664	547.5
517.879	549.5
518.095	548.5
518.311	561.5
518.527	532.5
518.742	528.5
518.958	530.5
519.173	517.5
519.389	513.5
519.605	519.5
519.82	512.5
520.036	530.5
