Data from 1977.PennyLincolnUp.Lamp.En5.5.200Scan.071719.P1_HRD10591_16-07-47-864.txt Node
Date: Thu Jul 18 16:07:47 EDT 2019
User: cochatt
Spectrometer: HR+D1059
Trigger mode: 1
Integration Time (sec): 1.000000E-1
Scans to average: 1
Electric dark correction enabled: true
Nonlinearity correction enabled: false
Boxcar width: 0
XAxis mode: Wavelengths
Number of Pixels in Spectrum: 2048
>>>>>Begin Spectral Data<<<<<
223.165	-32.5
223.4	-32.5
223.635	-32.5
223.869	-25.5
224.104	-16.5
224.338	-11.5
224.573	-20.5
224.808	-7.5
225.042	1.5
225.277	-11.5
225.511	6.5
225.746	13.5
225.98	6.5
226.215	5.5
226.449	11.5
226.683	23.5
226.918	23.5
227.152	33.5
227.387	39.5
227.621	53.5
227.856	49.5
228.09	45.5
228.324	59.5
228.559	58.5
228.793	72.5
229.027	91.5
229.262	111.5
229.496	123.5
229.73	120.5
229.964	142.5
230.199	117.5
230.433	117.5
230.667	88.5
230.901	111.5
231.136	107.5
231.37	106.5
231.604	106.5
231.838	106.5
232.072	112.5
232.306	125.5
232.541	119.5
232.775	128.5
233.009	102.5
233.243	109.5
233.477	123.5
233.711	103.5
233.945	115.5
234.179	91.5
234.413	120.5
234.647	125.5
234.881	105.5
235.115	120.5
235.349	112.5
235.583	127.5
235.817	131.5
236.051	116.5
236.285	127.5
236.519	112.5
236.753	143.5
236.987	147.5
237.221	165.5
237.455	224.5
237.689	174.5
237.922	150.5
238.156	131.5
238.39	134.5
238.624	124.5
238.858	123.5
239.091	125.5
239.325	136.5
239.559	123.5
239.793	121.5
240.027	143.5
240.26	149.5
240.494	160.5
240.728	127.5
240.961	150.5
241.195	125.5
241.429	143.5
241.662	136.5
241.896	133.5
242.13	129.5
242.363	135.5
242.597	139.5
242.83	137.5
243.064	146.5
243.298	133.5
243.531	129.5
243.765	150.5
243.998	149.5
244.232	159.5
244.465	153.5
244.699	135.5
244.932	142.5
245.166	149.5
245.399	165.5
245.633	163.5
245.866	158.5
246.099	149.5
246.333	149.5
246.566	148.5
246.8	149.5
247.033	145.5
247.266	157.5
247.5	167.5
247.733	159.5
247.966	170.5
248.2	177.5
248.433	183.5
248.666	175.5
248.899	168.5
249.133	199.5
249.366	197.5
249.599	182.5
249.832	181.5
250.066	179.5
250.299	172.5
250.532	203.5
250.765	188.5
250.998	204.5
251.231	228.5
251.465	218.5
251.698	188.5
251.931	189.5
252.164	196.5
252.397	201.5
252.63	188.5
252.863	209.5
253.096	200.5
253.329	209.5
253.562	224.5
253.795	219.5
254.028	214.5
254.261	223.5
254.494	223.5
254.727	239.5
254.96	278.5
255.193	261.5
255.426	242.5
255.659	227.5
255.892	214.5
256.124	228.5
256.357	246.5
256.59	219.5
256.823	215.5
257.056	210.5
257.289	212.5
257.521	224.5
257.754	211.5
257.987	209.5
258.22	212.5
258.452	217.5
258.685	214.5
258.918	208.5
259.151	214.5
259.383	226.5
259.616	233.5
259.849	206.5
260.081	239.5
260.314	252.5
260.547	259.5
260.779	245.5
261.012	225.5
261.244	251.5
261.477	222.5
261.71	222.5
261.942	231.5
262.175	232.5
262.407	216.5
262.64	224.5
262.872	206.5
263.105	228.5
263.337	223.5
263.57	213.5
263.802	232.5
264.035	224.5
264.267	225.5
264.499	224.5
264.732	218.5
264.964	216.5
265.197	207.5
265.429	228.5
265.661	221.5
265.894	246.5
266.126	237.5
266.358	223.5
266.591	240.5
266.823	253.5
267.055	243.5
267.287	239.5
267.52	243.5
267.752	227.5
267.984	233.5
268.216	235.5
268.448	249.5
268.681	243.5
268.913	257.5
269.145	264.5
269.377	296.5
269.609	296.5
269.841	280.5
270.073	277.5
270.306	287.5
270.538	317.5
270.77	300.5
271.002	321.5
271.234	311.5
271.466	322.5
271.698	301.5
271.93	319.5
272.162	323.5
272.394	297.5
272.626	316.5
272.858	297.5
273.09	285.5
273.322	279.5
273.553	260.5
273.785	286.5
274.017	271.5
274.249	281.5
274.481	275.5
274.713	267.5
274.945	284.5
275.176	273.5
275.408	274.5
275.64	284.5
275.872	280.5
276.104	281.5
276.335	289.5
276.567	292.5
276.799	295.5
277.031	281.5
277.262	315.5
277.494	315.5
277.726	312.5
277.957	299.5
278.189	282.5
278.421	287.5
278.652	286.5
278.884	288.5
279.115	298.5
279.347	305.5
279.579	288.5
279.81	281.5
280.042	272.5
280.273	273.5
280.505	297.5
280.736	296.5
280.968	284.5
281.199	261.5
281.431	296.5
281.662	272.5
281.894	291.5
282.125	305.5
282.356	299.5
282.588	307.5
282.819	319.5
283.051	293.5
283.282	286.5
283.513	287.5
283.745	292.5
283.976	301.5
284.207	299.5
284.439	299.5
284.67	308.5
284.901	321.5
285.132	313.5
285.364	314.5
285.595	305.5
285.826	298.5
286.057	323.5
286.288	307.5
286.52	311.5
286.751	319.5
286.982	293.5
287.213	309.5
287.444	288.5
287.675	314.5
287.906	316.5
288.138	318.5
288.369	335.5
288.6	325.5
288.831	318.5
289.062	303.5
289.293	308.5
289.524	320.5
289.755	304.5
289.986	311.5
290.217	315.5
290.448	304.5
290.679	315.5
290.91	295.5
291.141	317.5
291.371	303.5
291.602	318.5
291.833	309.5
292.064	316.5
292.295	332.5
292.526	310.5
292.757	311.5
292.987	296.5
293.218	309.5
293.449	314.5
293.68	317.5
293.91	313.5
294.141	316.5
294.372	322.5
294.603	334.5
294.833	311.5
295.064	330.5
295.295	331.5
295.525	318.5
295.756	332.5
295.987	304.5
296.217	357.5
296.448	344.5
296.679	319.5
296.909	300.5
297.14	337.5
297.37	322.5
297.601	314.5
297.831	324.5
298.062	332.5
298.292	324.5
298.523	334.5
298.753	320.5
298.984	335.5
299.214	332.5
299.445	313.5
299.675	330.5
299.905	341.5
300.136	336.5
300.366	361.5
300.597	336.5
300.827	336.5
301.057	336.5
301.288	347.5
301.518	364.5
301.748	352.5
301.979	343.5
302.209	340.5
302.439	348.5
302.669	347.5
302.9	352.5
303.13	359.5
303.36	347.5
303.59	355.5
303.82	356.5
304.051	363.5
304.281	366.5
304.511	344.5
304.741	346.5
304.971	328.5
305.201	332.5
305.431	342.5
305.661	349.5
305.891	334.5
306.121	368.5
306.352	350.5
306.582	344.5
306.812	345.5
307.042	371.5
307.272	359.5
307.502	377.5
307.731	355.5
307.961	363.5
308.191	337.5
308.421	342.5
308.651	375.5
308.881	344.5
309.111	356.5
309.341	354.5
309.571	388.5
309.8	378.5
310.03	375.5
310.26	380.5
310.49	368.5
310.72	387.5
310.949	403.5
311.179	401.5
311.409	371.5
311.639	380.5
311.868	406.5
312.098	376.5
312.328	412.5
312.557	415.5
312.787	414.5
313.017	409.5
313.246	397.5
313.476	400.5
313.706	381.5
313.935	398.5
314.165	394.5
314.394	398.5
314.624	423.5
314.853	405.5
315.083	393.5
315.312	393.5
315.542	368.5
315.771	399.5
316.001	377.5
316.23	393.5
316.46	395.5
316.689	396.5
316.919	419.5
317.148	396.5
317.377	413.5
317.607	402.5
317.836	397.5
318.065	381.5
318.295	385.5
318.524	397.5
318.753	373.5
318.983	386.5
319.212	390.5
319.441	392.5
319.67	402.5
319.9	425.5
320.129	398.5
320.358	401.5
320.587	401.5
320.816	398.5
321.046	405.5
321.275	413.5
321.504	425.5
321.733	422.5
321.962	445.5
322.191	423.5
322.42	433.5
322.649	459.5
322.878	441.5
323.108	449.5
323.337	461.5
323.566	500.5
323.795	507.5
324.024	543.5
324.253	631.5
324.482	879.5
324.71	1334.5
324.939	1894.5
325.168	1621.5
325.397	854.5
325.626	607.5
325.855	524.5
326.084	490.5
326.313	501.5
326.542	495.5
326.77	537.5
326.999	629.5
327.228	815.5
327.457	1163.5
327.686	1373.5
327.914	951.5
328.143	652.5
328.372	569.5
328.6	531.5
328.829	524.5
329.058	545.5
329.287	539.5
329.515	536.5
329.744	504.5
329.972	498.5
330.201	520.5
330.43	533.5
330.658	557.5
330.887	562.5
331.115	567.5
331.344	506.5
331.572	488.5
331.801	505.5
332.03	504.5
332.258	466.5
332.486	479.5
332.715	440.5
332.943	481.5
333.172	471.5
333.4	484.5
333.629	465.5
333.857	494.5
334.085	507.5
334.314	501.5
334.542	523.5
334.771	557.5
334.999	501.5
335.227	463.5
335.455	459.5
335.684	487.5
335.912	465.5
336.14	493.5
336.369	469.5
336.597	467.5
336.825	451.5
337.053	471.5
337.281	453.5
337.51	455.5
337.738	455.5
337.966	463.5
338.194	438.5
338.422	439.5
338.65	442.5
338.878	450.5
339.106	455.5
339.334	447.5
339.562	440.5
339.79	446.5
340.018	451.5
340.246	431.5
340.474	459.5
340.702	451.5
340.93	465.5
341.158	435.5
341.386	428.5
341.614	445.5
341.842	419.5
342.07	444.5
342.298	428.5
342.526	415.5
342.754	428.5
342.981	413.5
343.209	421.5
343.437	428.5
343.665	444.5
343.893	464.5
344.12	473.5
344.348	448.5
344.576	462.5
344.804	452.5
345.031	475.5
345.259	463.5
345.487	451.5
345.714	452.5
345.942	424.5
346.17	446.5
346.397	419.5
346.625	405.5
346.853	411.5
347.08	432.5
347.308	411.5
347.535	433.5
347.763	428.5
347.99	439.5
348.218	435.5
348.445	415.5
348.673	419.5
348.9	412.5
349.128	415.5
349.355	411.5
349.583	399.5
349.81	397.5
350.037	406.5
350.265	409.5
350.492	423.5
350.72	406.5
350.947	411.5
351.174	423.5
351.402	422.5
351.629	412.5
351.856	423.5
352.083	416.5
352.311	416.5
352.538	423.5
352.765	425.5
352.992	420.5
353.22	400.5
353.447	436.5
353.674	428.5
353.901	407.5
354.128	417.5
354.355	389.5
354.583	393.5
354.81	400.5
355.037	399.5
355.264	382.5
355.491	393.5
355.718	388.5
355.945	385.5
356.172	384.5
356.399	395.5
356.626	388.5
356.853	388.5
357.08	377.5
357.307	397.5
357.534	406.5
357.761	383.5
357.988	395.5
358.215	377.5
358.441	395.5
358.668	365.5
358.895	381.5
359.122	406.5
359.349	382.5
359.576	414.5
359.802	411.5
360.029	431.5
360.256	458.5
360.483	420.5
360.709	422.5
360.936	396.5
361.163	409.5
361.39	412.5
361.616	410.5
361.843	419.5
362.07	404.5
362.296	417.5
362.523	414.5
362.749	415.5
362.976	416.5
363.203	405.5
363.429	391.5
363.656	380.5
363.882	379.5
364.109	373.5
364.335	384.5
364.562	379.5
364.788	367.5
365.015	376.5
365.241	399.5
365.468	423.5
365.694	400.5
365.92	407.5
366.147	399.5
366.373	399.5
366.599	400.5
366.826	397.5
367.052	383.5
367.278	387.5
367.505	380.5
367.731	391.5
367.957	395.5
368.184	402.5
368.41	422.5
368.636	400.5
368.862	405.5
369.089	400.5
369.315	373.5
369.541	411.5
369.767	414.5
369.993	396.5
370.219	407.5
370.445	389.5
370.672	403.5
370.898	387.5
371.124	397.5
371.35	382.5
371.576	380.5
371.802	381.5
372.028	395.5
372.254	389.5
372.48	410.5
372.706	407.5
372.932	382.5
373.158	398.5
373.384	406.5
373.61	392.5
373.835	379.5
374.061	380.5
374.287	401.5
374.513	400.5
374.739	403.5
374.965	383.5
375.191	405.5
375.416	392.5
375.642	395.5
375.868	408.5
376.094	396.5
376.319	405.5
376.545	411.5
376.771	384.5
376.997	405.5
377.222	392.5
377.448	394.5
377.674	381.5
377.899	385.5
378.125	378.5
378.35	375.5
378.576	393.5
378.802	396.5
379.027	392.5
379.253	386.5
379.478	382.5
379.704	387.5
379.929	377.5
380.155	389.5
380.38	383.5
380.606	385.5
380.831	377.5
381.057	375.5
381.282	384.5
381.507	378.5
381.733	409.5
381.958	395.5
382.184	395.5
382.409	395.5
382.634	399.5
382.86	393.5
383.085	401.5
383.31	392.5
383.535	390.5
383.761	402.5
383.986	410.5
384.211	400.5
384.436	407.5
384.662	427.5
384.887	423.5
385.112	409.5
385.337	395.5
385.562	432.5
385.787	439.5
386.013	441.5
386.238	428.5
386.463	439.5
386.688	412.5
386.913	422.5
387.138	432.5
387.363	410.5
387.588	424.5
387.813	415.5
388.038	409.5
388.263	439.5
388.488	422.5
388.713	432.5
388.938	432.5
389.163	421.5
389.387	425.5
389.612	393.5
389.837	424.5
390.062	432.5
390.287	437.5
390.512	428.5
390.736	439.5
390.961	406.5
391.186	438.5
391.411	429.5
391.636	416.5
391.86	431.5
392.085	443.5
392.31	438.5
392.534	430.5
392.759	432.5
392.984	420.5
393.208	431.5
393.433	435.5
393.658	424.5
393.882	418.5
394.107	452.5
394.331	436.5
394.556	428.5
394.78	420.5
395.005	439.5
395.229	427.5
395.454	443.5
395.678	447.5
395.903	462.5
396.127	488.5
396.352	479.5
396.576	446.5
396.801	432.5
397.025	431.5
397.249	438.5
397.474	461.5
397.698	443.5
397.922	475.5
398.147	490.5
398.371	502.5
398.595	448.5
398.82	482.5
399.044	491.5
399.268	532.5
399.492	540.5
399.717	577.5
399.941	607.5
400.165	604.5
400.389	613.5
400.613	565.5
400.837	532.5
401.062	505.5
401.286	479.5
401.51	494.5
401.734	468.5
401.958	485.5
402.182	481.5
402.406	479.5
402.63	496.5
402.854	491.5
403.078	499.5
403.302	499.5
403.526	522.5
403.75	505.5
403.974	506.5
404.198	503.5
404.422	528.5
404.645	528.5
404.869	506.5
405.093	526.5
405.317	542.5
405.541	591.5
405.765	539.5
405.988	509.5
406.212	550.5
406.436	555.5
406.66	552.5
406.883	561.5
407.107	563.5
407.331	593.5
407.555	653.5
407.778	663.5
408.002	605.5
408.226	565.5
408.449	533.5
408.673	549.5
408.896	553.5
409.12	611.5
409.344	563.5
409.567	525.5
409.791	527.5
410.014	495.5
410.238	505.5
410.461	494.5
410.685	502.5
410.908	483.5
411.132	551.5
411.355	569.5
411.578	534.5
411.802	499.5
412.025	493.5
412.249	504.5
412.472	525.5
412.695	523.5
412.919	534.5
413.142	506.5
413.365	472.5
413.589	478.5
413.812	494.5
414.035	464.5
414.258	459.5
414.482	458.5
414.705	458.5
414.928	464.5
415.151	461.5
415.374	464.5
415.597	453.5
415.821	474.5
416.044	477.5
416.267	465.5
416.49	472.5
416.713	451.5
416.936	437.5
417.159	478.5
417.382	451.5
417.605	467.5
417.828	464.5
418.051	475.5
418.274	484.5
418.497	479.5
418.72	481.5
418.943	464.5
419.166	483.5
419.389	497.5
419.611	516.5
419.834	495.5
420.057	495.5
420.28	510.5
420.503	496.5
420.726	479.5
420.948	480.5
421.171	507.5
421.394	540.5
421.617	508.5
421.839	484.5
422.062	494.5
422.285	503.5
422.507	554.5
422.73	599.5
422.953	576.5
423.175	522.5
423.398	518.5
423.621	488.5
423.843	517.5
424.066	511.5
424.288	524.5
424.511	542.5
424.733	588.5
424.956	659.5
425.178	612.5
425.401	623.5
425.623	637.5
425.846	548.5
426.068	519.5
426.291	515.5
426.513	506.5
426.735	515.5
426.958	548.5
427.18	607.5
427.402	715.5
427.625	801.5
427.847	676.5
428.069	596.5
428.292	544.5
428.514	523.5
428.736	475.5
428.958	450.5
429.181	468.5
429.403	447.5
429.625	462.5
429.847	491.5
430.069	550.5
430.292	558.5
430.514	470.5
430.736	461.5
430.958	480.5
431.18	462.5
431.402	447.5
431.624	442.5
431.846	414.5
432.068	454.5
432.29	440.5
432.512	459.5
432.734	429.5
432.956	447.5
433.178	464.5
433.4	433.5
433.622	448.5
433.844	448.5
434.066	427.5
434.287	439.5
434.509	459.5
434.731	465.5
434.953	460.5
435.175	473.5
435.397	505.5
435.618	510.5
435.84	542.5
436.062	636.5
436.284	677.5
436.505	550.5
436.727	529.5
436.949	484.5
437.17	456.5
437.392	475.5
437.614	481.5
437.835	506.5
438.057	582.5
438.278	666.5
438.5	647.5
438.721	775.5
438.943	702.5
439.165	549.5
439.386	520.5
439.608	520.5
439.829	516.5
440.05	532.5
440.272	563.5
440.493	526.5
440.715	503.5
440.936	479.5
441.158	472.5
441.379	472.5
441.6	500.5
441.822	497.5
442.043	505.5
442.264	567.5
442.486	640.5
442.707	533.5
442.928	507.5
443.149	503.5
443.371	537.5
443.592	578.5
443.813	647.5
444.034	692.5
444.255	583.5
444.476	522.5
444.698	524.5
444.919	530.5
445.14	635.5
445.361	581.5
445.582	555.5
445.803	599.5
446.024	677.5
446.245	675.5
446.466	633.5
446.687	531.5
446.908	499.5
447.129	491.5
447.35	463.5
447.571	471.5
447.792	453.5
448.013	429.5
448.234	479.5
448.455	515.5
448.675	607.5
448.896	725.5
449.117	605.5
449.338	571.5
449.559	672.5
449.779	736.5
450	583.5
450.221	499.5
450.442	456.5
450.662	457.5
450.883	423.5
451.104	439.5
451.324	440.5
451.545	437.5
451.766	434.5
451.986	409.5
452.207	400.5
452.428	413.5
452.648	413.5
452.869	406.5
453.089	430.5
453.31	423.5
453.53	408.5
453.751	418.5
453.971	408.5
454.192	415.5
454.412	428.5
454.633	394.5
454.853	400.5
455.073	411.5
455.294	443.5
455.514	474.5
455.734	474.5
455.955	416.5
456.175	397.5
456.395	396.5
456.616	379.5
456.836	394.5
457.056	379.5
457.276	376.5
457.497	395.5
457.717	391.5
457.937	414.5
458.157	398.5
458.377	396.5
458.598	414.5
458.818	449.5
459.038	516.5
459.258	537.5
459.478	486.5
459.698	443.5
459.918	452.5
460.138	444.5
460.358	437.5
460.578	457.5
460.798	475.5
461.018	440.5
461.238	452.5
461.458	441.5
461.678	456.5
461.898	459.5
462.118	449.5
462.338	469.5
462.558	448.5
462.777	473.5
462.997	495.5
463.217	518.5
463.437	527.5
463.657	504.5
463.876	474.5
464.096	513.5
464.316	480.5
464.536	485.5
464.755	510.5
464.975	478.5
465.195	480.5
465.414	542.5
465.634	495.5
465.854	449.5
466.073	439.5
466.293	458.5
466.512	437.5
466.732	425.5
466.951	408.5
467.171	400.5
467.391	413.5
467.61	410.5
467.829	424.5
468.049	407.5
468.268	393.5
468.488	429.5
468.707	395.5
468.927	403.5
469.146	417.5
469.365	414.5
469.585	408.5
469.804	415.5
470.023	428.5
470.243	421.5
470.462	418.5
470.681	453.5
470.901	430.5
471.12	433.5
471.339	422.5
471.558	405.5
471.777	435.5
471.997	413.5
472.216	439.5
472.435	445.5
472.654	443.5
472.873	422.5
473.092	428.5
473.311	409.5
473.53	439.5
473.749	419.5
473.968	485.5
474.187	568.5
474.406	578.5
474.625	482.5
474.844	421.5
475.063	437.5
475.282	433.5
475.501	407.5
475.72	443.5
475.939	429.5
476.158	431.5
476.377	435.5
476.596	412.5
476.814	419.5
477.033	419.5
477.252	450.5
477.471	453.5
477.69	473.5
477.908	465.5
478.127	462.5
478.346	455.5
478.564	462.5
478.783	455.5
479.002	460.5
479.22	469.5
479.439	470.5
479.658	483.5
479.876	493.5
480.095	500.5
480.313	526.5
480.532	530.5
480.751	547.5
480.969	528.5
481.188	545.5
481.406	549.5
481.624	529.5
481.843	495.5
482.061	511.5
482.28	492.5
482.498	513.5
482.717	504.5
482.935	482.5
483.153	499.5
483.372	489.5
483.59	501.5
483.808	493.5
484.027	464.5
484.245	490.5
484.463	500.5
484.681	507.5
484.9	486.5
485.118	484.5
485.336	488.5
485.554	524.5
485.772	509.5
485.99	517.5
486.209	515.5
486.427	526.5
486.645	523.5
486.863	535.5
487.081	511.5
487.299	498.5
487.517	524.5
487.735	517.5
487.953	520.5
488.171	526.5
488.389	523.5
488.607	492.5
488.825	529.5
489.043	513.5
489.261	517.5
489.479	516.5
489.696	532.5
489.914	540.5
490.132	535.5
490.35	543.5
490.568	550.5
490.786	545.5
491.003	551.5
491.221	548.5
491.439	575.5
491.657	566.5
491.874	587.5
492.092	582.5
492.31	585.5
492.527	565.5
492.745	595.5
492.963	591.5
493.18	581.5
493.398	597.5
493.615	600.5
493.833	596.5
494.05	585.5
494.268	608.5
494.485	623.5
494.703	624.5
494.92	590.5
495.138	583.5
495.355	589.5
495.573	634.5
495.79	629.5
496.008	611.5
496.225	618.5
496.442	628.5
496.66	599.5
496.877	609.5
497.094	623.5
497.312	625.5
497.529	633.5
497.746	625.5
497.963	647.5
498.181	679.5
498.398	685.5
498.615	684.5
498.832	711.5
499.049	692.5
499.267	744.5
499.484	792.5
499.701	811.5
499.918	841.5
500.135	895.5
500.352	931.5
500.569	938.5
500.786	961.5
501.003	959.5
501.22	908.5
501.437	874.5
501.654	811.5
501.871	829.5
502.088	769.5
502.305	724.5
502.522	710.5
502.739	681.5
502.956	679.5
503.172	680.5
503.389	648.5
503.606	656.5
503.823	625.5
504.04	609.5
504.256	622.5
504.473	642.5
504.69	629.5
504.907	624.5
505.123	583.5
505.34	599.5
505.557	592.5
505.773	574.5
505.99	580.5
506.207	597.5
506.423	591.5
506.64	583.5
506.856	566.5
507.073	552.5
507.289	569.5
507.506	560.5
507.722	558.5
507.939	560.5
508.155	544.5
508.372	549.5
508.588	543.5
508.805	539.5
509.021	579.5
509.238	557.5
509.454	567.5
509.67	559.5
509.887	557.5
510.103	546.5
510.319	535.5
510.536	592.5
510.752	868.5
510.968	731.5
511.184	558.5
511.401	497.5
511.617	501.5
511.833	507.5
512.049	516.5
512.265	505.5
512.481	508.5
512.698	516.5
512.914	503.5
513.13	513.5
513.346	509.5
513.562	523.5
513.778	517.5
513.994	501.5
514.21	516.5
514.426	525.5
514.642	549.5
514.858	577.5
515.074	601.5
515.29	648.5
515.506	897.5
515.721	746.5
515.937	606.5
516.153	565.5
516.369	548.5
516.585	539.5
516.801	556.5
517.016	550.5
517.232	543.5
517.448	539.5
517.664	565.5
517.879	566.5
518.095	542.5
518.311	530.5
518.527	524.5
518.742	526.5
518.958	505.5
519.173	525.5
519.389	520.5
519.605	488.5
519.82	505.5
520.036	518.5
