Data from 1977.PennyLincolnUp.Lamp.En5.5.200Scan.071719.P1_HRD10591_16-07-21-864.txt Node
Date: Thu Jul 18 16:07:21 EDT 2019
User: cochatt
Spectrometer: HR+D1059
Trigger mode: 1
Integration Time (sec): 1.000000E-1
Scans to average: 1
Electric dark correction enabled: true
Nonlinearity correction enabled: false
Boxcar width: 0
XAxis mode: Wavelengths
Number of Pixels in Spectrum: 2048
>>>>>Begin Spectral Data<<<<<
223.165	-3.38
223.4	-3.38
223.635	-3.38
223.869	-19.38
224.104	-14.38
224.338	-25.38
224.573	-11.38
224.808	-16.38
225.042	-7.38
225.277	7.62
225.511	-6.38
225.746	-8.38
225.98	2.62
226.215	13.62
226.449	12.62
226.683	22.62
226.918	27.62
227.152	25.62
227.387	25.62
227.621	37.62
227.856	46.62
228.09	40.62
228.324	58.62
228.559	67.62
228.793	69.62
229.027	94.62
229.262	87.62
229.496	103.62
229.73	105.62
229.964	134.62
230.199	126.62
230.433	130.62
230.667	118.62
230.901	113.62
231.136	100.62
231.37	114.62
231.604	107.62
231.838	108.62
232.072	104.62
232.306	103.62
232.541	118.62
232.775	95.62
233.009	103.62
233.243	114.62
233.477	112.62
233.711	115.62
233.945	108.62
234.179	108.62
234.413	120.62
234.647	123.62
234.881	137.62
235.115	108.62
235.349	119.62
235.583	99.62
235.817	118.62
236.051	128.62
236.285	125.62
236.519	110.62
236.753	121.62
236.987	124.62
237.221	182.62
237.455	218.62
237.689	172.62
237.922	150.62
238.156	136.62
238.39	138.62
238.624	130.62
238.858	121.62
239.091	124.62
239.325	128.62
239.559	120.62
239.793	126.62
240.027	133.62
240.26	136.62
240.494	152.62
240.728	151.62
240.961	141.62
241.195	135.62
241.429	127.62
241.662	126.62
241.896	134.62
242.13	150.62
242.363	143.62
242.597	126.62
242.83	140.62
243.064	131.62
243.298	134.62
243.531	140.62
243.765	134.62
243.998	144.62
244.232	128.62
244.465	149.62
244.699	141.62
244.932	155.62
245.166	158.62
245.399	153.62
245.633	151.62
245.866	158.62
246.099	151.62
246.333	164.62
246.566	172.62
246.8	165.62
247.033	149.62
247.266	159.62
247.5	165.62
247.733	153.62
247.966	158.62
248.2	162.62
248.433	163.62
248.666	160.62
248.899	182.62
249.133	191.62
249.366	195.62
249.599	188.62
249.832	167.62
250.066	196.62
250.299	181.62
250.532	181.62
250.765	205.62
250.998	221.62
251.231	217.62
251.465	191.62
251.698	193.62
251.931	200.62
252.164	198.62
252.397	207.62
252.63	199.62
252.863	208.62
253.096	224.62
253.329	221.62
253.562	226.62
253.795	224.62
254.028	212.62
254.261	223.62
254.494	198.62
254.727	249.62
254.96	285.62
255.193	273.62
255.426	246.62
255.659	231.62
255.892	238.62
256.124	233.62
256.357	227.62
256.59	222.62
256.823	206.62
257.056	221.62
257.289	205.62
257.521	223.62
257.754	203.62
257.987	206.62
258.22	205.62
258.452	215.62
258.685	204.62
258.918	208.62
259.151	205.62
259.383	207.62
259.616	222.62
259.849	229.62
260.081	237.62
260.314	251.62
260.547	260.62
260.779	250.62
261.012	232.62
261.244	218.62
261.477	222.62
261.71	220.62
261.942	224.62
262.175	238.62
262.407	231.62
262.64	205.62
262.872	215.62
263.105	235.62
263.337	214.62
263.57	240.62
263.802	215.62
264.035	190.62
264.267	205.62
264.499	213.62
264.732	213.62
264.964	210.62
265.197	215.62
265.429	241.62
265.661	226.62
265.894	225.62
266.126	235.62
266.358	238.62
266.591	213.62
266.823	227.62
267.055	233.62
267.287	217.62
267.52	223.62
267.752	232.62
267.984	213.62
268.216	237.62
268.448	232.62
268.681	247.62
268.913	270.62
269.145	266.62
269.377	272.62
269.609	274.62
269.841	291.62
270.073	278.62
270.306	295.62
270.538	300.62
270.77	310.62
271.002	296.62
271.234	301.62
271.466	283.62
271.698	306.62
271.93	318.62
272.162	320.62
272.394	305.62
272.626	323.62
272.858	293.62
273.09	279.62
273.322	280.62
273.553	276.62
273.785	249.62
274.017	281.62
274.249	297.62
274.481	295.62
274.713	269.62
274.945	284.62
275.176	293.62
275.408	280.62
275.64	295.62
275.872	262.62
276.104	258.62
276.335	272.62
276.567	273.62
276.799	284.62
277.031	298.62
277.262	294.62
277.494	324.62
277.726	323.62
277.957	299.62
278.189	302.62
278.421	286.62
278.652	276.62
278.884	283.62
279.115	303.62
279.347	286.62
279.579	292.62
279.81	287.62
280.042	285.62
280.273	264.62
280.505	283.62
280.736	290.62
280.968	288.62
281.199	275.62
281.431	287.62
281.662	281.62
281.894	289.62
282.125	274.62
282.356	294.62
282.588	299.62
282.819	331.62
283.051	303.62
283.282	284.62
283.513	309.62
283.745	304.62
283.976	283.62
284.207	301.62
284.439	312.62
284.67	296.62
284.901	297.62
285.132	303.62
285.364	281.62
285.595	297.62
285.826	293.62
286.057	297.62
286.288	310.62
286.52	285.62
286.751	311.62
286.982	292.62
287.213	293.62
287.444	311.62
287.675	314.62
287.906	299.62
288.138	306.62
288.369	313.62
288.6	316.62
288.831	312.62
289.062	303.62
289.293	314.62
289.524	310.62
289.755	307.62
289.986	292.62
290.217	308.62
290.448	302.62
290.679	298.62
290.91	316.62
291.141	283.62
291.371	297.62
291.602	308.62
291.833	293.62
292.064	314.62
292.295	325.62
292.526	308.62
292.757	325.62
292.987	316.62
293.218	290.62
293.449	308.62
293.68	331.62
293.91	314.62
294.141	302.62
294.372	297.62
294.603	310.62
294.833	301.62
295.064	303.62
295.295	323.62
295.525	322.62
295.756	328.62
295.987	318.62
296.217	318.62
296.448	343.62
296.679	319.62
296.909	312.62
297.14	316.62
297.37	318.62
297.601	325.62
297.831	335.62
298.062	325.62
298.292	336.62
298.523	322.62
298.753	336.62
298.984	318.62
299.214	336.62
299.445	324.62
299.675	343.62
299.905	324.62
300.136	340.62
300.366	332.62
300.597	337.62
300.827	326.62
301.057	345.62
301.288	343.62
301.518	353.62
301.748	341.62
301.979	357.62
302.209	340.62
302.439	335.62
302.669	341.62
302.9	351.62
303.13	341.62
303.36	332.62
303.59	361.62
303.82	345.62
304.051	344.62
304.281	362.62
304.511	353.62
304.741	352.62
304.971	336.62
305.201	358.62
305.431	347.62
305.661	370.62
305.891	360.62
306.121	365.62
306.352	370.62
306.582	357.62
306.812	358.62
307.042	375.62
307.272	344.62
307.502	352.62
307.731	355.62
307.961	339.62
308.191	343.62
308.421	362.62
308.651	359.62
308.881	359.62
309.111	367.62
309.341	362.62
309.571	367.62
309.8	367.62
310.03	371.62
310.26	386.62
310.49	377.62
310.72	406.62
310.949	394.62
311.179	389.62
311.409	386.62
311.639	385.62
311.868	396.62
312.098	401.62
312.328	399.62
312.557	386.62
312.787	388.62
313.017	406.62
313.246	410.62
313.476	387.62
313.706	383.62
313.935	386.62
314.165	406.62
314.394	406.62
314.624	387.62
314.853	394.62
315.083	402.62
315.312	378.62
315.542	397.62
315.771	387.62
316.001	409.62
316.23	388.62
316.46	396.62
316.689	382.62
316.919	378.62
317.148	398.62
317.377	414.62
317.607	403.62
317.836	403.62
318.065	371.62
318.295	380.62
318.524	384.62
318.753	408.62
318.983	404.62
319.212	415.62
319.441	390.62
319.67	393.62
319.9	394.62
320.129	424.62
320.358	408.62
320.587	401.62
320.816	395.62
321.046	419.62
321.275	396.62
321.504	390.62
321.733	418.62
321.962	418.62
322.191	426.62
322.42	436.62
322.649	442.62
322.878	458.62
323.108	462.62
323.337	461.62
323.566	479.62
323.795	492.62
324.024	542.62
324.253	648.62
324.482	898.62
324.71	1366.62
324.939	1818.62
325.168	1586.62
325.397	822.62
325.626	597.62
325.855	520.62
326.084	496.62
326.313	468.62
326.542	506.62
326.77	502.62
326.999	624.62
327.228	822.62
327.457	1163.62
327.686	1391.62
327.914	934.62
328.143	643.62
328.372	600.62
328.6	570.62
328.829	539.62
329.058	519.62
329.287	519.62
329.515	531.62
329.744	509.62
329.972	499.62
330.201	510.62
330.43	542.62
330.658	536.62
330.887	569.62
331.115	535.62
331.344	503.62
331.572	480.62
331.801	500.62
332.03	502.62
332.258	474.62
332.486	463.62
332.715	466.62
332.943	481.62
333.172	478.62
333.4	474.62
333.629	472.62
333.857	488.62
334.085	512.62
334.314	529.62
334.542	548.62
334.771	541.62
334.999	507.62
335.227	491.62
335.455	470.62
335.684	474.62
335.912	470.62
336.14	472.62
336.369	455.62
336.597	460.62
336.825	468.62
337.053	465.62
337.281	445.62
337.51	438.62
337.738	492.62
337.966	457.62
338.194	464.62
338.422	438.62
338.65	435.62
338.878	438.62
339.106	446.62
339.334	439.62
339.562	436.62
339.79	429.62
340.018	428.62
340.246	445.62
340.474	419.62
340.702	443.62
340.93	452.62
341.158	447.62
341.386	426.62
341.614	417.62
341.842	436.62
342.07	427.62
342.298	423.62
342.526	421.62
342.754	425.62
342.981	442.62
343.209	424.62
343.437	432.62
343.665	441.62
343.893	436.62
344.12	465.62
344.348	458.62
344.576	463.62
344.804	444.62
345.031	435.62
345.259	456.62
345.487	428.62
345.714	440.62
345.942	427.62
346.17	403.62
346.397	416.62
346.625	419.62
346.853	423.62
347.08	411.62
347.308	408.62
347.535	437.62
347.763	413.62
347.99	431.62
348.218	430.62
348.445	410.62
348.673	407.62
348.9	413.62
349.128	426.62
349.355	405.62
349.583	397.62
349.81	396.62
350.037	408.62
350.265	407.62
350.492	387.62
350.72	406.62
350.947	410.62
351.174	419.62
351.402	414.62
351.629	427.62
351.856	414.62
352.083	436.62
352.311	443.62
352.538	415.62
352.765	416.62
352.992	405.62
353.22	429.62
353.447	419.62
353.674	401.62
353.901	389.62
354.128	391.62
354.355	410.62
354.583	408.62
354.81	394.62
355.037	399.62
355.264	389.62
355.491	393.62
355.718	384.62
355.945	380.62
356.172	380.62
356.399	399.62
356.626	376.62
356.853	374.62
357.08	393.62
357.307	383.62
357.534	392.62
357.761	375.62
357.988	382.62
358.215	379.62
358.441	401.62
358.668	387.62
358.895	395.62
359.122	415.62
359.349	377.62
359.576	406.62
359.802	419.62
360.029	434.62
360.256	421.62
360.483	428.62
360.709	421.62
360.936	389.62
361.163	412.62
361.39	406.62
361.616	413.62
361.843	402.62
362.07	399.62
362.296	405.62
362.523	407.62
362.749	423.62
362.976	397.62
363.203	405.62
363.429	397.62
363.656	380.62
363.882	390.62
364.109	382.62
364.335	392.62
364.562	381.62
364.788	389.62
365.015	390.62
365.241	397.62
365.468	405.62
365.694	394.62
365.92	378.62
366.147	393.62
366.373	408.62
366.599	374.62
366.826	366.62
367.052	395.62
367.278	394.62
367.505	373.62
367.731	403.62
367.957	395.62
368.184	403.62
368.41	387.62
368.636	403.62
368.862	393.62
369.089	401.62
369.315	375.62
369.541	393.62
369.767	377.62
369.993	389.62
370.219	385.62
370.445	400.62
370.672	380.62
370.898	376.62
371.124	404.62
371.35	396.62
371.576	373.62
371.802	368.62
372.028	400.62
372.254	390.62
372.48	390.62
372.706	401.62
372.932	402.62
373.158	381.62
373.384	394.62
373.61	410.62
373.835	376.62
374.061	392.62
374.287	401.62
374.513	412.62
374.739	400.62
374.965	392.62
375.191	398.62
375.416	413.62
375.642	397.62
375.868	413.62
376.094	373.62
376.319	403.62
376.545	390.62
376.771	380.62
376.997	367.62
377.222	371.62
377.448	376.62
377.674	368.62
377.899	390.62
378.125	388.62
378.35	374.62
378.576	384.62
378.802	383.62
379.027	391.62
379.253	409.62
379.478	387.62
379.704	391.62
379.929	353.62
380.155	393.62
380.38	390.62
380.606	388.62
380.831	404.62
381.057	399.62
381.282	383.62
381.507	408.62
381.733	402.62
381.958	396.62
382.184	400.62
382.409	404.62
382.634	388.62
382.86	398.62
383.085	407.62
383.31	380.62
383.535	409.62
383.761	409.62
383.986	408.62
384.211	412.62
384.436	406.62
384.662	417.62
384.887	401.62
385.112	424.62
385.337	410.62
385.562	436.62
385.787	419.62
386.013	423.62
386.238	429.62
386.463	429.62
386.688	436.62
386.913	418.62
387.138	425.62
387.363	427.62
387.588	435.62
387.813	424.62
388.038	420.62
388.263	454.62
388.488	424.62
388.713	428.62
388.938	425.62
389.163	407.62
389.387	431.62
389.612	420.62
389.837	413.62
390.062	415.62
390.287	422.62
390.512	406.62
390.736	409.62
390.961	435.62
391.186	424.62
391.411	450.62
391.636	437.62
391.86	423.62
392.085	437.62
392.31	445.62
392.534	439.62
392.759	436.62
392.984	417.62
393.208	431.62
393.433	446.62
393.658	418.62
393.882	424.62
394.107	428.62
394.331	429.62
394.556	429.62
394.78	445.62
395.005	438.62
395.229	437.62
395.454	422.62
395.678	448.62
395.903	450.62
396.127	464.62
396.352	457.62
396.576	441.62
396.801	467.62
397.025	443.62
397.249	440.62
397.474	463.62
397.698	443.62
397.922	460.62
398.147	475.62
398.371	472.62
398.595	472.62
398.82	479.62
399.044	501.62
399.268	540.62
399.492	556.62
399.717	573.62
399.941	582.62
400.165	602.62
400.389	596.62
400.613	567.62
400.837	532.62
401.062	503.62
401.286	501.62
401.51	486.62
401.734	479.62
401.958	490.62
402.182	491.62
402.406	460.62
402.63	487.62
402.854	470.62
403.078	475.62
403.302	492.62
403.526	520.62
403.75	498.62
403.974	492.62
404.198	500.62
404.422	500.62
404.645	485.62
404.869	524.62
405.093	534.62
405.317	568.62
405.541	571.62
405.765	563.62
405.988	546.62
406.212	528.62
406.436	533.62
406.66	532.62
406.883	507.62
407.107	548.62
407.331	595.62
407.555	651.62
407.778	648.62
408.002	586.62
408.226	567.62
408.449	540.62
408.673	541.62
408.896	575.62
409.12	592.62
409.344	560.62
409.567	515.62
409.791	519.62
410.014	510.62
410.238	474.62
410.461	499.62
410.685	494.62
410.908	502.62
411.132	548.62
411.355	571.62
411.578	528.62
411.802	516.62
412.025	505.62
412.249	488.62
412.472	530.62
412.695	564.62
412.919	556.62
413.142	512.62
413.365	490.62
413.589	471.62
413.812	468.62
414.035	489.62
414.258	470.62
414.482	450.62
414.705	470.62
414.928	466.62
415.151	462.62
415.374	470.62
415.597	458.62
415.821	450.62
416.044	462.62
416.267	458.62
416.49	456.62
416.713	466.62
416.936	461.62
417.159	474.62
417.382	476.62
417.605	445.62
417.828	469.62
418.051	481.62
418.274	482.62
418.497	448.62
418.72	454.62
418.943	476.62
419.166	507.62
419.389	529.62
419.611	498.62
419.834	493.62
420.057	499.62
420.28	476.62
420.503	492.62
420.726	486.62
420.948	504.62
421.171	514.62
421.394	562.62
421.617	508.62
421.839	495.62
422.062	483.62
422.285	500.62
422.507	554.62
422.73	603.62
422.953	571.62
423.175	525.62
423.398	516.62
423.621	516.62
423.843	524.62
424.066	525.62
424.288	509.62
424.511	503.62
424.733	575.62
424.956	642.62
425.178	639.62
425.401	606.62
425.623	641.62
425.846	536.62
426.068	506.62
426.291	492.62
426.513	482.62
426.735	522.62
426.958	536.62
427.18	613.62
427.402	748.62
427.625	807.62
427.847	652.62
428.069	574.62
428.292	536.62
428.514	506.62
428.736	486.62
428.958	465.62
429.181	458.62
429.403	438.62
429.625	500.62
429.847	510.62
430.069	558.62
430.292	559.62
430.514	496.62
430.736	477.62
430.958	456.62
431.18	454.62
431.402	450.62
431.624	434.62
431.846	445.62
432.068	440.62
432.29	464.62
432.512	449.62
432.734	462.62
432.956	452.62
433.178	455.62
433.4	448.62
433.622	462.62
433.844	465.62
434.066	450.62
434.287	431.62
434.509	450.62
434.731	454.62
434.953	469.62
435.175	470.62
435.397	511.62
435.618	505.62
435.84	533.62
436.062	613.62
436.284	678.62
436.505	567.62
436.727	499.62
436.949	475.62
437.17	460.62
437.392	462.62
437.614	488.62
437.835	471.62
438.057	558.62
438.278	662.62
438.5	648.62
438.721	731.62
438.943	715.62
439.165	567.62
439.386	502.62
439.608	517.62
439.829	512.62
440.05	522.62
440.272	573.62
440.493	523.62
440.715	488.62
440.936	492.62
441.158	474.62
441.379	470.62
441.6	516.62
441.822	496.62
442.043	520.62
442.264	606.62
442.486	646.62
442.707	558.62
442.928	516.62
443.149	507.62
443.371	527.62
443.592	567.62
443.813	642.62
444.034	711.62
444.255	587.62
444.476	528.62
444.698	544.62
444.919	517.62
445.14	627.62
445.361	552.62
445.582	518.62
445.803	608.62
446.024	674.62
446.245	662.62
446.466	637.62
446.687	531.62
446.908	525.62
447.129	471.62
447.35	452.62
447.571	457.62
447.792	472.62
448.013	464.62
448.234	477.62
448.455	536.62
448.675	591.62
448.896	715.62
449.117	582.62
449.338	568.62
449.559	664.62
449.779	746.62
450	596.62
450.221	511.62
450.442	456.62
450.662	453.62
450.883	459.62
451.104	452.62
451.324	446.62
451.545	412.62
451.766	436.62
451.986	425.62
452.207	421.62
452.428	406.62
452.648	420.62
452.869	401.62
453.089	412.62
453.31	431.62
453.53	420.62
453.751	411.62
453.971	404.62
454.192	430.62
454.412	418.62
454.633	412.62
454.853	398.62
455.073	417.62
455.294	438.62
455.514	486.62
455.734	455.62
455.955	420.62
456.175	400.62
456.395	401.62
456.616	405.62
456.836	379.62
457.056	389.62
457.276	392.62
457.497	389.62
457.717	379.62
457.937	401.62
458.157	400.62
458.377	392.62
458.598	436.62
458.818	440.62
459.038	529.62
459.258	552.62
459.478	482.62
459.698	448.62
459.918	439.62
460.138	443.62
460.358	434.62
460.578	458.62
460.798	443.62
461.018	447.62
461.238	455.62
461.458	451.62
461.678	441.62
461.898	464.62
462.118	476.62
462.338	475.62
462.558	474.62
462.777	479.62
462.997	507.62
463.217	519.62
463.437	503.62
463.657	489.62
463.876	516.62
464.096	479.62
464.316	503.62
464.536	504.62
464.755	492.62
464.975	508.62
465.195	496.62
465.414	543.62
465.634	479.62
465.854	448.62
466.073	451.62
466.293	438.62
466.512	420.62
466.732	407.62
466.951	407.62
467.171	420.62
467.391	424.62
467.61	409.62
467.829	415.62
468.049	426.62
468.268	440.62
468.488	428.62
468.707	412.62
468.927	407.62
469.146	418.62
469.365	388.62
469.585	416.62
469.804	418.62
470.023	424.62
470.243	432.62
470.462	437.62
470.681	460.62
470.901	430.62
471.12	429.62
471.339	408.62
471.558	419.62
471.777	419.62
471.997	415.62
472.216	430.62
472.435	439.62
472.654	421.62
472.873	438.62
473.092	414.62
473.311	413.62
473.53	435.62
473.749	445.62
473.968	455.62
474.187	539.62
474.406	558.62
474.625	470.62
474.844	429.62
475.063	400.62
475.282	433.62
475.501	402.62
475.72	415.62
475.939	412.62
476.158	417.62
476.377	438.62
476.596	439.62
476.814	437.62
477.033	457.62
477.252	427.62
477.471	441.62
477.69	450.62
477.908	454.62
478.127	467.62
478.346	478.62
478.564	461.62
478.783	483.62
479.002	492.62
479.22	495.62
479.439	486.62
479.658	514.62
479.876	482.62
480.095	514.62
480.313	543.62
480.532	536.62
480.751	530.62
480.969	518.62
481.188	544.62
481.406	552.62
481.624	510.62
481.843	508.62
482.061	495.62
482.28	526.62
482.498	496.62
482.717	478.62
482.935	477.62
483.153	478.62
483.372	494.62
483.59	468.62
483.808	475.62
484.027	510.62
484.245	479.62
484.463	494.62
484.681	502.62
484.9	520.62
485.118	482.62
485.336	484.62
485.554	502.62
485.772	477.62
485.99	496.62
486.209	502.62
486.427	521.62
486.645	511.62
486.863	521.62
487.081	516.62
487.299	508.62
487.517	515.62
487.735	512.62
487.953	510.62
488.171	522.62
488.389	501.62
488.607	528.62
488.825	505.62
489.043	511.62
489.261	539.62
489.479	520.62
489.696	529.62
489.914	513.62
490.132	522.62
490.35	521.62
490.568	527.62
490.786	564.62
491.003	560.62
491.221	555.62
491.439	565.62
491.657	574.62
491.874	584.62
492.092	574.62
492.31	586.62
492.527	575.62
492.745	578.62
492.963	593.62
493.18	589.62
493.398	599.62
493.615	599.62
493.833	600.62
494.05	607.62
494.268	592.62
494.485	586.62
494.703	591.62
494.92	621.62
495.138	590.62
495.355	600.62
495.573	606.62
495.79	607.62
496.008	633.62
496.225	627.62
496.442	607.62
496.66	621.62
496.877	605.62
497.094	575.62
497.312	629.62
497.529	643.62
497.746	648.62
497.963	648.62
498.181	670.62
498.398	682.62
498.615	692.62
498.832	740.62
499.049	730.62
499.267	754.62
499.484	772.62
499.701	801.62
499.918	832.62
500.135	868.62
500.352	935.62
500.569	956.62
500.786	960.62
501.003	905.62
501.22	898.62
501.437	861.62
501.654	832.62
501.871	812.62
502.088	774.62
