Data from 1977.PennyLincolnUp.Lamp.En5.5.200Scan.071719.P1_HRD10591_16-06-38-866.txt Node
Date: Thu Jul 18 16:06:38 EDT 2019
User: cochatt
Spectrometer: HR+D1059
Trigger mode: 1
Integration Time (sec): 1.000000E-1
Scans to average: 1
Electric dark correction enabled: true
Nonlinearity correction enabled: false
Boxcar width: 0
XAxis mode: Wavelengths
Number of Pixels in Spectrum: 2048
>>>>>Begin Spectral Data<<<<<
223.165	-3.94
223.4	-3.94
223.635	-3.94
223.869	-9.94
224.104	-5.94
224.338	-11.94
224.573	-33.94
224.808	-8.94
225.042	-8.94
225.277	-10.94
225.511	-4.94
225.746	20.06
225.98	8.06
226.215	12.06
226.449	12.06
226.683	11.06
226.918	13.06
227.152	23.06
227.387	41.06
227.621	46.06
227.856	46.06
228.09	49.06
228.324	49.06
228.559	46.06
228.793	67.06
229.027	91.06
229.262	113.06
229.496	108.06
229.73	133.06
229.964	131.06
230.199	123.06
230.433	109.06
230.667	116.06
230.901	110.06
231.136	114.06
231.37	125.06
231.604	109.06
231.838	110.06
232.072	114.06
232.306	116.06
232.541	123.06
232.775	114.06
233.009	105.06
233.243	113.06
233.477	107.06
233.711	117.06
233.945	107.06
234.179	121.06
234.413	122.06
234.647	111.06
234.881	114.06
235.115	125.06
235.349	130.06
235.583	122.06
235.817	113.06
236.051	131.06
236.285	118.06
236.519	118.06
236.753	131.06
236.987	141.06
237.221	170.06
237.455	214.06
237.689	169.06
237.922	137.06
238.156	122.06
238.39	121.06
238.624	124.06
238.858	136.06
239.091	107.06
239.325	132.06
239.559	116.06
239.793	138.06
240.027	124.06
240.26	128.06
240.494	146.06
240.728	142.06
240.961	149.06
241.195	142.06
241.429	129.06
241.662	139.06
241.896	136.06
242.13	137.06
242.363	119.06
242.597	134.06
242.83	137.06
243.064	141.06
243.298	137.06
243.531	132.06
243.765	130.06
243.998	140.06
244.232	121.06
244.465	127.06
244.699	141.06
244.932	139.06
245.166	153.06
245.399	146.06
245.633	160.06
245.866	165.06
246.099	148.06
246.333	154.06
246.566	153.06
246.8	154.06
247.033	157.06
247.266	166.06
247.5	155.06
247.733	169.06
247.966	177.06
248.2	187.06
248.433	164.06
248.666	165.06
248.899	178.06
249.133	185.06
249.366	190.06
249.599	203.06
249.832	196.06
250.066	168.06
250.299	183.06
250.532	199.06
250.765	203.06
250.998	211.06
251.231	202.06
251.465	202.06
251.698	196.06
251.931	201.06
252.164	205.06
252.397	201.06
252.63	193.06
252.863	197.06
253.096	214.06
253.329	222.06
253.562	211.06
253.795	219.06
254.028	219.06
254.261	218.06
254.494	232.06
254.727	253.06
254.96	277.06
255.193	278.06
255.426	245.06
255.659	216.06
255.892	228.06
256.124	241.06
256.357	236.06
256.59	223.06
256.823	203.06
257.056	209.06
257.289	222.06
257.521	210.06
257.754	207.06
257.987	198.06
258.22	212.06
258.452	209.06
258.685	206.06
258.918	219.06
259.151	225.06
259.383	236.06
259.616	233.06
259.849	207.06
260.081	226.06
260.314	250.06
260.547	255.06
260.779	251.06
261.012	247.06
261.244	224.06
261.477	224.06
261.71	227.06
261.942	227.06
262.175	221.06
262.407	233.06
262.64	219.06
262.872	218.06
263.105	221.06
263.337	232.06
263.57	202.06
263.802	216.06
264.035	227.06
264.267	219.06
264.499	235.06
264.732	242.06
264.964	225.06
265.197	225.06
265.429	230.06
265.661	208.06
265.894	227.06
266.126	226.06
266.358	217.06
266.591	235.06
266.823	236.06
267.055	231.06
267.287	231.06
267.52	228.06
267.752	238.06
267.984	241.06
268.216	250.06
268.448	247.06
268.681	258.06
268.913	257.06
269.145	284.06
269.377	286.06
269.609	302.06
269.841	279.06
270.073	263.06
270.306	302.06
270.538	315.06
270.77	298.06
271.002	290.06
271.234	320.06
271.466	300.06
271.698	327.06
271.93	323.06
272.162	321.06
272.394	335.06
272.626	312.06
272.858	281.06
273.09	285.06
273.322	275.06
273.553	280.06
273.785	271.06
274.017	276.06
274.249	284.06
274.481	282.06
274.713	269.06
274.945	282.06
275.176	280.06
275.408	269.06
275.64	280.06
275.872	274.06
276.104	283.06
276.335	282.06
276.567	291.06
276.799	285.06
277.031	311.06
277.262	307.06
277.494	307.06
277.726	310.06
277.957	295.06
278.189	305.06
278.421	306.06
278.652	293.06
278.884	296.06
279.115	297.06
279.347	284.06
279.579	300.06
279.81	264.06
280.042	289.06
280.273	287.06
280.505	273.06
280.736	289.06
280.968	287.06
281.199	289.06
281.431	293.06
281.662	274.06
281.894	286.06
282.125	300.06
282.356	303.06
282.588	307.06
282.819	305.06
283.051	309.06
283.282	289.06
283.513	283.06
283.745	297.06
283.976	319.06
284.207	300.06
284.439	307.06
284.67	294.06
284.901	300.06
285.132	296.06
285.364	299.06
285.595	310.06
285.826	318.06
286.057	306.06
286.288	304.06
286.52	302.06
286.751	307.06
286.982	309.06
287.213	309.06
287.444	295.06
287.675	309.06
287.906	325.06
288.138	328.06
288.369	332.06
288.6	310.06
288.831	314.06
289.062	306.06
289.293	305.06
289.524	334.06
289.755	317.06
289.986	310.06
290.217	322.06
290.448	322.06
290.679	318.06
290.91	310.06
291.141	330.06
291.371	301.06
291.602	289.06
291.833	309.06
292.064	301.06
292.295	299.06
292.526	325.06
292.757	330.06
292.987	321.06
293.218	328.06
293.449	310.06
293.68	327.06
293.91	300.06
294.141	327.06
294.372	314.06
294.603	313.06
294.833	315.06
295.064	314.06
295.295	338.06
295.525	310.06
295.756	313.06
295.987	326.06
296.217	340.06
296.448	346.06
296.679	335.06
296.909	307.06
297.14	332.06
297.37	330.06
297.601	323.06
297.831	345.06
298.062	327.06
298.292	333.06
298.523	325.06
298.753	332.06
298.984	345.06
299.214	344.06
299.445	335.06
299.675	345.06
299.905	349.06
300.136	335.06
300.366	327.06
300.597	340.06
300.827	340.06
301.057	355.06
301.288	346.06
301.518	350.06
301.748	346.06
301.979	366.06
302.209	374.06
302.439	345.06
302.669	353.06
302.9	350.06
303.13	354.06
303.36	343.06
303.59	356.06
303.82	359.06
304.051	354.06
304.281	378.06
304.511	355.06
304.741	354.06
304.971	341.06
305.201	368.06
305.431	352.06
305.661	358.06
305.891	362.06
306.121	351.06
306.352	371.06
306.582	358.06
306.812	375.06
307.042	366.06
307.272	346.06
307.502	348.06
307.731	369.06
307.961	354.06
308.191	346.06
308.421	378.06
308.651	373.06
308.881	353.06
309.111	381.06
309.341	346.06
309.571	371.06
309.8	365.06
310.03	394.06
310.26	385.06
310.49	378.06
310.72	377.06
310.949	415.06
311.179	407.06
311.409	387.06
311.639	391.06
311.868	403.06
312.098	404.06
312.328	420.06
312.557	399.06
312.787	419.06
313.017	411.06
313.246	401.06
313.476	374.06
313.706	398.06
313.935	408.06
314.165	403.06
314.394	406.06
314.624	436.06
314.853	398.06
315.083	409.06
315.312	409.06
315.542	392.06
315.771	387.06
316.001	383.06
316.23	379.06
316.46	391.06
316.689	392.06
316.919	390.06
317.148	426.06
317.377	409.06
317.607	411.06
317.836	404.06
318.065	390.06
318.295	379.06
318.524	392.06
318.753	412.06
318.983	407.06
319.212	384.06
319.441	397.06
319.67	389.06
319.9	396.06
320.129	402.06
320.358	399.06
320.587	389.06
320.816	408.06
321.046	416.06
321.275	404.06
321.504	418.06
321.733	430.06
321.962	414.06
322.191	420.06
322.42	452.06
322.649	451.06
322.878	462.06
323.108	435.06
323.337	476.06
323.566	464.06
323.795	498.06
324.024	542.06
324.253	614.06
324.482	882.06
324.71	1310.06
324.939	1764.06
325.168	1508.06
325.397	823.06
325.626	586.06
325.855	522.06
326.084	486.06
326.313	467.06
326.542	474.06
326.77	552.06
326.999	620.06
327.228	846.06
327.457	1158.06
327.686	1329.06
327.914	891.06
328.143	651.06
328.372	578.06
328.6	545.06
328.829	546.06
329.058	514.06
329.287	541.06
329.515	529.06
329.744	498.06
329.972	515.06
330.201	507.06
330.43	537.06
330.658	543.06
330.887	580.06
331.115	545.06
331.344	511.06
331.572	483.06
331.801	501.06
332.03	506.06
332.258	473.06
332.486	461.06
332.715	455.06
332.943	474.06
333.172	490.06
333.4	454.06
333.629	508.06
333.857	490.06
334.085	524.06
334.314	516.06
334.542	539.06
334.771	518.06
334.999	511.06
335.227	487.06
335.455	479.06
335.684	477.06
335.912	453.06
336.14	460.06
336.369	481.06
336.597	480.06
336.825	461.06
337.053	480.06
337.281	454.06
337.51	441.06
337.738	471.06
337.966	477.06
338.194	474.06
338.422	490.06
338.65	470.06
338.878	461.06
339.106	462.06
339.334	449.06
339.562	469.06
339.79	445.06
340.018	438.06
340.246	415.06
340.474	448.06
340.702	447.06
340.93	447.06
341.158	431.06
341.386	447.06
341.614	435.06
341.842	435.06
342.07	458.06
342.298	416.06
342.526	434.06
342.754	420.06
342.981	405.06
343.209	431.06
343.437	424.06
343.665	473.06
343.893	461.06
344.12	469.06
344.348	449.06
344.576	457.06
344.804	457.06
345.031	460.06
345.259	451.06
345.487	441.06
345.714	434.06
345.942	441.06
346.17	429.06
346.397	428.06
346.625	438.06
346.853	423.06
347.08	442.06
347.308	427.06
347.535	448.06
347.763	415.06
347.99	427.06
348.218	421.06
348.445	441.06
348.673	409.06
348.9	429.06
349.128	421.06
349.355	404.06
349.583	419.06
349.81	413.06
350.037	392.06
350.265	423.06
350.492	403.06
350.72	393.06
350.947	409.06
351.174	420.06
351.402	429.06
351.629	410.06
351.856	406.06
352.083	424.06
352.311	426.06
352.538	431.06
352.765	418.06
352.992	419.06
353.22	417.06
353.447	386.06
353.674	377.06
353.901	400.06
354.128	391.06
354.355	398.06
354.583	396.06
354.81	378.06
355.037	412.06
355.264	410.06
355.491	397.06
355.718	387.06
355.945	391.06
356.172	390.06
356.399	412.06
356.626	403.06
356.853	389.06
357.08	396.06
357.307	405.06
357.534	396.06
357.761	391.06
357.988	398.06
358.215	397.06
358.441	389.06
358.668	414.06
358.895	389.06
359.122	403.06
359.349	421.06
359.576	420.06
359.802	412.06
360.029	451.06
360.256	438.06
360.483	443.06
360.709	433.06
360.936	418.06
361.163	427.06
361.39	415.06
361.616	417.06
361.843	394.06
362.07	428.06
362.296	411.06
362.523	413.06
362.749	392.06
362.976	398.06
363.203	409.06
363.429	395.06
363.656	398.06
363.882	392.06
364.109	395.06
364.335	402.06
364.562	399.06
364.788	385.06
365.015	394.06
365.241	410.06
365.468	378.06
365.694	389.06
365.92	395.06
366.147	382.06
366.373	379.06
366.599	392.06
366.826	388.06
367.052	406.06
367.278	394.06
367.505	395.06
367.731	397.06
367.957	390.06
368.184	384.06
368.41	387.06
368.636	404.06
368.862	411.06
369.089	407.06
369.315	400.06
369.541	389.06
369.767	372.06
369.993	387.06
370.219	394.06
370.445	409.06
370.672	407.06
370.898	389.06
371.124	410.06
371.35	392.06
371.576	400.06
371.802	417.06
372.028	395.06
372.254	395.06
372.48	379.06
372.706	405.06
372.932	412.06
373.158	394.06
373.384	394.06
373.61	405.06
373.835	393.06
374.061	393.06
374.287	395.06
374.513	415.06
374.739	409.06
374.965	409.06
375.191	396.06
375.416	402.06
375.642	378.06
375.868	412.06
376.094	408.06
376.319	402.06
376.545	396.06
376.771	401.06
376.997	387.06
377.222	401.06
377.448	391.06
377.674	395.06
377.899	406.06
378.125	389.06
378.35	389.06
378.576	383.06
378.802	373.06
379.027	393.06
379.253	409.06
379.478	391.06
379.704	411.06
379.929	389.06
380.155	398.06
380.38	377.06
380.606	387.06
380.831	393.06
381.057	382.06
381.282	389.06
381.507	396.06
381.733	391.06
381.958	401.06
382.184	393.06
382.409	413.06
382.634	400.06
382.86	397.06
383.085	383.06
383.31	400.06
383.535	410.06
383.761	399.06
383.986	415.06
384.211	405.06
384.436	415.06
384.662	422.06
384.887	418.06
385.112	442.06
385.337	426.06
385.562	418.06
385.787	429.06
386.013	437.06
386.238	437.06
386.463	423.06
386.688	437.06
386.913	432.06
387.138	438.06
387.363	434.06
387.588	436.06
387.813	445.06
388.038	417.06
388.263	443.06
388.488	423.06
388.713	434.06
388.938	425.06
389.163	423.06
389.387	442.06
389.612	424.06
389.837	442.06
390.062	430.06
390.287	420.06
390.512	411.06
390.736	429.06
390.961	423.06
391.186	428.06
391.411	420.06
391.636	450.06
391.86	457.06
392.085	450.06
392.31	446.06
392.534	431.06
392.759	430.06
392.984	433.06
393.208	437.06
393.433	440.06
393.658	444.06
393.882	441.06
394.107	441.06
394.331	423.06
394.556	435.06
394.78	442.06
395.005	426.06
395.229	448.06
395.454	453.06
395.678	436.06
395.903	451.06
396.127	478.06
396.352	475.06
396.576	449.06
396.801	459.06
397.025	443.06
397.249	444.06
397.474	443.06
397.698	464.06
397.922	475.06
398.147	468.06
398.371	490.06
398.595	471.06
398.82	508.06
399.044	488.06
399.268	525.06
399.492	584.06
399.717	582.06
399.941	592.06
400.165	625.06
400.389	610.06
400.613	570.06
400.837	521.06
401.062	501.06
401.286	498.06
401.51	492.06
401.734	471.06
401.958	491.06
402.182	494.06
402.406	516.06
402.63	509.06
402.854	489.06
403.078	505.06
403.302	485.06
403.526	529.06
403.75	523.06
403.974	490.06
404.198	508.06
404.422	530.06
404.645	529.06
404.869	526.06
405.093	545.06
405.317	544.06
405.541	583.06
405.765	542.06
405.988	520.06
406.212	530.06
406.436	534.06
406.66	555.06
406.883	537.06
407.107	565.06
407.331	597.06
407.555	668.06
407.778	644.06
408.002	606.06
408.226	585.06
408.449	572.06
408.673	543.06
408.896	567.06
409.12	630.06
409.344	586.06
409.567	542.06
409.791	521.06
410.014	477.06
410.238	501.06
410.461	514.06
410.685	515.06
410.908	525.06
411.132	549.06
411.355	583.06
411.578	534.06
411.802	539.06
412.025	482.06
412.249	499.06
412.472	513.06
412.695	553.06
412.919	548.06
413.142	516.06
413.365	482.06
413.589	494.06
413.812	472.06
414.035	472.06
414.258	475.06
414.482	489.06
414.705	491.06
414.928	459.06
415.151	472.06
415.374	456.06
415.597	466.06
415.821	467.06
416.044	474.06
416.267	476.06
416.49	477.06
416.713	457.06
416.936	456.06
417.159	461.06
417.382	469.06
417.605	443.06
417.828	496.06
418.051	491.06
418.274	492.06
418.497	474.06
418.72	472.06
418.943	457.06
419.166	499.06
419.389	515.06
419.611	484.06
419.834	494.06
420.057	515.06
420.28	489.06
420.503	489.06
420.726	485.06
420.948	492.06
421.171	535.06
421.394	549.06
421.617	510.06
421.839	491.06
422.062	472.06
422.285	493.06
422.507	569.06
422.73	605.06
422.953	585.06
423.175	545.06
423.398	517.06
423.621	509.06
423.843	532.06
424.066	531.06
424.288	537.06
424.511	529.06
424.733	574.06
424.956	633.06
425.178	610.06
425.401	592.06
425.623	616.06
425.846	557.06
426.068	521.06
426.291	527.06
426.513	502.06
426.735	521.06
426.958	568.06
427.18	615.06
427.402	702.06
427.625	787.06
427.847	686.06
428.069	603.06
428.292	545.06
428.514	510.06
428.736	467.06
428.958	502.06
429.181	485.06
429.403	455.06
429.625	489.06
429.847	490.06
430.069	572.06
430.292	550.06
430.514	468.06
430.736	470.06
430.958	463.06
431.18	471.06
431.402	439.06
431.624	430.06
431.846	438.06
432.068	441.06
432.29	435.06
432.512	438.06
432.734	456.06
432.956	456.06
433.178	454.06
433.4	462.06
433.622	454.06
433.844	457.06
434.066	468.06
434.287	474.06
434.509	476.06
434.731	479.06
434.953	473.06
435.175	508.06
435.397	502.06
435.618	493.06
435.84	545.06
436.062	613.06
436.284	664.06
436.505	557.06
436.727	510.06
436.949	468.06
437.17	472.06
437.392	475.06
437.614	486.06
437.835	515.06
438.057	581.06
438.278	683.06
438.5	656.06
438.721	727.06
438.943	696.06
439.165	550.06
439.386	500.06
439.608	495.06
439.829	497.06
440.05	516.06
440.272	541.06
440.493	532.06
440.715	485.06
440.936	470.06
441.158	470.06
441.379	471.06
441.6	483.06
441.822	492.06
442.043	541.06
442.264	611.06
442.486	645.06
442.707	575.06
442.928	509.06
443.149	522.06
443.371	559.06
443.592	582.06
443.813	652.06
444.034	705.06
444.255	599.06
444.476	527.06
444.698	518.06
444.919	534.06
445.14	596.06
445.361	545.06
445.582	551.06
445.803	597.06
446.024	692.06
446.245	663.06
446.466	631.06
446.687	550.06
446.908	500.06
447.129	490.06
447.35	465.06
447.571	475.06
447.792	441.06
448.013	468.06
448.234	489.06
448.455	516.06
448.675	617.06
448.896	718.06
449.117	607.06
449.338	589.06
449.559	655.06
449.779	742.06
450	604.06
450.221	519.06
450.442	460.06
450.662	447.06
450.883	489.06
451.104	464.06
451.324	449.06
451.545	433.06
451.766	435.06
451.986	431.06
452.207	402.06
452.428	401.06
452.648	417.06
452.869	412.06
453.089	427.06
453.31	426.06
453.53	423.06
453.751	415.06
453.971	407.06
454.192	445.06
454.412	421.06
454.633	396.06
454.853	389.06
455.073	402.06
455.294	420.06
455.514	499.06
455.734	473.06
455.955	418.06
456.175	390.06
456.395	387.06
456.616	375.06
456.836	388.06
457.056	378.06
457.276	387.06
457.497	397.06
457.717	405.06
457.937	368.06
458.157	381.06
458.377	409.06
458.598	428.06
458.818	477.06
459.038	518.06
459.258	527.06
459.478	460.06
459.698	458.06
459.918	439.06
460.138	459.06
460.358	467.06
460.578	452.06
460.798	455.06
461.018	466.06
461.238	446.06
461.458	467.06
461.678	451.06
461.898	469.06
462.118	480.06
462.338	457.06
462.558	480.06
462.777	491.06
462.997	533.06
463.217	507.06
463.437	522.06
463.657	501.06
463.876	507.06
464.096	499.06
464.316	508.06
464.536	503.06
464.755	469.06
464.975	484.06
465.195	521.06
465.414	542.06
465.634	489.06
465.854	472.06
466.073	448.06
466.293	450.06
466.512	452.06
466.732	430.06
466.951	433.06
467.171	417.06
467.391	421.06
467.61	435.06
467.829	441.06
468.049	409.06
468.268	431.06
468.488	413.06
468.707	397.06
468.927	421.06
469.146	405.06
469.365	410.06
469.585	411.06
469.804	433.06
470.023	430.06
470.243	430.06
470.462	430.06
470.681	446.06
470.901	420.06
471.12	415.06
471.339	418.06
471.558	426.06
471.777	434.06
471.997	444.06
472.216	461.06
472.435	459.06
472.654	441.06
472.873	434.06
473.092	428.06
473.311	433.06
473.53	418.06
473.749	458.06
473.968	471.06
474.187	546.06
474.406	549.06
474.625	462.06
474.844	434.06
475.063	442.06
475.282	435.06
475.501	433.06
475.72	452.06
475.939	437.06
476.158	430.06
476.377	457.06
476.596	428.06
476.814	451.06
477.033	449.06
477.252	459.06
477.471	454.06
477.69	451.06
477.908	458.06
478.127	474.06
478.346	474.06
478.564	470.06
478.783	489.06
479.002	490.06
479.22	485.06
479.439	500.06
479.658	499.06
479.876	514.06
480.095	530.06
480.313	566.06
480.532	538.06
480.751	535.06
480.969	523.06
481.188	541.06
481.406	563.06
481.624	537.06
481.843	500.06
482.061	491.06
482.28	489.06
482.498	479.06
482.717	474.06
482.935	501.06
483.153	493.06
483.372	491.06
483.59	476.06
483.808	497.06
484.027	490.06
484.245	509.06
484.463	488.06
484.681	505.06
484.9	482.06
485.118	501.06
485.336	502.06
485.554	505.06
485.772	505.06
485.99	498.06
486.209	505.06
486.427	524.06
486.645	502.06
486.863	540.06
487.081	530.06
487.299	508.06
487.517	520.06
487.735	532.06
487.953	532.06
488.171	537.06
488.389	534.06
488.607	524.06
488.825	516.06
489.043	522.06
489.261	543.06
489.479	561.06
489.696	542.06
489.914	541.06
490.132	533.06
490.35	531.06
490.568	552.06
490.786	574.06
491.003	553.06
491.221	591.06
491.439	608.06
491.657	593.06
491.874	576.06
492.092	590.06
492.31	575.06
492.527	595.06
492.745	586.06
492.963	602.06
493.18	577.06
493.398	617.06
493.615	601.06
493.833	613.06
494.05	592.06
494.268	603.06
494.485	637.06
494.703	606.06
494.92	617.06
495.138	629.06
495.355	616.06
495.573	603.06
495.79	620.06
496.008	623.06
496.225	625.06
496.442	607.06
496.66	602.06
496.877	620.06
497.094	611.06
497.312	617.06
497.529	637.06
497.746	641.06
497.963	651.06
498.181	668.06
498.398	678.06
498.615	687.06
498.832	682.06
499.049	748.06
499.267	747.06
499.484	808.06
499.701	810.06
499.918	835.06
500.135	924.06
500.352	941.06
500.569	961.06
500.786	943.06
501.003	916.06
501.22	895.06
501.437	837.06
501.654	817.06
501.871	810.06
502.088	775.06
