Data from 1977.PennyLincolnUp.Lamp.En5.5.200Scan.071719.P1_HRD10591_16-07-08-864.txt Node
Date: Thu Jul 18 16:07:08 EDT 2019
User: cochatt
Spectrometer: HR+D1059
Trigger mode: 1
Integration Time (sec): 1.000000E-1
Scans to average: 1
Electric dark correction enabled: true
Nonlinearity correction enabled: false
Boxcar width: 0
XAxis mode: Wavelengths
Number of Pixels in Spectrum: 2048
>>>>>Begin Spectral Data<<<<<
223.165	-12.62
223.4	-12.62
223.635	-12.62
223.869	-19.62
224.104	-27.62
224.338	6.38
224.573	-5.62
224.808	-12.62
225.042	-9.62
225.277	-6.62
225.511	3.38
225.746	9.38
225.98	3.38
226.215	4.38
226.449	13.38
226.683	15.38
226.918	12.38
227.152	26.38
227.387	26.38
227.621	42.38
227.856	32.38
228.09	45.38
228.324	52.38
228.559	50.38
228.793	75.38
229.027	91.38
229.262	93.38
229.496	106.38
229.73	130.38
229.964	134.38
230.199	109.38
230.433	108.38
230.667	103.38
230.901	102.38
231.136	115.38
231.37	104.38
231.604	115.38
231.838	119.38
232.072	107.38
232.306	109.38
232.541	99.38
232.775	110.38
233.009	101.38
233.243	109.38
233.477	112.38
233.711	120.38
233.945	111.38
234.179	102.38
234.413	116.38
234.647	117.38
234.881	112.38
235.115	110.38
235.349	106.38
235.583	113.38
235.817	115.38
236.051	116.38
236.285	125.38
236.519	129.38
236.753	136.38
236.987	151.38
237.221	144.38
237.455	195.38
237.689	175.38
237.922	139.38
238.156	119.38
238.39	118.38
238.624	128.38
238.858	121.38
239.091	134.38
239.325	129.38
239.559	124.38
239.793	119.38
240.027	137.38
240.26	135.38
240.494	159.38
240.728	131.38
240.961	157.38
241.195	140.38
241.429	129.38
241.662	129.38
241.896	129.38
242.13	133.38
242.363	128.38
242.597	121.38
242.83	137.38
243.064	135.38
243.298	140.38
243.531	150.38
243.765	143.38
243.998	149.38
244.232	129.38
244.465	143.38
244.699	130.38
244.932	133.38
245.166	139.38
245.399	129.38
245.633	156.38
245.866	143.38
246.099	137.38
246.333	148.38
246.566	154.38
246.8	147.38
247.033	145.38
247.266	162.38
247.5	169.38
247.733	169.38
247.966	153.38
248.2	165.38
248.433	167.38
248.666	181.38
248.899	159.38
249.133	188.38
249.366	197.38
249.599	187.38
249.832	183.38
250.066	165.38
250.299	194.38
250.532	185.38
250.765	197.38
250.998	187.38
251.231	202.38
251.465	210.38
251.698	185.38
251.931	200.38
252.164	196.38
252.397	193.38
252.63	199.38
252.863	193.38
253.096	218.38
253.329	217.38
253.562	221.38
253.795	211.38
254.028	206.38
254.261	201.38
254.494	217.38
254.727	267.38
254.96	284.38
255.193	250.38
255.426	249.38
255.659	225.38
255.892	203.38
256.124	230.38
256.357	224.38
256.59	232.38
256.823	221.38
257.056	218.38
257.289	204.38
257.521	213.38
257.754	215.38
257.987	210.38
258.22	194.38
258.452	215.38
258.685	197.38
258.918	213.38
259.151	211.38
259.383	224.38
259.616	204.38
259.849	211.38
260.081	224.38
260.314	257.38
260.547	243.38
260.779	245.38
261.012	224.38
261.244	233.38
261.477	211.38
261.71	202.38
261.942	212.38
262.175	230.38
262.407	232.38
262.64	220.38
262.872	193.38
263.105	232.38
263.337	201.38
263.57	220.38
263.802	226.38
264.035	215.38
264.267	221.38
264.499	204.38
264.732	219.38
264.964	226.38
265.197	231.38
265.429	219.38
265.661	216.38
265.894	220.38
266.126	217.38
266.358	238.38
266.591	240.38
266.823	227.38
267.055	233.38
267.287	214.38
267.52	230.38
267.752	231.38
267.984	239.38
268.216	243.38
268.448	231.38
268.681	231.38
268.913	267.38
269.145	279.38
269.377	270.38
269.609	283.38
269.841	279.38
270.073	269.38
270.306	293.38
270.538	315.38
270.77	305.38
271.002	285.38
271.234	285.38
271.466	309.38
271.698	307.38
271.93	294.38
272.162	307.38
272.394	308.38
272.626	302.38
272.858	285.38
273.09	270.38
273.322	288.38
273.553	269.38
273.785	277.38
274.017	261.38
274.249	277.38
274.481	263.38
274.713	275.38
274.945	281.38
275.176	282.38
275.408	275.38
275.64	267.38
275.872	266.38
276.104	276.38
276.335	275.38
276.567	287.38
276.799	295.38
277.031	305.38
277.262	327.38
277.494	318.38
277.726	316.38
277.957	278.38
278.189	281.38
278.421	294.38
278.652	285.38
278.884	294.38
279.115	287.38
279.347	284.38
279.579	286.38
279.81	277.38
280.042	281.38
280.273	279.38
280.505	265.38
280.736	289.38
280.968	283.38
281.199	267.38
281.431	282.38
281.662	278.38
281.894	260.38
282.125	299.38
282.356	313.38
282.588	291.38
282.819	312.38
283.051	306.38
283.282	277.38
283.513	299.38
283.745	283.38
283.976	291.38
284.207	293.38
284.439	281.38
284.67	299.38
284.901	291.38
285.132	305.38
285.364	300.38
285.595	305.38
285.826	305.38
286.057	287.38
286.288	295.38
286.52	298.38
286.751	317.38
286.982	298.38
287.213	290.38
287.444	291.38
287.675	325.38
287.906	315.38
288.138	293.38
288.369	312.38
288.6	313.38
288.831	317.38
289.062	310.38
289.293	291.38
289.524	291.38
289.755	311.38
289.986	316.38
290.217	302.38
290.448	323.38
290.679	300.38
290.91	305.38
291.141	309.38
291.371	309.38
291.602	315.38
291.833	301.38
292.064	292.38
292.295	284.38
292.526	294.38
292.757	294.38
292.987	307.38
293.218	312.38
293.449	302.38
293.68	333.38
293.91	314.38
294.141	301.38
294.372	307.38
294.603	314.38
294.833	309.38
295.064	318.38
295.295	329.38
295.525	316.38
295.756	325.38
295.987	319.38
296.217	339.38
296.448	333.38
296.679	332.38
296.909	297.38
297.14	308.38
297.37	313.38
297.601	329.38
297.831	337.38
298.062	311.38
298.292	333.38
298.523	333.38
298.753	317.38
298.984	314.38
299.214	320.38
299.445	320.38
299.675	345.38
299.905	333.38
300.136	326.38
300.366	332.38
300.597	306.38
300.827	353.38
301.057	337.38
301.288	355.38
301.518	352.38
301.748	342.38
301.979	343.38
302.209	337.38
302.439	346.38
302.669	364.38
302.9	360.38
303.13	350.38
303.36	355.38
303.59	362.38
303.82	343.38
304.051	356.38
304.281	364.38
304.511	342.38
304.741	338.38
304.971	351.38
305.201	348.38
305.431	324.38
305.661	350.38
305.891	356.38
306.121	351.38
306.352	346.38
306.582	341.38
306.812	335.38
307.042	340.38
307.272	361.38
307.502	366.38
307.731	357.38
307.961	351.38
308.191	349.38
308.421	364.38
308.651	357.38
308.881	361.38
309.111	342.38
309.341	347.38
309.571	369.38
309.8	388.38
310.03	377.38
310.26	374.38
310.49	383.38
310.72	391.38
310.949	404.38
311.179	397.38
311.409	377.38
311.639	387.38
311.868	360.38
312.098	391.38
312.328	380.38
312.557	399.38
312.787	398.38
313.017	397.38
313.246	392.38
313.476	379.38
313.706	387.38
313.935	391.38
314.165	394.38
314.394	414.38
314.624	418.38
314.853	410.38
315.083	393.38
315.312	379.38
315.542	393.38
315.771	378.38
316.001	392.38
316.23	405.38
316.46	377.38
316.689	389.38
316.919	408.38
317.148	413.38
317.377	382.38
317.607	382.38
317.836	379.38
318.065	389.38
318.295	401.38
318.524	405.38
318.753	395.38
318.983	394.38
319.212	398.38
319.441	398.38
319.67	386.38
319.9	362.38
320.129	373.38
320.358	379.38
320.587	384.38
320.816	402.38
321.046	411.38
321.275	399.38
321.504	403.38
321.733	431.38
321.962	418.38
322.191	402.38
322.42	423.38
322.649	423.38
322.878	438.38
323.108	441.38
323.337	476.38
323.566	491.38
323.795	484.38
324.024	526.38
324.253	645.38
324.482	848.38
324.71	1217.38
324.939	1733.38
325.168	1529.38
325.397	817.38
325.626	591.38
325.855	512.38
326.084	509.38
326.313	471.38
326.542	485.38
326.77	535.38
326.999	591.38
327.228	817.38
327.457	1115.38
327.686	1325.38
327.914	881.38
328.143	604.38
328.372	558.38
328.6	532.38
328.829	506.38
329.058	521.38
329.287	527.38
329.515	493.38
329.744	489.38
329.972	483.38
330.201	489.38
330.43	516.38
330.658	545.38
330.887	547.38
331.115	534.38
331.344	492.38
331.572	464.38
331.801	471.38
332.03	492.38
332.258	446.38
332.486	484.38
332.715	469.38
332.943	482.38
333.172	471.38
333.4	477.38
333.629	458.38
333.857	481.38
334.085	497.38
334.314	503.38
334.542	517.38
334.771	528.38
334.999	487.38
335.227	512.38
335.455	473.38
335.684	462.38
335.912	454.38
336.14	463.38
336.369	466.38
336.597	472.38
336.825	449.38
337.053	458.38
337.281	454.38
337.51	443.38
337.738	446.38
337.966	437.38
338.194	439.38
338.422	464.38
338.65	445.38
338.878	429.38
339.106	425.38
339.334	415.38
339.562	428.38
339.79	412.38
340.018	431.38
340.246	443.38
340.474	429.38
340.702	439.38
340.93	442.38
341.158	429.38
341.386	416.38
341.614	426.38
341.842	429.38
342.07	441.38
342.298	440.38
342.526	412.38
342.754	426.38
342.981	413.38
343.209	451.38
343.437	414.38
343.665	425.38
343.893	468.38
344.12	489.38
344.348	455.38
344.576	423.38
344.804	451.38
345.031	450.38
345.259	444.38
345.487	463.38
345.714	431.38
345.942	414.38
346.17	424.38
346.397	421.38
346.625	430.38
346.853	430.38
347.08	403.38
347.308	416.38
347.535	407.38
347.763	425.38
347.99	434.38
348.218	405.38
348.445	427.38
348.673	419.38
348.9	413.38
349.128	419.38
349.355	395.38
349.583	404.38
349.81	410.38
350.037	395.38
350.265	399.38
350.492	406.38
350.72	404.38
350.947	403.38
351.174	414.38
351.402	409.38
351.629	417.38
351.856	412.38
352.083	400.38
352.311	426.38
352.538	421.38
352.765	418.38
352.992	418.38
353.22	403.38
353.447	414.38
353.674	413.38
353.901	392.38
354.128	382.38
354.355	409.38
354.583	385.38
354.81	387.38
355.037	388.38
355.264	393.38
355.491	387.38
355.718	381.38
355.945	395.38
356.172	377.38
356.399	377.38
356.626	389.38
356.853	419.38
357.08	396.38
357.307	397.38
357.534	387.38
357.761	373.38
357.988	391.38
358.215	387.38
358.441	381.38
358.668	381.38
358.895	375.38
359.122	390.38
359.349	418.38
359.576	395.38
359.802	427.38
360.029	441.38
360.256	440.38
360.483	412.38
360.709	393.38
360.936	414.38
361.163	406.38
361.39	411.38
361.616	405.38
361.843	395.38
362.07	398.38
362.296	414.38
362.523	394.38
362.749	394.38
362.976	374.38
363.203	399.38
363.429	393.38
363.656	393.38
363.882	399.38
364.109	376.38
364.335	391.38
364.562	389.38
364.788	383.38
365.015	394.38
365.241	378.38
365.468	391.38
365.694	378.38
365.92	385.38
366.147	375.38
366.373	383.38
366.599	390.38
366.826	389.38
367.052	374.38
367.278	388.38
367.505	384.38
367.731	405.38
367.957	381.38
368.184	394.38
368.41	382.38
368.636	386.38
368.862	408.38
369.089	389.38
369.315	379.38
369.541	387.38
369.767	383.38
369.993	369.38
370.219	381.38
370.445	393.38
370.672	396.38
370.898	392.38
371.124	389.38
371.35	373.38
371.576	381.38
371.802	397.38
372.028	378.38
372.254	387.38
372.48	364.38
372.706	381.38
372.932	401.38
373.158	401.38
373.384	383.38
373.61	387.38
373.835	397.38
374.061	369.38
374.287	389.38
374.513	385.38
374.739	405.38
374.965	392.38
375.191	401.38
375.416	380.38
375.642	396.38
375.868	388.38
376.094	396.38
376.319	394.38
376.545	369.38
376.771	384.38
376.997	379.38
377.222	377.38
377.448	366.38
377.674	363.38
377.899	378.38
378.125	389.38
378.35	366.38
378.576	389.38
378.802	357.38
379.027	369.38
379.253	366.38
379.478	387.38
379.704	350.38
379.929	385.38
380.155	383.38
380.38	377.38
380.606	375.38
380.831	373.38
381.057	373.38
381.282	389.38
381.507	390.38
381.733	396.38
381.958	384.38
382.184	394.38
382.409	391.38
382.634	407.38
382.86	392.38
383.085	381.38
383.31	396.38
383.535	393.38
383.761	414.38
383.986	391.38
384.211	404.38
384.436	398.38
384.662	397.38
384.887	412.38
385.112	406.38
385.337	389.38
385.562	420.38
385.787	416.38
386.013	415.38
386.238	427.38
386.463	442.38
386.688	436.38
386.913	426.38
387.138	427.38
387.363	436.38
387.588	409.38
387.813	413.38
388.038	414.38
388.263	409.38
388.488	431.38
388.713	409.38
388.938	419.38
389.163	422.38
389.387	441.38
389.612	433.38
389.837	403.38
390.062	417.38
390.287	433.38
390.512	419.38
390.736	414.38
390.961	407.38
391.186	423.38
391.411	419.38
391.636	435.38
391.86	429.38
392.085	428.38
392.31	436.38
392.534	422.38
392.759	419.38
392.984	437.38
393.208	406.38
393.433	451.38
393.658	433.38
393.882	424.38
394.107	395.38
394.331	425.38
394.556	428.38
394.78	426.38
395.005	438.38
395.229	411.38
395.454	423.38
395.678	462.38
395.903	457.38
396.127	468.38
396.352	479.38
396.576	425.38
396.801	435.38
397.025	430.38
397.249	440.38
397.474	462.38
397.698	444.38
397.922	461.38
398.147	462.38
398.371	477.38
398.595	477.38
398.82	491.38
399.044	502.38
399.268	545.38
399.492	558.38
399.717	601.38
399.941	609.38
400.165	617.38
400.389	599.38
400.613	543.38
400.837	518.38
401.062	499.38
401.286	499.38
401.51	485.38
401.734	485.38
401.958	487.38
402.182	481.38
402.406	491.38
402.63	480.38
402.854	504.38
403.078	481.38
403.302	472.38
403.526	489.38
403.75	493.38
403.974	501.38
404.198	486.38
404.422	483.38
404.645	509.38
404.869	508.38
405.093	524.38
405.317	563.38
405.541	592.38
405.765	563.38
405.988	529.38
406.212	535.38
406.436	532.38
406.66	529.38
406.883	539.38
407.107	566.38
407.331	613.38
407.555	644.38
407.778	641.38
408.002	604.38
408.226	558.38
408.449	549.38
408.673	558.38
408.896	549.38
409.12	590.38
409.344	557.38
409.567	506.38
409.791	515.38
410.014	488.38
410.238	490.38
410.461	499.38
410.685	503.38
410.908	498.38
411.132	537.38
411.355	566.38
411.578	563.38
411.802	498.38
412.025	487.38
412.249	488.38
412.472	523.38
412.695	539.38
412.919	526.38
413.142	503.38
413.365	478.38
413.589	480.38
413.812	463.38
414.035	453.38
414.258	477.38
414.482	484.38
414.705	463.38
414.928	467.38
415.151	461.38
415.374	467.38
415.597	485.38
415.821	472.38
416.044	467.38
416.267	447.38
416.49	467.38
416.713	450.38
416.936	464.38
417.159	458.38
417.382	470.38
417.605	478.38
417.828	490.38
418.051	478.38
418.274	473.38
418.497	450.38
418.72	467.38
418.943	462.38
419.166	461.38
419.389	490.38
419.611	501.38
419.834	530.38
420.057	485.38
420.28	467.38
420.503	502.38
420.726	467.38
420.948	499.38
421.171	530.38
421.394	553.38
421.617	453.38
421.839	472.38
422.062	495.38
422.285	502.38
422.507	542.38
422.73	599.38
422.953	572.38
423.175	491.38
423.398	509.38
423.621	489.38
423.843	510.38
424.066	513.38
424.288	522.38
424.511	533.38
424.733	551.38
424.956	642.38
425.178	608.38
425.401	588.38
425.623	609.38
425.846	525.38
426.068	486.38
426.291	494.38
426.513	486.38
426.735	495.38
426.958	542.38
427.18	614.38
427.402	724.38
427.625	771.38
427.847	649.38
428.069	572.38
428.292	533.38
428.514	489.38
428.736	477.38
428.958	473.38
429.181	476.38
429.403	451.38
429.625	457.38
429.847	484.38
430.069	556.38
430.292	537.38
430.514	487.38
430.736	485.38
430.958	463.38
431.18	462.38
431.402	423.38
431.624	450.38
431.846	454.38
432.068	443.38
432.29	453.38
432.512	426.38
432.734	446.38
432.956	435.38
433.178	438.38
433.4	451.38
433.622	439.38
433.844	449.38
434.066	438.38
434.287	419.38
434.509	435.38
434.731	476.38
434.953	458.38
435.175	480.38
435.397	515.38
435.618	505.38
435.84	532.38
436.062	600.38
436.284	631.38
436.505	553.38
436.727	494.38
436.949	489.38
437.17	455.38
437.392	444.38
437.614	469.38
437.835	494.38
438.057	552.38
438.278	647.38
438.5	624.38
438.721	683.38
438.943	655.38
439.165	554.38
439.386	501.38
439.608	523.38
439.829	513.38
440.05	519.38
440.272	551.38
440.493	506.38
440.715	486.38
440.936	464.38
441.158	479.38
441.379	483.38
441.6	466.38
441.822	515.38
442.043	551.38
442.264	593.38
442.486	611.38
442.707	542.38
442.928	519.38
443.149	503.38
443.371	525.38
443.592	574.38
443.813	634.38
444.034	717.38
444.255	576.38
444.476	533.38
444.698	520.38
444.919	510.38
445.14	607.38
445.361	538.38
445.582	513.38
445.803	567.38
446.024	644.38
446.245	664.38
446.466	623.38
446.687	510.38
446.908	497.38
447.129	474.38
447.35	472.38
447.571	472.38
447.792	462.38
448.013	439.38
448.234	477.38
448.455	527.38
448.675	604.38
448.896	701.38
449.117	592.38
449.338	569.38
449.559	640.38
449.779	735.38
450	591.38
450.221	484.38
450.442	465.38
450.662	444.38
450.883	412.38
451.104	444.38
451.324	439.38
451.545	435.38
451.766	422.38
451.986	417.38
452.207	414.38
452.428	389.38
452.648	417.38
452.869	407.38
453.089	408.38
453.31	424.38
453.53	397.38
453.751	405.38
453.971	391.38
454.192	415.38
454.412	423.38
454.633	397.38
454.853	402.38
455.073	410.38
455.294	413.38
455.514	472.38
455.734	461.38
455.955	412.38
456.175	409.38
456.395	399.38
456.616	405.38
456.836	382.38
457.056	388.38
457.276	382.38
457.497	380.38
457.717	402.38
457.937	386.38
458.157	404.38
458.377	410.38
458.598	420.38
458.818	454.38
459.038	479.38
459.258	534.38
459.478	479.38
459.698	427.38
459.918	441.38
460.138	445.38
460.358	431.38
460.578	424.38
460.798	450.38
461.018	472.38
461.238	462.38
461.458	443.38
461.678	423.38
461.898	469.38
462.118	466.38
462.338	470.38
462.558	486.38
462.777	488.38
462.997	514.38
463.217	502.38
463.437	514.38
463.657	525.38
463.876	492.38
464.096	494.38
464.316	481.38
464.536	489.38
464.755	497.38
464.975	491.38
465.195	513.38
465.414	548.38
465.634	465.38
465.854	453.38
466.073	434.38
466.293	437.38
466.512	405.38
466.732	413.38
466.951	419.38
467.171	407.38
467.391	419.38
467.61	414.38
467.829	433.38
468.049	438.38
468.268	420.38
468.488	414.38
468.707	397.38
468.927	385.38
469.146	384.38
469.365	409.38
469.585	398.38
469.804	421.38
470.023	403.38
470.243	415.38
470.462	407.38
470.681	450.38
470.901	459.38
471.12	421.38
471.339	439.38
471.558	423.38
471.777	418.38
471.997	408.38
472.216	411.38
472.435	428.38
472.654	428.38
472.873	418.38
473.092	425.38
473.311	418.38
473.53	436.38
473.749	424.38
473.968	463.38
474.187	554.38
474.406	563.38
474.625	456.38
474.844	437.38
475.063	427.38
475.282	443.38
475.501	423.38
475.72	428.38
475.939	407.38
476.158	427.38
476.377	441.38
476.596	433.38
476.814	438.38
477.033	450.38
477.252	450.38
477.471	445.38
477.69	460.38
477.908	446.38
478.127	457.38
478.346	470.38
478.564	462.38
478.783	490.38
479.002	479.38
479.22	480.38
479.439	502.38
479.658	501.38
479.876	501.38
480.095	520.38
480.313	514.38
480.532	536.38
480.751	527.38
480.969	532.38
481.188	539.38
481.406	549.38
481.624	503.38
481.843	508.38
482.061	497.38
482.28	501.38
482.498	490.38
482.717	470.38
482.935	489.38
483.153	462.38
483.372	467.38
483.59	475.38
483.808	464.38
484.027	501.38
484.245	492.38
484.463	469.38
484.681	492.38
484.9	461.38
485.118	493.38
485.336	492.38
485.554	517.38
485.772	498.38
485.99	497.38
486.209	508.38
486.427	516.38
486.645	510.38
486.863	522.38
487.081	504.38
487.299	511.38
487.517	523.38
487.735	490.38
487.953	517.38
488.171	527.38
488.389	549.38
488.607	521.38
488.825	518.38
489.043	525.38
489.261	505.38
489.479	535.38
489.696	535.38
489.914	535.38
490.132	514.38
490.35	535.38
490.568	552.38
490.786	539.38
491.003	554.38
491.221	540.38
491.439	562.38
491.657	585.38
491.874	579.38
492.092	567.38
492.31	564.38
492.527	559.38
492.745	579.38
492.963	566.38
493.18	605.38
493.398	579.38
493.615	567.38
493.833	597.38
494.05	616.38
494.268	600.38
494.485	594.38
494.703	586.38
494.92	598.38
495.138	589.38
495.355	600.38
495.573	600.38
495.79	612.38
496.008	619.38
496.225	632.38
496.442	583.38
496.66	619.38
496.877	615.38
497.094	622.38
497.312	602.38
497.529	624.38
497.746	627.38
497.963	651.38
498.181	681.38
498.398	677.38
498.615	705.38
498.832	702.38
499.049	712.38
499.267	756.38
499.484	794.38
499.701	788.38
499.918	825.38
500.135	867.38
500.352	933.38
500.569	938.38
500.786	917.38
501.003	931.38
501.22	869.38
501.437	839.38
501.654	818.38
501.871	788.38
502.088	781.38
