Data from 1977.PennyLincolnUp.Lamp.En5.5.200Scan.071719.P1_HRD10591_16-04-57-863.txt Node
Date: Thu Jul 18 16:04:57 EDT 2019
User: cochatt
Spectrometer: HR+D1059
Trigger mode: 1
Integration Time (sec): 1.000000E-1
Scans to average: 1
Electric dark correction enabled: true
Nonlinearity correction enabled: false
Boxcar width: 0
XAxis mode: Wavelengths
Number of Pixels in Spectrum: 2048
>>>>>Begin Spectral Data<<<<<
223.165	-32.31
223.4	-32.31
223.635	-32.31
223.869	-25.31
224.104	-12.31
224.338	-3.31
224.573	-14.31
224.808	-11.31
225.042	-3.31
225.277	-3.31
225.511	-1.31
225.746	12.69
225.98	2.69
226.215	-3.31
226.449	14.69
226.683	15.69
226.918	28.69
227.152	35.69
227.387	23.69
227.621	52.69
227.856	35.69
228.09	38.69
228.324	62.69
228.559	53.69
228.793	64.69
229.027	104.69
229.262	85.69
229.496	111.69
229.73	104.69
229.964	107.69
230.199	109.69
230.433	108.69
230.667	94.69
230.901	93.69
231.136	100.69
231.37	109.69
231.604	96.69
231.838	116.69
232.072	108.69
232.306	102.69
232.541	127.69
232.775	101.69
233.009	99.69
233.243	107.69
233.477	96.69
233.711	114.69
233.945	103.69
234.179	114.69
234.413	119.69
234.647	110.69
234.881	118.69
235.115	122.69
235.349	113.69
235.583	123.69
235.817	105.69
236.051	100.69
236.285	112.69
236.519	112.69
236.753	119.69
236.987	125.69
237.221	140.69
237.455	168.69
237.689	160.69
237.922	114.69
238.156	121.69
238.39	139.69
238.624	121.69
238.858	111.69
239.091	107.69
239.325	99.69
239.559	109.69
239.793	102.69
240.027	120.69
240.26	122.69
240.494	127.69
240.728	136.69
240.961	138.69
241.195	124.69
241.429	126.69
241.662	112.69
241.896	130.69
242.13	121.69
242.363	128.69
242.597	142.69
242.83	125.69
243.064	120.69
243.298	127.69
243.531	127.69
243.765	130.69
243.998	127.69
244.232	127.69
244.465	139.69
244.699	122.69
244.932	134.69
245.166	134.69
245.399	132.69
245.633	145.69
245.866	136.69
246.099	143.69
246.333	151.69
246.566	152.69
246.8	145.69
247.033	144.69
247.266	141.69
247.5	157.69
247.733	150.69
247.966	156.69
248.2	162.69
248.433	150.69
248.666	149.69
248.899	153.69
249.133	140.69
249.366	158.69
249.599	162.69
249.832	160.69
250.066	165.69
250.299	177.69
250.532	166.69
250.765	186.69
250.998	173.69
251.231	174.69
251.465	175.69
251.698	163.69
251.931	150.69
252.164	166.69
252.397	176.69
252.63	173.69
252.863	178.69
253.096	178.69
253.329	181.69
253.562	181.69
253.795	187.69
254.028	189.69
254.261	171.69
254.494	206.69
254.727	218.69
254.96	225.69
255.193	199.69
255.426	192.69
255.659	197.69
255.892	198.69
256.124	185.69
256.357	194.69
256.59	178.69
256.823	186.69
257.056	194.69
257.289	181.69
257.521	176.69
257.754	179.69
257.987	187.69
258.22	187.69
258.452	182.69
258.685	198.69
258.918	200.69
259.151	197.69
259.383	187.69
259.616	190.69
259.849	201.69
260.081	206.69
260.314	197.69
260.547	203.69
260.779	196.69
261.012	205.69
261.244	199.69
261.477	188.69
261.71	190.69
261.942	206.69
262.175	207.69
262.407	199.69
262.64	208.69
262.872	182.69
263.105	173.69
263.337	189.69
263.57	188.69
263.802	193.69
264.035	195.69
264.267	185.69
264.499	209.69
264.732	202.69
264.964	192.69
265.197	189.69
265.429	200.69
265.661	199.69
265.894	206.69
266.126	199.69
266.358	184.69
266.591	211.69
266.823	205.69
267.055	196.69
267.287	212.69
267.52	190.69
267.752	211.69
267.984	222.69
268.216	198.69
268.448	214.69
268.681	198.69
268.913	227.69
269.145	234.69
269.377	242.69
269.609	238.69
269.841	222.69
270.073	238.69
270.306	250.69
270.538	274.69
270.77	251.69
271.002	255.69
271.234	244.69
271.466	238.69
271.698	262.69
271.93	271.69
272.162	268.69
272.394	267.69
272.626	241.69
272.858	259.69
273.09	251.69
273.322	255.69
273.553	234.69
273.785	242.69
274.017	214.69
274.249	249.69
274.481	254.69
274.713	254.69
274.945	242.69
275.176	256.69
275.408	247.69
275.64	243.69
275.872	251.69
276.104	251.69
276.335	225.69
276.567	240.69
276.799	225.69
277.031	268.69
277.262	262.69
277.494	276.69
277.726	274.69
277.957	256.69
278.189	231.69
278.421	264.69
278.652	236.69
278.884	258.69
279.115	237.69
279.347	262.69
279.579	239.69
279.81	245.69
280.042	262.69
280.273	259.69
280.505	261.69
280.736	261.69
280.968	239.69
281.199	252.69
281.431	254.69
281.662	242.69
281.894	265.69
282.125	255.69
282.356	274.69
282.588	266.69
282.819	262.69
283.051	275.69
283.282	264.69
283.513	260.69
283.745	262.69
283.976	269.69
284.207	268.69
284.439	247.69
284.67	271.69
284.901	281.69
285.132	292.69
285.364	267.69
285.595	270.69
285.826	270.69
286.057	260.69
286.288	249.69
286.52	270.69
286.751	290.69
286.982	280.69
287.213	279.69
287.444	268.69
287.675	274.69
287.906	266.69
288.138	291.69
288.369	282.69
288.6	280.69
288.831	280.69
289.062	272.69
289.293	268.69
289.524	280.69
289.755	285.69
289.986	269.69
290.217	286.69
290.448	286.69
290.679	283.69
290.91	280.69
291.141	278.69
291.371	260.69
291.602	283.69
291.833	262.69
292.064	271.69
292.295	266.69
292.526	278.69
292.757	294.69
292.987	282.69
293.218	294.69
293.449	264.69
293.68	285.69
293.91	283.69
294.141	301.69
294.372	279.69
294.603	271.69
294.833	264.69
295.064	287.69
295.295	293.69
295.525	287.69
295.756	300.69
295.987	278.69
296.217	290.69
296.448	291.69
296.679	290.69
296.909	282.69
297.14	274.69
297.37	291.69
297.601	301.69
297.831	285.69
298.062	283.69
298.292	286.69
298.523	307.69
298.753	307.69
298.984	299.69
299.214	308.69
299.445	286.69
299.675	318.69
299.905	300.69
300.136	296.69
300.366	294.69
300.597	296.69
300.827	299.69
301.057	330.69
301.288	318.69
301.518	292.69
301.748	304.69
301.979	303.69
302.209	318.69
302.439	304.69
302.669	301.69
302.9	336.69
303.13	304.69
303.36	324.69
303.59	315.69
303.82	326.69
304.051	335.69
304.281	316.69
304.511	318.69
304.741	331.69
304.971	301.69
305.201	312.69
305.431	320.69
305.661	323.69
305.891	312.69
306.121	327.69
306.352	325.69
306.582	306.69
306.812	301.69
307.042	308.69
307.272	331.69
307.502	307.69
307.731	324.69
307.961	314.69
308.191	316.69
308.421	304.69
308.651	309.69
308.881	333.69
309.111	325.69
309.341	332.69
309.571	316.69
309.8	302.69
310.03	338.69
310.26	314.69
310.49	320.69
310.72	330.69
310.949	342.69
311.179	343.69
311.409	347.69
311.639	337.69
311.868	354.69
312.098	351.69
312.328	343.69
312.557	348.69
312.787	334.69
313.017	342.69
313.246	324.69
313.476	346.69
313.706	331.69
313.935	344.69
314.165	347.69
314.394	332.69
314.624	351.69
314.853	349.69
315.083	339.69
315.312	354.69
315.542	350.69
315.771	333.69
316.001	330.69
316.23	349.69
316.46	342.69
316.689	357.69
316.919	363.69
317.148	354.69
317.377	340.69
317.607	366.69
317.836	329.69
318.065	331.69
318.295	345.69
318.524	357.69
318.753	345.69
318.983	351.69
319.212	352.69
319.441	335.69
319.67	349.69
319.9	347.69
320.129	343.69
320.358	349.69
320.587	330.69
320.816	350.69
321.046	362.69
321.275	359.69
321.504	344.69
321.733	364.69
321.962	360.69
322.191	361.69
322.42	364.69
322.649	366.69
322.878	374.69
323.108	374.69
323.337	400.69
323.566	395.69
323.795	416.69
324.024	426.69
324.253	483.69
324.482	594.69
324.71	826.69
324.939	1129.69
325.168	983.69
325.397	564.69
325.626	450.69
325.855	412.69
326.084	403.69
326.313	380.69
326.542	428.69
326.77	412.69
326.999	455.69
327.228	583.69
327.457	768.69
327.686	891.69
327.914	618.69
328.143	460.69
328.372	421.69
328.6	418.69
328.829	423.69
329.058	420.69
329.287	433.69
329.515	406.69
329.744	410.69
329.972	381.69
330.201	411.69
330.43	434.69
330.658	436.69
330.887	421.69
331.115	422.69
331.344	410.69
331.572	390.69
331.801	397.69
332.03	427.69
332.258	393.69
332.486	411.69
332.715	392.69
332.943	402.69
333.172	420.69
333.4	412.69
333.629	406.69
333.857	446.69
334.085	423.69
334.314	427.69
334.542	445.69
334.771	455.69
334.999	419.69
335.227	427.69
335.455	413.69
335.684	408.69
335.912	417.69
336.14	406.69
336.369	406.69
336.597	441.69
336.825	400.69
337.053	412.69
337.281	400.69
337.51	401.69
337.738	406.69
337.966	394.69
338.194	402.69
338.422	418.69
338.65	400.69
338.878	412.69
339.106	401.69
339.334	406.69
339.562	395.69
339.79	408.69
340.018	394.69
340.246	397.69
340.474	390.69
340.702	385.69
340.93	383.69
341.158	382.69
341.386	383.69
341.614	378.69
341.842	390.69
342.07	394.69
342.298	389.69
342.526	382.69
342.754	358.69
342.981	374.69
343.209	373.69
343.437	382.69
343.665	389.69
343.893	410.69
344.12	424.69
344.348	403.69
344.576	386.69
344.804	381.69
345.031	382.69
345.259	402.69
345.487	386.69
345.714	380.69
345.942	380.69
346.17	374.69
346.397	367.69
346.625	380.69
346.853	374.69
347.08	373.69
347.308	377.69
347.535	370.69
347.763	389.69
347.99	380.69
348.218	358.69
348.445	363.69
348.673	376.69
348.9	359.69
349.128	365.69
349.355	342.69
349.583	360.69
349.81	366.69
350.037	355.69
350.265	355.69
350.492	344.69
350.72	372.69
350.947	359.69
351.174	379.69
351.402	376.69
351.629	380.69
351.856	357.69
352.083	381.69
352.311	358.69
352.538	370.69
352.765	365.69
352.992	362.69
353.22	362.69
353.447	370.69
353.674	350.69
353.901	340.69
354.128	342.69
354.355	351.69
354.583	357.69
354.81	360.69
355.037	348.69
355.264	333.69
355.491	348.69
355.718	332.69
355.945	343.69
356.172	339.69
356.399	349.69
356.626	351.69
356.853	349.69
357.08	345.69
357.307	347.69
357.534	351.69
357.761	354.69
357.988	349.69
358.215	337.69
358.441	358.69
358.668	342.69
358.895	344.69
359.122	334.69
359.349	364.69
359.576	359.69
359.802	364.69
360.029	371.69
360.256	380.69
360.483	349.69
360.709	358.69
360.936	354.69
361.163	361.69
361.39	334.69
361.616	345.69
361.843	352.69
362.07	372.69
362.296	358.69
362.523	362.69
362.749	353.69
362.976	329.69
363.203	348.69
363.429	342.69
363.656	345.69
363.882	354.69
364.109	354.69
364.335	350.69
364.562	346.69
364.788	332.69
365.015	325.69
365.241	345.69
365.468	377.69
365.694	352.69
365.92	355.69
366.147	346.69
366.373	341.69
366.599	340.69
366.826	360.69
367.052	366.69
367.278	347.69
367.505	354.69
367.731	348.69
367.957	345.69
368.184	348.69
368.41	340.69
368.636	350.69
368.862	354.69
369.089	338.69
369.315	370.69
369.541	345.69
369.767	351.69
369.993	348.69
370.219	336.69
370.445	353.69
370.672	367.69
370.898	351.69
371.124	345.69
371.35	357.69
371.576	344.69
371.802	354.69
372.028	355.69
372.254	346.69
372.48	357.69
372.706	336.69
372.932	372.69
373.158	384.69
373.384	359.69
373.61	356.69
373.835	352.69
374.061	360.69
374.287	355.69
374.513	349.69
374.739	357.69
374.965	364.69
375.191	354.69
375.416	370.69
375.642	354.69
375.868	368.69
376.094	357.69
376.319	361.69
376.545	331.69
376.771	352.69
376.997	359.69
377.222	346.69
377.448	346.69
377.674	348.69
377.899	352.69
378.125	333.69
378.35	349.69
378.576	348.69
378.802	355.69
379.027	341.69
379.253	337.69
379.478	335.69
379.704	340.69
379.929	354.69
380.155	346.69
380.38	340.69
380.606	363.69
380.831	344.69
381.057	371.69
381.282	351.69
381.507	353.69
381.733	328.69
381.958	369.69
382.184	354.69
382.409	355.69
382.634	381.69
382.86	383.69
383.085	369.69
383.31	382.69
383.535	360.69
383.761	396.69
383.986	386.69
384.211	375.69
384.436	387.69
384.662	408.69
384.887	399.69
385.112	395.69
385.337	377.69
385.562	392.69
385.787	388.69
386.013	427.69
386.238	394.69
386.463	383.69
386.688	412.69
386.913	393.69
387.138	394.69
387.363	401.69
387.588	398.69
387.813	400.69
388.038	404.69
388.263	397.69
388.488	411.69
388.713	380.69
388.938	374.69
389.163	388.69
389.387	388.69
389.612	398.69
389.837	401.69
390.062	374.69
390.287	375.69
390.512	390.69
390.736	388.69
390.961	384.69
391.186	397.69
391.411	391.69
391.636	405.69
391.86	417.69
392.085	406.69
392.31	400.69
392.534	392.69
392.759	399.69
392.984	420.69
393.208	378.69
393.433	403.69
393.658	418.69
393.882	399.69
394.107	399.69
394.331	403.69
394.556	400.69
394.78	403.69
395.005	393.69
395.229	395.69
395.454	398.69
395.678	388.69
395.903	409.69
396.127	411.69
396.352	415.69
396.576	397.69
396.801	415.69
397.025	404.69
397.249	426.69
397.474	400.69
397.698	431.69
397.922	431.69
398.147	431.69
398.371	439.69
398.595	425.69
398.82	440.69
399.044	452.69
399.268	456.69
399.492	525.69
399.717	521.69
399.941	540.69
400.165	558.69
400.389	545.69
400.613	489.69
400.837	458.69
401.062	434.69
401.286	446.69
401.51	447.69
401.734	430.69
401.958	452.69
402.182	447.69
402.406	435.69
402.63	452.69
402.854	456.69
403.078	451.69
403.302	454.69
403.526	434.69
403.75	452.69
403.974	434.69
404.198	455.69
404.422	462.69
404.645	461.69
404.869	461.69
405.093	448.69
405.317	480.69
405.541	507.69
405.765	476.69
405.988	467.69
406.212	463.69
406.436	486.69
406.66	476.69
406.883	480.69
407.107	505.69
407.331	540.69
407.555	566.69
407.778	574.69
408.002	520.69
408.226	515.69
408.449	487.69
408.673	487.69
408.896	498.69
409.12	514.69
409.344	527.69
409.567	472.69
409.791	472.69
410.014	439.69
410.238	467.69
410.461	446.69
410.685	458.69
410.908	479.69
411.132	463.69
411.355	490.69
411.578	467.69
411.802	461.69
412.025	455.69
412.249	451.69
412.472	465.69
412.695	506.69
412.919	470.69
413.142	451.69
413.365	442.69
413.589	440.69
413.812	437.69
414.035	432.69
414.258	434.69
414.482	417.69
414.705	426.69
414.928	404.69
415.151	413.69
415.374	432.69
415.597	429.69
415.821	431.69
416.044	409.69
416.267	430.69
416.49	429.69
416.713	428.69
416.936	414.69
417.159	404.69
417.382	429.69
417.605	424.69
417.828	443.69
418.051	442.69
418.274	441.69
418.497	432.69
418.72	421.69
418.943	407.69
419.166	425.69
419.389	451.69
419.611	441.69
419.834	438.69
420.057	440.69
420.28	438.69
420.503	421.69
420.726	455.69
420.948	452.69
421.171	460.69
421.394	451.69
421.617	443.69
421.839	444.69
422.062	439.69
422.285	442.69
422.507	471.69
422.73	518.69
422.953	485.69
423.175	450.69
423.398	438.69
423.621	447.69
423.843	462.69
424.066	452.69
424.288	453.69
424.511	455.69
424.733	499.69
424.956	531.69
425.178	515.69
425.401	514.69
425.623	516.69
425.846	466.69
426.068	452.69
426.291	451.69
426.513	430.69
426.735	435.69
426.958	456.69
427.18	516.69
427.402	612.69
427.625	652.69
427.847	531.69
428.069	485.69
428.292	458.69
428.514	426.69
428.736	419.69
428.958	419.69
429.181	401.69
429.403	407.69
429.625	433.69
429.847	417.69
430.069	472.69
430.292	481.69
430.514	419.69
430.736	403.69
430.958	403.69
431.18	415.69
431.402	391.69
431.624	376.69
431.846	381.69
432.068	398.69
432.29	389.69
432.512	408.69
432.734	398.69
432.956	406.69
433.178	402.69
433.4	386.69
433.622	384.69
433.844	412.69
434.066	409.69
434.287	387.69
434.509	441.69
434.731	408.69
434.953	433.69
435.175	427.69
435.397	429.69
435.618	439.69
435.84	441.69
436.062	518.69
436.284	568.69
436.505	459.69
436.727	424.69
436.949	408.69
437.17	411.69
437.392	402.69
437.614	421.69
437.835	419.69
438.057	463.69
438.278	548.69
438.5	548.69
438.721	600.69
438.943	607.69
439.165	478.69
439.386	440.69
439.608	435.69
439.829	430.69
440.05	434.69
440.272	473.69
440.493	427.69
440.715	443.69
440.936	412.69
441.158	387.69
441.379	411.69
441.6	416.69
441.822	428.69
442.043	453.69
442.264	507.69
442.486	534.69
442.707	457.69
442.928	434.69
443.149	461.69
443.371	449.69
443.592	485.69
443.813	520.69
444.034	549.69
444.255	493.69
444.476	450.69
444.698	468.69
444.919	442.69
445.14	536.69
445.361	504.69
445.582	475.69
445.803	475.69
446.024	517.69
446.245	552.69
446.466	491.69
446.687	454.69
446.908	435.69
447.129	424.69
447.35	405.69
447.571	403.69
447.792	382.69
448.013	381.69
448.234	413.69
448.455	420.69
448.675	506.69
448.896	561.69
449.117	502.69
449.338	486.69
449.559	549.69
449.779	603.69
450	501.69
450.221	423.69
450.442	405.69
450.662	414.69
450.883	414.69
451.104	408.69
451.324	375.69
451.545	371.69
451.766	362.69
451.986	360.69
452.207	360.69
452.428	377.69
452.648	354.69
452.869	374.69
453.089	370.69
453.31	376.69
453.53	355.69
453.751	364.69
453.971	365.69
454.192	364.69
454.412	356.69
454.633	348.69
454.853	347.69
455.073	352.69
455.294	377.69
455.514	400.69
455.734	411.69
455.955	368.69
456.175	345.69
456.395	339.69
456.616	342.69
456.836	356.69
457.056	348.69
457.276	348.69
457.497	374.69
457.717	357.69
457.937	355.69
458.157	370.69
458.377	369.69
458.598	375.69
458.818	389.69
459.038	447.69
459.258	439.69
459.478	412.69
459.698	406.69
459.918	417.69
460.138	420.69
460.358	400.69
460.578	408.69
460.798	420.69
461.018	410.69
461.238	419.69
461.458	398.69
461.678	399.69
461.898	427.69
462.118	414.69
462.338	421.69
462.558	441.69
462.777	451.69
462.997	478.69
463.217	462.69
463.437	478.69
463.657	483.69
463.876	452.69
464.096	451.69
464.316	476.69
464.536	454.69
464.755	438.69
464.975	434.69
465.195	443.69
465.414	439.69
465.634	444.69
465.854	406.69
466.073	396.69
466.293	391.69
466.512	389.69
466.732	376.69
466.951	374.69
467.171	374.69
467.391	400.69
467.61	383.69
467.829	377.69
468.049	375.69
468.268	372.69
468.488	363.69
468.707	368.69
468.927	365.69
469.146	356.69
469.365	357.69
469.585	351.69
469.804	390.69
470.023	388.69
470.243	376.69
470.462	381.69
470.681	391.69
470.901	389.69
471.12	402.69
471.339	374.69
471.558	376.69
471.777	397.69
471.997	388.69
472.216	392.69
472.435	400.69
472.654	379.69
472.873	396.69
473.092	375.69
473.311	374.69
473.53	344.69
473.749	371.69
473.968	410.69
474.187	452.69
474.406	464.69
474.625	406.69
474.844	378.69
475.063	371.69
475.282	398.69
475.501	394.69
475.72	400.69
475.939	392.69
476.158	384.69
476.377	373.69
476.596	390.69
476.814	391.69
477.033	396.69
477.252	378.69
477.471	404.69
477.69	410.69
477.908	433.69
478.127	410.69
478.346	420.69
478.564	414.69
478.783	418.69
479.002	442.69
479.22	446.69
479.439	451.69
479.658	450.69
479.876	443.69
480.095	443.69
480.313	472.69
480.532	460.69
480.751	469.69
480.969	472.69
481.188	469.69
481.406	476.69
481.624	456.69
481.843	440.69
482.061	435.69
482.28	435.69
482.498	429.69
482.717	435.69
482.935	412.69
483.153	427.69
483.372	428.69
483.59	446.69
483.808	436.69
484.027	422.69
484.245	450.69
484.463	453.69
484.681	445.69
484.9	428.69
485.118	453.69
485.336	456.69
485.554	453.69
485.772	454.69
485.99	441.69
486.209	465.69
486.427	475.69
486.645	442.69
486.863	451.69
487.081	443.69
487.299	445.69
487.517	471.69
487.735	444.69
487.953	461.69
488.171	441.69
488.389	462.69
488.607	463.69
488.825	466.69
489.043	453.69
489.261	451.69
489.479	468.69
489.696	466.69
489.914	465.69
490.132	477.69
490.35	463.69
490.568	475.69
490.786	465.69
491.003	491.69
491.221	503.69
491.439	491.69
491.657	494.69
491.874	516.69
492.092	516.69
492.31	493.69
492.527	496.69
492.745	508.69
492.963	502.69
493.18	511.69
493.398	523.69
493.615	495.69
493.833	523.69
494.05	506.69
494.268	498.69
494.485	514.69
494.703	508.69
494.92	498.69
495.138	519.69
495.355	523.69
495.573	540.69
495.79	522.69
496.008	504.69
496.225	532.69
496.442	534.69
496.66	538.69
496.877	496.69
497.094	526.69
497.312	546.69
497.529	568.69
497.746	542.69
497.963	570.69
498.181	617.69
498.398	593.69
498.615	623.69
498.832	628.69
499.049	660.69
499.267	687.69
499.484	696.69
499.701	745.69
499.918	780.69
500.135	827.69
500.352	870.69
500.569	898.69
500.786	887.69
501.003	831.69
501.22	828.69
501.437	775.69
501.654	700.69
501.871	728.69
502.088	677.69
