Data from 1977.PennyLincolnUp.Lamp.En5.5.200Scan.071719.P1_HRD10591_16-07-56-865.txt Node
Date: Thu Jul 18 16:07:56 EDT 2019
User: cochatt
Spectrometer: HR+D1059
Trigger mode: 1
Integration Time (sec): 1.000000E-1
Scans to average: 1
Electric dark correction enabled: true
Nonlinearity correction enabled: false
Boxcar width: 0
XAxis mode: Wavelengths
Number of Pixels in Spectrum: 2048
>>>>>Begin Spectral Data<<<<<
223.165	-2.19
223.4	-2.19
223.635	-2.19
223.869	-27.19
224.104	-17.19
224.338	-9.19
224.573	-16.19
224.808	-8.19
225.042	-13.19
225.277	-3.19
225.511	4.81
225.746	10.81
225.98	-7.19
226.215	1.81
226.449	22.81
226.683	26.81
226.918	7.81
227.152	28.81
227.387	50.81
227.621	30.81
227.856	41.81
228.09	22.81
228.324	38.81
228.559	36.81
228.793	78.81
229.027	95.81
229.262	93.81
229.496	97.81
229.73	119.81
229.964	164.81
230.199	119.81
230.433	104.81
230.667	103.81
230.901	118.81
231.136	98.81
231.37	109.81
231.604	92.81
231.838	93.81
232.072	112.81
232.306	102.81
232.541	111.81
232.775	117.81
233.009	111.81
233.243	105.81
233.477	107.81
233.711	116.81
233.945	121.81
234.179	115.81
234.413	124.81
234.647	109.81
234.881	124.81
235.115	136.81
235.349	129.81
235.583	118.81
235.817	120.81
236.051	111.81
236.285	127.81
236.519	141.81
236.753	140.81
236.987	139.81
237.221	158.81
237.455	212.81
237.689	173.81
237.922	152.81
238.156	132.81
238.39	134.81
238.624	121.81
238.858	126.81
239.091	119.81
239.325	106.81
239.559	126.81
239.793	123.81
240.027	114.81
240.26	144.81
240.494	149.81
240.728	153.81
240.961	156.81
241.195	135.81
241.429	163.81
241.662	147.81
241.896	149.81
242.13	125.81
242.363	139.81
242.597	139.81
242.83	137.81
243.064	135.81
243.298	124.81
243.531	140.81
243.765	142.81
243.998	134.81
244.232	130.81
244.465	139.81
244.699	148.81
244.932	152.81
245.166	162.81
245.399	136.81
245.633	158.81
245.866	158.81
246.099	132.81
246.333	150.81
246.566	159.81
246.8	139.81
247.033	152.81
247.266	171.81
247.5	180.81
247.733	165.81
247.966	164.81
248.2	162.81
248.433	174.81
248.666	180.81
248.899	174.81
249.133	201.81
249.366	206.81
249.599	190.81
249.832	194.81
250.066	202.81
250.299	194.81
250.532	199.81
250.765	187.81
250.998	225.81
251.231	235.81
251.465	218.81
251.698	194.81
251.931	222.81
252.164	182.81
252.397	186.81
252.63	207.81
252.863	198.81
253.096	214.81
253.329	215.81
253.562	232.81
253.795	211.81
254.028	210.81
254.261	221.81
254.494	225.81
254.727	264.81
254.96	264.81
255.193	257.81
255.426	234.81
255.659	221.81
255.892	235.81
256.124	220.81
256.357	215.81
256.59	216.81
256.823	203.81
257.056	214.81
257.289	206.81
257.521	211.81
257.754	207.81
257.987	207.81
258.22	205.81
258.452	198.81
258.685	205.81
258.918	211.81
259.151	217.81
259.383	222.81
259.616	206.81
259.849	226.81
260.081	236.81
260.314	248.81
260.547	254.81
260.779	244.81
261.012	243.81
261.244	221.81
261.477	226.81
261.71	234.81
261.942	210.81
262.175	230.81
262.407	214.81
262.64	222.81
262.872	219.81
263.105	235.81
263.337	212.81
263.57	229.81
263.802	206.81
264.035	220.81
264.267	217.81
264.499	226.81
264.732	220.81
264.964	222.81
265.197	227.81
265.429	195.81
265.661	224.81
265.894	232.81
266.126	237.81
266.358	236.81
266.591	232.81
266.823	215.81
267.055	228.81
267.287	247.81
267.52	225.81
267.752	245.81
267.984	243.81
268.216	225.81
268.448	251.81
268.681	232.81
268.913	244.81
269.145	262.81
269.377	280.81
269.609	275.81
269.841	286.81
270.073	285.81
270.306	302.81
270.538	310.81
270.77	317.81
271.002	308.81
271.234	320.81
271.466	296.81
271.698	306.81
271.93	302.81
272.162	313.81
272.394	294.81
272.626	289.81
272.858	294.81
273.09	292.81
273.322	284.81
273.553	276.81
273.785	280.81
274.017	279.81
274.249	286.81
274.481	290.81
274.713	301.81
274.945	287.81
275.176	271.81
275.408	274.81
275.64	270.81
275.872	270.81
276.104	278.81
276.335	294.81
276.567	277.81
276.799	299.81
277.031	308.81
277.262	307.81
277.494	310.81
277.726	311.81
277.957	323.81
278.189	282.81
278.421	300.81
278.652	285.81
278.884	265.81
279.115	275.81
279.347	271.81
279.579	290.81
279.81	313.81
280.042	278.81
280.273	295.81
280.505	298.81
280.736	282.81
280.968	299.81
281.199	289.81
281.431	280.81
281.662	272.81
281.894	295.81
282.125	303.81
282.356	312.81
282.588	299.81
282.819	317.81
283.051	296.81
283.282	292.81
283.513	306.81
283.745	303.81
283.976	293.81
284.207	299.81
284.439	306.81
284.67	310.81
284.901	303.81
285.132	304.81
285.364	295.81
285.595	298.81
285.826	301.81
286.057	301.81
286.288	308.81
286.52	308.81
286.751	294.81
286.982	287.81
287.213	314.81
287.444	313.81
287.675	323.81
287.906	318.81
288.138	316.81
288.369	314.81
288.6	315.81
288.831	323.81
289.062	309.81
289.293	305.81
289.524	302.81
289.755	315.81
289.986	296.81
290.217	318.81
290.448	298.81
290.679	312.81
290.91	294.81
291.141	320.81
291.371	332.81
291.602	307.81
291.833	314.81
292.064	321.81
292.295	314.81
292.526	320.81
292.757	332.81
292.987	314.81
293.218	313.81
293.449	316.81
293.68	332.81
293.91	301.81
294.141	319.81
294.372	307.81
294.603	322.81
294.833	311.81
295.064	320.81
295.295	339.81
295.525	301.81
295.756	320.81
295.987	316.81
296.217	345.81
296.448	344.81
296.679	333.81
296.909	334.81
297.14	303.81
297.37	306.81
297.601	311.81
297.831	327.81
298.062	322.81
298.292	334.81
298.523	348.81
298.753	332.81
298.984	345.81
299.214	350.81
299.445	332.81
299.675	327.81
299.905	348.81
300.136	326.81
300.366	329.81
300.597	354.81
300.827	346.81
301.057	329.81
301.288	331.81
301.518	343.81
301.748	329.81
301.979	325.81
302.209	356.81
302.439	349.81
302.669	348.81
302.9	320.81
303.13	341.81
303.36	353.81
303.59	360.81
303.82	358.81
304.051	347.81
304.281	359.81
304.511	362.81
304.741	352.81
304.971	351.81
305.201	344.81
305.431	359.81
305.661	343.81
305.891	344.81
306.121	376.81
306.352	358.81
306.582	341.81
306.812	350.81
307.042	346.81
307.272	363.81
307.502	349.81
307.731	372.81
307.961	346.81
308.191	358.81
308.421	363.81
308.651	344.81
308.881	382.81
309.111	358.81
309.341	346.81
309.571	354.81
309.8	377.81
310.03	390.81
310.26	407.81
310.49	396.81
310.72	391.81
310.949	400.81
311.179	405.81
311.409	389.81
311.639	389.81
311.868	389.81
312.098	391.81
312.328	400.81
312.557	424.81
312.787	420.81
313.017	410.81
313.246	396.81
313.476	407.81
313.706	392.81
313.935	399.81
314.165	399.81
314.394	400.81
314.624	399.81
314.853	396.81
315.083	398.81
315.312	382.81
315.542	391.81
315.771	394.81
316.001	388.81
316.23	401.81
316.46	390.81
316.689	383.81
316.919	387.81
317.148	376.81
317.377	428.81
317.607	397.81
317.836	388.81
318.065	412.81
318.295	385.81
318.524	405.81
318.753	399.81
318.983	400.81
319.212	410.81
319.441	418.81
319.67	392.81
319.9	399.81
320.129	408.81
320.358	390.81
320.587	408.81
320.816	405.81
321.046	404.81
321.275	427.81
321.504	414.81
321.733	416.81
321.962	428.81
322.191	424.81
322.42	431.81
322.649	415.81
322.878	440.81
323.108	464.81
323.337	484.81
323.566	491.81
323.795	502.81
324.024	542.81
324.253	628.81
324.482	892.81
324.71	1301.81
324.939	1838.81
325.168	1557.81
325.397	849.81
325.626	608.81
325.855	527.81
326.084	509.81
326.313	480.81
326.542	492.81
326.77	528.81
326.999	610.81
327.228	834.81
327.457	1160.81
327.686	1372.81
327.914	935.81
328.143	651.81
328.372	596.81
328.6	552.81
328.829	511.81
329.058	539.81
329.287	533.81
329.515	532.81
329.744	505.81
329.972	488.81
330.201	504.81
330.43	538.81
330.658	548.81
330.887	564.81
331.115	573.81
331.344	505.81
331.572	478.81
331.801	486.81
332.03	475.81
332.258	484.81
332.486	477.81
332.715	462.81
332.943	456.81
333.172	488.81
333.4	490.81
333.629	479.81
333.857	518.81
334.085	494.81
334.314	514.81
334.542	530.81
334.771	543.81
334.999	500.81
335.227	514.81
335.455	478.81
335.684	465.81
335.912	480.81
336.14	470.81
336.369	468.81
336.597	471.81
336.825	464.81
337.053	448.81
337.281	464.81
337.51	456.81
337.738	454.81
337.966	462.81
338.194	466.81
338.422	463.81
338.65	449.81
338.878	432.81
339.106	434.81
339.334	438.81
339.562	440.81
339.79	446.81
340.018	455.81
340.246	452.81
340.474	439.81
340.702	461.81
340.93	438.81
341.158	438.81
341.386	450.81
341.614	443.81
341.842	449.81
342.07	447.81
342.298	439.81
342.526	427.81
342.754	431.81
342.981	424.81
343.209	444.81
343.437	454.81
343.665	441.81
343.893	438.81
344.12	449.81
344.348	468.81
344.576	478.81
344.804	463.81
345.031	438.81
345.259	459.81
345.487	418.81
345.714	431.81
345.942	426.81
346.17	417.81
346.397	418.81
346.625	437.81
346.853	420.81
347.08	414.81
347.308	423.81
347.535	423.81
347.763	427.81
347.99	424.81
348.218	432.81
348.445	415.81
348.673	438.81
348.9	409.81
349.128	396.81
349.355	400.81
349.583	399.81
349.81	404.81
350.037	399.81
350.265	404.81
350.492	402.81
350.72	400.81
350.947	418.81
351.174	424.81
351.402	427.81
351.629	407.81
351.856	424.81
352.083	416.81
352.311	422.81
352.538	420.81
352.765	440.81
352.992	420.81
353.22	427.81
353.447	404.81
353.674	419.81
353.901	411.81
354.128	392.81
354.355	398.81
354.583	404.81
354.81	386.81
355.037	408.81
355.264	387.81
355.491	394.81
355.718	403.81
355.945	383.81
356.172	387.81
356.399	388.81
356.626	393.81
356.853	395.81
357.08	380.81
357.307	400.81
357.534	395.81
357.761	384.81
357.988	388.81
358.215	385.81
358.441	404.81
358.668	386.81
358.895	408.81
359.122	405.81
359.349	404.81
359.576	400.81
359.802	416.81
360.029	418.81
360.256	442.81
360.483	405.81
360.709	396.81
360.936	388.81
361.163	387.81
361.39	404.81
361.616	415.81
361.843	421.81
362.07	413.81
362.296	406.81
362.523	412.81
362.749	406.81
362.976	390.81
363.203	399.81
363.429	397.81
363.656	412.81
363.882	395.81
364.109	400.81
364.335	396.81
364.562	398.81
364.788	387.81
365.015	389.81
365.241	388.81
365.468	392.81
365.694	390.81
365.92	399.81
366.147	406.81
366.373	402.81
366.599	381.81
366.826	382.81
367.052	393.81
367.278	390.81
367.505	374.81
367.731	405.81
367.957	398.81
368.184	397.81
368.41	388.81
368.636	417.81
368.862	399.81
369.089	392.81
369.315	405.81
369.541	389.81
369.767	382.81
369.993	386.81
370.219	376.81
370.445	403.81
370.672	390.81
370.898	380.81
371.124	406.81
371.35	382.81
371.576	391.81
371.802	380.81
372.028	375.81
372.254	396.81
372.48	391.81
372.706	406.81
372.932	404.81
373.158	388.81
373.384	390.81
373.61	387.81
373.835	413.81
374.061	388.81
374.287	408.81
374.513	396.81
374.739	408.81
374.965	379.81
375.191	377.81
375.416	405.81
375.642	385.81
375.868	384.81
376.094	406.81
376.319	403.81
376.545	399.81
376.771	405.81
376.997	399.81
377.222	396.81
377.448	389.81
377.674	371.81
377.899	386.81
378.125	383.81
378.35	412.81
378.576	396.81
378.802	362.81
379.027	382.81
379.253	386.81
379.478	385.81
379.704	393.81
379.929	399.81
380.155	387.81
380.38	390.81
380.606	395.81
380.831	379.81
381.057	397.81
381.282	386.81
381.507	364.81
381.733	394.81
381.958	406.81
382.184	398.81
382.409	401.81
382.634	400.81
382.86	392.81
383.085	390.81
383.31	400.81
383.535	403.81
383.761	407.81
383.986	398.81
384.211	396.81
384.436	409.81
384.662	400.81
384.887	408.81
385.112	409.81
385.337	415.81
385.562	431.81
385.787	437.81
386.013	450.81
386.238	438.81
386.463	444.81
386.688	421.81
386.913	420.81
387.138	418.81
387.363	427.81
387.588	422.81
387.813	420.81
388.038	431.81
388.263	420.81
388.488	414.81
388.713	424.81
388.938	437.81
389.163	424.81
389.387	430.81
389.612	412.81
389.837	427.81
390.062	440.81
390.287	425.81
390.512	425.81
390.736	435.81
390.961	438.81
391.186	424.81
391.411	413.81
391.636	447.81
391.86	431.81
392.085	444.81
392.31	450.81
392.534	442.81
392.759	438.81
392.984	439.81
393.208	431.81
393.433	442.81
393.658	440.81
393.882	439.81
394.107	413.81
394.331	440.81
394.556	440.81
394.78	440.81
395.005	446.81
395.229	403.81
395.454	420.81
395.678	436.81
395.903	463.81
396.127	465.81
396.352	457.81
396.576	438.81
396.801	420.81
397.025	431.81
397.249	461.81
397.474	458.81
397.698	451.81
397.922	447.81
398.147	482.81
398.371	474.81
398.595	465.81
398.82	472.81
399.044	503.81
399.268	495.81
399.492	544.81
399.717	576.81
399.941	590.81
400.165	623.81
400.389	613.81
400.613	563.81
400.837	506.81
401.062	516.81
401.286	490.81
401.51	500.81
401.734	469.81
401.958	482.81
402.182	519.81
402.406	496.81
402.63	478.81
402.854	475.81
403.078	489.81
403.302	507.81
403.526	496.81
403.75	507.81
403.974	522.81
404.198	506.81
404.422	501.81
404.645	512.81
404.869	533.81
405.093	548.81
405.317	587.81
405.541	588.81
405.765	566.81
405.988	523.81
406.212	529.81
406.436	518.81
406.66	543.81
406.883	552.81
407.107	544.81
407.331	594.81
407.555	667.81
407.778	644.81
408.002	591.81
408.226	596.81
408.449	576.81
408.673	547.81
408.896	547.81
409.12	599.81
409.344	574.81
409.567	503.81
409.791	508.81
410.014	503.81
410.238	486.81
410.461	500.81
410.685	516.81
410.908	518.81
411.132	554.81
411.355	572.81
411.578	530.81
411.802	496.81
412.025	499.81
412.249	481.81
412.472	514.81
412.695	530.81
412.919	526.81
413.142	487.81
413.365	485.81
413.589	477.81
413.812	473.81
414.035	462.81
414.258	486.81
414.482	482.81
414.705	487.81
414.928	467.81
415.151	469.81
415.374	448.81
415.597	455.81
415.821	452.81
416.044	461.81
416.267	463.81
416.49	460.81
416.713	483.81
416.936	452.81
417.159	450.81
417.382	474.81
417.605	470.81
417.828	475.81
418.051	484.81
418.274	486.81
418.497	467.81
418.72	452.81
418.943	480.81
419.166	475.81
419.389	503.81
419.611	500.81
419.834	494.81
420.057	522.81
420.28	488.81
420.503	495.81
420.726	487.81
420.948	476.81
421.171	518.81
421.394	538.81
421.617	505.81
421.839	479.81
422.062	466.81
422.285	497.81
422.507	550.81
422.73	605.81
422.953	595.81
423.175	535.81
423.398	486.81
423.621	504.81
423.843	526.81
424.066	523.81
424.288	516.81
424.511	530.81
424.733	585.81
424.956	640.81
425.178	619.81
425.401	622.81
425.623	639.81
425.846	542.81
426.068	539.81
426.291	498.81
426.513	522.81
426.735	518.81
426.958	531.81
427.18	602.81
427.402	719.81
427.625	778.81
427.847	695.81
428.069	603.81
428.292	544.81
428.514	485.81
428.736	472.81
428.958	482.81
429.181	481.81
429.403	461.81
429.625	486.81
429.847	484.81
430.069	552.81
430.292	550.81
430.514	492.81
430.736	475.81
430.958	489.81
431.18	420.81
431.402	438.81
431.624	462.81
431.846	456.81
432.068	434.81
432.29	452.81
432.512	443.81
432.734	462.81
432.956	450.81
433.178	450.81
433.4	455.81
433.622	451.81
433.844	468.81
434.066	436.81
434.287	459.81
434.509	436.81
434.731	468.81
434.953	477.81
435.175	490.81
435.397	518.81
435.618	517.81
435.84	547.81
436.062	627.81
436.284	646.81
436.505	574.81
436.727	503.81
436.949	484.81
437.17	443.81
437.392	451.81
437.614	464.81
437.835	514.81
438.057	572.81
438.278	657.81
438.5	642.81
438.721	716.81
438.943	699.81
439.165	551.81
439.386	536.81
439.608	520.81
439.829	490.81
440.05	530.81
440.272	568.81
440.493	525.81
440.715	487.81
440.936	475.81
441.158	472.81
441.379	472.81
441.6	488.81
441.822	482.81
442.043	528.81
442.264	644.81
442.486	628.81
442.707	569.81
442.928	506.81
443.149	507.81
443.371	542.81
443.592	566.81
443.813	649.81
444.034	701.81
444.255	607.81
444.476	571.81
444.698	532.81
444.919	524.81
445.14	607.81
445.361	578.81
445.582	580.81
445.803	569.81
446.024	654.81
446.245	699.81
446.466	606.81
446.687	542.81
446.908	494.81
447.129	468.81
447.35	452.81
447.571	456.81
447.792	438.81
448.013	474.81
448.234	474.81
448.455	527.81
448.675	606.81
448.896	679.81
449.117	606.81
449.338	579.81
449.559	660.81
449.779	745.81
450	605.81
450.221	492.81
450.442	469.81
450.662	443.81
450.883	438.81
451.104	472.81
451.324	445.81
451.545	421.81
451.766	418.81
451.986	404.81
452.207	407.81
452.428	408.81
452.648	390.81
452.869	402.81
453.089	421.81
453.31	425.81
453.53	404.81
453.751	422.81
453.971	430.81
454.192	431.81
454.412	409.81
454.633	407.81
454.853	406.81
455.073	421.81
455.294	437.81
455.514	488.81
455.734	461.81
455.955	431.81
456.175	408.81
456.395	376.81
456.616	386.81
456.836	403.81
457.056	394.81
457.276	391.81
457.497	390.81
457.717	384.81
457.937	392.81
458.157	399.81
458.377	398.81
458.598	422.81
458.818	469.81
459.038	527.81
459.258	542.81
459.478	471.81
459.698	444.81
459.918	438.81
460.138	444.81
460.358	441.81
460.578	447.81
460.798	455.81
461.018	452.81
461.238	458.81
461.458	453.81
461.678	450.81
461.898	450.81
462.118	468.81
462.338	459.81
462.558	464.81
462.777	496.81
462.997	482.81
463.217	498.81
463.437	525.81
463.657	483.81
463.876	481.81
464.096	484.81
464.316	479.81
464.536	504.81
464.755	521.81
464.975	490.81
465.195	498.81
465.414	562.81
465.634	488.81
465.854	471.81
466.073	428.81
466.293	438.81
466.512	413.81
466.732	406.81
466.951	450.81
467.171	423.81
467.391	435.81
467.61	419.81
467.829	415.81
468.049	429.81
468.268	441.81
468.488	429.81
468.707	420.81
468.927	401.81
469.146	397.81
469.365	402.81
469.585	393.81
469.804	396.81
470.023	437.81
470.243	416.81
470.462	427.81
470.681	444.81
470.901	436.81
471.12	441.81
471.339	431.81
471.558	434.81
471.777	434.81
471.997	414.81
472.216	427.81
472.435	431.81
472.654	435.81
472.873	414.81
473.092	423.81
473.311	397.81
473.53	411.81
473.749	444.81
473.968	466.81
474.187	542.81
474.406	566.81
474.625	454.81
474.844	448.81
475.063	424.81
475.282	416.81
475.501	444.81
475.72	456.81
475.939	430.81
476.158	436.81
476.377	434.81
476.596	456.81
476.814	449.81
477.033	446.81
477.252	451.81
477.471	469.81
477.69	455.81
477.908	451.81
478.127	460.81
478.346	476.81
478.564	468.81
478.783	488.81
479.002	482.81
479.22	491.81
479.439	497.81
479.658	501.81
479.876	514.81
480.095	514.81
480.313	544.81
480.532	539.81
480.751	535.81
480.969	558.81
481.188	553.81
481.406	581.81
481.624	517.81
481.843	521.81
482.061	500.81
482.28	498.81
482.498	485.81
482.717	498.81
482.935	476.81
483.153	480.81
483.372	486.81
483.59	510.81
483.808	499.81
484.027	480.81
484.245	459.81
484.463	480.81
484.681	494.81
484.9	485.81
485.118	495.81
485.336	506.81
485.554	502.81
485.772	494.81
485.99	485.81
486.209	504.81
486.427	474.81
486.645	484.81
486.863	550.81
487.081	506.81
487.299	531.81
487.517	514.81
487.735	488.81
487.953	506.81
488.171	506.81
488.389	524.81
488.607	522.81
488.825	519.81
489.043	516.81
489.261	525.81
489.479	526.81
489.696	539.81
489.914	518.81
490.132	548.81
490.35	540.81
490.568	543.81
490.786	554.81
491.003	540.81
491.221	559.81
491.439	566.81
491.657	551.81
491.874	563.81
492.092	569.81
492.31	615.81
492.527	583.81
492.745	585.81
492.963	576.81
493.18	610.81
493.398	626.81
493.615	605.81
493.833	600.81
494.05	610.81
494.268	634.81
494.485	612.81
494.703	604.81
494.92	606.81
495.138	584.81
495.355	586.81
495.573	586.81
495.79	624.81
496.008	612.81
496.225	621.81
496.442	605.81
496.66	608.81
496.877	599.81
497.094	623.81
497.312	641.81
497.529	632.81
497.746	646.81
497.963	643.81
498.181	680.81
498.398	686.81
498.615	680.81
498.832	720.81
499.049	754.81
499.267	770.81
499.484	782.81
499.701	804.81
499.918	854.81
500.135	899.81
500.352	934.81
500.569	936.81
500.786	967.81
501.003	922.81
501.22	908.81
501.437	870.81
501.654	826.81
501.871	815.81
502.088	766.81
