Data from 1977.PennyLincolnUp.Lamp.En5.5.200Scan.071719.P1_HRD10591_16-04-32-863.txt Node
Date: Thu Jul 18 16:04:32 EDT 2019
User: cochatt
Spectrometer: HR+D1059
Trigger mode: 1
Integration Time (sec): 1.000000E-1
Scans to average: 1
Electric dark correction enabled: true
Nonlinearity correction enabled: false
Boxcar width: 0
XAxis mode: Wavelengths
Number of Pixels in Spectrum: 2048
>>>>>Begin Spectral Data<<<<<
223.165	-15.69
223.4	-15.69
223.635	-15.69
223.869	-15.69
224.104	-12.69
224.338	-12.69
224.573	-10.69
224.808	-9.69
225.042	-10.69
225.277	-7.69
225.511	-15.69
225.746	10.31
225.98	-8.69
226.215	27.31
226.449	8.31
226.683	18.31
226.918	28.31
227.152	27.31
227.387	45.31
227.621	43.31
227.856	51.31
228.09	28.31
228.324	43.31
228.559	62.31
228.793	56.31
229.027	60.31
229.262	73.31
229.496	71.31
229.73	85.31
229.964	91.31
230.199	93.31
230.433	88.31
230.667	82.31
230.901	89.31
231.136	91.31
231.37	87.31
231.604	85.31
231.838	90.31
232.072	72.31
232.306	76.31
232.541	85.31
232.775	76.31
233.009	90.31
233.243	101.31
233.477	87.31
233.711	89.31
233.945	96.31
234.179	94.31
234.413	91.31
234.647	78.31
234.881	78.31
235.115	88.31
235.349	83.31
235.583	80.31
235.817	86.31
236.051	80.31
236.285	93.31
236.519	100.31
236.753	90.31
236.987	100.31
237.221	94.31
237.455	95.31
237.689	87.31
237.922	76.31
238.156	71.31
238.39	72.31
238.624	87.31
238.858	87.31
239.091	92.31
239.325	78.31
239.559	86.31
239.793	91.31
240.027	98.31
240.26	82.31
240.494	81.31
240.728	90.31
240.961	84.31
241.195	90.31
241.429	88.31
241.662	82.31
241.896	85.31
242.13	83.31
242.363	97.31
242.597	87.31
242.83	94.31
243.064	90.31
243.298	84.31
243.531	83.31
243.765	89.31
243.998	100.31
244.232	102.31
244.465	87.31
244.699	71.31
244.932	80.31
245.166	94.31
245.399	107.31
245.633	80.31
245.866	94.31
246.099	101.31
246.333	82.31
246.566	89.31
246.8	86.31
247.033	85.31
247.266	93.31
247.5	84.31
247.733	101.31
247.966	93.31
248.2	95.31
248.433	102.31
248.666	85.31
248.899	94.31
249.133	104.31
249.366	96.31
249.599	89.31
249.832	88.31
250.066	106.31
250.299	100.31
250.532	110.31
250.765	90.31
250.998	90.31
251.231	94.31
251.465	83.31
251.698	96.31
251.931	102.31
252.164	95.31
252.397	95.31
252.63	91.31
252.863	95.31
253.096	99.31
253.329	102.31
253.562	90.31
253.795	107.31
254.028	106.31
254.261	109.31
254.494	100.31
254.727	104.31
254.96	103.31
255.193	107.31
255.426	102.31
255.659	110.31
255.892	93.31
256.124	86.31
256.357	106.31
256.59	88.31
256.823	94.31
257.056	92.31
257.289	104.31
257.521	108.31
257.754	93.31
257.987	95.31
258.22	109.31
258.452	93.31
258.685	115.31
258.918	85.31
259.151	116.31
259.383	99.31
259.616	103.31
259.849	96.31
260.081	104.31
260.314	103.31
260.547	98.31
260.779	103.31
261.012	100.31
261.244	105.31
261.477	115.31
261.71	107.31
261.942	84.31
262.175	123.31
262.407	105.31
262.64	109.31
262.872	94.31
263.105	106.31
263.337	109.31
263.57	105.31
263.802	106.31
264.035	111.31
264.267	92.31
264.499	104.31
264.732	106.31
264.964	104.31
265.197	108.31
265.429	102.31
265.661	106.31
265.894	105.31
266.126	110.31
266.358	98.31
266.591	105.31
266.823	109.31
267.055	106.31
267.287	116.31
267.52	114.31
267.752	107.31
267.984	112.31
268.216	103.31
268.448	108.31
268.681	116.31
268.913	110.31
269.145	108.31
269.377	126.31
269.609	98.31
269.841	123.31
270.073	95.31
270.306	109.31
270.538	108.31
270.77	121.31
271.002	105.31
271.234	120.31
271.466	124.31
271.698	106.31
271.93	121.31
272.162	130.31
272.394	111.31
272.626	115.31
272.858	126.31
273.09	116.31
273.322	116.31
273.553	112.31
273.785	125.31
274.017	106.31
274.249	118.31
274.481	109.31
274.713	104.31
274.945	122.31
275.176	107.31
275.408	114.31
275.64	124.31
275.872	111.31
276.104	117.31
276.335	120.31
276.567	100.31
276.799	118.31
277.031	123.31
277.262	110.31
277.494	109.31
277.726	120.31
277.957	111.31
278.189	121.31
278.421	110.31
278.652	110.31
278.884	118.31
279.115	116.31
279.347	133.31
279.579	108.31
279.81	124.31
280.042	124.31
280.273	116.31
280.505	112.31
280.736	104.31
280.968	120.31
281.199	128.31
281.431	116.31
281.662	118.31
281.894	125.31
282.125	117.31
282.356	106.31
282.588	122.31
282.819	104.31
283.051	107.31
283.282	118.31
283.513	122.31
283.745	124.31
283.976	115.31
284.207	126.31
284.439	126.31
284.67	129.31
284.901	111.31
285.132	126.31
285.364	116.31
285.595	117.31
285.826	124.31
286.057	123.31
286.288	115.31
286.52	132.31
286.751	118.31
286.982	124.31
287.213	125.31
287.444	122.31
287.675	118.31
287.906	124.31
288.138	106.31
288.369	114.31
288.6	123.31
288.831	107.31
289.062	124.31
289.293	136.31
289.524	114.31
289.755	127.31
289.986	128.31
290.217	119.31
290.448	138.31
290.679	117.31
290.91	135.31
291.141	112.31
291.371	137.31
291.602	120.31
291.833	130.31
292.064	112.31
292.295	123.31
292.526	124.31
292.757	121.31
292.987	128.31
293.218	119.31
293.449	110.31
293.68	130.31
293.91	120.31
294.141	118.31
294.372	122.31
294.603	118.31
294.833	124.31
295.064	122.31
295.295	127.31
295.525	109.31
295.756	137.31
295.987	136.31
296.217	114.31
296.448	134.31
296.679	118.31
296.909	125.31
297.14	127.31
297.37	133.31
297.601	125.31
297.831	120.31
298.062	126.31
298.292	119.31
298.523	135.31
298.753	120.31
298.984	139.31
299.214	128.31
299.445	130.31
299.675	125.31
299.905	121.31
300.136	120.31
300.366	129.31
300.597	128.31
300.827	125.31
301.057	116.31
301.288	139.31
301.518	125.31
301.748	130.31
301.979	128.31
302.209	123.31
302.439	134.31
302.669	122.31
302.9	129.31
303.13	131.31
303.36	127.31
303.59	130.31
303.82	131.31
304.051	122.31
304.281	137.31
304.511	129.31
304.741	148.31
304.971	130.31
305.201	123.31
305.431	124.31
305.661	127.31
305.891	125.31
306.121	138.31
306.352	140.31
306.582	135.31
306.812	132.31
307.042	145.31
307.272	122.31
307.502	149.31
307.731	138.31
307.961	116.31
308.191	119.31
308.421	135.31
308.651	138.31
308.881	125.31
309.111	119.31
309.341	126.31
309.571	124.31
309.8	134.31
310.03	132.31
310.26	136.31
310.49	131.31
310.72	134.31
310.949	131.31
311.179	117.31
311.409	135.31
311.639	136.31
311.868	131.31
312.098	155.31
312.328	123.31
312.557	150.31
312.787	154.31
313.017	136.31
313.246	138.31
313.476	136.31
313.706	130.31
313.935	140.31
314.165	134.31
314.394	141.31
314.624	128.31
314.853	143.31
315.083	131.31
315.312	121.31
315.542	134.31
315.771	135.31
316.001	137.31
316.23	144.31
316.46	143.31
316.689	128.31
316.919	132.31
317.148	150.31
317.377	140.31
317.607	127.31
317.836	119.31
318.065	131.31
318.295	126.31
318.524	136.31
318.753	130.31
318.983	125.31
319.212	142.31
319.441	139.31
319.67	149.31
319.9	127.31
320.129	119.31
320.358	130.31
320.587	126.31
320.816	132.31
321.046	142.31
321.275	134.31
321.504	119.31
321.733	126.31
321.962	146.31
322.191	149.31
322.42	138.31
322.649	138.31
322.878	144.31
323.108	134.31
323.337	154.31
323.566	142.31
323.795	134.31
324.024	140.31
324.253	152.31
324.482	178.31
324.71	217.31
324.939	250.31
325.168	207.31
325.397	163.31
325.626	150.31
325.855	151.31
326.084	150.31
326.313	144.31
326.542	154.31
326.77	139.31
326.999	164.31
327.228	173.31
327.457	198.31
327.686	218.31
327.914	175.31
328.143	162.31
328.372	161.31
328.6	146.31
328.829	155.31
329.058	147.31
329.287	148.31
329.515	137.31
329.744	155.31
329.972	144.31
330.201	144.31
330.43	144.31
330.658	155.31
330.887	150.31
331.115	149.31
331.344	142.31
331.572	150.31
331.801	120.31
332.03	138.31
332.258	154.31
332.486	143.31
332.715	141.31
332.943	155.31
333.172	162.31
333.4	149.31
333.629	167.31
333.857	163.31
334.085	163.31
334.314	142.31
334.542	147.31
334.771	168.31
334.999	156.31
335.227	147.31
335.455	146.31
335.684	166.31
335.912	155.31
336.14	151.31
336.369	151.31
336.597	147.31
336.825	165.31
337.053	143.31
337.281	144.31
337.51	150.31
337.738	143.31
337.966	142.31
338.194	143.31
338.422	155.31
338.65	146.31
338.878	163.31
339.106	139.31
339.334	143.31
339.562	150.31
339.79	128.31
340.018	146.31
340.246	159.31
340.474	142.31
340.702	141.31
340.93	136.31
341.158	155.31
341.386	146.31
341.614	160.31
341.842	136.31
342.07	150.31
342.298	154.31
342.526	139.31
342.754	154.31
342.981	151.31
343.209	134.31
343.437	142.31
343.665	156.31
343.893	155.31
344.12	144.31
344.348	144.31
344.576	145.31
344.804	138.31
345.031	134.31
345.259	144.31
345.487	154.31
345.714	131.31
345.942	146.31
346.17	136.31
346.397	137.31
346.625	138.31
346.853	138.31
347.08	142.31
347.308	138.31
347.535	147.31
347.763	126.31
347.99	138.31
348.218	147.31
348.445	134.31
348.673	136.31
348.9	130.31
349.128	150.31
349.355	142.31
349.583	143.31
349.81	128.31
350.037	127.31
350.265	143.31
350.492	137.31
350.72	135.31
350.947	135.31
351.174	150.31
351.402	129.31
351.629	138.31
351.856	145.31
352.083	128.31
352.311	144.31
352.538	127.31
352.765	144.31
352.992	146.31
353.22	144.31
353.447	146.31
353.674	140.31
353.901	126.31
354.128	131.31
354.355	140.31
354.583	143.31
354.81	144.31
355.037	137.31
355.264	152.31
355.491	136.31
355.718	136.31
355.945	122.31
356.172	141.31
356.399	143.31
356.626	139.31
356.853	159.31
357.08	127.31
357.307	155.31
357.534	138.31
357.761	140.31
357.988	152.31
358.215	135.31
358.441	133.31
358.668	135.31
358.895	144.31
359.122	152.31
359.349	136.31
359.576	136.31
359.802	141.31
360.029	149.31
360.256	134.31
360.483	149.31
360.709	136.31
360.936	139.31
361.163	123.31
361.39	139.31
361.616	149.31
361.843	159.31
362.07	128.31
362.296	130.31
362.523	132.31
362.749	139.31
362.976	142.31
363.203	138.31
363.429	134.31
363.656	128.31
363.882	126.31
364.109	145.31
364.335	136.31
364.562	154.31
364.788	134.31
365.015	142.31
365.241	141.31
365.468	135.31
365.694	125.31
365.92	138.31
366.147	142.31
366.373	130.31
366.599	130.31
366.826	131.31
367.052	128.31
367.278	140.31
367.505	144.31
367.731	131.31
367.957	144.31
368.184	140.31
368.41	133.31
368.636	160.31
368.862	156.31
369.089	131.31
369.315	141.31
369.541	127.31
369.767	134.31
369.993	142.31
370.219	144.31
370.445	150.31
370.672	138.31
370.898	126.31
371.124	130.31
371.35	145.31
371.576	132.31
371.802	162.31
372.028	156.31
372.254	135.31
372.48	132.31
372.706	147.31
372.932	135.31
373.158	145.31
373.384	139.31
373.61	136.31
373.835	151.31
374.061	128.31
374.287	139.31
374.513	132.31
374.739	147.31
374.965	142.31
375.191	152.31
375.416	133.31
375.642	152.31
375.868	143.31
376.094	138.31
376.319	148.31
376.545	148.31
376.771	150.31
376.997	152.31
377.222	133.31
377.448	147.31
377.674	137.31
377.899	147.31
378.125	138.31
378.35	134.31
378.576	133.31
378.802	154.31
379.027	144.31
379.253	147.31
379.478	138.31
379.704	151.31
379.929	142.31
380.155	134.31
380.38	136.31
380.606	142.31
380.831	140.31
381.057	140.31
381.282	145.31
381.507	141.31
381.733	142.31
381.958	149.31
382.184	149.31
382.409	145.31
382.634	154.31
382.86	149.31
383.085	141.31
383.31	141.31
383.535	138.31
383.761	143.31
383.986	149.31
384.211	141.31
384.436	164.31
384.662	158.31
384.887	139.31
385.112	127.31
385.337	153.31
385.562	156.31
385.787	164.31
386.013	167.31
386.238	160.31
386.463	145.31
386.688	165.31
386.913	159.31
387.138	157.31
387.363	166.31
387.588	152.31
387.813	140.31
388.038	146.31
388.263	156.31
388.488	163.31
388.713	151.31
388.938	143.31
389.163	155.31
389.387	154.31
389.612	159.31
389.837	157.31
390.062	146.31
390.287	147.31
390.512	157.31
390.736	152.31
390.961	154.31
391.186	156.31
391.411	142.31
391.636	152.31
391.86	150.31
392.085	159.31
392.31	149.31
392.534	154.31
392.759	171.31
392.984	155.31
393.208	145.31
393.433	170.31
393.658	153.31
393.882	159.31
394.107	142.31
394.331	148.31
394.556	143.31
394.78	146.31
395.005	166.31
395.229	156.31
395.454	168.31
395.678	163.31
395.903	166.31
396.127	155.31
396.352	162.31
396.576	167.31
396.801	151.31
397.025	167.31
397.249	160.31
397.474	155.31
397.698	155.31
397.922	171.31
398.147	155.31
398.371	162.31
398.595	160.31
398.82	160.31
399.044	179.31
399.268	167.31
399.492	196.31
399.717	199.31
399.941	182.31
400.165	191.31
400.389	194.31
400.613	172.31
400.837	179.31
401.062	166.31
401.286	155.31
401.51	165.31
401.734	171.31
401.958	170.31
402.182	173.31
402.406	172.31
402.63	167.31
402.854	164.31
403.078	179.31
403.302	175.31
403.526	163.31
403.75	179.31
403.974	183.31
404.198	168.31
404.422	168.31
404.645	168.31
404.869	156.31
405.093	164.31
405.317	167.31
405.541	182.31
405.765	166.31
405.988	168.31
406.212	189.31
406.436	161.31
406.66	183.31
406.883	172.31
407.107	182.31
407.331	182.31
407.555	215.31
407.778	201.31
408.002	187.31
408.226	184.31
408.449	173.31
408.673	173.31
408.896	181.31
409.12	184.31
409.344	178.31
409.567	165.31
409.791	178.31
410.014	154.31
410.238	184.31
410.461	179.31
410.685	171.31
410.908	183.31
411.132	168.31
411.355	185.31
411.578	178.31
411.802	182.31
412.025	162.31
412.249	178.31
412.472	171.31
412.695	189.31
412.919	160.31
413.142	178.31
413.365	168.31
413.589	176.31
413.812	174.31
414.035	156.31
414.258	181.31
414.482	176.31
414.705	164.31
414.928	174.31
415.151	170.31
415.374	194.31
415.597	186.31
415.821	165.31
416.044	168.31
416.267	166.31
416.49	162.31
416.713	170.31
416.936	157.31
417.159	159.31
417.382	162.31
417.605	168.31
417.828	162.31
418.051	156.31
418.274	161.31
418.497	154.31
418.72	171.31
418.943	173.31
419.166	172.31
419.389	170.31
419.611	170.31
419.834	179.31
420.057	180.31
420.28	163.31
420.503	170.31
420.726	185.31
420.948	187.31
421.171	162.31
421.394	158.31
421.617	174.31
421.839	171.31
422.062	162.31
422.285	156.31
422.507	165.31
422.73	158.31
422.953	178.31
423.175	166.31
423.398	160.31
423.621	177.31
423.843	170.31
424.066	175.31
424.288	181.31
424.511	179.31
424.733	175.31
424.956	184.31
425.178	194.31
425.401	162.31
425.623	175.31
425.846	162.31
426.068	160.31
426.291	156.31
426.513	184.31
426.735	174.31
426.958	174.31
427.18	173.31
427.402	189.31
427.625	191.31
427.847	186.31
428.069	173.31
428.292	156.31
428.514	162.31
428.736	157.31
428.958	169.31
429.181	175.31
429.403	159.31
429.625	162.31
429.847	162.31
430.069	163.31
430.292	171.31
430.514	152.31
430.736	162.31
430.958	154.31
431.18	147.31
431.402	156.31
431.624	153.31
431.846	162.31
432.068	160.31
432.29	168.31
432.512	162.31
432.734	155.31
432.956	163.31
433.178	171.31
433.4	166.31
433.622	152.31
433.844	145.31
434.066	165.31
434.287	157.31
434.509	151.31
434.731	153.31
434.953	172.31
435.175	154.31
435.397	157.31
435.618	170.31
435.84	187.31
436.062	174.31
436.284	165.31
436.505	154.31
436.727	144.31
436.949	158.31
437.17	163.31
437.392	167.31
437.614	148.31
437.835	165.31
438.057	175.31
438.278	178.31
438.5	176.31
438.721	189.31
438.943	205.31
439.165	190.31
439.386	158.31
439.608	163.31
439.829	171.31
440.05	176.31
440.272	174.31
440.493	180.31
440.715	154.31
440.936	164.31
441.158	170.31
441.379	166.31
441.6	178.31
441.822	183.31
442.043	171.31
442.264	179.31
442.486	170.31
442.707	157.31
442.928	173.31
443.149	167.31
443.371	178.31
443.592	183.31
443.813	190.31
444.034	194.31
444.255	183.31
444.476	194.31
444.698	178.31
444.919	198.31
445.14	271.31
445.361	227.31
445.582	179.31
445.803	185.31
446.024	184.31
446.245	192.31
446.466	178.31
446.687	153.31
446.908	158.31
447.129	152.31
447.35	154.31
447.571	146.31
447.792	158.31
448.013	169.31
448.234	174.31
448.455	153.31
448.675	176.31
448.896	184.31
449.117	171.31
449.338	170.31
449.559	187.31
449.779	183.31
450	182.31
450.221	166.31
450.442	160.31
450.662	172.31
450.883	152.31
451.104	132.31
451.324	171.31
451.545	135.31
451.766	146.31
451.986	149.31
452.207	148.31
452.428	161.31
452.648	156.31
452.869	145.31
453.089	152.31
453.31	147.31
453.53	156.31
453.751	144.31
453.971	152.31
454.192	156.31
454.412	144.31
454.633	147.31
454.853	148.31
455.073	141.31
455.294	145.31
455.514	149.31
455.734	148.31
455.955	138.31
456.175	157.31
456.395	146.31
456.616	135.31
456.836	147.31
457.056	157.31
457.276	152.31
457.497	138.31
457.717	154.31
457.937	152.31
458.157	153.31
458.377	134.31
458.598	156.31
458.818	163.31
459.038	164.31
459.258	168.31
459.478	158.31
459.698	164.31
459.918	160.31
460.138	144.31
460.358	161.31
460.578	165.31
460.798	182.31
461.018	180.31
461.238	186.31
461.458	173.31
461.678	181.31
461.898	178.31
462.118	180.31
462.338	169.31
462.558	182.31
462.777	177.31
462.997	188.31
463.217	207.31
463.437	188.31
463.657	185.31
463.876	169.31
464.096	190.31
464.316	191.31
464.536	169.31
464.755	197.31
464.975	169.31
465.195	172.31
465.414	173.31
465.634	158.31
465.854	170.31
466.073	148.31
466.293	172.31
466.512	161.31
466.732	160.31
466.951	161.31
467.171	159.31
467.391	158.31
467.61	164.31
467.829	166.31
468.049	168.31
468.268	160.31
468.488	140.31
468.707	167.31
468.927	148.31
469.146	136.31
469.365	171.31
469.585	154.31
469.804	157.31
470.023	159.31
470.243	158.31
470.462	178.31
470.681	168.31
470.901	153.31
471.12	154.31
471.339	166.31
471.558	142.31
471.777	160.31
471.997	154.31
472.216	157.31
472.435	162.31
472.654	152.31
472.873	143.31
473.092	150.31
473.311	153.31
473.53	155.31
473.749	147.31
473.968	167.31
474.187	172.31
474.406	162.31
474.625	152.31
474.844	154.31
475.063	143.31
475.282	150.31
475.501	150.31
475.72	159.31
475.939	156.31
476.158	180.31
476.377	173.31
476.596	154.31
476.814	171.31
477.033	164.31
477.252	165.31
477.471	157.31
477.69	157.31
477.908	164.31
478.127	173.31
478.346	158.31
478.564	175.31
478.783	162.31
479.002	185.31
479.22	194.31
479.439	168.31
479.658	163.31
479.876	175.31
480.095	173.31
480.313	198.31
480.532	191.31
480.751	180.31
480.969	188.31
481.188	196.31
481.406	195.31
481.624	169.31
481.843	174.31
482.061	166.31
482.28	164.31
482.498	161.31
482.717	180.31
482.935	178.31
483.153	180.31
483.372	169.31
483.59	169.31
483.808	174.31
484.027	184.31
484.245	172.31
484.463	163.31
484.681	178.31
484.9	186.31
485.118	176.31
485.336	179.31
485.554	167.31
485.772	189.31
485.99	184.31
486.209	163.31
486.427	164.31
486.645	171.31
486.863	179.31
487.081	189.31
487.299	187.31
487.517	195.31
487.735	178.31
487.953	183.31
488.171	180.31
488.389	183.31
488.607	183.31
488.825	188.31
489.043	195.31
489.261	164.31
489.479	162.31
489.696	186.31
489.914	196.31
490.132	190.31
490.35	178.31
490.568	172.31
490.786	184.31
491.003	178.31
491.221	195.31
491.439	188.31
491.657	194.31
491.874	188.31
492.092	191.31
492.31	209.31
492.527	197.31
492.745	187.31
492.963	196.31
493.18	189.31
493.398	201.31
493.615	188.31
493.833	184.31
494.05	197.31
494.268	186.31
494.485	191.31
494.703	178.31
494.92	185.31
495.138	202.31
495.355	205.31
495.573	204.31
495.79	215.31
496.008	202.31
496.225	198.31
496.442	196.31
496.66	198.31
496.877	195.31
497.094	202.31
497.312	187.31
497.529	221.31
497.746	215.31
497.963	214.31
498.181	213.31
498.398	231.31
498.615	220.31
498.832	219.31
499.049	222.31
499.267	231.31
499.484	261.31
499.701	239.31
499.918	282.31
500.135	285.31
500.352	318.31
500.569	317.31
500.786	331.31
501.003	295.31
501.22	302.31
501.437	286.31
501.654	268.31
501.871	261.31
502.088	230.31
502.305	248.31
502.522	238.31
502.739	216.31
502.956	204.31
503.172	205.31
503.389	209.31
