Data from 1977.PennyLincolnUp.Lamp.En5.5.200Scan.071719.P1_HRD10591_16-07-41-864.txt Node
Date: Thu Jul 18 16:07:41 EDT 2019
User: cochatt
Spectrometer: HR+D1059
Trigger mode: 1
Integration Time (sec): 1.000000E-1
Scans to average: 1
Electric dark correction enabled: true
Nonlinearity correction enabled: false
Boxcar width: 0
XAxis mode: Wavelengths
Number of Pixels in Spectrum: 2048
>>>>>Begin Spectral Data<<<<<
223.165	-24.69
223.4	-24.69
223.635	-24.69
223.869	-23.69
224.104	-15.69
224.338	-23.69
224.573	-8.69
224.808	-6.69
225.042	-6.69
225.277	-6.69
225.511	9.31
225.746	22.31
225.98	12.31
226.215	3.31
226.449	21.31
226.683	13.31
226.918	21.31
227.152	13.31
227.387	34.31
227.621	37.31
227.856	48.31
228.09	44.31
228.324	42.31
228.559	52.31
228.793	45.31
229.027	96.31
229.262	91.31
229.496	97.31
229.73	109.31
229.964	137.31
230.199	117.31
230.433	117.31
230.667	119.31
230.901	110.31
231.136	109.31
231.37	108.31
231.604	108.31
231.838	116.31
232.072	120.31
232.306	126.31
232.541	103.31
232.775	90.31
233.009	103.31
233.243	112.31
233.477	122.31
233.711	120.31
233.945	120.31
234.179	114.31
234.413	106.31
234.647	120.31
234.881	114.31
235.115	119.31
235.349	125.31
235.583	100.31
235.817	122.31
236.051	127.31
236.285	120.31
236.519	134.31
236.753	134.31
236.987	137.31
237.221	174.31
237.455	194.31
237.689	171.31
237.922	132.31
238.156	138.31
238.39	122.31
238.624	121.31
238.858	123.31
239.091	122.31
239.325	123.31
239.559	99.31
239.793	142.31
240.027	134.31
240.26	117.31
240.494	156.31
240.728	141.31
240.961	144.31
241.195	158.31
241.429	141.31
241.662	129.31
241.896	150.31
242.13	124.31
242.363	146.31
242.597	141.31
242.83	138.31
243.064	125.31
243.298	134.31
243.531	139.31
243.765	123.31
243.998	161.31
244.232	163.31
244.465	145.31
244.699	145.31
244.932	154.31
245.166	137.31
245.399	141.31
245.633	151.31
245.866	154.31
246.099	145.31
246.333	156.31
246.566	156.31
246.8	153.31
247.033	157.31
247.266	169.31
247.5	168.31
247.733	162.31
247.966	171.31
248.2	169.31
248.433	168.31
248.666	187.31
248.899	170.31
249.133	176.31
249.366	211.31
249.599	190.31
249.832	184.31
250.066	200.31
250.299	175.31
250.532	177.31
250.765	201.31
250.998	212.31
251.231	216.31
251.465	211.31
251.698	225.31
251.931	199.31
252.164	194.31
252.397	199.31
252.63	209.31
252.863	208.31
253.096	216.31
253.329	217.31
253.562	213.31
253.795	194.31
254.028	212.31
254.261	216.31
254.494	219.31
254.727	243.31
254.96	273.31
255.193	260.31
255.426	240.31
255.659	219.31
255.892	218.31
256.124	220.31
256.357	217.31
256.59	219.31
256.823	202.31
257.056	238.31
257.289	205.31
257.521	210.31
257.754	204.31
257.987	195.31
258.22	212.31
258.452	190.31
258.685	211.31
258.918	211.31
259.151	207.31
259.383	218.31
259.616	227.31
259.849	215.31
260.081	250.31
260.314	250.31
260.547	277.31
260.779	240.31
261.012	227.31
261.244	235.31
261.477	223.31
261.71	232.31
261.942	222.31
262.175	243.31
262.407	213.31
262.64	221.31
262.872	225.31
263.105	201.31
263.337	220.31
263.57	215.31
263.802	236.31
264.035	219.31
264.267	211.31
264.499	222.31
264.732	221.31
264.964	213.31
265.197	209.31
265.429	240.31
265.661	241.31
265.894	229.31
266.126	236.31
266.358	221.31
266.591	229.31
266.823	228.31
267.055	246.31
267.287	244.31
267.52	251.31
267.752	230.31
267.984	229.31
268.216	245.31
268.448	250.31
268.681	276.31
268.913	263.31
269.145	274.31
269.377	300.31
269.609	269.31
269.841	277.31
270.073	263.31
270.306	300.31
270.538	305.31
270.77	317.31
271.002	308.31
271.234	319.31
271.466	300.31
271.698	308.31
271.93	321.31
272.162	332.31
272.394	323.31
272.626	311.31
272.858	323.31
273.09	273.31
273.322	286.31
273.553	286.31
273.785	275.31
274.017	257.31
274.249	270.31
274.481	272.31
274.713	293.31
274.945	273.31
275.176	273.31
275.408	291.31
275.64	291.31
275.872	286.31
276.104	267.31
276.335	278.31
276.567	295.31
276.799	299.31
277.031	305.31
277.262	331.31
277.494	312.31
277.726	307.31
277.957	310.31
278.189	288.31
278.421	288.31
278.652	290.31
278.884	292.31
279.115	305.31
279.347	289.31
279.579	284.31
279.81	272.31
280.042	284.31
280.273	281.31
280.505	274.31
280.736	294.31
280.968	284.31
281.199	289.31
281.431	290.31
281.662	283.31
281.894	272.31
282.125	301.31
282.356	322.31
282.588	327.31
282.819	287.31
283.051	313.31
283.282	307.31
283.513	293.31
283.745	286.31
283.976	300.31
284.207	310.31
284.439	310.31
284.67	316.31
284.901	313.31
285.132	291.31
285.364	292.31
285.595	297.31
285.826	306.31
286.057	305.31
286.288	302.31
286.52	309.31
286.751	296.31
286.982	280.31
287.213	311.31
287.444	319.31
287.675	291.31
287.906	310.31
288.138	329.31
288.369	314.31
288.6	327.31
288.831	326.31
289.062	318.31
289.293	315.31
289.524	320.31
289.755	304.31
289.986	316.31
290.217	328.31
290.448	309.31
290.679	325.31
290.91	312.31
291.141	308.31
291.371	330.31
291.602	324.31
291.833	314.31
292.064	317.31
292.295	315.31
292.526	345.31
292.757	320.31
292.987	332.31
293.218	299.31
293.449	300.31
293.68	307.31
293.91	317.31
294.141	308.31
294.372	329.31
294.603	320.31
294.833	326.31
295.064	330.31
295.295	327.31
295.525	311.31
295.756	329.31
295.987	320.31
296.217	345.31
296.448	345.31
296.679	322.31
296.909	335.31
297.14	324.31
297.37	319.31
297.601	334.31
297.831	329.31
298.062	330.31
298.292	334.31
298.523	330.31
298.753	333.31
298.984	323.31
299.214	352.31
299.445	342.31
299.675	329.31
299.905	351.31
300.136	339.31
300.366	348.31
300.597	359.31
300.827	332.31
301.057	345.31
301.288	352.31
301.518	358.31
301.748	344.31
301.979	374.31
302.209	357.31
302.439	363.31
302.669	350.31
302.9	346.31
303.13	355.31
303.36	350.31
303.59	360.31
303.82	365.31
304.051	352.31
304.281	343.31
304.511	366.31
304.741	360.31
304.971	353.31
305.201	360.31
305.431	352.31
305.661	369.31
305.891	357.31
306.121	352.31
306.352	354.31
306.582	381.31
306.812	372.31
307.042	362.31
307.272	365.31
307.502	361.31
307.731	361.31
307.961	366.31
308.191	355.31
308.421	348.31
308.651	355.31
308.881	354.31
309.111	353.31
309.341	376.31
309.571	368.31
309.8	372.31
310.03	373.31
310.26	369.31
310.49	379.31
310.72	396.31
310.949	413.31
311.179	396.31
311.409	378.31
311.639	404.31
311.868	406.31
312.098	395.31
312.328	412.31
312.557	409.31
312.787	410.31
313.017	405.31
313.246	408.31
313.476	402.31
313.706	407.31
313.935	405.31
314.165	423.31
314.394	425.31
314.624	406.31
314.853	425.31
315.083	428.31
315.312	418.31
315.542	412.31
315.771	380.31
316.001	383.31
316.23	380.31
316.46	395.31
316.689	406.31
316.919	392.31
317.148	402.31
317.377	392.31
317.607	412.31
317.836	407.31
318.065	399.31
318.295	412.31
318.524	416.31
318.753	412.31
318.983	410.31
319.212	417.31
319.441	417.31
319.67	407.31
319.9	407.31
320.129	388.31
320.358	420.31
320.587	417.31
320.816	421.31
321.046	411.31
321.275	406.31
321.504	422.31
321.733	422.31
321.962	434.31
322.191	446.31
322.42	439.31
322.649	451.31
322.878	452.31
323.108	474.31
323.337	479.31
323.566	486.31
323.795	513.31
324.024	542.31
324.253	639.31
324.482	939.31
324.71	1338.31
324.939	1870.31
325.168	1618.31
325.397	871.31
325.626	626.31
325.855	553.31
326.084	525.31
326.313	500.31
326.542	500.31
326.77	524.31
326.999	613.31
327.228	828.31
327.457	1214.31
327.686	1425.31
327.914	953.31
328.143	656.31
328.372	592.31
328.6	557.31
328.829	543.31
329.058	562.31
329.287	573.31
329.515	537.31
329.744	499.31
329.972	504.31
330.201	521.31
330.43	546.31
330.658	547.31
330.887	574.31
331.115	574.31
331.344	527.31
331.572	504.31
331.801	489.31
332.03	512.31
332.258	474.31
332.486	471.31
332.715	491.31
332.943	479.31
333.172	476.31
333.4	484.31
333.629	507.31
333.857	512.31
334.085	498.31
334.314	511.31
334.542	541.31
334.771	573.31
334.999	506.31
335.227	508.31
335.455	485.31
335.684	461.31
335.912	496.31
336.14	474.31
336.369	476.31
336.597	487.31
336.825	477.31
337.053	471.31
337.281	478.31
337.51	469.31
337.738	448.31
337.966	488.31
338.194	466.31
338.422	447.31
338.65	458.31
338.878	452.31
339.106	458.31
339.334	449.31
339.562	439.31
339.79	447.31
340.018	439.31
340.246	460.31
340.474	465.31
340.702	466.31
340.93	447.31
341.158	446.31
341.386	420.31
341.614	430.31
341.842	455.31
342.07	440.31
342.298	440.31
342.526	436.31
342.754	441.31
342.981	446.31
343.209	434.31
343.437	451.31
343.665	454.31
343.893	482.31
344.12	450.31
344.348	466.31
344.576	458.31
344.804	471.31
345.031	456.31
345.259	472.31
345.487	446.31
345.714	435.31
345.942	451.31
346.17	446.31
346.397	452.31
346.625	438.31
346.853	425.31
347.08	433.31
347.308	440.31
347.535	429.31
347.763	419.31
347.99	407.31
348.218	427.31
348.445	422.31
348.673	423.31
348.9	447.31
349.128	441.31
349.355	424.31
349.583	397.31
349.81	398.31
350.037	415.31
350.265	438.31
350.492	410.31
350.72	434.31
350.947	413.31
351.174	440.31
351.402	428.31
351.629	432.31
351.856	428.31
352.083	418.31
352.311	420.31
352.538	408.31
352.765	418.31
352.992	421.31
353.22	398.31
353.447	420.31
353.674	411.31
353.901	409.31
354.128	407.31
354.355	399.31
354.583	399.31
354.81	401.31
355.037	403.31
355.264	377.31
355.491	396.31
355.718	390.31
355.945	388.31
356.172	408.31
356.399	392.31
356.626	414.31
356.853	382.31
357.08	392.31
357.307	396.31
357.534	397.31
357.761	393.31
357.988	412.31
358.215	415.31
358.441	408.31
358.668	415.31
358.895	417.31
359.122	395.31
359.349	419.31
359.576	407.31
359.802	436.31
360.029	446.31
360.256	447.31
360.483	430.31
360.709	412.31
360.936	417.31
361.163	428.31
361.39	416.31
361.616	413.31
361.843	401.31
362.07	416.31
362.296	416.31
362.523	397.31
362.749	408.31
362.976	420.31
363.203	410.31
363.429	418.31
363.656	422.31
363.882	389.31
364.109	404.31
364.335	384.31
364.562	409.31
364.788	400.31
365.015	388.31
365.241	397.31
365.468	406.31
365.694	395.31
365.92	402.31
366.147	401.31
366.373	408.31
366.599	393.31
366.826	414.31
367.052	413.31
367.278	395.31
367.505	398.31
367.731	424.31
367.957	375.31
368.184	393.31
368.41	405.31
368.636	389.31
368.862	420.31
369.089	413.31
369.315	406.31
369.541	411.31
369.767	398.31
369.993	419.31
370.219	378.31
370.445	410.31
370.672	396.31
370.898	396.31
371.124	389.31
371.35	411.31
371.576	404.31
371.802	404.31
372.028	396.31
372.254	412.31
372.48	404.31
372.706	398.31
372.932	406.31
373.158	395.31
373.384	397.31
373.61	390.31
373.835	397.31
374.061	394.31
374.287	388.31
374.513	393.31
374.739	405.31
374.965	434.31
375.191	407.31
375.416	408.31
375.642	404.31
375.868	411.31
376.094	398.31
376.319	412.31
376.545	380.31
376.771	406.31
376.997	396.31
377.222	389.31
377.448	384.31
377.674	380.31
377.899	395.31
378.125	395.31
378.35	373.31
378.576	395.31
378.802	369.31
379.027	389.31
379.253	384.31
379.478	392.31
379.704	384.31
379.929	385.31
380.155	397.31
380.38	398.31
380.606	387.31
380.831	402.31
381.057	388.31
381.282	395.31
381.507	416.31
381.733	387.31
381.958	390.31
382.184	405.31
382.409	408.31
382.634	402.31
382.86	405.31
383.085	395.31
383.31	396.31
383.535	418.31
383.761	386.31
383.986	419.31
384.211	414.31
384.436	424.31
384.662	422.31
384.887	418.31
385.112	447.31
385.337	419.31
385.562	437.31
385.787	417.31
386.013	434.31
386.238	440.31
386.463	428.31
386.688	440.31
386.913	426.31
387.138	442.31
387.363	450.31
387.588	439.31
387.813	438.31
388.038	434.31
388.263	428.31
388.488	430.31
388.713	442.31
388.938	449.31
389.163	439.31
389.387	438.31
389.612	426.31
389.837	420.31
390.062	435.31
390.287	437.31
390.512	423.31
390.736	437.31
390.961	420.31
391.186	445.31
391.411	452.31
391.636	422.31
391.86	451.31
392.085	429.31
392.31	464.31
392.534	444.31
392.759	447.31
392.984	433.31
393.208	440.31
393.433	427.31
393.658	438.31
393.882	446.31
394.107	439.31
394.331	457.31
394.556	446.31
394.78	448.31
395.005	457.31
395.229	435.31
395.454	449.31
395.678	454.31
395.903	473.31
396.127	465.31
396.352	472.31
396.576	462.31
396.801	436.31
397.025	450.31
397.249	442.31
397.474	458.31
397.698	461.31
397.922	475.31
398.147	487.31
398.371	493.31
398.595	469.31
398.82	493.31
399.044	521.31
399.268	526.31
399.492	576.31
399.717	576.31
399.941	608.31
400.165	618.31
400.389	624.31
400.613	569.31
400.837	536.31
401.062	498.31
401.286	502.31
401.51	497.31
401.734	489.31
401.958	492.31
402.182	513.31
402.406	514.31
402.63	486.31
402.854	521.31
403.078	512.31
403.302	528.31
403.526	535.31
403.75	509.31
403.974	522.31
404.198	536.31
404.422	555.31
404.645	536.31
404.869	540.31
405.093	541.31
405.317	570.31
405.541	606.31
405.765	564.31
405.988	534.31
406.212	550.31
406.436	560.31
406.66	562.31
406.883	546.31
407.107	574.31
407.331	619.31
407.555	661.31
407.778	642.31
408.002	634.31
408.226	577.31
408.449	565.31
408.673	572.31
408.896	568.31
409.12	610.31
409.344	594.31
409.567	520.31
409.791	540.31
410.014	525.31
410.238	521.31
410.461	498.31
410.685	504.31
410.908	517.31
411.132	549.31
411.355	572.31
411.578	557.31
411.802	542.31
412.025	510.31
412.249	496.31
412.472	541.31
412.695	568.31
412.919	538.31
413.142	519.31
413.365	499.31
413.589	508.31
413.812	488.31
414.035	478.31
414.258	493.31
414.482	493.31
414.705	485.31
414.928	477.31
415.151	492.31
415.374	494.31
415.597	470.31
415.821	480.31
416.044	474.31
416.267	478.31
416.49	474.31
416.713	463.31
416.936	478.31
417.159	473.31
417.382	466.31
417.605	489.31
417.828	477.31
418.051	500.31
418.274	504.31
418.497	478.31
418.72	492.31
418.943	472.31
419.166	497.31
419.389	518.31
419.611	511.31
419.834	516.31
420.057	509.31
420.28	492.31
420.503	484.31
420.726	484.31
420.948	497.31
421.171	540.31
421.394	556.31
421.617	498.31
421.839	514.31
422.062	485.31
422.285	509.31
422.507	566.31
422.73	635.31
422.953	596.31
423.175	541.31
423.398	508.31
423.621	514.31
423.843	536.31
424.066	558.31
424.288	535.31
424.511	560.31
424.733	582.31
424.956	666.31
425.178	619.31
425.401	630.31
425.623	641.31
425.846	547.31
426.068	522.31
426.291	489.31
426.513	515.31
426.735	514.31
426.958	560.31
427.18	624.31
427.402	740.31
427.625	803.31
427.847	683.31
428.069	595.31
428.292	554.31
428.514	524.31
428.736	493.31
428.958	489.31
429.181	488.31
429.403	497.31
429.625	493.31
429.847	516.31
430.069	585.31
430.292	564.31
430.514	493.31
430.736	482.31
430.958	494.31
431.18	470.31
431.402	461.31
431.624	465.31
431.846	450.31
432.068	435.31
432.29	448.31
432.512	440.31
432.734	470.31
432.956	468.31
433.178	478.31
433.4	485.31
433.622	464.31
433.844	440.31
434.066	473.31
434.287	446.31
434.509	451.31
434.731	478.31
434.953	474.31
435.175	485.31
435.397	492.31
435.618	478.31
435.84	559.31
436.062	615.31
436.284	668.31
436.505	570.31
436.727	500.31
436.949	510.31
437.17	480.31
437.392	470.31
437.614	489.31
437.835	520.31
438.057	582.31
438.278	644.31
438.5	677.31
438.721	743.31
438.943	718.31
439.165	577.31
439.386	524.31
439.608	525.31
439.829	510.31
440.05	552.31
440.272	560.31
440.493	542.31
440.715	496.31
440.936	503.31
441.158	486.31
441.379	477.31
441.6	479.31
441.822	489.31
442.043	553.31
442.264	616.31
442.486	652.31
442.707	581.31
442.928	534.31
443.149	530.31
443.371	535.31
443.592	587.31
443.813	664.31
444.034	726.31
444.255	617.31
444.476	568.31
444.698	534.31
444.919	544.31
445.14	681.31
445.361	582.31
445.582	550.31
445.803	623.31
446.024	688.31
446.245	700.31
446.466	625.31
446.687	538.31
446.908	520.31
447.129	504.31
447.35	484.31
447.571	466.31
447.792	472.31
448.013	459.31
448.234	462.31
448.455	500.31
448.675	640.31
448.896	759.31
449.117	603.31
449.338	578.31
449.559	676.31
449.779	792.31
450	606.31
450.221	518.31
450.442	478.31
450.662	460.31
450.883	455.31
451.104	464.31
451.324	462.31
451.545	442.31
451.766	427.31
451.986	424.31
452.207	419.31
452.428	395.31
452.648	430.31
452.869	437.31
453.089	442.31
453.31	434.31
453.53	438.31
453.751	427.31
453.971	405.31
454.192	437.31
454.412	420.31
454.633	435.31
454.853	428.31
455.073	422.31
455.294	438.31
455.514	492.31
455.734	468.31
455.955	424.31
456.175	398.31
456.395	404.31
456.616	404.31
456.836	398.31
457.056	388.31
457.276	383.31
457.497	420.31
457.717	390.31
457.937	410.31
458.157	416.31
458.377	421.31
458.598	450.31
458.818	481.31
459.038	513.31
459.258	549.31
459.478	466.31
459.698	444.31
459.918	452.31
460.138	450.31
460.358	448.31
460.578	457.31
460.798	472.31
461.018	474.31
461.238	457.31
461.458	467.31
461.678	462.31
461.898	476.31
462.118	456.31
462.338	460.31
462.558	478.31
462.777	494.31
462.997	507.31
463.217	534.31
463.437	540.31
463.657	485.31
463.876	492.31
464.096	512.31
464.316	502.31
464.536	512.31
464.755	487.31
464.975	468.31
465.195	493.31
465.414	553.31
465.634	523.31
465.854	472.31
466.073	472.31
466.293	456.31
466.512	426.31
466.732	408.31
466.951	448.31
467.171	430.31
467.391	429.31
467.61	440.31
467.829	415.31
468.049	449.31
468.268	420.31
468.488	419.31
468.707	413.31
468.927	425.31
469.146	406.31
469.365	425.31
469.585	413.31
469.804	443.31
470.023	444.31
470.243	442.31
470.462	438.31
470.681	443.31
470.901	445.31
471.12	438.31
471.339	432.31
471.558	443.31
471.777	437.31
471.997	458.31
472.216	426.31
472.435	473.31
472.654	435.31
472.873	438.31
473.092	418.31
473.311	423.31
473.53	436.31
473.749	412.31
473.968	480.31
474.187	568.31
474.406	587.31
474.625	483.31
474.844	444.31
475.063	444.31
475.282	440.31
475.501	463.31
475.72	466.31
475.939	427.31
476.158	446.31
476.377	447.31
476.596	451.31
476.814	438.31
477.033	424.31
477.252	466.31
477.471	456.31
477.69	479.31
477.908	467.31
478.127	490.31
478.346	461.31
478.564	480.31
478.783	487.31
479.002	485.31
479.22	508.31
479.439	505.31
479.658	519.31
479.876	507.31
480.095	516.31
480.313	546.31
480.532	539.31
480.751	540.31
480.969	546.31
481.188	562.31
481.406	576.31
481.624	533.31
481.843	529.31
482.061	523.31
482.28	508.31
482.498	496.31
482.717	500.31
482.935	489.31
483.153	494.31
483.372	505.31
483.59	474.31
483.808	482.31
484.027	490.31
484.245	508.31
484.463	498.31
484.681	505.31
484.9	518.31
485.118	518.31
485.336	484.31
485.554	496.31
485.772	511.31
485.99	507.31
486.209	519.31
486.427	534.31
486.645	516.31
486.863	538.31
487.081	548.31
487.299	524.31
487.517	534.31
487.735	530.31
487.953	538.31
488.171	536.31
488.389	510.31
488.607	556.31
488.825	545.31
489.043	534.31
489.261	545.31
489.479	530.31
489.696	536.31
489.914	549.31
490.132	544.31
490.35	580.31
490.568	546.31
490.786	543.31
491.003	540.31
491.221	568.31
491.439	578.31
491.657	585.31
491.874	592.31
492.092	575.31
492.31	610.31
492.527	598.31
492.745	597.31
492.963	626.31
493.18	608.31
493.398	620.31
493.615	603.31
493.833	625.31
494.05	603.31
494.268	633.31
494.485	598.31
494.703	607.31
494.92	617.31
495.138	607.31
495.355	614.31
495.573	631.31
495.79	640.31
496.008	643.31
496.225	617.31
496.442	618.31
496.66	644.31
496.877	613.31
497.094	647.31
497.312	648.31
497.529	655.31
497.746	658.31
497.963	677.31
498.181	681.31
498.398	698.31
498.615	723.31
498.832	720.31
499.049	754.31
499.267	780.31
499.484	795.31
499.701	829.31
499.918	880.31
500.135	914.31
500.352	959.31
500.569	980.31
500.786	979.31
501.003	940.31
501.22	916.31
501.437	897.31
501.654	841.31
501.871	820.31
502.088	794.31
