Data from 1977.PennyLincolnUp.Lamp.En5.5.200Scan.071719.P1_HRD10591_16-05-50-864.txt Node
Date: Thu Jul 18 16:05:50 EDT 2019
User: cochatt
Spectrometer: HR+D1059
Trigger mode: 1
Integration Time (sec): 1.000000E-1
Scans to average: 1
Electric dark correction enabled: true
Nonlinearity correction enabled: false
Boxcar width: 0
XAxis mode: Wavelengths
Number of Pixels in Spectrum: 2048
>>>>>Begin Spectral Data<<<<<
223.165	-19.25
223.4	-19.25
223.635	-19.25
223.869	-25.25
224.104	-26.25
224.338	-8.25
224.573	-20.25
224.808	-12.25
225.042	-0.25
225.277	-5.25
225.511	13.75
225.746	2.75
225.98	6.75
226.215	9.75
226.449	15.75
226.683	21.75
226.918	25.75
227.152	20.75
227.387	29.75
227.621	43.75
227.856	36.75
228.09	50.75
228.324	45.75
228.559	49.75
228.793	68.75
229.027	81.75
229.262	84.75
229.496	115.75
229.73	115.75
229.964	124.75
230.199	105.75
230.433	115.75
230.667	91.75
230.901	105.75
231.136	97.75
231.37	101.75
231.604	118.75
231.838	110.75
232.072	125.75
232.306	113.75
232.541	107.75
232.775	124.75
233.009	102.75
233.243	104.75
233.477	108.75
233.711	111.75
233.945	124.75
234.179	121.75
234.413	125.75
234.647	120.75
234.881	136.75
235.115	116.75
235.349	108.75
235.583	123.75
235.817	123.75
236.051	119.75
236.285	115.75
236.519	126.75
236.753	117.75
236.987	135.75
237.221	164.75
237.455	199.75
237.689	161.75
237.922	131.75
238.156	128.75
238.39	115.75
238.624	122.75
238.858	137.75
239.091	129.75
239.325	124.75
239.559	126.75
239.793	126.75
240.027	116.75
240.26	140.75
240.494	142.75
240.728	127.75
240.961	149.75
241.195	140.75
241.429	147.75
241.662	135.75
241.896	138.75
242.13	125.75
242.363	126.75
242.597	129.75
242.83	125.75
243.064	140.75
243.298	130.75
243.531	139.75
243.765	133.75
243.998	125.75
244.232	147.75
244.465	150.75
244.699	154.75
244.932	138.75
245.166	146.75
245.399	153.75
245.633	140.75
245.866	130.75
246.099	151.75
246.333	152.75
246.566	156.75
246.8	140.75
247.033	155.75
247.266	157.75
247.5	166.75
247.733	154.75
247.966	166.75
248.2	154.75
248.433	162.75
248.666	153.75
248.899	161.75
249.133	172.75
249.366	193.75
249.599	167.75
249.832	172.75
250.066	187.75
250.299	193.75
250.532	181.75
250.765	191.75
250.998	196.75
251.231	214.75
251.465	195.75
251.698	202.75
251.931	169.75
252.164	185.75
252.397	175.75
252.63	189.75
252.863	186.75
253.096	195.75
253.329	205.75
253.562	202.75
253.795	205.75
254.028	189.75
254.261	203.75
254.494	205.75
254.727	232.75
254.96	265.75
255.193	220.75
255.426	241.75
255.659	209.75
255.892	218.75
256.124	201.75
256.357	219.75
256.59	205.75
256.823	194.75
257.056	202.75
257.289	193.75
257.521	213.75
257.754	199.75
257.987	194.75
258.22	201.75
258.452	197.75
258.685	195.75
258.918	206.75
259.151	201.75
259.383	207.75
259.616	206.75
259.849	204.75
260.081	215.75
260.314	234.75
260.547	241.75
260.779	215.75
261.012	216.75
261.244	225.75
261.477	205.75
261.71	213.75
261.942	232.75
262.175	207.75
262.407	226.75
262.64	221.75
262.872	206.75
263.105	230.75
263.337	212.75
263.57	208.75
263.802	220.75
264.035	216.75
264.267	208.75
264.499	210.75
264.732	212.75
264.964	220.75
265.197	229.75
265.429	212.75
265.661	215.75
265.894	214.75
266.126	219.75
266.358	225.75
266.591	246.75
266.823	223.75
267.055	212.75
267.287	229.75
267.52	226.75
267.752	229.75
267.984	230.75
268.216	244.75
268.448	229.75
268.681	221.75
268.913	226.75
269.145	248.75
269.377	268.75
269.609	249.75
269.841	268.75
270.073	259.75
270.306	279.75
270.538	301.75
270.77	319.75
271.002	290.75
271.234	293.75
271.466	309.75
271.698	283.75
271.93	290.75
272.162	299.75
272.394	310.75
272.626	283.75
272.858	263.75
273.09	279.75
273.322	255.75
273.553	261.75
273.785	249.75
274.017	261.75
274.249	262.75
274.481	261.75
274.713	252.75
274.945	269.75
275.176	261.75
275.408	276.75
275.64	275.75
275.872	280.75
276.104	245.75
276.335	268.75
276.567	252.75
276.799	290.75
277.031	297.75
277.262	319.75
277.494	298.75
277.726	291.75
277.957	284.75
278.189	274.75
278.421	274.75
278.652	282.75
278.884	266.75
279.115	272.75
279.347	264.75
279.579	277.75
279.81	261.75
280.042	290.75
280.273	274.75
280.505	275.75
280.736	276.75
280.968	261.75
281.199	274.75
281.431	279.75
281.662	279.75
281.894	278.75
282.125	278.75
282.356	297.75
282.588	285.75
282.819	291.75
283.051	282.75
283.282	268.75
283.513	286.75
283.745	277.75
283.976	287.75
284.207	278.75
284.439	301.75
284.67	301.75
284.901	304.75
285.132	300.75
285.364	275.75
285.595	286.75
285.826	289.75
286.057	285.75
286.288	282.75
286.52	292.75
286.751	294.75
286.982	308.75
287.213	272.75
287.444	283.75
287.675	307.75
287.906	295.75
288.138	306.75
288.369	311.75
288.6	293.75
288.831	305.75
289.062	303.75
289.293	303.75
289.524	305.75
289.755	308.75
289.986	285.75
290.217	302.75
290.448	310.75
290.679	313.75
290.91	301.75
291.141	313.75
291.371	318.75
291.602	297.75
291.833	308.75
292.064	298.75
292.295	313.75
292.526	305.75
292.757	312.75
292.987	307.75
293.218	313.75
293.449	297.75
293.68	312.75
293.91	309.75
294.141	311.75
294.372	299.75
294.603	327.75
294.833	313.75
295.064	295.75
295.295	312.75
295.525	325.75
295.756	324.75
295.987	333.75
296.217	345.75
296.448	321.75
296.679	336.75
296.909	304.75
297.14	312.75
297.37	313.75
297.601	329.75
297.831	287.75
298.062	301.75
298.292	315.75
298.523	321.75
298.753	335.75
298.984	323.75
299.214	327.75
299.445	322.75
299.675	306.75
299.905	322.75
300.136	325.75
300.366	323.75
300.597	324.75
300.827	356.75
301.057	320.75
301.288	350.75
301.518	338.75
301.748	326.75
301.979	328.75
302.209	334.75
302.439	341.75
302.669	343.75
302.9	339.75
303.13	329.75
303.36	355.75
303.59	335.75
303.82	348.75
304.051	332.75
304.281	346.75
304.511	348.75
304.741	338.75
304.971	319.75
305.201	328.75
305.431	345.75
305.661	350.75
305.891	345.75
306.121	354.75
306.352	342.75
306.582	341.75
306.812	341.75
307.042	338.75
307.272	356.75
307.502	343.75
307.731	344.75
307.961	338.75
308.191	357.75
308.421	348.75
308.651	349.75
308.881	354.75
309.111	345.75
309.341	343.75
309.571	367.75
309.8	366.75
310.03	349.75
310.26	378.75
310.49	382.75
310.72	399.75
310.949	370.75
311.179	355.75
311.409	369.75
311.639	371.75
311.868	380.75
312.098	382.75
312.328	392.75
312.557	381.75
312.787	413.75
313.017	377.75
313.246	390.75
313.476	398.75
313.706	372.75
313.935	388.75
314.165	382.75
314.394	373.75
314.624	420.75
314.853	376.75
315.083	369.75
315.312	381.75
315.542	376.75
315.771	374.75
316.001	374.75
316.23	386.75
316.46	373.75
316.689	370.75
316.919	381.75
317.148	381.75
317.377	405.75
317.607	403.75
317.836	379.75
318.065	366.75
318.295	389.75
318.524	365.75
318.753	376.75
318.983	390.75
319.212	370.75
319.441	402.75
319.67	386.75
319.9	397.75
320.129	358.75
320.358	377.75
320.587	381.75
320.816	395.75
321.046	381.75
321.275	392.75
321.504	400.75
321.733	396.75
321.962	396.75
322.191	427.75
322.42	402.75
322.649	407.75
322.878	436.75
323.108	422.75
323.337	454.75
323.566	454.75
323.795	465.75
324.024	489.75
324.253	566.75
324.482	770.75
324.71	1148.75
324.939	1573.75
325.168	1337.75
325.397	749.75
325.626	554.75
325.855	511.75
326.084	471.75
326.313	474.75
326.542	455.75
326.77	488.75
326.999	564.75
327.228	725.75
327.457	1044.75
327.686	1168.75
327.914	812.75
328.143	600.75
328.372	528.75
328.6	509.75
328.829	480.75
329.058	522.75
329.287	517.75
329.515	499.75
329.744	461.75
329.972	447.75
330.201	472.75
330.43	505.75
330.658	515.75
330.887	539.75
331.115	510.75
331.344	479.75
331.572	454.75
331.801	494.75
332.03	466.75
332.258	449.75
332.486	426.75
332.715	436.75
332.943	443.75
333.172	453.75
333.4	451.75
333.629	471.75
333.857	469.75
334.085	477.75
334.314	491.75
334.542	535.75
334.771	504.75
334.999	491.75
335.227	462.75
335.455	460.75
335.684	477.75
335.912	461.75
336.14	451.75
336.369	421.75
336.597	454.75
336.825	452.75
337.053	459.75
337.281	428.75
337.51	463.75
337.738	451.75
337.966	426.75
338.194	405.75
338.422	440.75
338.65	425.75
338.878	433.75
339.106	443.75
339.334	427.75
339.562	423.75
339.79	425.75
340.018	443.75
340.246	437.75
340.474	425.75
340.702	437.75
340.93	433.75
341.158	413.75
341.386	423.75
341.614	443.75
341.842	444.75
342.07	435.75
342.298	417.75
342.526	413.75
342.754	418.75
342.981	403.75
343.209	434.75
343.437	441.75
343.665	419.75
343.893	451.75
344.12	428.75
344.348	459.75
344.576	459.75
344.804	436.75
345.031	453.75
345.259	444.75
345.487	429.75
345.714	417.75
345.942	420.75
346.17	424.75
346.397	422.75
346.625	397.75
346.853	392.75
347.08	406.75
347.308	413.75
347.535	391.75
347.763	403.75
347.99	416.75
348.218	408.75
348.445	409.75
348.673	397.75
348.9	421.75
349.128	398.75
349.355	393.75
349.583	402.75
349.81	410.75
350.037	429.75
350.265	414.75
350.492	394.75
350.72	403.75
350.947	397.75
351.174	390.75
351.402	397.75
351.629	407.75
351.856	389.75
352.083	406.75
352.311	411.75
352.538	409.75
352.765	408.75
352.992	386.75
353.22	399.75
353.447	415.75
353.674	404.75
353.901	409.75
354.128	389.75
354.355	374.75
354.583	381.75
354.81	386.75
355.037	388.75
355.264	396.75
355.491	381.75
355.718	373.75
355.945	387.75
356.172	377.75
356.399	373.75
356.626	386.75
356.853	382.75
357.08	381.75
357.307	379.75
357.534	360.75
357.761	389.75
357.988	379.75
358.215	365.75
358.441	389.75
358.668	378.75
358.895	388.75
359.122	394.75
359.349	388.75
359.576	397.75
359.802	409.75
360.029	428.75
360.256	443.75
360.483	404.75
360.709	385.75
360.936	403.75
361.163	394.75
361.39	390.75
361.616	385.75
361.843	393.75
362.07	392.75
362.296	410.75
362.523	413.75
362.749	373.75
362.976	400.75
363.203	387.75
363.429	375.75
363.656	383.75
363.882	405.75
364.109	386.75
364.335	359.75
364.562	365.75
364.788	393.75
365.015	388.75
365.241	380.75
365.468	383.75
365.694	383.75
365.92	362.75
366.147	390.75
366.373	368.75
366.599	379.75
366.826	382.75
367.052	410.75
367.278	372.75
367.505	351.75
367.731	379.75
367.957	373.75
368.184	380.75
368.41	388.75
368.636	378.75
368.862	383.75
369.089	377.75
369.315	379.75
369.541	378.75
369.767	394.75
369.993	396.75
370.219	404.75
370.445	379.75
370.672	384.75
370.898	379.75
371.124	382.75
371.35	386.75
371.576	385.75
371.802	378.75
372.028	375.75
372.254	382.75
372.48	389.75
372.706	385.75
372.932	383.75
373.158	382.75
373.384	402.75
373.61	369.75
373.835	390.75
374.061	388.75
374.287	367.75
374.513	377.75
374.739	405.75
374.965	420.75
375.191	402.75
375.416	401.75
375.642	382.75
375.868	404.75
376.094	385.75
376.319	376.75
376.545	369.75
376.771	402.75
376.997	343.75
377.222	371.75
377.448	410.75
377.674	387.75
377.899	390.75
378.125	381.75
378.35	374.75
378.576	359.75
378.802	364.75
379.027	373.75
379.253	355.75
379.478	371.75
379.704	379.75
379.929	389.75
380.155	365.75
380.38	361.75
380.606	383.75
380.831	377.75
381.057	395.75
381.282	373.75
381.507	374.75
381.733	396.75
381.958	414.75
382.184	370.75
382.409	394.75
382.634	393.75
382.86	399.75
383.085	382.75
383.31	404.75
383.535	418.75
383.761	403.75
383.986	400.75
384.211	402.75
384.436	404.75
384.662	391.75
384.887	422.75
385.112	404.75
385.337	406.75
385.562	408.75
385.787	402.75
386.013	436.75
386.238	426.75
386.463	430.75
386.688	417.75
386.913	427.75
387.138	392.75
387.363	409.75
387.588	399.75
387.813	417.75
388.038	407.75
388.263	405.75
388.488	425.75
388.713	430.75
388.938	424.75
389.163	399.75
389.387	398.75
389.612	414.75
389.837	395.75
390.062	421.75
390.287	423.75
390.512	416.75
390.736	405.75
390.961	413.75
391.186	427.75
391.411	410.75
391.636	420.75
391.86	409.75
392.085	443.75
392.31	445.75
392.534	430.75
392.759	422.75
392.984	424.75
393.208	433.75
393.433	429.75
393.658	411.75
393.882	435.75
394.107	424.75
394.331	423.75
394.556	427.75
394.78	421.75
395.005	419.75
395.229	430.75
395.454	425.75
395.678	438.75
395.903	437.75
396.127	473.75
396.352	443.75
396.576	445.75
396.801	415.75
397.025	420.75
397.249	437.75
397.474	428.75
397.698	446.75
397.922	459.75
398.147	449.75
398.371	488.75
398.595	471.75
398.82	469.75
399.044	471.75
399.268	489.75
399.492	534.75
399.717	565.75
399.941	602.75
400.165	595.75
400.389	604.75
400.613	534.75
400.837	514.75
401.062	501.75
401.286	487.75
401.51	473.75
401.734	478.75
401.958	468.75
402.182	481.75
402.406	462.75
402.63	468.75
402.854	477.75
403.078	493.75
403.302	486.75
403.526	484.75
403.75	495.75
403.974	485.75
404.198	475.75
404.422	489.75
404.645	492.75
404.869	499.75
405.093	526.75
405.317	551.75
405.541	583.75
405.765	540.75
405.988	509.75
406.212	523.75
406.436	522.75
406.66	527.75
406.883	522.75
407.107	550.75
407.331	590.75
407.555	606.75
407.778	630.75
408.002	560.75
408.226	537.75
408.449	546.75
408.673	533.75
408.896	566.75
409.12	586.75
409.344	560.75
409.567	506.75
409.791	454.75
410.014	493.75
410.238	506.75
410.461	487.75
410.685	480.75
410.908	516.75
411.132	515.75
411.355	540.75
411.578	533.75
411.802	482.75
412.025	447.75
412.249	492.75
412.472	485.75
412.695	530.75
412.919	492.75
413.142	477.75
413.365	457.75
413.589	478.75
413.812	469.75
414.035	467.75
414.258	466.75
414.482	472.75
414.705	477.75
414.928	456.75
415.151	449.75
415.374	452.75
415.597	459.75
415.821	471.75
416.044	449.75
416.267	451.75
416.49	467.75
416.713	453.75
416.936	453.75
417.159	449.75
417.382	448.75
417.605	446.75
417.828	470.75
418.051	465.75
418.274	478.75
418.497	457.75
418.72	463.75
418.943	439.75
419.166	465.75
419.389	485.75
419.611	483.75
419.834	478.75
420.057	477.75
420.28	483.75
420.503	480.75
420.726	469.75
420.948	460.75
421.171	517.75
421.394	531.75
421.617	472.75
421.839	483.75
422.062	475.75
422.285	494.75
422.507	532.75
422.73	571.75
422.953	558.75
423.175	501.75
423.398	483.75
423.621	490.75
423.843	477.75
424.066	498.75
424.288	523.75
424.511	510.75
424.733	557.75
424.956	604.75
425.178	605.75
425.401	574.75
425.623	587.75
425.846	527.75
426.068	508.75
426.291	483.75
426.513	495.75
426.735	510.75
426.958	535.75
427.18	578.75
427.402	674.75
427.625	732.75
427.847	651.75
428.069	555.75
428.292	510.75
428.514	482.75
428.736	475.75
428.958	452.75
429.181	451.75
429.403	439.75
429.625	439.75
429.847	472.75
430.069	516.75
430.292	545.75
430.514	483.75
430.736	453.75
430.958	447.75
431.18	432.75
431.402	443.75
431.624	442.75
431.846	422.75
432.068	431.75
432.29	429.75
432.512	437.75
432.734	429.75
432.956	425.75
433.178	454.75
433.4	455.75
433.622	427.75
433.844	428.75
434.066	418.75
434.287	434.75
434.509	429.75
434.731	462.75
434.953	467.75
435.175	475.75
435.397	472.75
435.618	473.75
435.84	522.75
436.062	596.75
436.284	633.75
436.505	559.75
436.727	494.75
436.949	467.75
437.17	466.75
437.392	469.75
437.614	455.75
437.835	491.75
438.057	545.75
438.278	639.75
438.5	625.75
438.721	678.75
438.943	655.75
439.165	540.75
439.386	463.75
439.608	471.75
439.829	508.75
440.05	486.75
440.272	519.75
440.493	504.75
440.715	468.75
440.936	464.75
441.158	450.75
441.379	466.75
441.6	490.75
441.822	487.75
442.043	505.75
442.264	587.75
442.486	596.75
442.707	502.75
442.928	497.75
443.149	519.75
443.371	481.75
443.592	533.75
443.813	622.75
444.034	654.75
444.255	570.75
444.476	494.75
444.698	528.75
444.919	501.75
445.14	601.75
445.361	575.75
445.582	515.75
445.803	550.75
446.024	628.75
446.245	637.75
446.466	578.75
446.687	519.75
446.908	479.75
447.129	470.75
447.35	450.75
447.571	452.75
447.792	439.75
448.013	459.75
448.234	458.75
448.455	508.75
448.675	589.75
448.896	667.75
449.117	554.75
449.338	537.75
449.559	620.75
449.779	709.75
450	563.75
450.221	476.75
450.442	449.75
450.662	426.75
450.883	441.75
451.104	435.75
451.324	433.75
451.545	423.75
451.766	413.75
451.986	372.75
452.207	385.75
452.428	411.75
452.648	412.75
452.869	411.75
453.089	397.75
453.31	397.75
453.53	400.75
453.751	384.75
453.971	404.75
454.192	407.75
454.412	403.75
454.633	373.75
454.853	397.75
455.073	392.75
455.294	409.75
455.514	471.75
455.734	457.75
455.955	392.75
456.175	395.75
456.395	376.75
456.616	391.75
456.836	381.75
457.056	383.75
457.276	369.75
457.497	387.75
457.717	397.75
457.937	401.75
458.157	403.75
458.377	410.75
458.598	398.75
458.818	447.75
459.038	501.75
459.258	537.75
459.478	444.75
459.698	415.75
459.918	423.75
460.138	413.75
460.358	439.75
460.578	465.75
460.798	466.75
461.018	454.75
461.238	448.75
461.458	435.75
461.678	435.75
461.898	453.75
462.118	468.75
462.338	466.75
462.558	481.75
462.777	472.75
462.997	504.75
463.217	498.75
463.437	508.75
463.657	475.75
463.876	507.75
464.096	489.75
464.316	479.75
464.536	495.75
464.755	498.75
464.975	477.75
465.195	490.75
465.414	507.75
465.634	478.75
465.854	417.75
466.073	426.75
466.293	397.75
466.512	423.75
466.732	402.75
466.951	396.75
467.171	415.75
467.391	423.75
467.61	419.75
467.829	430.75
468.049	394.75
468.268	408.75
468.488	419.75
468.707	399.75
468.927	419.75
469.146	401.75
469.365	390.75
469.585	383.75
469.804	425.75
470.023	423.75
470.243	413.75
470.462	412.75
470.681	424.75
470.901	414.75
471.12	413.75
471.339	402.75
471.558	409.75
471.777	406.75
471.997	411.75
472.216	406.75
472.435	415.75
472.654	421.75
472.873	417.75
473.092	409.75
473.311	412.75
473.53	412.75
473.749	420.75
473.968	431.75
474.187	499.75
474.406	556.75
474.625	443.75
474.844	429.75
475.063	409.75
475.282	402.75
475.501	423.75
475.72	410.75
475.939	423.75
476.158	418.75
476.377	451.75
476.596	410.75
476.814	438.75
477.033	435.75
477.252	443.75
477.471	443.75
477.69	434.75
477.908	442.75
478.127	465.75
478.346	432.75
478.564	469.75
478.783	464.75
479.002	466.75
479.22	457.75
479.439	477.75
479.658	470.75
479.876	486.75
480.095	489.75
480.313	525.75
480.532	526.75
480.751	512.75
480.969	506.75
481.188	532.75
481.406	531.75
481.624	507.75
481.843	503.75
482.061	502.75
482.28	465.75
482.498	471.75
482.717	482.75
482.935	471.75
483.153	470.75
483.372	462.75
483.59	480.75
483.808	469.75
484.027	464.75
484.245	462.75
484.463	456.75
484.681	485.75
484.9	490.75
485.118	481.75
485.336	486.75
485.554	501.75
485.772	445.75
485.99	477.75
486.209	505.75
486.427	488.75
486.645	498.75
486.863	499.75
487.081	481.75
487.299	509.75
487.517	487.75
487.735	487.75
487.953	514.75
488.171	505.75
488.389	507.75
488.607	497.75
488.825	512.75
489.043	486.75
489.261	519.75
489.479	503.75
489.696	513.75
489.914	517.75
490.132	501.75
490.35	545.75
490.568	512.75
490.786	514.75
491.003	532.75
491.221	555.75
491.439	549.75
491.657	549.75
491.874	562.75
492.092	552.75
492.31	539.75
492.527	557.75
492.745	567.75
492.963	561.75
493.18	566.75
493.398	587.75
493.615	565.75
493.833	558.75
494.05	565.75
494.268	595.75
494.485	556.75
494.703	565.75
494.92	586.75
495.138	580.75
495.355	578.75
495.573	601.75
495.79	585.75
496.008	583.75
496.225	570.75
496.442	592.75
496.66	588.75
496.877	607.75
497.094	572.75
497.312	587.75
497.529	614.75
497.746	613.75
497.963	628.75
498.181	647.75
498.398	674.75
498.615	690.75
498.832	711.75
499.049	712.75
499.267	735.75
499.484	755.75
499.701	801.75
499.918	836.75
500.135	873.75
500.352	945.75
500.569	939.75
500.786	937.75
501.003	917.75
501.22	884.75
501.437	858.75
501.654	804.75
501.871	770.75
502.088	734.75
