Data from 1977.PennyLincolnUp.Lamp.En5.5.200Scan.071719.P1_HRD10591_16-06-28-864.txt Node
Date: Thu Jul 18 16:06:28 EDT 2019
User: cochatt
Spectrometer: HR+D1059
Trigger mode: 1
Integration Time (sec): 1.000000E-1
Scans to average: 1
Electric dark correction enabled: true
Nonlinearity correction enabled: false
Boxcar width: 0
XAxis mode: Wavelengths
Number of Pixels in Spectrum: 2048
>>>>>Begin Spectral Data<<<<<
223.165	-18.12
223.4	-18.12
223.635	-18.12
223.869	-8.12
224.104	-5.12
224.338	-19.12
224.573	-8.12
224.808	-13.12
225.042	1.88
225.277	-10.12
225.511	-6.12
225.746	3.88
225.98	12.88
226.215	4.88
226.449	14.88
226.683	18.88
226.918	3.88
227.152	26.88
227.387	53.88
227.621	30.88
227.856	37.88
228.09	57.88
228.324	39.88
228.559	46.88
228.793	59.88
229.027	97.88
229.262	93.88
229.496	103.88
229.73	119.88
229.964	140.88
230.199	98.88
230.433	107.88
230.667	109.88
230.901	107.88
231.136	126.88
231.37	118.88
231.604	101.88
231.838	110.88
232.072	124.88
232.306	106.88
232.541	100.88
232.775	106.88
233.009	118.88
233.243	120.88
233.477	95.88
233.711	118.88
233.945	126.88
234.179	113.88
234.413	101.88
234.647	120.88
234.881	112.88
235.115	120.88
235.349	122.88
235.583	101.88
235.817	103.88
236.051	124.88
236.285	116.88
236.519	102.88
236.753	115.88
236.987	140.88
237.221	150.88
237.455	195.88
237.689	156.88
237.922	136.88
238.156	133.88
238.39	134.88
238.624	125.88
238.858	109.88
239.091	116.88
239.325	107.88
239.559	141.88
239.793	123.88
240.027	134.88
240.26	146.88
240.494	129.88
240.728	136.88
240.961	144.88
241.195	137.88
241.429	124.88
241.662	120.88
241.896	123.88
242.13	138.88
242.363	132.88
242.597	149.88
242.83	147.88
243.064	135.88
243.298	150.88
243.531	125.88
243.765	142.88
243.998	129.88
244.232	150.88
244.465	158.88
244.699	143.88
244.932	154.88
245.166	143.88
245.399	150.88
245.633	138.88
245.866	136.88
246.099	134.88
246.333	137.88
246.566	148.88
246.8	158.88
247.033	166.88
247.266	151.88
247.5	166.88
247.733	167.88
247.966	186.88
248.2	171.88
248.433	180.88
248.666	157.88
248.899	172.88
249.133	184.88
249.366	197.88
249.599	185.88
249.832	156.88
250.066	182.88
250.299	188.88
250.532	190.88
250.765	202.88
250.998	204.88
251.231	188.88
251.465	189.88
251.698	201.88
251.931	203.88
252.164	191.88
252.397	184.88
252.63	170.88
252.863	192.88
253.096	204.88
253.329	218.88
253.562	208.88
253.795	209.88
254.028	204.88
254.261	214.88
254.494	222.88
254.727	236.88
254.96	246.88
255.193	235.88
255.426	228.88
255.659	209.88
255.892	229.88
256.124	224.88
256.357	220.88
256.59	215.88
256.823	201.88
257.056	213.88
257.289	222.88
257.521	208.88
257.754	200.88
257.987	195.88
258.22	215.88
258.452	202.88
258.685	209.88
258.918	194.88
259.151	208.88
259.383	216.88
259.616	209.88
259.849	217.88
260.081	242.88
260.314	223.88
260.547	220.88
260.779	236.88
261.012	253.88
261.244	225.88
261.477	225.88
261.71	221.88
261.942	224.88
262.175	220.88
262.407	211.88
262.64	221.88
262.872	199.88
263.105	218.88
263.337	208.88
263.57	219.88
263.802	215.88
264.035	212.88
264.267	200.88
264.499	214.88
264.732	215.88
264.964	218.88
265.197	213.88
265.429	217.88
265.661	222.88
265.894	232.88
266.126	219.88
266.358	216.88
266.591	214.88
266.823	234.88
267.055	216.88
267.287	203.88
267.52	226.88
267.752	233.88
267.984	240.88
268.216	232.88
268.448	238.88
268.681	236.88
268.913	258.88
269.145	264.88
269.377	267.88
269.609	273.88
269.841	246.88
270.073	280.88
270.306	287.88
270.538	296.88
270.77	318.88
271.002	279.88
271.234	284.88
271.466	300.88
271.698	294.88
271.93	294.88
272.162	306.88
272.394	303.88
272.626	286.88
272.858	281.88
273.09	292.88
273.322	270.88
273.553	286.88
273.785	244.88
274.017	254.88
274.249	262.88
274.481	264.88
274.713	251.88
274.945	261.88
275.176	272.88
275.408	248.88
275.64	288.88
275.872	268.88
276.104	270.88
276.335	266.88
276.567	271.88
276.799	292.88
277.031	310.88
277.262	329.88
277.494	316.88
277.726	291.88
277.957	306.88
278.189	284.88
278.421	281.88
278.652	271.88
278.884	294.88
279.115	265.88
279.347	264.88
279.579	288.88
279.81	269.88
280.042	273.88
280.273	284.88
280.505	272.88
280.736	270.88
280.968	261.88
281.199	282.88
281.431	272.88
281.662	298.88
281.894	281.88
282.125	286.88
282.356	294.88
282.588	305.88
282.819	312.88
283.051	285.88
283.282	278.88
283.513	285.88
283.745	288.88
283.976	282.88
284.207	288.88
284.439	297.88
284.67	287.88
284.901	293.88
285.132	311.88
285.364	296.88
285.595	290.88
285.826	275.88
286.057	295.88
286.288	310.88
286.52	293.88
286.751	308.88
286.982	315.88
287.213	299.88
287.444	319.88
287.675	312.88
287.906	312.88
288.138	303.88
288.369	333.88
288.6	311.88
288.831	310.88
289.062	303.88
289.293	311.88
289.524	309.88
289.755	309.88
289.986	299.88
290.217	301.88
290.448	320.88
290.679	304.88
290.91	308.88
291.141	306.88
291.371	318.88
291.602	315.88
291.833	309.88
292.064	295.88
292.295	314.88
292.526	298.88
292.757	298.88
292.987	289.88
293.218	313.88
293.449	310.88
293.68	302.88
293.91	310.88
294.141	322.88
294.372	320.88
294.603	306.88
294.833	303.88
295.064	315.88
295.295	311.88
295.525	313.88
295.756	323.88
295.987	319.88
296.217	324.88
296.448	338.88
296.679	330.88
296.909	313.88
297.14	296.88
297.37	318.88
297.601	337.88
297.831	324.88
298.062	318.88
298.292	325.88
298.523	324.88
298.753	314.88
298.984	317.88
299.214	324.88
299.445	332.88
299.675	326.88
299.905	340.88
300.136	317.88
300.366	322.88
300.597	339.88
300.827	354.88
301.057	344.88
301.288	348.88
301.518	363.88
301.748	333.88
301.979	354.88
302.209	348.88
302.439	350.88
302.669	334.88
302.9	365.88
303.13	349.88
303.36	345.88
303.59	360.88
303.82	335.88
304.051	338.88
304.281	348.88
304.511	342.88
304.741	335.88
304.971	339.88
305.201	344.88
305.431	344.88
305.661	340.88
305.891	349.88
306.121	347.88
306.352	346.88
306.582	341.88
306.812	346.88
307.042	333.88
307.272	367.88
307.502	346.88
307.731	355.88
307.961	349.88
308.191	353.88
308.421	342.88
308.651	361.88
308.881	354.88
309.111	354.88
309.341	360.88
309.571	384.88
309.8	381.88
310.03	380.88
310.26	375.88
310.49	369.88
310.72	382.88
310.949	375.88
311.179	387.88
311.409	389.88
311.639	369.88
311.868	388.88
312.098	368.88
312.328	400.88
312.557	404.88
312.787	400.88
313.017	389.88
313.246	384.88
313.476	394.88
313.706	400.88
313.935	402.88
314.165	402.88
314.394	383.88
314.624	422.88
314.853	384.88
315.083	391.88
315.312	383.88
315.542	381.88
315.771	382.88
316.001	375.88
316.23	380.88
316.46	395.88
316.689	390.88
316.919	396.88
317.148	394.88
317.377	411.88
317.607	381.88
317.836	378.88
318.065	384.88
318.295	391.88
318.524	383.88
318.753	387.88
318.983	375.88
319.212	387.88
319.441	392.88
319.67	405.88
319.9	411.88
320.129	414.88
320.358	390.88
320.587	393.88
320.816	400.88
321.046	401.88
321.275	413.88
321.504	428.88
321.733	416.88
321.962	414.88
322.191	408.88
322.42	423.88
322.649	446.88
322.878	436.88
323.108	441.88
323.337	451.88
323.566	483.88
323.795	513.88
324.024	528.88
324.253	627.88
324.482	820.88
324.71	1174.88
324.939	1670.88
325.168	1398.88
325.397	789.88
325.626	576.88
325.855	514.88
326.084	480.88
326.313	487.88
326.542	489.88
326.77	510.88
326.999	587.88
327.228	780.88
327.457	1095.88
327.686	1260.88
327.914	848.88
328.143	611.88
328.372	564.88
328.6	531.88
328.829	500.88
329.058	522.88
329.287	536.88
329.515	493.88
329.744	485.88
329.972	474.88
330.201	500.88
330.43	510.88
330.658	530.88
330.887	524.88
331.115	513.88
331.344	495.88
331.572	465.88
331.801	505.88
332.03	481.88
332.258	464.88
332.486	466.88
332.715	461.88
332.943	447.88
333.172	471.88
333.4	472.88
333.629	476.88
333.857	498.88
334.085	507.88
334.314	509.88
334.542	514.88
334.771	517.88
334.999	500.88
335.227	491.88
335.455	456.88
335.684	484.88
335.912	471.88
336.14	442.88
336.369	451.88
336.597	477.88
336.825	474.88
337.053	463.88
337.281	442.88
337.51	454.88
337.738	452.88
337.966	430.88
338.194	446.88
338.422	431.88
338.65	441.88
338.878	437.88
339.106	450.88
339.334	439.88
339.562	434.88
339.79	434.88
340.018	430.88
340.246	433.88
340.474	449.88
340.702	448.88
340.93	431.88
341.158	426.88
341.386	435.88
341.614	422.88
341.842	417.88
342.07	444.88
342.298	439.88
342.526	423.88
342.754	414.88
342.981	414.88
343.209	426.88
343.437	435.88
343.665	460.88
343.893	441.88
344.12	456.88
344.348	455.88
344.576	459.88
344.804	444.88
345.031	448.88
345.259	434.88
345.487	440.88
345.714	437.88
345.942	423.88
346.17	416.88
346.397	408.88
346.625	397.88
346.853	413.88
347.08	418.88
347.308	416.88
347.535	418.88
347.763	431.88
347.99	437.88
348.218	414.88
348.445	408.88
348.673	430.88
348.9	403.88
349.128	398.88
349.355	397.88
349.583	391.88
349.81	403.88
350.037	386.88
350.265	402.88
350.492	392.88
350.72	412.88
350.947	404.88
351.174	412.88
351.402	412.88
351.629	397.88
351.856	409.88
352.083	406.88
352.311	423.88
352.538	409.88
352.765	400.88
352.992	413.88
353.22	410.88
353.447	404.88
353.674	403.88
353.901	404.88
354.128	376.88
354.355	375.88
354.583	390.88
354.81	390.88
355.037	398.88
355.264	400.88
355.491	382.88
355.718	377.88
355.945	367.88
356.172	386.88
356.399	388.88
356.626	387.88
356.853	387.88
357.08	378.88
357.307	380.88
357.534	404.88
357.761	389.88
357.988	400.88
358.215	390.88
358.441	373.88
358.668	382.88
358.895	389.88
359.122	377.88
359.349	390.88
359.576	403.88
359.802	425.88
360.029	413.88
360.256	434.88
360.483	427.88
360.709	385.88
360.936	415.88
361.163	414.88
361.39	397.88
361.616	410.88
361.843	394.88
362.07	392.88
362.296	396.88
362.523	382.88
362.749	382.88
362.976	382.88
363.203	389.88
363.429	389.88
363.656	413.88
363.882	389.88
364.109	382.88
364.335	387.88
364.562	384.88
364.788	379.88
365.015	404.88
365.241	400.88
365.468	384.88
365.694	398.88
365.92	389.88
366.147	399.88
366.373	404.88
366.599	384.88
366.826	392.88
367.052	372.88
367.278	375.88
367.505	376.88
367.731	386.88
367.957	382.88
368.184	376.88
368.41	389.88
368.636	398.88
368.862	413.88
369.089	396.88
369.315	398.88
369.541	382.88
369.767	378.88
369.993	404.88
370.219	384.88
370.445	358.88
370.672	386.88
370.898	380.88
371.124	388.88
371.35	403.88
371.576	364.88
371.802	402.88
372.028	388.88
372.254	409.88
372.48	374.88
372.706	378.88
372.932	402.88
373.158	423.88
373.384	385.88
373.61	393.88
373.835	379.88
374.061	398.88
374.287	382.88
374.513	400.88
374.739	403.88
374.965	394.88
375.191	399.88
375.416	397.88
375.642	390.88
375.868	395.88
376.094	408.88
376.319	411.88
376.545	387.88
376.771	401.88
376.997	400.88
377.222	385.88
377.448	399.88
377.674	392.88
377.899	377.88
378.125	402.88
378.35	384.88
378.576	386.88
378.802	364.88
379.027	392.88
379.253	377.88
379.478	394.88
379.704	365.88
379.929	366.88
380.155	384.88
380.38	369.88
380.606	407.88
380.831	373.88
381.057	393.88
381.282	397.88
381.507	403.88
381.733	384.88
381.958	378.88
382.184	368.88
382.409	402.88
382.634	386.88
382.86	387.88
383.085	385.88
383.31	383.88
383.535	403.88
383.761	406.88
383.986	406.88
384.211	386.88
384.436	413.88
384.662	410.88
384.887	419.88
385.112	395.88
385.337	400.88
385.562	426.88
385.787	407.88
386.013	428.88
386.238	414.88
386.463	425.88
386.688	435.88
386.913	418.88
387.138	403.88
387.363	420.88
387.588	430.88
387.813	427.88
388.038	426.88
388.263	427.88
388.488	417.88
388.713	416.88
388.938	424.88
389.163	440.88
389.387	424.88
389.612	407.88
389.837	420.88
390.062	407.88
390.287	422.88
390.512	407.88
390.736	418.88
390.961	417.88
391.186	413.88
391.411	415.88
391.636	426.88
391.86	418.88
392.085	431.88
392.31	420.88
392.534	448.88
392.759	457.88
392.984	423.88
393.208	429.88
393.433	414.88
393.658	431.88
393.882	424.88
394.107	422.88
394.331	427.88
394.556	427.88
394.78	422.88
395.005	439.88
395.229	438.88
395.454	434.88
395.678	429.88
395.903	430.88
396.127	471.88
396.352	445.88
396.576	430.88
396.801	452.88
397.025	420.88
397.249	432.88
397.474	440.88
397.698	445.88
397.922	463.88
398.147	466.88
398.371	475.88
398.595	477.88
398.82	483.88
399.044	498.88
399.268	511.88
399.492	542.88
399.717	586.88
399.941	607.88
400.165	602.88
400.389	610.88
400.613	541.88
400.837	490.88
401.062	502.88
401.286	488.88
401.51	500.88
401.734	469.88
401.958	491.88
402.182	474.88
402.406	487.88
402.63	507.88
402.854	480.88
403.078	495.88
403.302	499.88
403.526	496.88
403.75	504.88
403.974	488.88
404.198	502.88
404.422	510.88
404.645	496.88
404.869	505.88
405.093	512.88
405.317	549.88
405.541	584.88
405.765	567.88
405.988	510.88
406.212	535.88
406.436	522.88
406.66	553.88
406.883	529.88
407.107	538.88
407.331	592.88
407.555	636.88
407.778	640.88
408.002	596.88
408.226	550.88
408.449	527.88
408.673	530.88
408.896	557.88
409.12	608.88
409.344	560.88
409.567	522.88
409.791	501.88
410.014	493.88
410.238	487.88
410.461	476.88
410.685	497.88
410.908	487.88
411.132	540.88
411.355	544.88
411.578	548.88
411.802	518.88
412.025	479.88
412.249	499.88
412.472	509.88
412.695	544.88
412.919	539.88
413.142	514.88
413.365	487.88
413.589	466.88
413.812	462.88
414.035	470.88
414.258	463.88
414.482	477.88
414.705	463.88
414.928	449.88
415.151	483.88
415.374	479.88
415.597	448.88
415.821	462.88
416.044	474.88
416.267	469.88
416.49	447.88
416.713	451.88
416.936	475.88
417.159	464.88
417.382	469.88
417.605	461.88
417.828	471.88
418.051	464.88
418.274	487.88
418.497	470.88
418.72	459.88
418.943	464.88
419.166	514.88
419.389	487.88
419.611	492.88
419.834	487.88
420.057	478.88
420.28	482.88
420.503	484.88
420.726	470.88
420.948	475.88
421.171	509.88
421.394	520.88
421.617	496.88
421.839	501.88
422.062	472.88
422.285	479.88
422.507	545.88
422.73	586.88
422.953	558.88
423.175	510.88
423.398	482.88
423.621	487.88
423.843	517.88
424.066	521.88
424.288	492.88
424.511	506.88
424.733	546.88
424.956	633.88
425.178	614.88
425.401	602.88
425.623	595.88
425.846	545.88
426.068	492.88
426.291	474.88
426.513	501.88
426.735	505.88
426.958	554.88
427.18	615.88
427.402	666.88
427.625	746.88
427.847	636.88
428.069	578.88
428.292	518.88
428.514	490.88
428.736	455.88
428.958	463.88
429.181	445.88
429.403	430.88
429.625	460.88
429.847	468.88
430.069	535.88
430.292	532.88
430.514	469.88
430.736	472.88
430.958	459.88
431.18	450.88
431.402	456.88
431.624	432.88
431.846	445.88
432.068	424.88
432.29	438.88
432.512	437.88
432.734	427.88
432.956	439.88
433.178	447.88
433.4	447.88
433.622	445.88
433.844	440.88
434.066	434.88
434.287	462.88
434.509	427.88
434.731	443.88
434.953	456.88
435.175	482.88
435.397	489.88
435.618	500.88
435.84	520.88
436.062	616.88
436.284	645.88
436.505	530.88
436.727	501.88
436.949	474.88
437.17	459.88
437.392	463.88
437.614	469.88
437.835	488.88
438.057	568.88
438.278	646.88
438.5	640.88
438.721	692.88
438.943	676.88
439.165	525.88
439.386	500.88
439.608	503.88
439.829	511.88
440.05	490.88
440.272	570.88
440.493	516.88
440.715	485.88
440.936	490.88
441.158	459.88
441.379	479.88
441.6	487.88
441.822	484.88
442.043	525.88
442.264	573.88
442.486	619.88
442.707	524.88
442.928	512.88
443.149	526.88
443.371	531.88
443.592	562.88
443.813	639.88
444.034	661.88
444.255	586.88
444.476	526.88
444.698	538.88
444.919	543.88
445.14	589.88
445.361	566.88
445.582	536.88
445.803	601.88
446.024	634.88
446.245	628.88
446.466	583.88
446.687	538.88
446.908	476.88
447.129	459.88
447.35	446.88
447.571	440.88
447.792	454.88
448.013	462.88
448.234	487.88
448.455	494.88
448.675	603.88
448.896	667.88
449.117	599.88
449.338	566.88
449.559	635.88
449.779	712.88
450	578.88
450.221	482.88
450.442	445.88
450.662	449.88
450.883	421.88
451.104	442.88
451.324	442.88
451.545	423.88
451.766	402.88
451.986	414.88
452.207	412.88
452.428	394.88
452.648	404.88
452.869	394.88
453.089	403.88
453.31	416.88
453.53	421.88
453.751	398.88
453.971	406.88
454.192	415.88
454.412	401.88
454.633	407.88
454.853	389.88
455.073	377.88
455.294	417.88
455.514	472.88
455.734	440.88
455.955	399.88
456.175	379.88
456.395	396.88
456.616	383.88
456.836	383.88
457.056	380.88
457.276	389.88
457.497	390.88
457.717	392.88
457.937	414.88
458.157	377.88
458.377	387.88
458.598	406.88
458.818	445.88
459.038	500.88
459.258	496.88
459.478	451.88
459.698	450.88
459.918	433.88
460.138	435.88
460.358	444.88
460.578	448.88
460.798	480.88
461.018	455.88
461.238	441.88
461.458	474.88
461.678	446.88
461.898	452.88
462.118	490.88
462.338	476.88
462.558	472.88
462.777	462.88
462.997	490.88
463.217	504.88
463.437	514.88
463.657	497.88
463.876	486.88
464.096	493.88
464.316	496.88
464.536	484.88
464.755	482.88
464.975	475.88
465.195	478.88
465.414	521.88
465.634	478.88
465.854	449.88
466.073	450.88
466.293	452.88
466.512	421.88
466.732	412.88
466.951	398.88
467.171	431.88
467.391	423.88
467.61	436.88
467.829	424.88
468.049	434.88
468.268	394.88
468.488	415.88
468.707	406.88
468.927	416.88
469.146	394.88
469.365	396.88
469.585	397.88
469.804	407.88
470.023	408.88
470.243	414.88
470.462	406.88
470.681	421.88
470.901	429.88
471.12	424.88
471.339	420.88
471.558	396.88
471.777	423.88
471.997	402.88
472.216	415.88
472.435	432.88
472.654	431.88
472.873	419.88
473.092	412.88
473.311	407.88
473.53	392.88
473.749	416.88
473.968	440.88
474.187	528.88
474.406	538.88
474.625	475.88
474.844	434.88
475.063	438.88
475.282	414.88
475.501	443.88
475.72	420.88
475.939	413.88
476.158	440.88
476.377	434.88
476.596	437.88
476.814	440.88
477.033	444.88
477.252	428.88
477.471	448.88
477.69	448.88
477.908	443.88
478.127	479.88
478.346	439.88
478.564	452.88
478.783	466.88
479.002	478.88
479.22	482.88
479.439	478.88
479.658	500.88
479.876	482.88
480.095	490.88
480.313	537.88
480.532	533.88
480.751	502.88
480.969	508.88
481.188	543.88
481.406	553.88
481.624	542.88
481.843	486.88
482.061	485.88
482.28	492.88
482.498	469.88
482.717	461.88
482.935	472.88
483.153	479.88
483.372	473.88
483.59	495.88
483.808	476.88
484.027	478.88
484.245	487.88
484.463	478.88
484.681	482.88
484.9	487.88
485.118	492.88
485.336	510.88
485.554	498.88
485.772	499.88
485.99	502.88
486.209	527.88
486.427	488.88
486.645	518.88
486.863	538.88
487.081	526.88
487.299	502.88
487.517	509.88
487.735	486.88
487.953	477.88
488.171	528.88
488.389	500.88
488.607	514.88
488.825	524.88
489.043	524.88
489.261	514.88
489.479	519.88
489.696	513.88
489.914	516.88
490.132	531.88
490.35	511.88
490.568	546.88
490.786	518.88
491.003	553.88
491.221	541.88
491.439	573.88
491.657	552.88
491.874	564.88
492.092	580.88
492.31	564.88
492.527	567.88
492.745	556.88
492.963	579.88
493.18	579.88
493.398	598.88
493.615	575.88
493.833	588.88
494.05	581.88
494.268	603.88
494.485	587.88
494.703	590.88
494.92	617.88
495.138	598.88
495.355	598.88
495.573	608.88
495.79	610.88
496.008	618.88
496.225	606.88
496.442	602.88
496.66	598.88
496.877	591.88
497.094	613.88
497.312	606.88
497.529	604.88
497.746	615.88
497.963	655.88
498.181	646.88
498.398	676.88
498.615	693.88
498.832	684.88
499.049	714.88
499.267	733.88
499.484	732.88
499.701	800.88
499.918	827.88
500.135	878.88
500.352	921.88
500.569	925.88
500.786	946.88
501.003	932.88
501.22	914.88
501.437	851.88
501.654	836.88
501.871	791.88
502.088	763.88
