Data from 1977.PennyLincolnUp.Lamp.En5.5.200Scan.071719.P1_HRD10591_16-06-44-864.txt Node
Date: Thu Jul 18 16:06:44 EDT 2019
User: cochatt
Spectrometer: HR+D1059
Trigger mode: 1
Integration Time (sec): 1.000000E-1
Scans to average: 1
Electric dark correction enabled: true
Nonlinearity correction enabled: false
Boxcar width: 0
XAxis mode: Wavelengths
Number of Pixels in Spectrum: 2048
>>>>>Begin Spectral Data<<<<<
223.165	-11.38
223.4	-11.38
223.635	-11.38
223.869	-12.38
224.104	-9.38
224.338	-17.38
224.573	-16.38
224.808	-4.38
225.042	-0.38
225.277	-5.38
225.511	-5.38
225.746	3.62
225.98	-3.38
226.215	5.62
226.449	11.62
226.683	19.62
226.918	12.62
227.152	32.62
227.387	28.62
227.621	39.62
227.856	37.62
228.09	39.62
228.324	63.62
228.559	56.62
228.793	72.62
229.027	80.62
229.262	114.62
229.496	106.62
229.73	124.62
229.964	138.62
230.199	120.62
230.433	110.62
230.667	111.62
230.901	118.62
231.136	118.62
231.37	114.62
231.604	116.62
231.838	114.62
232.072	104.62
232.306	113.62
232.541	116.62
232.775	119.62
233.009	96.62
233.243	116.62
233.477	120.62
233.711	128.62
233.945	106.62
234.179	117.62
234.413	124.62
234.647	124.62
234.881	118.62
235.115	104.62
235.349	119.62
235.583	121.62
235.817	128.62
236.051	118.62
236.285	116.62
236.519	126.62
236.753	123.62
236.987	153.62
237.221	161.62
237.455	195.62
237.689	184.62
237.922	140.62
238.156	134.62
238.39	120.62
238.624	119.62
238.858	140.62
239.091	122.62
239.325	120.62
239.559	129.62
239.793	126.62
240.027	134.62
240.26	144.62
240.494	144.62
240.728	143.62
240.961	143.62
241.195	140.62
241.429	132.62
241.662	132.62
241.896	125.62
242.13	130.62
242.363	138.62
242.597	139.62
242.83	133.62
243.064	144.62
243.298	141.62
243.531	132.62
243.765	130.62
243.998	116.62
244.232	144.62
244.465	147.62
244.699	167.62
244.932	142.62
245.166	142.62
245.399	146.62
245.633	150.62
245.866	140.62
246.099	136.62
246.333	150.62
246.566	155.62
246.8	150.62
247.033	157.62
247.266	167.62
247.5	141.62
247.733	160.62
247.966	163.62
248.2	156.62
248.433	171.62
248.666	171.62
248.899	170.62
249.133	203.62
249.366	184.62
249.599	186.62
249.832	193.62
250.066	178.62
250.299	183.62
250.532	188.62
250.765	202.62
250.998	200.62
251.231	210.62
251.465	194.62
251.698	190.62
251.931	199.62
252.164	201.62
252.397	189.62
252.63	203.62
252.863	201.62
253.096	190.62
253.329	213.62
253.562	219.62
253.795	207.62
254.028	210.62
254.261	194.62
254.494	214.62
254.727	227.62
254.96	263.62
255.193	248.62
255.426	238.62
255.659	227.62
255.892	232.62
256.124	230.62
256.357	227.62
256.59	229.62
256.823	220.62
257.056	229.62
257.289	207.62
257.521	206.62
257.754	210.62
257.987	187.62
258.22	202.62
258.452	215.62
258.685	197.62
258.918	214.62
259.151	214.62
259.383	216.62
259.616	207.62
259.849	225.62
260.081	229.62
260.314	254.62
260.547	258.62
260.779	235.62
261.012	223.62
261.244	222.62
261.477	233.62
261.71	237.62
261.942	229.62
262.175	224.62
262.407	231.62
262.64	216.62
262.872	222.62
263.105	220.62
263.337	216.62
263.57	199.62
263.802	224.62
264.035	211.62
264.267	224.62
264.499	214.62
264.732	209.62
264.964	206.62
265.197	223.62
265.429	221.62
265.661	212.62
265.894	225.62
266.126	229.62
266.358	237.62
266.591	230.62
266.823	249.62
267.055	219.62
267.287	233.62
267.52	234.62
267.752	211.62
267.984	248.62
268.216	236.62
268.448	261.62
268.681	248.62
268.913	258.62
269.145	274.62
269.377	278.62
269.609	288.62
269.841	283.62
270.073	280.62
270.306	297.62
270.538	300.62
270.77	314.62
271.002	291.62
271.234	293.62
271.466	306.62
271.698	292.62
271.93	303.62
272.162	300.62
272.394	320.62
272.626	311.62
272.858	283.62
273.09	294.62
273.322	277.62
273.553	271.62
273.785	273.62
274.017	258.62
274.249	278.62
274.481	275.62
274.713	274.62
274.945	276.62
275.176	286.62
275.408	267.62
275.64	264.62
275.872	283.62
276.104	275.62
276.335	283.62
276.567	272.62
276.799	288.62
277.031	320.62
277.262	317.62
277.494	317.62
277.726	308.62
277.957	291.62
278.189	280.62
278.421	282.62
278.652	283.62
278.884	302.62
279.115	278.62
279.347	286.62
279.579	283.62
279.81	278.62
280.042	277.62
280.273	299.62
280.505	274.62
280.736	284.62
280.968	296.62
281.199	283.62
281.431	291.62
281.662	312.62
281.894	300.62
282.125	292.62
282.356	307.62
282.588	315.62
282.819	317.62
283.051	299.62
283.282	285.62
283.513	295.62
283.745	310.62
283.976	302.62
284.207	297.62
284.439	297.62
284.67	311.62
284.901	288.62
285.132	302.62
285.364	293.62
285.595	293.62
285.826	292.62
286.057	299.62
286.288	303.62
286.52	303.62
286.751	303.62
286.982	303.62
287.213	290.62
287.444	285.62
287.675	320.62
287.906	325.62
288.138	341.62
288.369	326.62
288.6	329.62
288.831	308.62
289.062	300.62
289.293	321.62
289.524	312.62
289.755	309.62
289.986	316.62
290.217	294.62
290.448	314.62
290.679	301.62
290.91	322.62
291.141	314.62
291.371	313.62
291.602	320.62
291.833	326.62
292.064	326.62
292.295	310.62
292.526	312.62
292.757	320.62
292.987	314.62
293.218	322.62
293.449	318.62
293.68	298.62
293.91	319.62
294.141	331.62
294.372	314.62
294.603	308.62
294.833	334.62
295.064	303.62
295.295	322.62
295.525	313.62
295.756	306.62
295.987	313.62
296.217	331.62
296.448	332.62
296.679	317.62
296.909	308.62
297.14	326.62
297.37	327.62
297.601	318.62
297.831	329.62
298.062	312.62
298.292	323.62
298.523	335.62
298.753	324.62
298.984	324.62
299.214	319.62
299.445	331.62
299.675	342.62
299.905	336.62
300.136	347.62
300.366	332.62
300.597	313.62
300.827	332.62
301.057	336.62
301.288	353.62
301.518	349.62
301.748	358.62
301.979	346.62
302.209	355.62
302.439	347.62
302.669	352.62
302.9	341.62
303.13	355.62
303.36	345.62
303.59	337.62
303.82	350.62
304.051	367.62
304.281	355.62
304.511	345.62
304.741	363.62
304.971	365.62
305.201	357.62
305.431	363.62
305.661	368.62
305.891	342.62
306.121	365.62
306.352	380.62
306.582	350.62
306.812	352.62
307.042	339.62
307.272	358.62
307.502	346.62
307.731	346.62
307.961	350.62
308.191	342.62
308.421	352.62
308.651	354.62
308.881	349.62
309.111	374.62
309.341	388.62
309.571	371.62
309.8	379.62
310.03	367.62
310.26	388.62
310.49	383.62
310.72	396.62
310.949	389.62
311.179	420.62
311.409	394.62
311.639	408.62
311.868	371.62
312.098	386.62
312.328	393.62
312.557	404.62
312.787	417.62
313.017	400.62
313.246	406.62
313.476	395.62
313.706	382.62
313.935	400.62
314.165	420.62
314.394	394.62
314.624	416.62
314.853	409.62
315.083	402.62
315.312	400.62
315.542	400.62
315.771	401.62
316.001	390.62
316.23	393.62
316.46	381.62
316.689	416.62
316.919	397.62
317.148	420.62
317.377	398.62
317.607	418.62
317.836	403.62
318.065	413.62
318.295	404.62
318.524	395.62
318.753	409.62
318.983	392.62
319.212	404.62
319.441	390.62
319.67	388.62
319.9	401.62
320.129	409.62
320.358	383.62
320.587	396.62
320.816	423.62
321.046	410.62
321.275	420.62
321.504	398.62
321.733	401.62
321.962	416.62
322.191	422.62
322.42	445.62
322.649	465.62
322.878	448.62
323.108	478.62
323.337	463.62
323.566	460.62
323.795	517.62
324.024	530.62
324.253	635.62
324.482	866.62
324.71	1269.62
324.939	1738.62
325.168	1463.62
325.397	804.62
325.626	586.62
325.855	520.62
326.084	483.62
326.313	473.62
326.542	486.62
326.77	547.62
326.999	618.62
327.228	777.62
327.457	1130.62
327.686	1334.62
327.914	911.62
328.143	636.62
328.372	559.62
328.6	555.62
328.829	521.62
329.058	522.62
329.287	545.62
329.515	508.62
329.744	488.62
329.972	483.62
330.201	521.62
330.43	520.62
330.658	555.62
330.887	550.62
331.115	548.62
331.344	530.62
331.572	491.62
331.801	483.62
332.03	473.62
332.258	485.62
332.486	488.62
332.715	476.62
332.943	488.62
333.172	471.62
333.4	485.62
333.629	490.62
333.857	494.62
334.085	523.62
334.314	536.62
334.542	544.62
334.771	544.62
334.999	502.62
335.227	515.62
335.455	477.62
335.684	485.62
335.912	483.62
336.14	471.62
336.369	456.62
336.597	483.62
336.825	487.62
337.053	455.62
337.281	450.62
337.51	449.62
337.738	444.62
337.966	436.62
338.194	462.62
338.422	452.62
338.65	445.62
338.878	436.62
339.106	467.62
339.334	446.62
339.562	436.62
339.79	459.62
340.018	444.62
340.246	450.62
340.474	422.62
340.702	456.62
340.93	462.62
341.158	446.62
341.386	443.62
341.614	463.62
341.842	451.62
342.07	452.62
342.298	434.62
342.526	413.62
342.754	427.62
342.981	416.62
343.209	440.62
343.437	442.62
343.665	460.62
343.893	463.62
344.12	455.62
344.348	478.62
344.576	454.62
344.804	472.62
345.031	460.62
345.259	466.62
345.487	429.62
345.714	441.62
345.942	422.62
346.17	436.62
346.397	413.62
346.625	444.62
346.853	421.62
347.08	419.62
347.308	416.62
347.535	426.62
347.763	427.62
347.99	430.62
348.218	434.62
348.445	423.62
348.673	420.62
348.9	417.62
349.128	413.62
349.355	402.62
349.583	405.62
349.81	412.62
350.037	427.62
350.265	403.62
350.492	420.62
350.72	415.62
350.947	414.62
351.174	436.62
351.402	422.62
351.629	420.62
351.856	430.62
352.083	432.62
352.311	421.62
352.538	431.62
352.765	426.62
352.992	409.62
353.22	412.62
353.447	392.62
353.674	396.62
353.901	413.62
354.128	406.62
354.355	395.62
354.583	390.62
354.81	389.62
355.037	406.62
355.264	378.62
355.491	402.62
355.718	383.62
355.945	386.62
356.172	375.62
356.399	392.62
356.626	383.62
356.853	399.62
357.08	391.62
357.307	379.62
357.534	409.62
357.761	391.62
357.988	382.62
358.215	404.62
358.441	396.62
358.668	386.62
358.895	388.62
359.122	395.62
359.349	405.62
359.576	402.62
359.802	403.62
360.029	441.62
360.256	451.62
360.483	421.62
360.709	417.62
360.936	414.62
361.163	406.62
361.39	395.62
361.616	394.62
361.843	410.62
362.07	423.62
362.296	404.62
362.523	390.62
362.749	398.62
362.976	399.62
363.203	395.62
363.429	405.62
363.656	384.62
363.882	392.62
364.109	411.62
364.335	410.62
364.562	378.62
364.788	389.62
365.015	406.62
365.241	387.62
365.468	411.62
365.694	404.62
365.92	398.62
366.147	388.62
366.373	390.62
366.599	383.62
366.826	386.62
367.052	380.62
367.278	390.62
367.505	372.62
367.731	397.62
367.957	393.62
368.184	392.62
368.41	375.62
368.636	402.62
368.862	382.62
369.089	394.62
369.315	384.62
369.541	402.62
369.767	408.62
369.993	411.62
370.219	392.62
370.445	385.62
370.672	380.62
370.898	385.62
371.124	406.62
371.35	387.62
371.576	366.62
371.802	377.62
372.028	390.62
372.254	403.62
372.48	402.62
372.706	412.62
372.932	418.62
373.158	411.62
373.384	418.62
373.61	400.62
373.835	400.62
374.061	397.62
374.287	401.62
374.513	392.62
374.739	425.62
374.965	411.62
375.191	419.62
375.416	408.62
375.642	398.62
375.868	409.62
376.094	387.62
376.319	393.62
376.545	396.62
376.771	393.62
376.997	373.62
377.222	386.62
377.448	380.62
377.674	377.62
377.899	392.62
378.125	404.62
378.35	377.62
378.576	384.62
378.802	384.62
379.027	396.62
379.253	382.62
379.478	398.62
379.704	412.62
379.929	382.62
380.155	397.62
380.38	378.62
380.606	390.62
380.831	396.62
381.057	393.62
381.282	394.62
381.507	406.62
381.733	396.62
381.958	366.62
382.184	412.62
382.409	394.62
382.634	392.62
382.86	394.62
383.085	393.62
383.31	390.62
383.535	403.62
383.761	395.62
383.986	425.62
384.211	412.62
384.436	402.62
384.662	428.62
384.887	405.62
385.112	432.62
385.337	431.62
385.562	404.62
385.787	423.62
386.013	440.62
386.238	440.62
386.463	426.62
386.688	438.62
386.913	437.62
387.138	431.62
387.363	423.62
387.588	441.62
387.813	426.62
388.038	437.62
388.263	436.62
388.488	414.62
388.713	452.62
388.938	440.62
389.163	432.62
389.387	431.62
389.612	419.62
389.837	418.62
390.062	434.62
390.287	424.62
390.512	434.62
390.736	434.62
390.961	427.62
391.186	426.62
391.411	423.62
391.636	438.62
391.86	444.62
392.085	462.62
392.31	440.62
392.534	471.62
392.759	463.62
392.984	440.62
393.208	434.62
393.433	443.62
393.658	436.62
393.882	443.62
394.107	420.62
394.331	408.62
394.556	421.62
394.78	434.62
395.005	419.62
395.229	430.62
395.454	457.62
395.678	446.62
395.903	461.62
396.127	474.62
396.352	478.62
396.576	449.62
396.801	446.62
397.025	414.62
397.249	443.62
397.474	470.62
397.698	448.62
397.922	442.62
398.147	487.62
398.371	475.62
398.595	481.62
398.82	482.62
399.044	500.62
399.268	520.62
399.492	553.62
399.717	576.62
399.941	626.62
400.165	610.62
400.389	605.62
400.613	539.62
400.837	511.62
401.062	505.62
401.286	516.62
401.51	500.62
401.734	484.62
401.958	512.62
402.182	488.62
402.406	504.62
402.63	506.62
402.854	492.62
403.078	499.62
403.302	512.62
403.526	512.62
403.75	528.62
403.974	508.62
404.198	526.62
404.422	527.62
404.645	508.62
404.869	514.62
405.093	571.62
405.317	603.62
405.541	607.62
405.765	571.62
405.988	532.62
406.212	533.62
406.436	564.62
406.66	540.62
406.883	509.62
407.107	555.62
407.331	601.62
407.555	664.62
407.778	656.62
408.002	617.62
408.226	570.62
408.449	550.62
408.673	556.62
408.896	562.62
409.12	609.62
409.344	579.62
409.567	532.62
409.791	518.62
410.014	482.62
410.238	502.62
410.461	504.62
410.685	493.62
410.908	514.62
411.132	537.62
411.355	543.62
411.578	551.62
411.802	513.62
412.025	508.62
412.249	502.62
412.472	521.62
412.695	549.62
412.919	545.62
413.142	508.62
413.365	490.62
413.589	490.62
413.812	465.62
414.035	462.62
414.258	481.62
414.482	477.62
414.705	485.62
414.928	478.62
415.151	464.62
415.374	456.62
415.597	457.62
415.821	457.62
416.044	475.62
416.267	459.62
416.49	471.62
416.713	470.62
416.936	475.62
417.159	476.62
417.382	484.62
417.605	506.62
417.828	473.62
418.051	491.62
418.274	479.62
418.497	464.62
418.72	478.62
418.943	469.62
419.166	500.62
419.389	515.62
419.611	511.62
419.834	485.62
420.057	494.62
420.28	484.62
420.503	485.62
420.726	495.62
420.948	490.62
421.171	527.62
421.394	571.62
421.617	516.62
421.839	504.62
422.062	506.62
422.285	506.62
422.507	575.62
422.73	612.62
422.953	597.62
423.175	519.62
423.398	502.62
423.621	520.62
423.843	538.62
424.066	545.62
424.288	517.62
424.511	527.62
424.733	573.62
424.956	641.62
425.178	634.62
425.401	603.62
425.623	623.62
425.846	540.62
426.068	517.62
426.291	498.62
426.513	512.62
426.735	522.62
426.958	547.62
427.18	611.62
427.402	752.62
427.625	801.62
427.847	669.62
428.069	610.62
428.292	551.62
428.514	510.62
428.736	462.62
428.958	474.62
429.181	470.62
429.403	476.62
429.625	464.62
429.847	496.62
430.069	551.62
430.292	528.62
430.514	493.62
430.736	498.62
430.958	476.62
431.18	458.62
431.402	446.62
431.624	440.62
431.846	456.62
432.068	417.62
432.29	454.62
432.512	470.62
432.734	468.62
432.956	451.62
433.178	462.62
433.4	462.62
433.622	440.62
433.844	427.62
434.066	444.62
434.287	454.62
434.509	462.62
434.731	466.62
434.953	463.62
435.175	484.62
435.397	510.62
435.618	502.62
435.84	546.62
436.062	619.62
436.284	650.62
436.505	559.62
436.727	525.62
436.949	463.62
437.17	454.62
437.392	473.62
437.614	478.62
437.835	503.62
438.057	572.62
438.278	658.62
438.5	681.62
438.721	744.62
438.943	680.62
439.165	568.62
439.386	513.62
439.608	478.62
439.829	486.62
440.05	510.62
440.272	547.62
440.493	502.62
440.715	492.62
440.936	487.62
441.158	470.62
441.379	465.62
441.6	475.62
441.822	510.62
442.043	548.62
442.264	593.62
442.486	632.62
442.707	562.62
442.928	529.62
443.149	514.62
443.371	552.62
443.592	592.62
443.813	644.62
444.034	703.62
444.255	604.62
444.476	542.62
444.698	516.62
444.919	523.62
445.14	622.62
445.361	582.62
445.582	564.62
445.803	592.62
446.024	660.62
446.245	684.62
446.466	605.62
446.687	516.62
446.908	520.62
447.129	463.62
447.35	467.62
447.571	470.62
447.792	453.62
448.013	472.62
448.234	500.62
448.455	515.62
448.675	623.62
448.896	705.62
449.117	587.62
449.338	541.62
449.559	683.62
449.779	732.62
450	605.62
450.221	491.62
450.442	466.62
450.662	465.62
450.883	464.62
451.104	446.62
451.324	436.62
451.545	448.62
451.766	429.62
451.986	418.62
452.207	397.62
452.428	429.62
452.648	415.62
452.869	410.62
453.089	403.62
453.31	424.62
453.53	424.62
453.751	399.62
453.971	408.62
454.192	411.62
454.412	405.62
454.633	406.62
454.853	405.62
455.073	409.62
455.294	425.62
455.514	481.62
455.734	448.62
455.955	435.62
456.175	388.62
456.395	396.62
456.616	392.62
456.836	379.62
457.056	386.62
457.276	396.62
457.497	380.62
457.717	407.62
457.937	403.62
458.157	409.62
458.377	404.62
458.598	428.62
458.818	454.62
459.038	518.62
459.258	536.62
459.478	454.62
459.698	455.62
459.918	448.62
460.138	440.62
460.358	460.62
460.578	447.62
460.798	456.62
461.018	468.62
461.238	449.62
461.458	458.62
461.678	449.62
461.898	455.62
462.118	456.62
462.338	470.62
462.558	484.62
462.777	481.62
462.997	506.62
463.217	518.62
463.437	545.62
463.657	509.62
463.876	493.62
464.096	498.62
464.316	505.62
464.536	512.62
464.755	494.62
464.975	484.62
465.195	505.62
465.414	530.62
465.634	484.62
465.854	477.62
466.073	458.62
466.293	459.62
466.512	446.62
466.732	419.62
466.951	442.62
467.171	434.62
467.391	432.62
467.61	425.62
467.829	454.62
468.049	466.62
468.268	439.62
468.488	422.62
468.707	424.62
468.927	422.62
469.146	401.62
469.365	420.62
469.585	438.62
469.804	427.62
470.023	433.62
470.243	432.62
470.462	434.62
470.681	448.62
470.901	460.62
471.12	432.62
471.339	429.62
471.558	437.62
471.777	442.62
471.997	418.62
472.216	424.62
472.435	432.62
472.654	447.62
472.873	436.62
473.092	422.62
473.311	418.62
473.53	418.62
473.749	439.62
473.968	464.62
474.187	566.62
474.406	566.62
474.625	478.62
474.844	448.62
475.063	426.62
475.282	418.62
475.501	424.62
475.72	450.62
475.939	438.62
476.158	436.62
476.377	443.62
476.596	438.62
476.814	454.62
477.033	461.62
477.252	435.62
477.471	451.62
477.69	447.62
477.908	471.62
478.127	452.62
478.346	454.62
478.564	460.62
478.783	476.62
479.002	468.62
479.22	503.62
479.439	485.62
479.658	495.62
479.876	529.62
480.095	510.62
480.313	540.62
480.532	528.62
480.751	505.62
480.969	500.62
481.188	578.62
481.406	566.62
481.624	536.62
481.843	527.62
482.061	501.62
482.28	519.62
482.498	503.62
482.717	483.62
482.935	485.62
483.153	494.62
483.372	484.62
483.59	497.62
483.808	499.62
484.027	504.62
484.245	524.62
484.463	492.62
484.681	514.62
484.9	494.62
485.118	516.62
485.336	505.62
485.554	516.62
485.772	522.62
485.99	505.62
486.209	515.62
486.427	540.62
486.645	532.62
486.863	534.62
487.081	532.62
487.299	499.62
487.517	542.62
487.735	532.62
487.953	520.62
488.171	527.62
488.389	514.62
488.607	542.62
488.825	524.62
489.043	544.62
489.261	537.62
489.479	521.62
489.696	540.62
489.914	537.62
490.132	535.62
490.35	540.62
490.568	555.62
490.786	552.62
491.003	537.62
491.221	579.62
491.439	559.62
491.657	558.62
491.874	598.62
492.092	589.62
492.31	581.62
492.527	594.62
492.745	562.62
492.963	588.62
493.18	601.62
493.398	571.62
493.615	607.62
493.833	610.62
494.05	595.62
494.268	617.62
494.485	589.62
494.703	588.62
494.92	602.62
495.138	612.62
495.355	601.62
495.573	586.62
495.79	608.62
496.008	606.62
496.225	627.62
496.442	615.62
496.66	614.62
496.877	602.62
497.094	625.62
497.312	629.62
497.529	631.62
497.746	671.62
497.963	669.62
498.181	671.62
498.398	646.62
498.615	694.62
498.832	732.62
499.049	729.62
499.267	754.62
499.484	778.62
499.701	807.62
499.918	863.62
500.135	906.62
500.352	960.62
500.569	970.62
500.786	999.62
501.003	970.62
501.22	898.62
501.437	898.62
501.654	838.62
501.871	823.62
502.088	794.62
