Data from 1977.PennyLincolnUp.Lamp.En5.5.200Scan.071719.P1_HRD10591_16-08-08-865.txt Node
Date: Thu Jul 18 16:08:08 EDT 2019
User: cochatt
Spectrometer: HR+D1059
Trigger mode: 1
Integration Time (sec): 1.000000E-1
Scans to average: 1
Electric dark correction enabled: true
Nonlinearity correction enabled: false
Boxcar width: 0
XAxis mode: Wavelengths
Number of Pixels in Spectrum: 2048
>>>>>Begin Spectral Data<<<<<
223.165	-7.38
223.4	-7.38
223.635	-7.38
223.869	-24.38
224.104	-21.38
224.338	-1.38
224.573	-17.38
224.808	-2.38
225.042	-10.38
225.277	-13.38
225.511	3.62
225.746	-10.38
225.98	-1.38
226.215	15.62
226.449	10.62
226.683	25.62
226.918	26.62
227.152	27.62
227.387	37.62
227.621	41.62
227.856	66.62
228.09	35.62
228.324	56.62
228.559	68.62
228.793	66.62
229.027	108.62
229.262	107.62
229.496	113.62
229.73	137.62
229.964	151.62
230.199	122.62
230.433	120.62
230.667	114.62
230.901	116.62
231.136	112.62
231.37	110.62
231.604	113.62
231.838	125.62
232.072	101.62
232.306	114.62
232.541	105.62
232.775	116.62
233.009	121.62
233.243	117.62
233.477	123.62
233.711	116.62
233.945	106.62
234.179	111.62
234.413	104.62
234.647	118.62
234.881	115.62
235.115	122.62
235.349	104.62
235.583	118.62
235.817	113.62
236.051	130.62
236.285	141.62
236.519	129.62
236.753	134.62
236.987	133.62
237.221	170.62
237.455	193.62
237.689	179.62
237.922	155.62
238.156	132.62
238.39	138.62
238.624	133.62
238.858	125.62
239.091	119.62
239.325	132.62
239.559	111.62
239.793	126.62
240.027	125.62
240.26	146.62
240.494	153.62
240.728	169.62
240.961	159.62
241.195	147.62
241.429	154.62
241.662	137.62
241.896	132.62
242.13	113.62
242.363	138.62
242.597	124.62
242.83	132.62
243.064	159.62
243.298	139.62
243.531	126.62
243.765	139.62
243.998	126.62
244.232	132.62
244.465	131.62
244.699	134.62
244.932	144.62
245.166	141.62
245.399	155.62
245.633	149.62
245.866	143.62
246.099	156.62
246.333	158.62
246.566	154.62
246.8	147.62
247.033	161.62
247.266	149.62
247.5	158.62
247.733	180.62
247.966	179.62
248.2	173.62
248.433	168.62
248.666	182.62
248.899	184.62
249.133	200.62
249.366	206.62
249.599	187.62
249.832	172.62
250.066	183.62
250.299	170.62
250.532	185.62
250.765	196.62
250.998	219.62
251.231	225.62
251.465	218.62
251.698	212.62
251.931	205.62
252.164	208.62
252.397	215.62
252.63	207.62
252.863	209.62
253.096	219.62
253.329	210.62
253.562	216.62
253.795	214.62
254.028	214.62
254.261	227.62
254.494	219.62
254.727	257.62
254.96	275.62
255.193	291.62
255.426	238.62
255.659	215.62
255.892	219.62
256.124	236.62
256.357	232.62
256.59	225.62
256.823	217.62
257.056	193.62
257.289	213.62
257.521	213.62
257.754	210.62
257.987	210.62
258.22	212.62
258.452	217.62
258.685	212.62
258.918	206.62
259.151	226.62
259.383	208.62
259.616	227.62
259.849	218.62
260.081	243.62
260.314	265.62
260.547	270.62
260.779	248.62
261.012	241.62
261.244	226.62
261.477	241.62
261.71	221.62
261.942	221.62
262.175	225.62
262.407	215.62
262.64	226.62
262.872	206.62
263.105	210.62
263.337	227.62
263.57	223.62
263.802	206.62
264.035	237.62
264.267	228.62
264.499	232.62
264.732	230.62
264.964	233.62
265.197	217.62
265.429	212.62
265.661	226.62
265.894	230.62
266.126	242.62
266.358	224.62
266.591	236.62
266.823	238.62
267.055	242.62
267.287	243.62
267.52	234.62
267.752	222.62
267.984	244.62
268.216	222.62
268.448	251.62
268.681	233.62
268.913	244.62
269.145	291.62
269.377	280.62
269.609	295.62
269.841	257.62
270.073	279.62
270.306	308.62
270.538	329.62
270.77	340.62
271.002	316.62
271.234	325.62
271.466	300.62
271.698	308.62
271.93	348.62
272.162	319.62
272.394	341.62
272.626	287.62
272.858	292.62
273.09	303.62
273.322	264.62
273.553	276.62
273.785	293.62
274.017	270.62
274.249	277.62
274.481	285.62
274.713	276.62
274.945	276.62
275.176	287.62
275.408	278.62
275.64	280.62
275.872	299.62
276.104	283.62
276.335	290.62
276.567	273.62
276.799	300.62
277.031	317.62
277.262	329.62
277.494	327.62
277.726	302.62
277.957	317.62
278.189	305.62
278.421	278.62
278.652	309.62
278.884	297.62
279.115	298.62
279.347	306.62
279.579	275.62
279.81	298.62
280.042	299.62
280.273	282.62
280.505	277.62
280.736	289.62
280.968	288.62
281.199	283.62
281.431	287.62
281.662	300.62
281.894	278.62
282.125	287.62
282.356	328.62
282.588	313.62
282.819	308.62
283.051	307.62
283.282	290.62
283.513	303.62
283.745	318.62
283.976	308.62
284.207	292.62
284.439	306.62
284.67	307.62
284.901	325.62
285.132	305.62
285.364	310.62
285.595	303.62
285.826	315.62
286.057	313.62
286.288	305.62
286.52	299.62
286.751	318.62
286.982	310.62
287.213	303.62
287.444	314.62
287.675	325.62
287.906	327.62
288.138	337.62
288.369	336.62
288.6	322.62
288.831	320.62
289.062	309.62
289.293	310.62
289.524	337.62
289.755	327.62
289.986	311.62
290.217	315.62
290.448	325.62
290.679	309.62
290.91	317.62
291.141	310.62
291.371	305.62
291.602	307.62
291.833	321.62
292.064	309.62
292.295	333.62
292.526	311.62
292.757	322.62
292.987	327.62
293.218	323.62
293.449	337.62
293.68	316.62
293.91	328.62
294.141	302.62
294.372	303.62
294.603	318.62
294.833	311.62
295.064	316.62
295.295	319.62
295.525	305.62
295.756	321.62
295.987	339.62
296.217	339.62
296.448	365.62
296.679	322.62
296.909	335.62
297.14	338.62
297.37	328.62
297.601	343.62
297.831	335.62
298.062	338.62
298.292	348.62
298.523	346.62
298.753	350.62
298.984	362.62
299.214	339.62
299.445	349.62
299.675	342.62
299.905	326.62
300.136	328.62
300.366	367.62
300.597	361.62
300.827	350.62
301.057	353.62
301.288	356.62
301.518	342.62
301.748	342.62
301.979	343.62
302.209	371.62
302.439	358.62
302.669	363.62
302.9	358.62
303.13	366.62
303.36	378.62
303.59	361.62
303.82	381.62
304.051	357.62
304.281	345.62
304.511	374.62
304.741	350.62
304.971	342.62
305.201	346.62
305.431	376.62
305.661	349.62
305.891	360.62
306.121	370.62
306.352	364.62
306.582	373.62
306.812	369.62
307.042	350.62
307.272	375.62
307.502	358.62
307.731	374.62
307.961	359.62
308.191	380.62
308.421	361.62
308.651	366.62
308.881	375.62
309.111	367.62
309.341	377.62
309.571	375.62
309.8	381.62
310.03	399.62
310.26	396.62
310.49	389.62
310.72	414.62
310.949	408.62
311.179	407.62
311.409	393.62
311.639	404.62
311.868	413.62
312.098	413.62
312.328	418.62
312.557	403.62
312.787	434.62
313.017	419.62
313.246	395.62
313.476	411.62
313.706	389.62
313.935	400.62
314.165	413.62
314.394	429.62
314.624	408.62
314.853	421.62
315.083	413.62
315.312	405.62
315.542	404.62
315.771	403.62
316.001	401.62
316.23	398.62
316.46	398.62
316.689	423.62
316.919	423.62
317.148	397.62
317.377	410.62
317.607	410.62
317.836	407.62
318.065	406.62
318.295	411.62
318.524	414.62
318.753	408.62
318.983	399.62
319.212	400.62
319.441	408.62
319.67	428.62
319.9	428.62
320.129	442.62
320.358	410.62
320.587	417.62
320.816	404.62
321.046	425.62
321.275	424.62
321.504	432.62
321.733	429.62
321.962	441.62
322.191	472.62
322.42	439.62
322.649	463.62
322.878	457.62
323.108	463.62
323.337	507.62
323.566	502.62
323.795	491.62
324.024	582.62
324.253	666.62
324.482	921.62
324.71	1371.62
324.939	1936.62
325.168	1660.62
325.397	882.62
325.626	647.62
325.855	556.62
326.084	502.62
326.313	509.62
326.542	510.62
326.77	564.62
326.999	637.62
327.228	842.62
327.457	1253.62
327.686	1455.62
327.914	973.62
328.143	659.62
328.372	609.62
328.6	576.62
328.829	545.62
329.058	575.62
329.287	559.62
329.515	510.62
329.744	492.62
329.972	523.62
330.201	528.62
330.43	564.62
330.658	569.62
330.887	589.62
331.115	599.62
331.344	528.62
331.572	500.62
331.801	530.62
332.03	507.62
332.258	494.62
332.486	501.62
332.715	479.62
332.943	492.62
333.172	504.62
333.4	491.62
333.629	498.62
333.857	521.62
334.085	511.62
334.314	543.62
334.542	531.62
334.771	531.62
334.999	506.62
335.227	485.62
335.455	488.62
335.684	482.62
335.912	479.62
336.14	470.62
336.369	497.62
336.597	458.62
336.825	481.62
337.053	467.62
337.281	467.62
337.51	472.62
337.738	481.62
337.966	461.62
338.194	466.62
338.422	479.62
338.65	467.62
338.878	469.62
339.106	457.62
339.334	441.62
339.562	464.62
339.79	450.62
340.018	464.62
340.246	457.62
340.474	449.62
340.702	443.62
340.93	436.62
341.158	440.62
341.386	446.62
341.614	462.62
341.842	455.62
342.07	446.62
342.298	466.62
342.526	440.62
342.754	447.62
342.981	442.62
343.209	433.62
343.437	428.62
343.665	451.62
343.893	470.62
344.12	457.62
344.348	463.62
344.576	460.62
344.804	476.62
345.031	471.62
345.259	484.62
345.487	473.62
345.714	448.62
345.942	447.62
346.17	448.62
346.397	432.62
346.625	430.62
346.853	424.62
347.08	438.62
347.308	421.62
347.535	439.62
347.763	423.62
347.99	448.62
348.218	431.62
348.445	427.62
348.673	444.62
348.9	414.62
349.128	434.62
349.355	403.62
349.583	412.62
349.81	415.62
350.037	422.62
350.265	423.62
350.492	419.62
350.72	417.62
350.947	409.62
351.174	421.62
351.402	433.62
351.629	405.62
351.856	429.62
352.083	425.62
352.311	440.62
352.538	444.62
352.765	427.62
352.992	423.62
353.22	413.62
353.447	426.62
353.674	416.62
353.901	402.62
354.128	399.62
354.355	410.62
354.583	389.62
354.81	409.62
355.037	400.62
355.264	408.62
355.491	388.62
355.718	393.62
355.945	411.62
356.172	377.62
356.399	393.62
356.626	411.62
356.853	399.62
357.08	402.62
357.307	405.62
357.534	412.62
357.761	392.62
357.988	403.62
358.215	400.62
358.441	399.62
358.668	398.62
358.895	414.62
359.122	423.62
359.349	417.62
359.576	413.62
359.802	420.62
360.029	469.62
360.256	473.62
360.483	444.62
360.709	426.62
360.936	413.62
361.163	407.62
361.39	416.62
361.616	435.62
361.843	391.62
362.07	413.62
362.296	414.62
362.523	412.62
362.749	420.62
362.976	417.62
363.203	422.62
363.429	398.62
363.656	406.62
363.882	391.62
364.109	391.62
364.335	396.62
364.562	381.62
364.788	403.62
365.015	423.62
365.241	406.62
365.468	397.62
365.694	399.62
365.92	413.62
366.147	387.62
366.373	404.62
366.599	403.62
366.826	390.62
367.052	408.62
367.278	394.62
367.505	401.62
367.731	409.62
367.957	386.62
368.184	394.62
368.41	407.62
368.636	411.62
368.862	429.62
369.089	412.62
369.315	403.62
369.541	399.62
369.767	412.62
369.993	382.62
370.219	401.62
370.445	386.62
370.672	378.62
370.898	396.62
371.124	400.62
371.35	414.62
371.576	385.62
371.802	386.62
372.028	402.62
372.254	395.62
372.48	423.62
372.706	406.62
372.932	394.62
373.158	390.62
373.384	420.62
373.61	414.62
373.835	403.62
374.061	402.62
374.287	379.62
374.513	414.62
374.739	423.62
374.965	417.62
375.191	397.62
375.416	410.62
375.642	399.62
375.868	416.62
376.094	399.62
376.319	408.62
376.545	403.62
376.771	391.62
376.997	397.62
377.222	403.62
377.448	403.62
377.674	390.62
377.899	385.62
378.125	381.62
378.35	403.62
378.576	404.62
378.802	385.62
379.027	385.62
379.253	385.62
379.478	391.62
379.704	378.62
379.929	394.62
380.155	400.62
380.38	385.62
380.606	414.62
380.831	396.62
381.057	401.62
381.282	389.62
381.507	403.62
381.733	391.62
381.958	425.62
382.184	382.62
382.409	397.62
382.634	409.62
382.86	409.62
383.085	397.62
383.31	425.62
383.535	424.62
383.761	421.62
383.986	413.62
384.211	403.62
384.436	430.62
384.662	428.62
384.887	436.62
385.112	424.62
385.337	438.62
385.562	443.62
385.787	422.62
386.013	459.62
386.238	449.62
386.463	441.62
386.688	438.62
386.913	438.62
387.138	447.62
387.363	440.62
387.588	430.62
387.813	418.62
388.038	414.62
388.263	433.62
388.488	446.62
388.713	439.62
388.938	455.62
389.163	442.62
389.387	437.62
389.612	428.62
389.837	436.62
390.062	415.62
390.287	451.62
390.512	442.62
390.736	433.62
390.961	427.62
391.186	438.62
391.411	431.62
391.636	448.62
391.86	473.62
392.085	447.62
392.31	445.62
392.534	479.62
392.759	451.62
392.984	444.62
393.208	463.62
393.433	443.62
393.658	438.62
393.882	456.62
394.107	439.62
394.331	441.62
394.556	439.62
394.78	422.62
395.005	430.62
395.229	441.62
395.454	439.62
395.678	474.62
395.903	474.62
396.127	464.62
396.352	472.62
396.576	445.62
396.801	447.62
397.025	437.62
397.249	452.62
397.474	474.62
397.698	473.62
397.922	494.62
398.147	505.62
398.371	499.62
398.595	482.62
398.82	489.62
399.044	497.62
399.268	524.62
399.492	556.62
399.717	582.62
399.941	624.62
400.165	628.62
400.389	636.62
400.613	566.62
400.837	523.62
401.062	519.62
401.286	520.62
401.51	497.62
401.734	488.62
401.958	505.62
402.182	495.62
402.406	513.62
402.63	518.62
402.854	510.62
403.078	502.62
403.302	513.62
403.526	527.62
403.75	524.62
403.974	499.62
404.198	516.62
404.422	522.62
404.645	521.62
404.869	510.62
405.093	548.62
405.317	585.62
405.541	593.62
405.765	561.62
405.988	542.62
406.212	542.62
406.436	565.62
406.66	567.62
406.883	554.62
407.107	573.62
407.331	618.62
407.555	659.62
407.778	649.62
408.002	631.62
408.226	594.62
408.449	574.62
408.673	563.62
408.896	564.62
409.12	619.62
409.344	587.62
409.567	541.62
409.791	512.62
410.014	514.62
410.238	493.62
410.461	502.62
410.685	529.62
410.908	540.62
411.132	536.62
411.355	572.62
411.578	555.62
411.802	517.62
412.025	511.62
412.249	531.62
412.472	544.62
412.695	558.62
412.919	547.62
413.142	525.62
413.365	497.62
413.589	495.62
413.812	489.62
414.035	483.62
414.258	481.62
414.482	465.62
414.705	500.62
414.928	469.62
415.151	490.62
415.374	500.62
415.597	490.62
415.821	477.62
416.044	450.62
416.267	484.62
416.49	481.62
416.713	448.62
416.936	486.62
417.159	468.62
417.382	474.62
417.605	466.62
417.828	471.62
418.051	519.62
418.274	465.62
418.497	487.62
418.72	477.62
418.943	471.62
419.166	492.62
419.389	529.62
419.611	542.62
419.834	515.62
420.057	501.62
420.28	492.62
420.503	477.62
420.726	487.62
420.948	494.62
421.171	549.62
421.394	579.62
421.617	492.62
421.839	489.62
422.062	516.62
422.285	523.62
422.507	567.62
422.73	629.62
422.953	605.62
423.175	528.62
423.398	508.62
423.621	516.62
423.843	538.62
424.066	549.62
424.288	525.62
424.511	536.62
424.733	600.62
424.956	675.62
425.178	620.62
425.401	629.62
425.623	632.62
425.846	565.62
426.068	553.62
426.291	510.62
426.513	517.62
426.735	501.62
426.958	547.62
427.18	617.62
427.402	766.62
427.625	810.62
427.847	700.62
428.069	599.62
428.292	549.62
428.514	533.62
428.736	493.62
428.958	472.62
429.181	480.62
429.403	498.62
429.625	501.62
429.847	516.62
430.069	572.62
430.292	568.62
430.514	505.62
430.736	477.62
430.958	479.62
431.18	450.62
431.402	439.62
431.624	448.62
431.846	462.62
432.068	447.62
432.29	453.62
432.512	469.62
432.734	457.62
432.956	460.62
433.178	464.62
433.4	466.62
433.622	464.62
433.844	454.62
434.066	457.62
434.287	457.62
434.509	473.62
434.731	477.62
434.953	497.62
435.175	500.62
435.397	509.62
435.618	516.62
435.84	556.62
436.062	628.62
436.284	685.62
436.505	586.62
436.727	527.62
436.949	492.62
437.17	493.62
437.392	478.62
437.614	474.62
437.835	524.62
438.057	603.62
438.278	667.62
438.5	707.62
438.721	764.62
438.943	742.62
439.165	574.62
439.386	530.62
439.608	518.62
439.829	523.62
440.05	538.62
440.272	579.62
440.493	557.62
440.715	504.62
440.936	499.62
441.158	488.62
441.379	489.62
441.6	507.62
441.822	490.62
442.043	535.62
442.264	617.62
442.486	635.62
442.707	557.62
442.928	514.62
443.149	534.62
443.371	546.62
443.592	600.62
443.813	662.62
444.034	726.62
444.255	591.62
444.476	535.62
444.698	550.62
444.919	559.62
445.14	651.62
445.361	595.62
445.582	540.62
445.803	612.62
446.024	686.62
446.245	716.62
446.466	628.62
446.687	565.62
446.908	519.62
447.129	511.62
447.35	473.62
447.571	481.62
447.792	472.62
448.013	485.62
448.234	498.62
448.455	532.62
448.675	644.62
448.896	746.62
449.117	612.62
449.338	597.62
449.559	671.62
449.779	779.62
450	620.62
450.221	487.62
450.442	483.62
450.662	460.62
450.883	468.62
451.104	467.62
451.324	466.62
451.545	426.62
451.766	451.62
451.986	419.62
452.207	417.62
452.428	421.62
452.648	423.62
452.869	404.62
453.089	422.62
453.31	427.62
453.53	439.62
453.751	419.62
453.971	421.62
454.192	440.62
454.412	421.62
454.633	421.62
454.853	428.62
455.073	423.62
455.294	429.62
455.514	498.62
455.734	499.62
455.955	429.62
456.175	413.62
456.395	389.62
456.616	397.62
456.836	406.62
457.056	401.62
457.276	379.62
457.497	394.62
457.717	387.62
457.937	431.62
458.157	429.62
458.377	401.62
458.598	434.62
458.818	471.62
459.038	525.62
459.258	557.62
459.478	518.62
459.698	433.62
459.918	459.62
460.138	445.62
460.358	466.62
460.578	467.62
460.798	446.62
461.018	475.62
461.238	454.62
461.458	469.62
461.678	467.62
461.898	479.62
462.118	473.62
462.338	490.62
462.558	503.62
462.777	484.62
462.997	517.62
463.217	514.62
463.437	551.62
463.657	533.62
463.876	505.62
464.096	489.62
464.316	503.62
464.536	513.62
464.755	528.62
464.975	506.62
465.195	493.62
465.414	556.62
465.634	484.62
465.854	478.62
466.073	478.62
466.293	457.62
466.512	429.62
466.732	419.62
466.951	448.62
467.171	436.62
467.391	421.62
467.61	457.62
467.829	475.62
468.049	445.62
468.268	437.62
468.488	448.62
468.707	417.62
468.927	421.62
469.146	417.62
469.365	436.62
469.585	411.62
469.804	424.62
470.023	425.62
470.243	419.62
470.462	456.62
470.681	469.62
470.901	437.62
471.12	428.62
471.339	422.62
471.558	418.62
471.777	442.62
471.997	439.62
472.216	457.62
472.435	462.62
472.654	439.62
472.873	440.62
473.092	467.62
473.311	443.62
473.53	429.62
473.749	436.62
473.968	479.62
474.187	570.62
474.406	563.62
474.625	476.62
474.844	455.62
475.063	422.62
475.282	463.62
475.501	459.62
475.72	428.62
475.939	433.62
476.158	430.62
476.377	449.62
476.596	455.62
476.814	437.62
477.033	456.62
477.252	447.62
477.471	464.62
477.69	463.62
477.908	489.62
478.127	460.62
478.346	471.62
478.564	486.62
478.783	478.62
479.002	487.62
479.22	503.62
479.439	499.62
479.658	514.62
479.876	531.62
480.095	521.62
480.313	534.62
480.532	567.62
480.751	526.62
480.969	541.62
481.188	561.62
481.406	588.62
481.624	519.62
481.843	523.62
482.061	506.62
482.28	494.62
482.498	500.62
482.717	501.62
482.935	496.62
483.153	504.62
483.372	499.62
483.59	510.62
483.808	486.62
484.027	497.62
484.245	485.62
484.463	499.62
484.681	501.62
484.9	525.62
485.118	502.62
485.336	515.62
485.554	519.62
485.772	531.62
485.99	520.62
486.209	544.62
486.427	506.62
486.645	534.62
486.863	542.62
487.081	541.62
487.299	532.62
487.517	535.62
487.735	537.62
487.953	543.62
488.171	542.62
488.389	519.62
488.607	529.62
488.825	528.62
489.043	521.62
489.261	523.62
489.479	549.62
489.696	534.62
489.914	540.62
490.132	541.62
490.35	569.62
490.568	561.62
490.786	566.62
491.003	557.62
491.221	580.62
491.439	582.62
491.657	596.62
491.874	582.62
492.092	598.62
492.31	611.62
492.527	612.62
492.745	607.62
492.963	610.62
493.18	614.62
493.398	625.62
493.615	615.62
493.833	615.62
494.05	608.62
494.268	627.62
494.485	638.62
494.703	618.62
494.92	615.62
495.138	626.62
495.355	627.62
495.573	628.62
495.79	621.62
496.008	616.62
496.225	643.62
496.442	636.62
496.66	629.62
496.877	659.62
497.094	653.62
497.312	635.62
497.529	661.62
497.746	658.62
497.963	680.62
498.181	707.62
498.398	700.62
498.615	702.62
498.832	756.62
499.049	740.62
499.267	759.62
499.484	817.62
499.701	840.62
499.918	858.62
500.135	926.62
500.352	981.62
500.569	977.62
500.786	964.62
501.003	942.62
501.22	945.62
501.437	885.62
501.654	846.62
501.871	827.62
