Data from 1977.PennyLincolnUp.Lamp.En5.5.200Scan.071719.P1_HRD10591_16-07-24-864.txt Node
Date: Thu Jul 18 16:07:24 EDT 2019
User: cochatt
Spectrometer: HR+D1059
Trigger mode: 1
Integration Time (sec): 1.000000E-1
Scans to average: 1
Electric dark correction enabled: true
Nonlinearity correction enabled: false
Boxcar width: 0
XAxis mode: Wavelengths
Number of Pixels in Spectrum: 2048
>>>>>Begin Spectral Data<<<<<
223.165	-10.31
223.4	-10.31
223.635	-10.31
223.869	-24.31
224.104	-21.31
224.338	-14.31
224.573	-8.31
224.808	-10.31
225.042	-10.31
225.277	3.69
225.511	4.69
225.746	9.69
225.98	9.69
226.215	-0.31
226.449	-9.31
226.683	10.69
226.918	35.69
227.152	34.69
227.387	36.69
227.621	43.69
227.856	36.69
228.09	34.69
228.324	58.69
228.559	47.69
228.793	72.69
229.027	89.69
229.262	108.69
229.496	108.69
229.73	113.69
229.964	123.69
230.199	121.69
230.433	107.69
230.667	106.69
230.901	98.69
231.136	110.69
231.37	107.69
231.604	106.69
231.838	94.69
232.072	121.69
232.306	115.69
232.541	106.69
232.775	108.69
233.009	117.69
233.243	117.69
233.477	129.69
233.711	110.69
233.945	122.69
234.179	123.69
234.413	113.69
234.647	111.69
234.881	121.69
235.115	113.69
235.349	112.69
235.583	122.69
235.817	117.69
236.051	117.69
236.285	129.69
236.519	122.69
236.753	119.69
236.987	138.69
237.221	162.69
237.455	200.69
237.689	187.69
237.922	139.69
238.156	136.69
238.39	125.69
238.624	128.69
238.858	136.69
239.091	134.69
239.325	122.69
239.559	134.69
239.793	111.69
240.027	129.69
240.26	141.69
240.494	149.69
240.728	148.69
240.961	151.69
241.195	142.69
241.429	134.69
241.662	130.69
241.896	127.69
242.13	137.69
242.363	126.69
242.597	131.69
242.83	144.69
243.064	141.69
243.298	143.69
243.531	150.69
243.765	137.69
243.998	130.69
244.232	149.69
244.465	147.69
244.699	155.69
244.932	141.69
245.166	141.69
245.399	154.69
245.633	141.69
245.866	138.69
246.099	143.69
246.333	147.69
246.566	132.69
246.8	152.69
247.033	164.69
247.266	159.69
247.5	154.69
247.733	173.69
247.966	170.69
248.2	179.69
248.433	156.69
248.666	169.69
248.899	172.69
249.133	174.69
249.366	205.69
249.599	198.69
249.832	182.69
250.066	177.69
250.299	168.69
250.532	187.69
250.765	185.69
250.998	227.69
251.231	204.69
251.465	206.69
251.698	191.69
251.931	195.69
252.164	203.69
252.397	213.69
252.63	200.69
252.863	198.69
253.096	197.69
253.329	233.69
253.562	215.69
253.795	197.69
254.028	205.69
254.261	222.69
254.494	226.69
254.727	238.69
254.96	261.69
255.193	269.69
255.426	234.69
255.659	238.69
255.892	223.69
256.124	225.69
256.357	224.69
256.59	228.69
256.823	231.69
257.056	202.69
257.289	193.69
257.521	215.69
257.754	220.69
257.987	225.69
258.22	226.69
258.452	219.69
258.685	210.69
258.918	214.69
259.151	223.69
259.383	233.69
259.616	238.69
259.849	209.69
260.081	228.69
260.314	234.69
260.547	253.69
260.779	234.69
261.012	225.69
261.244	230.69
261.477	230.69
261.71	232.69
261.942	233.69
262.175	236.69
262.407	239.69
262.64	222.69
262.872	238.69
263.105	218.69
263.337	221.69
263.57	210.69
263.802	215.69
264.035	218.69
264.267	222.69
264.499	204.69
264.732	230.69
264.964	222.69
265.197	219.69
265.429	221.69
265.661	230.69
265.894	217.69
266.126	228.69
266.358	226.69
266.591	215.69
266.823	229.69
267.055	234.69
267.287	233.69
267.52	222.69
267.752	230.69
267.984	237.69
268.216	236.69
268.448	253.69
268.681	255.69
268.913	243.69
269.145	271.69
269.377	260.69
269.609	277.69
269.841	267.69
270.073	281.69
270.306	293.69
270.538	320.69
270.77	315.69
271.002	301.69
271.234	305.69
271.466	295.69
271.698	315.69
271.93	317.69
272.162	301.69
272.394	326.69
272.626	309.69
272.858	303.69
273.09	299.69
273.322	274.69
273.553	247.69
273.785	295.69
274.017	278.69
274.249	277.69
274.481	269.69
274.713	279.69
274.945	266.69
275.176	275.69
275.408	289.69
275.64	287.69
275.872	267.69
276.104	271.69
276.335	271.69
276.567	291.69
276.799	290.69
277.031	307.69
277.262	314.69
277.494	314.69
277.726	312.69
277.957	300.69
278.189	301.69
278.421	307.69
278.652	268.69
278.884	291.69
279.115	274.69
279.347	275.69
279.579	279.69
279.81	283.69
280.042	277.69
280.273	289.69
280.505	284.69
280.736	300.69
280.968	279.69
281.199	292.69
281.431	291.69
281.662	282.69
281.894	307.69
282.125	281.69
282.356	290.69
282.588	309.69
282.819	311.69
283.051	298.69
283.282	305.69
283.513	293.69
283.745	288.69
283.976	308.69
284.207	298.69
284.439	305.69
284.67	318.69
284.901	307.69
285.132	314.69
285.364	309.69
285.595	323.69
285.826	282.69
286.057	309.69
286.288	297.69
286.52	297.69
286.751	309.69
286.982	296.69
287.213	298.69
287.444	308.69
287.675	301.69
287.906	307.69
288.138	323.69
288.369	328.69
288.6	326.69
288.831	320.69
289.062	316.69
289.293	315.69
289.524	325.69
289.755	319.69
289.986	313.69
290.217	309.69
290.448	310.69
290.679	299.69
290.91	313.69
291.141	306.69
291.371	308.69
291.602	316.69
291.833	335.69
292.064	297.69
292.295	308.69
292.526	310.69
292.757	324.69
292.987	323.69
293.218	326.69
293.449	326.69
293.68	321.69
293.91	313.69
294.141	311.69
294.372	314.69
294.603	306.69
294.833	323.69
295.064	328.69
295.295	311.69
295.525	299.69
295.756	340.69
295.987	338.69
296.217	347.69
296.448	342.69
296.679	316.69
296.909	333.69
297.14	314.69
297.37	305.69
297.601	331.69
297.831	341.69
298.062	313.69
298.292	321.69
298.523	319.69
298.753	333.69
298.984	325.69
299.214	328.69
299.445	325.69
299.675	332.69
299.905	336.69
300.136	319.69
300.366	345.69
300.597	321.69
300.827	327.69
301.057	350.69
301.288	340.69
301.518	341.69
301.748	328.69
301.979	351.69
302.209	349.69
302.439	339.69
302.669	364.69
302.9	334.69
303.13	333.69
303.36	348.69
303.59	356.69
303.82	350.69
304.051	360.69
304.281	343.69
304.511	353.69
304.741	364.69
304.971	343.69
305.201	343.69
305.431	361.69
305.661	362.69
305.891	330.69
306.121	354.69
306.352	348.69
306.582	351.69
306.812	355.69
307.042	354.69
307.272	353.69
307.502	339.69
307.731	348.69
307.961	363.69
308.191	354.69
308.421	363.69
308.651	357.69
308.881	364.69
309.111	362.69
309.341	367.69
309.571	370.69
309.8	383.69
310.03	387.69
310.26	375.69
310.49	380.69
310.72	381.69
310.949	389.69
311.179	415.69
311.409	389.69
311.639	401.69
311.868	393.69
312.098	384.69
312.328	385.69
312.557	418.69
312.787	411.69
313.017	415.69
313.246	406.69
313.476	397.69
313.706	377.69
313.935	400.69
314.165	399.69
314.394	410.69
314.624	422.69
314.853	398.69
315.083	407.69
315.312	422.69
315.542	379.69
315.771	387.69
316.001	383.69
316.23	390.69
316.46	381.69
316.689	394.69
316.919	393.69
317.148	412.69
317.377	407.69
317.607	395.69
317.836	428.69
318.065	387.69
318.295	399.69
318.524	386.69
318.753	394.69
318.983	417.69
319.212	394.69
319.441	397.69
319.67	414.69
319.9	411.69
320.129	418.69
320.358	418.69
320.587	419.69
320.816	420.69
321.046	417.69
321.275	425.69
321.504	414.69
321.733	411.69
321.962	406.69
322.191	427.69
322.42	442.69
322.649	462.69
322.878	430.69
323.108	445.69
323.337	465.69
323.566	472.69
323.795	507.69
324.024	539.69
324.253	654.69
324.482	883.69
324.71	1299.69
324.939	1825.69
325.168	1574.69
325.397	861.69
325.626	599.69
325.855	535.69
326.084	490.69
326.313	497.69
326.542	523.69
326.77	553.69
326.999	640.69
327.228	803.69
327.457	1186.69
327.686	1363.69
327.914	939.69
328.143	645.69
328.372	591.69
328.6	548.69
328.829	549.69
329.058	535.69
329.287	548.69
329.515	533.69
329.744	488.69
329.972	494.69
330.201	522.69
330.43	539.69
330.658	570.69
330.887	583.69
331.115	580.69
331.344	531.69
331.572	474.69
331.801	475.69
332.03	488.69
332.258	472.69
332.486	472.69
332.715	466.69
332.943	461.69
333.172	475.69
333.4	486.69
333.629	499.69
333.857	486.69
334.085	518.69
334.314	519.69
334.542	524.69
334.771	541.69
334.999	495.69
335.227	490.69
335.455	468.69
335.684	471.69
335.912	459.69
336.14	453.69
336.369	469.69
336.597	466.69
336.825	485.69
337.053	450.69
337.281	453.69
337.51	454.69
337.738	464.69
337.966	468.69
338.194	442.69
338.422	459.69
338.65	441.69
338.878	456.69
339.106	436.69
339.334	460.69
339.562	452.69
339.79	459.69
340.018	442.69
340.246	446.69
340.474	456.69
340.702	443.69
340.93	412.69
341.158	447.69
341.386	448.69
341.614	447.69
341.842	445.69
342.07	429.69
342.298	436.69
342.526	428.69
342.754	430.69
342.981	444.69
343.209	419.69
343.437	441.69
343.665	444.69
343.893	474.69
344.12	467.69
344.348	457.69
344.576	457.69
344.804	442.69
345.031	449.69
345.259	459.69
345.487	446.69
345.714	442.69
345.942	426.69
346.17	452.69
346.397	417.69
346.625	441.69
346.853	426.69
347.08	438.69
347.308	422.69
347.535	422.69
347.763	427.69
347.99	440.69
348.218	425.69
348.445	417.69
348.673	449.69
348.9	419.69
349.128	423.69
349.355	424.69
349.583	409.69
349.81	413.69
350.037	420.69
350.265	388.69
350.492	426.69
350.72	409.69
350.947	402.69
351.174	424.69
351.402	411.69
351.629	427.69
351.856	408.69
352.083	420.69
352.311	430.69
352.538	405.69
352.765	438.69
352.992	412.69
353.22	431.69
353.447	396.69
353.674	418.69
353.901	413.69
354.128	400.69
354.355	386.69
354.583	394.69
354.81	398.69
355.037	373.69
355.264	396.69
355.491	405.69
355.718	391.69
355.945	399.69
356.172	382.69
356.399	370.69
356.626	385.69
356.853	389.69
357.08	381.69
357.307	389.69
357.534	385.69
357.761	403.69
357.988	410.69
358.215	397.69
358.441	384.69
358.668	389.69
358.895	388.69
359.122	411.69
359.349	411.69
359.576	403.69
359.802	419.69
360.029	439.69
360.256	427.69
360.483	422.69
360.709	405.69
360.936	444.69
361.163	392.69
361.39	404.69
361.616	421.69
361.843	398.69
362.07	397.69
362.296	405.69
362.523	423.69
362.749	392.69
362.976	402.69
363.203	377.69
363.429	389.69
363.656	389.69
363.882	386.69
364.109	402.69
364.335	400.69
364.562	414.69
364.788	394.69
365.015	389.69
365.241	412.69
365.468	402.69
365.694	405.69
365.92	399.69
366.147	390.69
366.373	399.69
366.599	396.69
366.826	404.69
367.052	392.69
367.278	393.69
367.505	390.69
367.731	419.69
367.957	399.69
368.184	380.69
368.41	401.69
368.636	409.69
368.862	400.69
369.089	411.69
369.315	418.69
369.541	397.69
369.767	394.69
369.993	412.69
370.219	401.69
370.445	394.69
370.672	409.69
370.898	394.69
371.124	385.69
371.35	398.69
371.576	387.69
371.802	409.69
372.028	387.69
372.254	405.69
372.48	379.69
372.706	386.69
372.932	388.69
373.158	397.69
373.384	407.69
373.61	405.69
373.835	395.69
374.061	400.69
374.287	389.69
374.513	405.69
374.739	417.69
374.965	422.69
375.191	410.69
375.416	412.69
375.642	398.69
375.868	408.69
376.094	394.69
376.319	396.69
376.545	402.69
376.771	417.69
376.997	387.69
377.222	392.69
377.448	391.69
377.674	398.69
377.899	379.69
378.125	390.69
378.35	390.69
378.576	390.69
378.802	377.69
379.027	386.69
379.253	393.69
379.478	382.69
379.704	380.69
379.929	391.69
380.155	409.69
380.38	404.69
380.606	405.69
380.831	398.69
381.057	383.69
381.282	385.69
381.507	403.69
381.733	395.69
381.958	379.69
382.184	385.69
382.409	400.69
382.634	408.69
382.86	391.69
383.085	418.69
383.31	416.69
383.535	403.69
383.761	410.69
383.986	412.69
384.211	434.69
384.436	389.69
384.662	411.69
384.887	400.69
385.112	428.69
385.337	426.69
385.562	421.69
385.787	440.69
386.013	443.69
386.238	438.69
386.463	431.69
386.688	438.69
386.913	440.69
387.138	425.69
387.363	413.69
387.588	422.69
387.813	422.69
388.038	417.69
388.263	410.69
388.488	417.69
388.713	429.69
388.938	444.69
389.163	424.69
389.387	428.69
389.612	436.69
389.837	410.69
390.062	421.69
390.287	409.69
390.512	449.69
390.736	423.69
390.961	413.69
391.186	429.69
391.411	432.69
391.636	462.69
391.86	451.69
392.085	437.69
392.31	458.69
392.534	441.69
392.759	420.69
392.984	411.69
393.208	445.69
393.433	429.69
393.658	415.69
393.882	433.69
394.107	433.69
394.331	426.69
394.556	435.69
394.78	444.69
395.005	459.69
395.229	463.69
395.454	462.69
395.678	455.69
395.903	486.69
396.127	472.69
396.352	454.69
396.576	447.69
396.801	446.69
397.025	445.69
397.249	458.69
397.474	459.69
397.698	459.69
397.922	482.69
398.147	484.69
398.371	500.69
398.595	483.69
398.82	483.69
399.044	512.69
399.268	532.69
399.492	537.69
399.717	590.69
399.941	595.69
400.165	618.69
400.389	598.69
400.613	576.69
400.837	521.69
401.062	521.69
401.286	496.69
401.51	498.69
401.734	502.69
401.958	497.69
402.182	475.69
402.406	493.69
402.63	502.69
402.854	497.69
403.078	491.69
403.302	497.69
403.526	538.69
403.75	489.69
403.974	516.69
404.198	511.69
404.422	525.69
404.645	530.69
404.869	515.69
405.093	549.69
405.317	554.69
405.541	604.69
405.765	543.69
405.988	530.69
406.212	540.69
406.436	542.69
406.66	550.69
406.883	546.69
407.107	574.69
407.331	606.69
407.555	651.69
407.778	653.69
408.002	610.69
408.226	577.69
408.449	565.69
408.673	541.69
408.896	594.69
409.12	613.69
409.344	583.69
409.567	527.69
409.791	520.69
410.014	503.69
410.238	490.69
410.461	506.69
410.685	503.69
410.908	523.69
411.132	536.69
411.355	584.69
411.578	567.69
411.802	532.69
412.025	496.69
412.249	515.69
412.472	534.69
412.695	547.69
412.919	525.69
413.142	513.69
413.365	478.69
413.589	494.69
413.812	481.69
414.035	494.69
414.258	463.69
414.482	452.69
414.705	498.69
414.928	484.69
415.151	485.69
415.374	469.69
415.597	488.69
415.821	484.69
416.044	464.69
416.267	467.69
416.49	463.69
416.713	480.69
416.936	474.69
417.159	486.69
417.382	485.69
417.605	485.69
417.828	471.69
418.051	495.69
418.274	472.69
418.497	459.69
418.72	488.69
418.943	477.69
419.166	499.69
419.389	521.69
419.611	498.69
419.834	497.69
420.057	491.69
420.28	498.69
420.503	479.69
420.726	490.69
420.948	501.69
421.171	541.69
421.394	565.69
421.617	509.69
421.839	510.69
422.062	501.69
422.285	488.69
422.507	551.69
422.73	602.69
422.953	599.69
423.175	515.69
423.398	512.69
423.621	508.69
423.843	524.69
424.066	515.69
424.288	515.69
424.511	523.69
424.733	575.69
424.956	661.69
425.178	622.69
425.401	613.69
425.623	620.69
425.846	553.69
426.068	515.69
426.291	519.69
426.513	513.69
426.735	502.69
426.958	569.69
427.18	602.69
427.402	739.69
427.625	785.69
427.847	691.69
428.069	609.69
428.292	550.69
428.514	515.69
428.736	481.69
428.958	484.69
429.181	459.69
429.403	461.69
429.625	467.69
429.847	513.69
430.069	570.69
430.292	561.69
430.514	464.69
430.736	464.69
430.958	450.69
431.18	460.69
431.402	446.69
431.624	440.69
431.846	460.69
432.068	446.69
432.29	455.69
432.512	440.69
432.734	463.69
432.956	456.69
433.178	440.69
433.4	460.69
433.622	465.69
433.844	454.69
434.066	442.69
434.287	459.69
434.509	462.69
434.731	472.69
434.953	482.69
435.175	518.69
435.397	489.69
435.618	523.69
435.84	555.69
436.062	609.69
436.284	675.69
436.505	570.69
436.727	501.69
436.949	491.69
437.17	452.69
437.392	481.69
437.614	486.69
437.835	497.69
438.057	602.69
438.278	682.69
438.5	668.69
438.721	701.69
438.943	700.69
439.165	530.69
439.386	525.69
439.608	493.69
439.829	531.69
440.05	525.69
440.272	553.69
440.493	556.69
440.715	502.69
440.936	455.69
441.158	483.69
441.379	480.69
441.6	483.69
441.822	495.69
442.043	531.69
442.264	595.69
442.486	636.69
442.707	563.69
442.928	534.69
443.149	535.69
443.371	537.69
443.592	591.69
443.813	629.69
444.034	722.69
444.255	602.69
444.476	510.69
444.698	523.69
444.919	524.69
445.14	630.69
445.361	581.69
445.582	537.69
445.803	577.69
446.024	677.69
446.245	669.69
446.466	644.69
446.687	527.69
446.908	525.69
447.129	475.69
447.35	471.69
447.571	465.69
447.792	442.69
448.013	440.69
448.234	488.69
448.455	516.69
448.675	624.69
448.896	699.69
449.117	619.69
449.338	559.69
449.559	668.69
449.779	755.69
450	594.69
450.221	487.69
450.442	471.69
450.662	437.69
450.883	473.69
451.104	466.69
451.324	443.69
451.545	435.69
451.766	438.69
451.986	423.69
452.207	415.69
452.428	400.69
452.648	420.69
452.869	429.69
453.089	422.69
453.31	422.69
453.53	418.69
453.751	390.69
453.971	416.69
454.192	436.69
454.412	422.69
454.633	409.69
454.853	406.69
455.073	409.69
455.294	439.69
455.514	481.69
455.734	490.69
455.955	401.69
456.175	399.69
456.395	376.69
456.616	383.69
456.836	398.69
457.056	382.69
457.276	365.69
457.497	383.69
457.717	393.69
457.937	406.69
458.157	393.69
458.377	403.69
458.598	437.69
458.818	458.69
459.038	515.69
459.258	534.69
459.478	487.69
459.698	454.69
459.918	468.69
460.138	463.69
460.358	456.69
460.578	450.69
460.798	466.69
461.018	463.69
461.238	471.69
461.458	452.69
461.678	451.69
461.898	476.69
462.118	467.69
462.338	468.69
462.558	472.69
462.777	488.69
462.997	496.69
463.217	496.69
463.437	525.69
463.657	509.69
463.876	508.69
464.096	491.69
464.316	494.69
464.536	519.69
464.755	502.69
464.975	502.69
465.195	499.69
465.414	526.69
465.634	462.69
465.854	461.69
466.073	432.69
466.293	428.69
466.512	433.69
466.732	442.69
466.951	428.69
467.171	443.69
467.391	435.69
467.61	420.69
467.829	435.69
468.049	423.69
468.268	438.69
468.488	433.69
468.707	405.69
468.927	422.69
469.146	409.69
469.365	414.69
469.585	399.69
469.804	427.69
470.023	441.69
470.243	428.69
470.462	436.69
470.681	452.69
470.901	453.69
471.12	431.69
471.339	429.69
471.558	437.69
471.777	409.69
471.997	393.69
472.216	429.69
472.435	464.69
472.654	447.69
472.873	430.69
473.092	430.69
473.311	417.69
473.53	421.69
473.749	436.69
473.968	451.69
474.187	543.69
474.406	570.69
474.625	467.69
474.844	446.69
475.063	436.69
475.282	424.69
475.501	433.69
475.72	439.69
475.939	450.69
476.158	421.69
476.377	435.69
476.596	445.69
476.814	449.69
477.033	436.69
477.252	464.69
477.471	449.69
477.69	460.69
477.908	470.69
478.127	475.69
478.346	458.69
478.564	489.69
478.783	475.69
479.002	484.69
479.22	493.69
479.439	485.69
479.658	493.69
479.876	505.69
480.095	501.69
480.313	547.69
480.532	548.69
480.751	545.69
480.969	535.69
481.188	561.69
481.406	556.69
481.624	517.69
481.843	518.69
482.061	489.69
482.28	521.69
482.498	499.69
482.717	494.69
482.935	487.69
483.153	495.69
483.372	479.69
483.59	484.69
483.808	477.69
484.027	488.69
484.245	488.69
484.463	495.69
484.681	521.69
484.9	499.69
485.118	501.69
485.336	487.69
485.554	510.69
485.772	502.69
485.99	524.69
486.209	502.69
486.427	511.69
486.645	518.69
486.863	529.69
487.081	523.69
487.299	517.69
487.517	501.69
487.735	525.69
487.953	520.69
488.171	528.69
488.389	509.69
488.607	517.69
488.825	518.69
489.043	545.69
489.261	528.69
489.479	537.69
489.696	547.69
489.914	530.69
490.132	553.69
490.35	547.69
490.568	540.69
490.786	552.69
491.003	542.69
491.221	571.69
491.439	559.69
491.657	572.69
491.874	579.69
492.092	574.69
492.31	569.69
492.527	585.69
492.745	603.69
492.963	603.69
493.18	634.69
493.398	590.69
493.615	609.69
493.833	597.69
494.05	597.69
494.268	597.69
494.485	602.69
494.703	618.69
494.92	618.69
495.138	607.69
495.355	616.69
495.573	605.69
495.79	635.69
496.008	629.69
496.225	617.69
496.442	617.69
496.66	613.69
496.877	613.69
497.094	631.69
497.312	629.69
497.529	632.69
497.746	666.69
497.963	678.69
498.181	685.69
498.398	680.69
498.615	693.69
498.832	699.69
499.049	725.69
499.267	778.69
499.484	793.69
499.701	805.69
499.918	847.69
500.135	924.69
500.352	945.69
500.569	963.69
500.786	988.69
501.003	959.69
501.22	889.69
501.437	880.69
501.654	852.69
501.871	803.69
502.088	757.69
