Data from 1978.PennyLincolnUp.Lamp.En5.5.200Scan.071719.P1_HRD10591_16-13-36-864.txt Node
Date: Thu Jul 18 16:13:36 EDT 2019
User: cochatt
Spectrometer: HR+D1059
Trigger mode: 1
Integration Time (sec): 1.000000E-1
Scans to average: 1
Electric dark correction enabled: true
Nonlinearity correction enabled: false
Boxcar width: 0
XAxis mode: Wavelengths
Number of Pixels in Spectrum: 2048
>>>>>Begin Spectral Data<<<<<
223.165	-11.12
223.4	-11.12
223.635	-11.12
223.869	-25.12
224.104	-13.12
224.338	-19.12
224.573	-10.12
224.808	-14.12
225.042	-15.12
225.277	-2.12
225.511	9.88
225.746	-5.12
225.98	11.88
226.215	22.88
226.449	24.88
226.683	16.88
226.918	12.88
227.152	15.88
227.387	39.88
227.621	51.88
227.856	29.88
228.09	38.88
228.324	58.88
228.559	43.88
228.793	79.88
229.027	92.88
229.262	106.88
229.496	97.88
229.73	120.88
229.964	140.88
230.199	133.88
230.433	120.88
230.667	114.88
230.901	115.88
231.136	122.88
231.37	124.88
231.604	125.88
231.838	112.88
232.072	102.88
232.306	103.88
232.541	119.88
232.775	103.88
233.009	116.88
233.243	123.88
233.477	107.88
233.711	111.88
233.945	118.88
234.179	111.88
234.413	126.88
234.647	113.88
234.881	107.88
235.115	116.88
235.349	108.88
235.583	121.88
235.817	117.88
236.051	137.88
236.285	120.88
236.519	123.88
236.753	117.88
236.987	135.88
237.221	161.88
237.455	219.88
237.689	182.88
237.922	148.88
238.156	135.88
238.39	123.88
238.624	118.88
238.858	111.88
239.091	123.88
239.325	111.88
239.559	127.88
239.793	106.88
240.027	128.88
240.26	138.88
240.494	130.88
240.728	135.88
240.961	136.88
241.195	132.88
241.429	126.88
241.662	137.88
241.896	139.88
242.13	131.88
242.363	123.88
242.597	130.88
242.83	127.88
243.064	140.88
243.298	132.88
243.531	122.88
243.765	136.88
243.998	137.88
244.232	141.88
244.465	157.88
244.699	147.88
244.932	135.88
245.166	136.88
245.399	145.88
245.633	136.88
245.866	144.88
246.099	140.88
246.333	147.88
246.566	146.88
246.8	139.88
247.033	156.88
247.266	152.88
247.5	152.88
247.733	159.88
247.966	162.88
248.2	156.88
248.433	163.88
248.666	163.88
248.899	180.88
249.133	174.88
249.366	188.88
249.599	199.88
249.832	171.88
250.066	171.88
250.299	181.88
250.532	191.88
250.765	184.88
250.998	203.88
251.231	199.88
251.465	196.88
251.698	196.88
251.931	195.88
252.164	158.88
252.397	165.88
252.63	186.88
252.863	178.88
253.096	185.88
253.329	205.88
253.562	195.88
253.795	204.88
254.028	187.88
254.261	192.88
254.494	200.88
254.727	207.88
254.96	251.88
255.193	223.88
255.426	226.88
255.659	206.88
255.892	203.88
256.124	208.88
256.357	205.88
256.59	208.88
256.823	195.88
257.056	195.88
257.289	195.88
257.521	181.88
257.754	173.88
257.987	190.88
258.22	188.88
258.452	193.88
258.685	200.88
258.918	197.88
259.151	213.88
259.383	203.88
259.616	194.88
259.849	207.88
260.081	210.88
260.314	229.88
260.547	230.88
260.779	222.88
261.012	206.88
261.244	211.88
261.477	208.88
261.71	217.88
261.942	208.88
262.175	205.88
262.407	210.88
262.64	194.88
262.872	205.88
263.105	192.88
263.337	211.88
263.57	203.88
263.802	211.88
264.035	199.88
264.267	183.88
264.499	180.88
264.732	208.88
264.964	211.88
265.197	222.88
265.429	198.88
265.661	213.88
265.894	216.88
266.126	200.88
266.358	203.88
266.591	205.88
266.823	216.88
267.055	218.88
267.287	215.88
267.52	212.88
267.752	223.88
267.984	206.88
268.216	213.88
268.448	228.88
268.681	222.88
268.913	220.88
269.145	249.88
269.377	260.88
269.609	269.88
269.841	254.88
270.073	258.88
270.306	246.88
270.538	275.88
270.77	274.88
271.002	260.88
271.234	258.88
271.466	267.88
271.698	295.88
271.93	296.88
272.162	275.88
272.394	298.88
272.626	250.88
272.858	266.88
273.09	267.88
273.322	270.88
273.553	239.88
273.785	247.88
274.017	246.88
274.249	254.88
274.481	263.88
274.713	240.88
274.945	244.88
275.176	246.88
275.408	254.88
275.64	242.88
275.872	247.88
276.104	262.88
276.335	239.88
276.567	251.88
276.799	255.88
277.031	288.88
277.262	295.88
277.494	276.88
277.726	281.88
277.957	275.88
278.189	262.88
278.421	263.88
278.652	258.88
278.884	241.88
279.115	252.88
279.347	260.88
279.579	255.88
279.81	262.88
280.042	250.88
280.273	249.88
280.505	252.88
280.736	246.88
280.968	231.88
281.199	231.88
281.431	267.88
281.662	267.88
281.894	247.88
282.125	244.88
282.356	252.88
282.588	292.88
282.819	291.88
283.051	257.88
283.282	270.88
283.513	270.88
283.745	267.88
283.976	269.88
284.207	246.88
284.439	272.88
284.67	263.88
284.901	274.88
285.132	264.88
285.364	269.88
285.595	263.88
285.826	267.88
286.057	284.88
286.288	267.88
286.52	268.88
286.751	268.88
286.982	271.88
287.213	270.88
287.444	248.88
287.675	259.88
287.906	275.88
288.138	260.88
288.369	278.88
288.6	291.88
288.831	276.88
289.062	278.88
289.293	275.88
289.524	275.88
289.755	255.88
289.986	261.88
290.217	261.88
290.448	267.88
290.679	270.88
290.91	274.88
291.141	273.88
291.371	296.88
291.602	300.88
291.833	290.88
292.064	264.88
292.295	258.88
292.526	268.88
292.757	279.88
292.987	279.88
293.218	280.88
293.449	249.88
293.68	262.88
293.91	270.88
294.141	282.88
294.372	279.88
294.603	259.88
294.833	263.88
295.064	280.88
295.295	282.88
295.525	278.88
295.756	276.88
295.987	299.88
296.217	312.88
296.448	310.88
296.679	284.88
296.909	282.88
297.14	283.88
297.37	291.88
297.601	262.88
297.831	296.88
298.062	278.88
298.292	288.88
298.523	294.88
298.753	297.88
298.984	289.88
299.214	282.88
299.445	278.88
299.675	283.88
299.905	308.88
300.136	299.88
300.366	282.88
300.597	298.88
300.827	296.88
301.057	304.88
301.288	300.88
301.518	299.88
301.748	290.88
301.979	320.88
302.209	302.88
302.439	298.88
302.669	292.88
302.9	309.88
303.13	301.88
303.36	311.88
303.59	304.88
303.82	322.88
304.051	316.88
304.281	310.88
304.511	328.88
304.741	315.88
304.971	295.88
305.201	306.88
305.431	308.88
305.661	327.88
305.891	318.88
306.121	304.88
306.352	314.88
306.582	328.88
306.812	294.88
307.042	321.88
307.272	306.88
307.502	299.88
307.731	326.88
307.961	308.88
308.191	310.88
308.421	302.88
308.651	292.88
308.881	336.88
309.111	328.88
309.341	330.88
309.571	341.88
309.8	335.88
310.03	339.88
310.26	349.88
310.49	346.88
310.72	360.88
310.949	374.88
311.179	362.88
311.409	372.88
311.639	336.88
311.868	359.88
312.098	371.88
312.328	365.88
312.557	371.88
312.787	379.88
313.017	382.88
313.246	364.88
313.476	361.88
313.706	354.88
313.935	355.88
314.165	374.88
314.394	391.88
314.624	377.88
314.853	366.88
315.083	354.88
315.312	347.88
315.542	349.88
315.771	357.88
316.001	352.88
316.23	352.88
316.46	346.88
316.689	352.88
316.919	371.88
317.148	360.88
317.377	355.88
317.607	350.88
317.836	372.88
318.065	360.88
318.295	364.88
318.524	375.88
318.753	362.88
318.983	364.88
319.212	360.88
319.441	373.88
319.67	365.88
319.9	377.88
320.129	373.88
320.358	370.88
320.587	350.88
320.816	367.88
321.046	386.88
321.275	386.88
321.504	369.88
321.733	378.88
321.962	376.88
322.191	371.88
322.42	383.88
322.649	418.88
322.878	425.88
323.108	419.88
323.337	469.88
323.566	469.88
323.795	504.88
324.024	551.88
324.253	608.88
324.482	927.88
324.71	1407.88
324.939	2170.88
325.168	1893.88
325.397	934.88
325.626	636.88
325.855	508.88
326.084	491.88
326.313	487.88
326.542	488.88
326.77	523.88
326.999	604.88
327.228	822.88
327.457	1270.88
327.686	1611.88
327.914	1036.88
328.143	682.88
328.372	589.88
328.6	547.88
328.829	521.88
329.058	565.88
329.287	567.88
329.515	528.88
329.744	470.88
329.972	486.88
330.201	493.88
330.43	510.88
330.658	574.88
330.887	549.88
331.115	552.88
331.344	511.88
331.572	474.88
331.801	479.88
332.03	460.88
332.258	426.88
332.486	419.88
332.715	442.88
332.943	428.88
333.172	421.88
333.4	426.88
333.629	444.88
333.857	446.88
334.085	466.88
334.314	475.88
334.542	505.88
334.771	508.88
334.999	476.88
335.227	453.88
335.455	447.88
335.684	432.88
335.912	440.88
336.14	442.88
336.369	450.88
336.597	429.88
336.825	432.88
337.053	435.88
337.281	406.88
337.51	415.88
337.738	413.88
337.966	420.88
338.194	424.88
338.422	447.88
338.65	422.88
338.878	440.88
339.106	403.88
339.334	418.88
339.562	420.88
339.79	404.88
340.018	419.88
340.246	396.88
340.474	406.88
340.702	425.88
340.93	425.88
341.158	420.88
341.386	412.88
341.614	411.88
341.842	404.88
342.07	404.88
342.298	405.88
342.526	417.88
342.754	407.88
342.981	404.88
343.209	413.88
343.437	408.88
343.665	431.88
343.893	397.88
344.12	423.88
344.348	456.88
344.576	424.88
344.804	429.88
345.031	456.88
345.259	456.88
345.487	407.88
345.714	430.88
345.942	436.88
346.17	425.88
346.397	406.88
346.625	414.88
346.853	413.88
347.08	420.88
347.308	415.88
347.535	410.88
347.763	426.88
347.99	408.88
348.218	422.88
348.445	423.88
348.673	413.88
348.9	416.88
349.128	387.88
349.355	393.88
349.583	406.88
349.81	410.88
350.037	395.88
350.265	386.88
350.492	405.88
350.72	401.88
350.947	398.88
351.174	394.88
351.402	424.88
351.629	418.88
351.856	400.88
352.083	415.88
352.311	426.88
352.538	423.88
352.765	443.88
352.992	413.88
353.22	389.88
353.447	400.88
353.674	420.88
353.901	390.88
354.128	384.88
354.355	379.88
354.583	387.88
354.81	388.88
355.037	390.88
355.264	391.88
355.491	387.88
355.718	365.88
355.945	370.88
356.172	374.88
356.399	378.88
356.626	370.88
356.853	364.88
357.08	382.88
357.307	382.88
357.534	387.88
357.761	366.88
357.988	400.88
358.215	380.88
358.441	394.88
358.668	383.88
358.895	388.88
359.122	384.88
359.349	382.88
359.576	411.88
359.802	424.88
360.029	451.88
360.256	455.88
360.483	438.88
360.709	410.88
360.936	404.88
361.163	408.88
361.39	416.88
361.616	409.88
361.843	417.88
362.07	429.88
362.296	398.88
362.523	400.88
362.749	407.88
362.976	392.88
363.203	398.88
363.429	388.88
363.656	383.88
363.882	388.88
364.109	393.88
364.335	379.88
364.562	404.88
364.788	396.88
365.015	391.88
365.241	375.88
365.468	412.88
365.694	405.88
365.92	413.88
366.147	391.88
366.373	386.88
366.599	396.88
366.826	399.88
367.052	402.88
367.278	390.88
367.505	402.88
367.731	392.88
367.957	416.88
368.184	395.88
368.41	411.88
368.636	418.88
368.862	422.88
369.089	421.88
369.315	401.88
369.541	406.88
369.767	411.88
369.993	388.88
370.219	392.88
370.445	399.88
370.672	403.88
370.898	404.88
371.124	402.88
371.35	406.88
371.576	406.88
371.802	398.88
372.028	405.88
372.254	404.88
372.48	419.88
372.706	407.88
372.932	391.88
373.158	405.88
373.384	414.88
373.61	415.88
373.835	426.88
374.061	390.88
374.287	406.88
374.513	414.88
374.739	420.88
374.965	412.88
375.191	415.88
375.416	419.88
375.642	398.88
375.868	402.88
376.094	398.88
376.319	398.88
376.545	388.88
376.771	425.88
376.997	402.88
377.222	404.88
377.448	395.88
377.674	384.88
377.899	415.88
378.125	409.88
378.35	405.88
378.576	387.88
378.802	400.88
379.027	420.88
379.253	420.88
379.478	415.88
379.704	402.88
379.929	397.88
380.155	394.88
380.38	403.88
380.606	392.88
380.831	399.88
381.057	404.88
381.282	407.88
381.507	394.88
381.733	399.88
381.958	419.88
382.184	419.88
382.409	411.88
382.634	398.88
382.86	425.88
383.085	433.88
383.31	420.88
383.535	413.88
383.761	402.88
383.986	418.88
384.211	408.88
384.436	426.88
384.662	422.88
384.887	414.88
385.112	438.88
385.337	427.88
385.562	443.88
385.787	435.88
386.013	466.88
386.238	471.88
386.463	445.88
386.688	454.88
386.913	454.88
387.138	452.88
387.363	444.88
387.588	442.88
387.813	446.88
388.038	440.88
388.263	444.88
388.488	445.88
388.713	443.88
388.938	456.88
389.163	463.88
389.387	461.88
389.612	446.88
389.837	460.88
390.062	460.88
390.287	459.88
390.512	463.88
390.736	452.88
390.961	445.88
391.186	457.88
391.411	462.88
391.636	460.88
391.86	463.88
392.085	461.88
392.31	476.88
392.534	482.88
392.759	464.88
392.984	449.88
393.208	444.88
393.433	457.88
393.658	447.88
393.882	444.88
394.107	452.88
394.331	443.88
394.556	431.88
394.78	449.88
395.005	452.88
395.229	454.88
395.454	464.88
395.678	458.88
395.903	485.88
396.127	518.88
396.352	498.88
396.576	485.88
396.801	479.88
397.025	474.88
397.249	484.88
397.474	480.88
397.698	504.88
397.922	499.88
398.147	515.88
398.371	518.88
398.595	533.88
398.82	524.88
399.044	525.88
399.268	574.88
399.492	547.88
399.717	588.88
399.941	606.88
400.165	646.88
400.389	642.88
400.613	580.88
400.837	569.88
401.062	537.88
401.286	528.88
401.51	535.88
401.734	539.88
401.958	540.88
402.182	538.88
402.406	535.88
402.63	539.88
402.854	500.88
403.078	527.88
403.302	524.88
403.526	550.88
403.75	558.88
403.974	551.88
404.198	532.88
404.422	558.88
404.645	547.88
404.869	566.88
405.093	583.88
405.317	644.88
405.541	668.88
405.765	604.88
405.988	580.88
406.212	574.88
406.436	591.88
406.66	583.88
406.883	586.88
407.107	614.88
407.331	639.88
407.555	740.88
407.778	732.88
408.002	669.88
408.226	596.88
408.449	618.88
408.673	599.88
408.896	638.88
409.12	667.88
409.344	642.88
409.567	582.88
409.791	589.88
410.014	566.88
410.238	551.88
410.461	535.88
410.685	543.88
410.908	581.88
411.132	582.88
411.355	636.88
411.578	629.88
411.802	574.88
412.025	558.88
412.249	548.88
412.472	579.88
412.695	606.88
412.919	592.88
413.142	538.88
413.365	534.88
413.589	522.88
413.812	539.88
414.035	521.88
414.258	524.88
414.482	508.88
414.705	529.88
414.928	536.88
415.151	508.88
415.374	518.88
415.597	510.88
415.821	524.88
416.044	506.88
416.267	533.88
416.49	525.88
416.713	513.88
416.936	516.88
417.159	507.88
417.382	516.88
417.605	519.88
417.828	525.88
418.051	539.88
418.274	537.88
418.497	498.88
418.72	506.88
418.943	520.88
419.166	530.88
419.389	551.88
419.611	555.88
419.834	512.88
420.057	539.88
420.28	549.88
420.503	527.88
420.726	548.88
420.948	554.88
421.171	593.88
421.394	612.88
421.617	570.88
421.839	536.88
422.062	532.88
422.285	521.88
422.507	590.88
422.73	690.88
422.953	664.88
423.175	583.88
423.398	562.88
423.621	540.88
423.843	558.88
424.066	564.88
424.288	550.88
424.511	604.88
424.733	630.88
424.956	725.88
425.178	710.88
425.401	680.88
425.623	734.88
425.846	630.88
426.068	589.88
426.291	565.88
426.513	567.88
426.735	574.88
426.958	602.88
427.18	692.88
427.402	866.88
427.625	953.88
427.847	792.88
428.069	674.88
428.292	620.88
428.514	575.88
428.736	546.88
428.958	538.88
429.181	540.88
429.403	541.88
429.625	531.88
429.847	575.88
430.069	655.88
430.292	640.88
430.514	552.88
430.736	521.88
430.958	523.88
431.18	533.88
431.402	518.88
431.624	481.88
431.846	498.88
432.068	491.88
432.29	526.88
432.512	498.88
432.734	507.88
432.956	500.88
433.178	539.88
433.4	547.88
433.622	526.88
433.844	510.88
434.066	500.88
434.287	516.88
434.509	538.88
434.731	512.88
434.953	536.88
435.175	556.88
435.397	576.88
435.618	565.88
435.84	622.88
436.062	727.88
436.284	804.88
436.505	677.88
436.727	608.88
436.949	559.88
437.17	536.88
437.392	542.88
437.614	552.88
437.835	592.88
438.057	683.88
438.278	790.88
438.5	812.88
438.721	880.88
438.943	837.88
439.165	647.88
439.386	601.88
439.608	574.88
439.829	572.88
440.05	629.88
440.272	678.88
440.493	596.88
440.715	566.88
440.936	546.88
441.158	549.88
441.379	536.88
441.6	555.88
441.822	538.88
442.043	629.88
442.264	691.88
442.486	751.88
442.707	630.88
442.928	602.88
443.149	604.88
443.371	598.88
443.592	649.88
443.813	750.88
444.034	825.88
444.255	695.88
444.476	606.88
444.698	613.88
444.919	579.88
445.14	665.88
445.361	618.88
445.582	638.88
445.803	680.88
446.024	814.88
446.245	795.88
446.466	738.88
446.687	613.88
446.908	569.88
447.129	562.88
447.35	529.88
447.571	519.88
447.792	535.88
448.013	541.88
448.234	571.88
448.455	583.88
448.675	724.88
448.896	830.88
449.117	702.88
449.338	672.88
449.559	787.88
449.779	895.88
450	732.88
450.221	584.88
450.442	546.88
450.662	540.88
450.883	526.88
451.104	537.88
451.324	518.88
451.545	510.88
451.766	490.88
451.986	480.88
452.207	467.88
452.428	470.88
452.648	466.88
452.869	471.88
453.089	466.88
453.31	491.88
453.53	487.88
453.751	483.88
453.971	468.88
454.192	505.88
454.412	481.88
454.633	475.88
454.853	463.88
455.073	467.88
455.294	512.88
455.514	588.88
455.734	559.88
455.955	488.88
456.175	440.88
456.395	469.88
456.616	456.88
456.836	451.88
457.056	434.88
457.276	450.88
457.497	443.88
457.717	449.88
457.937	453.88
458.157	468.88
458.377	468.88
458.598	510.88
458.818	513.88
459.038	606.88
459.258	650.88
459.478	527.88
459.698	528.88
459.918	525.88
460.138	491.88
460.358	526.88
460.578	512.88
460.798	532.88
461.018	536.88
461.238	523.88
461.458	540.88
461.678	526.88
461.898	514.88
462.118	527.88
462.338	535.88
462.558	537.88
462.777	526.88
462.997	538.88
463.217	566.88
463.437	571.88
463.657	536.88
463.876	557.88
464.096	551.88
464.316	589.88
464.536	573.88
464.755	575.88
464.975	560.88
465.195	589.88
465.414	622.88
465.634	584.88
465.854	530.88
466.073	503.88
466.293	506.88
466.512	526.88
466.732	510.88
466.951	491.88
467.171	482.88
467.391	493.88
467.61	520.88
467.829	501.88
468.049	550.88
468.268	512.88
468.488	487.88
468.707	492.88
468.927	478.88
469.146	500.88
469.365	482.88
469.585	488.88
469.804	500.88
470.023	510.88
470.243	490.88
470.462	493.88
470.681	521.88
470.901	527.88
471.12	508.88
471.339	522.88
471.558	508.88
471.777	512.88
471.997	479.88
472.216	493.88
472.435	526.88
472.654	510.88
472.873	508.88
473.092	495.88
473.311	489.88
473.53	496.88
473.749	502.88
473.968	540.88
474.187	660.88
474.406	664.88
474.625	558.88
474.844	506.88
475.063	507.88
475.282	514.88
475.501	520.88
475.72	494.88
475.939	523.88
476.158	527.88
476.377	532.88
476.596	541.88
476.814	513.88
477.033	518.88
477.252	530.88
477.471	537.88
477.69	536.88
477.908	546.88
478.127	547.88
478.346	539.88
478.564	544.88
478.783	564.88
479.002	558.88
479.22	577.88
479.439	574.88
479.658	594.88
479.876	606.88
480.095	618.88
480.313	651.88
480.532	631.88
480.751	598.88
480.969	607.88
481.188	657.88
481.406	699.88
481.624	611.88
481.843	613.88
482.061	598.88
482.28	597.88
482.498	591.88
482.717	590.88
482.935	574.88
483.153	567.88
483.372	574.88
483.59	596.88
483.808	588.88
484.027	589.88
484.245	598.88
484.463	595.88
484.681	603.88
484.9	583.88
485.118	600.88
485.336	584.88
485.554	576.88
485.772	603.88
485.99	602.88
486.209	616.88
486.427	598.88
486.645	608.88
486.863	623.88
487.081	634.88
487.299	632.88
487.517	615.88
487.735	626.88
487.953	618.88
488.171	612.88
488.389	637.88
488.607	635.88
488.825	631.88
489.043	637.88
489.261	633.88
489.479	636.88
489.696	620.88
489.914	653.88
490.132	638.88
490.35	643.88
490.568	639.88
490.786	638.88
491.003	654.88
491.221	664.88
491.439	657.88
491.657	672.88
491.874	706.88
492.092	703.88
492.31	660.88
492.527	700.88
492.745	711.88
492.963	698.88
493.18	709.88
493.398	721.88
493.615	701.88
493.833	706.88
494.05	716.88
494.268	722.88
494.485	702.88
494.703	721.88
494.92	740.88
495.138	713.88
495.355	706.88
495.573	730.88
495.79	721.88
496.008	749.88
496.225	733.88
496.442	770.88
496.66	735.88
496.877	733.88
497.094	738.88
497.312	782.88
497.529	770.88
497.746	785.88
497.963	770.88
498.181	813.88
498.398	802.88
498.615	828.88
498.832	869.88
499.049	861.88
499.267	822.88
499.484	907.88
499.701	950.88
499.918	964.88
500.135	1021.88
500.352	1046.88
500.569	1048.88
500.786	1061.88
501.003	1054.88
501.22	1019.88
501.437	1001.88
501.654	966.88
501.871	955.88
