Data from 1978.PennyLincolnUp.Lamp.En5.5.200Scan.071719.P1_HRD10591_16-12-29-864.txt Node
Date: Thu Jul 18 16:12:29 EDT 2019
User: cochatt
Spectrometer: HR+D1059
Trigger mode: 1
Integration Time (sec): 1.000000E-1
Scans to average: 1
Electric dark correction enabled: true
Nonlinearity correction enabled: false
Boxcar width: 0
XAxis mode: Wavelengths
Number of Pixels in Spectrum: 2048
>>>>>Begin Spectral Data<<<<<
223.165	-23.62
223.4	-23.62
223.635	-23.62
223.869	-18.62
224.104	-7.62
224.338	-26.62
224.573	-16.62
224.808	-7.62
225.042	0.38
225.277	2.38
225.511	6.38
225.746	-1.62
225.98	15.38
226.215	21.38
226.449	12.38
226.683	-0.62
226.918	18.38
227.152	26.38
227.387	37.38
227.621	28.38
227.856	48.38
228.09	40.38
228.324	64.38
228.559	60.38
228.793	59.38
229.027	104.38
229.262	91.38
229.496	105.38
229.73	131.38
229.964	155.38
230.199	126.38
230.433	113.38
230.667	123.38
230.901	114.38
231.136	106.38
231.37	111.38
231.604	101.38
231.838	103.38
232.072	112.38
232.306	109.38
232.541	96.38
232.775	119.38
233.009	123.38
233.243	123.38
233.477	111.38
233.711	114.38
233.945	123.38
234.179	107.38
234.413	114.38
234.647	117.38
234.881	114.38
235.115	127.38
235.349	114.38
235.583	107.38
235.817	126.38
236.051	121.38
236.285	136.38
236.519	124.38
236.753	126.38
236.987	127.38
237.221	183.38
237.455	220.38
237.689	188.38
237.922	142.38
238.156	126.38
238.39	125.38
238.624	125.38
238.858	117.38
239.091	126.38
239.325	110.38
239.559	136.38
239.793	118.38
240.027	137.38
240.26	133.38
240.494	137.38
240.728	123.38
240.961	135.38
241.195	134.38
241.429	128.38
241.662	128.38
241.896	123.38
242.13	123.38
242.363	128.38
242.597	125.38
242.83	135.38
243.064	140.38
243.298	144.38
243.531	142.38
243.765	143.38
243.998	132.38
244.232	116.38
244.465	139.38
244.699	152.38
244.932	152.38
245.166	145.38
245.399	142.38
245.633	130.38
245.866	130.38
246.099	135.38
246.333	146.38
246.566	134.38
246.8	144.38
247.033	164.38
247.266	145.38
247.5	157.38
247.733	156.38
247.966	165.38
248.2	157.38
248.433	168.38
248.666	167.38
248.899	160.38
249.133	188.38
249.366	197.38
249.599	167.38
249.832	153.38
250.066	170.38
250.299	155.38
250.532	181.38
250.765	213.38
250.998	197.38
251.231	186.38
251.465	193.38
251.698	181.38
251.931	178.38
252.164	181.38
252.397	187.38
252.63	201.38
252.863	190.38
253.096	204.38
253.329	214.38
253.562	201.38
253.795	204.38
254.028	184.38
254.261	198.38
254.494	201.38
254.727	223.38
254.96	227.38
255.193	228.38
255.426	204.38
255.659	187.38
255.892	215.38
256.124	205.38
256.357	204.38
256.59	198.38
256.823	223.38
257.056	193.38
257.289	203.38
257.521	182.38
257.754	193.38
257.987	207.38
258.22	192.38
258.452	191.38
258.685	198.38
258.918	192.38
259.151	178.38
259.383	198.38
259.616	208.38
259.849	206.38
260.081	199.38
260.314	233.38
260.547	239.38
260.779	228.38
261.012	209.38
261.244	211.38
261.477	213.38
261.71	180.38
261.942	207.38
262.175	206.38
262.407	203.38
262.64	196.38
262.872	196.38
263.105	207.38
263.337	203.38
263.57	196.38
263.802	199.38
264.035	202.38
264.267	189.38
264.499	202.38
264.732	204.38
264.964	216.38
265.197	217.38
265.429	197.38
265.661	197.38
265.894	204.38
266.126	201.38
266.358	203.38
266.591	207.38
266.823	204.38
267.055	214.38
267.287	219.38
267.52	207.38
267.752	206.38
267.984	220.38
268.216	223.38
268.448	212.38
268.681	223.38
268.913	220.38
269.145	236.38
269.377	252.38
269.609	260.38
269.841	238.38
270.073	246.38
270.306	260.38
270.538	273.38
270.77	277.38
271.002	242.38
271.234	244.38
271.466	253.38
271.698	262.38
271.93	268.38
272.162	286.38
272.394	280.38
272.626	275.38
272.858	259.38
273.09	262.38
273.322	263.38
273.553	246.38
273.785	257.38
274.017	250.38
274.249	256.38
274.481	248.38
274.713	245.38
274.945	247.38
275.176	262.38
275.408	262.38
275.64	244.38
275.872	231.38
276.104	245.38
276.335	250.38
276.567	240.38
276.799	266.38
277.031	277.38
277.262	285.38
277.494	280.38
277.726	276.38
277.957	274.38
278.189	249.38
278.421	246.38
278.652	260.38
278.884	263.38
279.115	239.38
279.347	251.38
279.579	246.38
279.81	246.38
280.042	267.38
280.273	238.38
280.505	236.38
280.736	244.38
280.968	269.38
281.199	242.38
281.431	241.38
281.662	268.38
281.894	258.38
282.125	252.38
282.356	258.38
282.588	278.38
282.819	279.38
283.051	268.38
283.282	247.38
283.513	260.38
283.745	272.38
283.976	270.38
284.207	266.38
284.439	276.38
284.67	275.38
284.901	258.38
285.132	271.38
285.364	278.38
285.595	284.38
285.826	278.38
286.057	289.38
286.288	267.38
286.52	267.38
286.751	278.38
286.982	266.38
287.213	279.38
287.444	271.38
287.675	279.38
287.906	278.38
288.138	277.38
288.369	285.38
288.6	287.38
288.831	292.38
289.062	286.38
289.293	296.38
289.524	262.38
289.755	281.38
289.986	264.38
290.217	284.38
290.448	272.38
290.679	282.38
290.91	277.38
291.141	282.38
291.371	276.38
291.602	286.38
291.833	291.38
292.064	289.38
292.295	272.38
292.526	263.38
292.757	286.38
292.987	280.38
293.218	276.38
293.449	263.38
293.68	273.38
293.91	282.38
294.141	267.38
294.372	283.38
294.603	295.38
294.833	290.38
295.064	279.38
295.295	286.38
295.525	292.38
295.756	297.38
295.987	297.38
296.217	310.38
296.448	312.38
296.679	299.38
296.909	287.38
297.14	292.38
297.37	299.38
297.601	306.38
297.831	293.38
298.062	303.38
298.292	303.38
298.523	288.38
298.753	279.38
298.984	295.38
299.214	290.38
299.445	289.38
299.675	316.38
299.905	315.38
300.136	277.38
300.366	313.38
300.597	295.38
300.827	296.38
301.057	326.38
301.288	322.38
301.518	326.38
301.748	301.38
301.979	315.38
302.209	324.38
302.439	302.38
302.669	314.38
302.9	308.38
303.13	307.38
303.36	308.38
303.59	326.38
303.82	332.38
304.051	337.38
304.281	330.38
304.511	300.38
304.741	316.38
304.971	312.38
305.201	302.38
305.431	314.38
305.661	316.38
305.891	307.38
306.121	314.38
306.352	311.38
306.582	330.38
306.812	324.38
307.042	328.38
307.272	318.38
307.502	312.38
307.731	317.38
307.961	318.38
308.191	314.38
308.421	316.38
308.651	334.38
308.881	332.38
309.111	326.38
309.341	332.38
309.571	324.38
309.8	342.38
310.03	336.38
310.26	360.38
310.49	339.38
310.72	340.38
310.949	365.38
311.179	365.38
311.409	367.38
311.639	373.38
311.868	331.38
312.098	370.38
312.328	374.38
312.557	375.38
312.787	372.38
313.017	389.38
313.246	366.38
313.476	354.38
313.706	357.38
313.935	364.38
314.165	362.38
314.394	357.38
314.624	392.38
314.853	370.38
315.083	378.38
315.312	363.38
315.542	366.38
315.771	347.38
316.001	356.38
316.23	361.38
316.46	375.38
316.689	347.38
316.919	364.38
317.148	357.38
317.377	370.38
317.607	363.38
317.836	361.38
318.065	376.38
318.295	354.38
318.524	352.38
318.753	346.38
318.983	361.38
319.212	367.38
319.441	384.38
319.67	374.38
319.9	379.38
320.129	379.38
320.358	367.38
320.587	378.38
320.816	376.38
321.046	376.38
321.275	373.38
321.504	374.38
321.733	357.38
321.962	377.38
322.191	380.38
322.42	394.38
322.649	397.38
322.878	422.38
323.108	427.38
323.337	441.38
323.566	461.38
323.795	471.38
324.024	528.38
324.253	604.38
324.482	886.38
324.71	1380.38
324.939	2021.38
325.168	1782.38
325.397	904.38
325.626	584.38
325.855	516.38
326.084	480.38
326.313	459.38
326.542	448.38
326.77	520.38
326.999	599.38
327.228	800.38
327.457	1214.38
327.686	1510.38
327.914	1014.38
328.143	629.38
328.372	587.38
328.6	544.38
328.829	503.38
329.058	502.38
329.287	523.38
329.515	516.38
329.744	479.38
329.972	477.38
330.201	472.38
330.43	508.38
330.658	530.38
330.887	552.38
331.115	558.38
331.344	503.38
331.572	448.38
331.801	457.38
332.03	450.38
332.258	431.38
332.486	430.38
332.715	421.38
332.943	425.38
333.172	420.38
333.4	441.38
333.629	454.38
333.857	468.38
334.085	452.38
334.314	444.38
334.542	493.38
334.771	498.38
334.999	452.38
335.227	459.38
335.455	453.38
335.684	461.38
335.912	436.38
336.14	430.38
336.369	427.38
336.597	452.38
336.825	430.38
337.053	423.38
337.281	452.38
337.51	413.38
337.738	440.38
337.966	431.38
338.194	422.38
338.422	429.38
338.65	439.38
338.878	428.38
339.106	414.38
339.334	412.38
339.562	417.38
339.79	426.38
340.018	419.38
340.246	415.38
340.474	416.38
340.702	433.38
340.93	427.38
341.158	422.38
341.386	406.38
341.614	416.38
341.842	426.38
342.07	412.38
342.298	412.38
342.526	414.38
342.754	404.38
342.981	402.38
343.209	416.38
343.437	401.38
343.665	398.38
343.893	411.38
344.12	418.38
344.348	447.38
344.576	438.38
344.804	434.38
345.031	454.38
345.259	446.38
345.487	428.38
345.714	426.38
345.942	410.38
346.17	416.38
346.397	404.38
346.625	426.38
346.853	398.38
347.08	408.38
347.308	427.38
347.535	394.38
347.763	411.38
347.99	420.38
348.218	414.38
348.445	418.38
348.673	396.38
348.9	410.38
349.128	391.38
349.355	391.38
349.583	406.38
349.81	386.38
350.037	392.38
350.265	372.38
350.492	397.38
350.72	388.38
350.947	380.38
351.174	400.38
351.402	412.38
351.629	437.38
351.856	431.38
352.083	418.38
352.311	411.38
352.538	410.38
352.765	414.38
352.992	407.38
353.22	400.38
353.447	403.38
353.674	396.38
353.901	404.38
354.128	393.38
354.355	386.38
354.583	397.38
354.81	397.38
355.037	392.38
355.264	388.38
355.491	382.38
355.718	375.38
355.945	383.38
356.172	382.38
356.399	397.38
356.626	373.38
356.853	367.38
357.08	381.38
357.307	396.38
357.534	388.38
357.761	378.38
357.988	383.38
358.215	409.38
358.441	399.38
358.668	388.38
358.895	391.38
359.122	406.38
359.349	416.38
359.576	403.38
359.802	435.38
360.029	443.38
360.256	461.38
360.483	462.38
360.709	411.38
360.936	417.38
361.163	413.38
361.39	411.38
361.616	421.38
361.843	399.38
362.07	405.38
362.296	414.38
362.523	419.38
362.749	412.38
362.976	402.38
363.203	397.38
363.429	403.38
363.656	415.38
363.882	414.38
364.109	396.38
364.335	396.38
364.562	404.38
364.788	393.38
365.015	388.38
365.241	397.38
365.468	390.38
365.694	411.38
365.92	402.38
366.147	399.38
366.373	389.38
366.599	401.38
366.826	404.38
367.052	404.38
367.278	412.38
367.505	400.38
367.731	402.38
367.957	419.38
368.184	419.38
368.41	412.38
368.636	436.38
368.862	421.38
369.089	419.38
369.315	407.38
369.541	396.38
369.767	401.38
369.993	404.38
370.219	404.38
370.445	423.38
370.672	405.38
370.898	385.38
371.124	388.38
371.35	401.38
371.576	406.38
371.802	408.38
372.028	404.38
372.254	413.38
372.48	436.38
372.706	410.38
372.932	417.38
373.158	426.38
373.384	412.38
373.61	404.38
373.835	422.38
374.061	422.38
374.287	413.38
374.513	414.38
374.739	406.38
374.965	415.38
375.191	429.38
375.416	410.38
375.642	417.38
375.868	411.38
376.094	394.38
376.319	398.38
376.545	400.38
376.771	418.38
376.997	406.38
377.222	405.38
377.448	417.38
377.674	416.38
377.899	412.38
378.125	410.38
378.35	413.38
378.576	400.38
378.802	413.38
379.027	405.38
379.253	412.38
379.478	436.38
379.704	404.38
379.929	414.38
380.155	422.38
380.38	433.38
380.606	402.38
380.831	403.38
381.057	405.38
381.282	421.38
381.507	439.38
381.733	412.38
381.958	428.38
382.184	432.38
382.409	416.38
382.634	427.38
382.86	432.38
383.085	431.38
383.31	432.38
383.535	400.38
383.761	438.38
383.986	420.38
384.211	459.38
384.436	444.38
384.662	457.38
384.887	428.38
385.112	436.38
385.337	454.38
385.562	438.38
385.787	448.38
386.013	443.38
386.238	467.38
386.463	463.38
386.688	458.38
386.913	455.38
387.138	446.38
387.363	462.38
387.588	452.38
387.813	456.38
388.038	474.38
388.263	454.38
388.488	445.38
388.713	464.38
388.938	449.38
389.163	469.38
389.387	470.38
389.612	466.38
389.837	478.38
390.062	463.38
390.287	472.38
390.512	465.38
390.736	463.38
390.961	467.38
391.186	466.38
391.411	463.38
391.636	455.38
391.86	487.38
392.085	475.38
392.31	477.38
392.534	479.38
392.759	483.38
392.984	472.38
393.208	467.38
393.433	474.38
393.658	471.38
393.882	484.38
394.107	450.38
394.331	475.38
394.556	476.38
394.78	479.38
395.005	481.38
395.229	492.38
395.454	487.38
395.678	475.38
395.903	471.38
396.127	534.38
396.352	514.38
396.576	478.38
396.801	464.38
397.025	495.38
397.249	487.38
397.474	498.38
397.698	489.38
397.922	518.38
398.147	520.38
398.371	536.38
398.595	531.38
398.82	521.38
399.044	550.38
399.268	549.38
399.492	594.38
399.717	616.38
399.941	639.38
400.165	665.38
400.389	671.38
400.613	626.38
400.837	562.38
401.062	573.38
401.286	528.38
401.51	526.38
401.734	519.38
401.958	566.38
402.182	556.38
402.406	564.38
402.63	557.38
402.854	556.38
403.078	557.38
403.302	551.38
403.526	576.38
403.75	549.38
403.974	537.38
404.198	557.38
404.422	562.38
404.645	567.38
404.869	558.38
405.093	589.38
405.317	650.38
405.541	671.38
405.765	618.38
405.988	591.38
406.212	604.38
406.436	610.38
406.66	606.38
406.883	573.38
407.107	634.38
407.331	663.38
407.555	716.38
407.778	749.38
408.002	680.38
408.226	635.38
408.449	619.38
408.673	626.38
408.896	628.38
409.12	690.38
409.344	667.38
409.567	581.38
409.791	576.38
410.014	575.38
410.238	582.38
410.461	555.38
410.685	575.38
410.908	578.38
411.132	595.38
411.355	631.38
411.578	620.38
411.802	574.38
412.025	560.38
412.249	566.38
412.472	610.38
412.695	623.38
412.919	597.38
413.142	559.38
413.365	552.38
413.589	555.38
413.812	563.38
414.035	553.38
414.258	554.38
414.482	537.38
414.705	534.38
414.928	536.38
415.151	530.38
415.374	523.38
415.597	511.38
415.821	524.38
416.044	539.38
416.267	508.38
416.49	552.38
416.713	532.38
416.936	537.38
417.159	513.38
417.382	518.38
417.605	512.38
417.828	520.38
418.051	548.38
418.274	538.38
418.497	526.38
418.72	529.38
418.943	540.38
419.166	558.38
419.389	575.38
419.611	568.38
419.834	561.38
420.057	560.38
420.28	541.38
420.503	544.38
420.726	548.38
420.948	547.38
421.171	607.38
421.394	636.38
421.617	579.38
421.839	568.38
422.062	548.38
422.285	549.38
422.507	614.38
422.73	690.38
422.953	678.38
423.175	589.38
423.398	586.38
423.621	574.38
423.843	564.38
424.066	561.38
424.288	591.38
424.511	591.38
424.733	659.38
424.956	743.38
425.178	697.38
425.401	679.38
425.623	735.38
425.846	638.38
426.068	594.38
426.291	596.38
426.513	606.38
426.735	584.38
426.958	603.38
427.18	717.38
427.402	866.38
427.625	948.38
427.847	784.38
428.069	678.38
428.292	622.38
428.514	562.38
428.736	550.38
428.958	544.38
429.181	522.38
429.403	557.38
429.625	558.38
429.847	567.38
430.069	642.38
430.292	621.38
430.514	580.38
430.736	532.38
430.958	526.38
431.18	510.38
431.402	528.38
431.624	511.38
431.846	510.38
432.068	524.38
432.29	519.38
432.512	521.38
432.734	541.38
432.956	509.38
433.178	509.38
433.4	537.38
433.622	536.38
433.844	523.38
434.066	529.38
434.287	540.38
434.509	514.38
434.731	540.38
434.953	530.38
435.175	539.38
435.397	565.38
435.618	574.38
435.84	623.38
436.062	697.38
436.284	794.38
436.505	656.38
436.727	600.38
436.949	541.38
437.17	540.38
437.392	553.38
437.614	541.38
437.835	570.38
438.057	668.38
438.278	797.38
438.5	784.38
438.721	859.38
438.943	851.38
439.165	662.38
439.386	600.38
439.608	577.38
439.829	593.38
440.05	587.38
440.272	669.38
440.493	618.38
440.715	581.38
440.936	568.38
441.158	541.38
441.379	539.38
441.6	577.38
441.822	558.38
442.043	599.38
442.264	694.38
442.486	749.38
442.707	625.38
442.928	580.38
443.149	592.38
443.371	599.38
443.592	671.38
443.813	772.38
444.034	842.38
444.255	673.38
444.476	633.38
444.698	580.38
444.919	594.38
445.14	696.38
445.361	637.38
445.582	614.38
445.803	687.38
446.024	787.38
446.245	823.38
446.466	719.38
446.687	609.38
446.908	592.38
447.129	559.38
447.35	565.38
447.571	557.38
447.792	533.38
448.013	529.38
448.234	548.38
448.455	609.38
448.675	704.38
448.896	846.38
449.117	724.38
449.338	671.38
449.559	760.38
449.779	902.38
450	683.38
450.221	570.38
450.442	536.38
450.662	518.38
450.883	552.38
451.104	550.38
451.324	522.38
451.545	526.38
451.766	512.38
451.986	464.38
452.207	492.38
452.428	484.38
452.648	478.38
452.869	483.38
453.089	502.38
453.31	482.38
453.53	480.38
453.751	483.38
453.971	486.38
454.192	485.38
454.412	483.38
454.633	467.38
454.853	463.38
455.073	482.38
455.294	501.38
455.514	570.38
455.734	578.38
455.955	470.38
456.175	458.38
456.395	459.38
456.616	467.38
456.836	450.38
457.056	461.38
457.276	446.38
457.497	463.38
457.717	469.38
457.937	459.38
458.157	482.38
458.377	481.38
458.598	478.38
458.818	554.38
459.038	620.38
459.258	653.38
459.478	559.38
459.698	512.38
459.918	515.38
460.138	521.38
460.358	539.38
460.578	543.38
460.798	526.38
461.018	559.38
461.238	537.38
461.458	549.38
461.678	556.38
461.898	546.38
462.118	562.38
462.338	586.38
462.558	553.38
462.777	559.38
462.997	577.38
463.217	603.38
463.437	586.38
463.657	602.38
463.876	591.38
464.096	576.38
464.316	574.38
464.536	564.38
464.755	582.38
464.975	592.38
465.195	630.38
465.414	660.38
465.634	595.38
465.854	546.38
466.073	529.38
466.293	534.38
466.512	527.38
466.732	533.38
466.951	498.38
467.171	493.38
467.391	496.38
467.61	519.38
467.829	540.38
468.049	513.38
468.268	508.38
468.488	484.38
468.707	474.38
468.927	511.38
469.146	485.38
469.365	505.38
469.585	490.38
469.804	512.38
470.023	512.38
470.243	523.38
470.462	499.38
470.681	539.38
470.901	525.38
471.12	514.38
471.339	511.38
471.558	512.38
471.777	498.38
471.997	510.38
472.216	514.38
472.435	553.38
472.654	536.38
472.873	491.38
473.092	504.38
473.311	510.38
473.53	503.38
473.749	527.38
473.968	558.38
474.187	619.38
474.406	680.38
474.625	532.38
474.844	538.38
475.063	498.38
475.282	498.38
475.501	501.38
475.72	529.38
475.939	550.38
476.158	535.38
476.377	529.38
476.596	532.38
476.814	535.38
477.033	538.38
477.252	526.38
477.471	553.38
477.69	528.38
477.908	533.38
478.127	572.38
478.346	557.38
478.564	585.38
478.783	565.38
479.002	599.38
479.22	616.38
479.439	595.38
479.658	607.38
479.876	611.38
480.095	615.38
480.313	640.38
480.532	642.38
480.751	635.38
480.969	640.38
481.188	662.38
481.406	696.38
481.624	656.38
481.843	627.38
482.061	609.38
482.28	603.38
482.498	600.38
482.717	580.38
482.935	602.38
483.153	580.38
483.372	578.38
483.59	586.38
483.808	599.38
484.027	611.38
484.245	591.38
484.463	615.38
484.681	623.38
484.9	629.38
485.118	638.38
485.336	616.38
485.554	608.38
485.772	611.38
485.99	614.38
486.209	606.38
486.427	633.38
486.645	620.38
486.863	633.38
487.081	643.38
487.299	633.38
487.517	607.38
487.735	605.38
487.953	618.38
488.171	619.38
488.389	635.38
488.607	620.38
488.825	625.38
489.043	641.38
489.261	631.38
489.479	621.38
489.696	656.38
489.914	655.38
490.132	647.38
490.35	642.38
490.568	661.38
490.786	670.38
491.003	664.38
491.221	677.38
491.439	672.38
491.657	702.38
491.874	709.38
492.092	694.38
492.31	702.38
492.527	714.38
492.745	691.38
492.963	702.38
493.18	712.38
493.398	717.38
493.615	704.38
493.833	745.38
494.05	703.38
494.268	744.38
494.485	719.38
494.703	716.38
494.92	742.38
495.138	714.38
495.355	723.38
495.573	744.38
495.79	750.38
496.008	730.38
496.225	745.38
496.442	718.38
496.66	736.38
496.877	746.38
497.094	750.38
497.312	779.38
497.529	802.38
497.746	790.38
497.963	822.38
498.181	810.38
498.398	834.38
498.615	843.38
498.832	850.38
499.049	882.38
499.267	903.38
499.484	925.38
499.701	961.38
499.918	1000.38
500.135	1008.38
500.352	1069.38
500.569	1109.38
500.786	1121.38
501.003	1102.38
501.22	1086.38
501.437	1060.38
501.654	1009.38
501.871	990.38
