Data from 1978.PennyLincolnUp.Lamp.En5.5.200Scan.071719.P1_HRD10591_16-14-18-863.txt Node
Date: Thu Jul 18 16:14:18 EDT 2019
User: cochatt
Spectrometer: HR+D1059
Trigger mode: 1
Integration Time (sec): 1.000000E-1
Scans to average: 1
Electric dark correction enabled: true
Nonlinearity correction enabled: false
Boxcar width: 0
XAxis mode: Wavelengths
Number of Pixels in Spectrum: 2048
>>>>>Begin Spectral Data<<<<<
223.165	-25.94
223.4	-25.94
223.635	-25.94
223.869	-11.94
224.104	-24.94
224.338	-4.94
224.573	-16.94
224.808	-5.94
225.042	-15.94
225.277	6.06
225.511	-12.94
225.746	19.06
225.98	12.06
226.215	10.06
226.449	9.06
226.683	8.06
226.918	32.06
227.152	23.06
227.387	28.06
227.621	42.06
227.856	46.06
228.09	48.06
228.324	46.06
228.559	58.06
228.793	71.06
229.027	103.06
229.262	105.06
229.496	121.06
229.73	147.06
229.964	169.06
230.199	145.06
230.433	115.06
230.667	114.06
230.901	112.06
231.136	113.06
231.37	103.06
231.604	107.06
231.838	112.06
232.072	106.06
232.306	123.06
232.541	112.06
232.775	106.06
233.009	111.06
233.243	116.06
233.477	121.06
233.711	121.06
233.945	113.06
234.179	118.06
234.413	120.06
234.647	120.06
234.881	119.06
235.115	113.06
235.349	128.06
235.583	141.06
235.817	123.06
236.051	129.06
236.285	124.06
236.519	123.06
236.753	128.06
236.987	157.06
237.221	202.06
237.455	244.06
237.689	204.06
237.922	148.06
238.156	138.06
238.39	130.06
238.624	136.06
238.858	126.06
239.091	139.06
239.325	123.06
239.559	132.06
239.793	123.06
240.027	147.06
240.26	141.06
240.494	164.06
240.728	127.06
240.961	134.06
241.195	128.06
241.429	146.06
241.662	149.06
241.896	135.06
242.13	131.06
242.363	138.06
242.597	142.06
242.83	148.06
243.064	135.06
243.298	139.06
243.531	141.06
243.765	137.06
243.998	145.06
244.232	143.06
244.465	155.06
244.699	129.06
244.932	155.06
245.166	144.06
245.399	146.06
245.633	149.06
245.866	141.06
246.099	138.06
246.333	145.06
246.566	152.06
246.8	153.06
247.033	152.06
247.266	157.06
247.5	163.06
247.733	158.06
247.966	171.06
248.2	167.06
248.433	172.06
248.666	198.06
248.899	174.06
249.133	213.06
249.366	209.06
249.599	208.06
249.832	200.06
250.066	174.06
250.299	186.06
250.532	174.06
250.765	200.06
250.998	214.06
251.231	215.06
251.465	200.06
251.698	192.06
251.931	193.06
252.164	183.06
252.397	201.06
252.63	195.06
252.863	213.06
253.096	209.06
253.329	232.06
253.562	212.06
253.795	209.06
254.028	213.06
254.261	219.06
254.494	212.06
254.727	248.06
254.96	251.06
255.193	269.06
255.426	236.06
255.659	219.06
255.892	213.06
256.124	223.06
256.357	240.06
256.59	208.06
256.823	184.06
257.056	195.06
257.289	207.06
257.521	211.06
257.754	203.06
257.987	208.06
258.22	191.06
258.452	199.06
258.685	203.06
258.918	219.06
259.151	208.06
259.383	223.06
259.616	211.06
259.849	221.06
260.081	238.06
260.314	250.06
260.547	238.06
260.779	247.06
261.012	225.06
261.244	217.06
261.477	227.06
261.71	227.06
261.942	221.06
262.175	228.06
262.407	243.06
262.64	204.06
262.872	220.06
263.105	204.06
263.337	239.06
263.57	205.06
263.802	219.06
264.035	197.06
264.267	216.06
264.499	224.06
264.732	213.06
264.964	196.06
265.197	219.06
265.429	195.06
265.661	206.06
265.894	215.06
266.126	197.06
266.358	199.06
266.591	230.06
266.823	225.06
267.055	223.06
267.287	235.06
267.52	223.06
267.752	224.06
267.984	231.06
268.216	224.06
268.448	233.06
268.681	234.06
268.913	246.06
269.145	249.06
269.377	284.06
269.609	264.06
269.841	270.06
270.073	278.06
270.306	273.06
270.538	305.06
270.77	289.06
271.002	288.06
271.234	303.06
271.466	298.06
271.698	307.06
271.93	315.06
272.162	319.06
272.394	301.06
272.626	307.06
272.858	300.06
273.09	269.06
273.322	276.06
273.553	250.06
273.785	252.06
274.017	248.06
274.249	262.06
274.481	271.06
274.713	252.06
274.945	273.06
275.176	259.06
275.408	259.06
275.64	278.06
275.872	270.06
276.104	268.06
276.335	271.06
276.567	281.06
276.799	282.06
277.031	304.06
277.262	309.06
277.494	299.06
277.726	293.06
277.957	295.06
278.189	282.06
278.421	254.06
278.652	268.06
278.884	295.06
279.115	255.06
279.347	283.06
279.579	256.06
279.81	265.06
280.042	278.06
280.273	278.06
280.505	283.06
280.736	273.06
280.968	269.06
281.199	284.06
281.431	265.06
281.662	280.06
281.894	287.06
282.125	271.06
282.356	297.06
282.588	307.06
282.819	320.06
283.051	281.06
283.282	271.06
283.513	282.06
283.745	268.06
283.976	294.06
284.207	285.06
284.439	295.06
284.67	265.06
284.901	307.06
285.132	289.06
285.364	272.06
285.595	280.06
285.826	274.06
286.057	268.06
286.288	278.06
286.52	283.06
286.751	290.06
286.982	302.06
287.213	285.06
287.444	303.06
287.675	284.06
287.906	281.06
288.138	292.06
288.369	293.06
288.6	300.06
288.831	296.06
289.062	276.06
289.293	311.06
289.524	284.06
289.755	293.06
289.986	294.06
290.217	289.06
290.448	287.06
290.679	289.06
290.91	307.06
291.141	291.06
291.371	285.06
291.602	281.06
291.833	284.06
292.064	293.06
292.295	305.06
292.526	286.06
292.757	311.06
292.987	307.06
293.218	293.06
293.449	296.06
293.68	303.06
293.91	298.06
294.141	297.06
294.372	298.06
294.603	303.06
294.833	315.06
295.064	316.06
295.295	325.06
295.525	309.06
295.756	303.06
295.987	318.06
296.217	328.06
296.448	348.06
296.679	333.06
296.909	324.06
297.14	313.06
297.37	316.06
297.601	315.06
297.831	301.06
298.062	307.06
298.292	307.06
298.523	325.06
298.753	305.06
298.984	300.06
299.214	314.06
299.445	305.06
299.675	303.06
299.905	344.06
300.136	338.06
300.366	320.06
300.597	317.06
300.827	304.06
301.057	328.06
301.288	324.06
301.518	347.06
301.748	331.06
301.979	320.06
302.209	323.06
302.439	322.06
302.669	338.06
302.9	321.06
303.13	347.06
303.36	357.06
303.59	347.06
303.82	345.06
304.051	341.06
304.281	344.06
304.511	334.06
304.741	328.06
304.971	341.06
305.201	334.06
305.431	335.06
305.661	335.06
305.891	339.06
306.121	339.06
306.352	325.06
306.582	351.06
306.812	336.06
307.042	325.06
307.272	344.06
307.502	345.06
307.731	341.06
307.961	332.06
308.191	332.06
308.421	319.06
308.651	337.06
308.881	335.06
309.111	365.06
309.341	343.06
309.571	356.06
309.8	345.06
310.03	369.06
310.26	388.06
310.49	384.06
310.72	377.06
310.949	399.06
311.179	407.06
311.409	408.06
311.639	396.06
311.868	377.06
312.098	395.06
312.328	413.06
312.557	393.06
312.787	407.06
313.017	412.06
313.246	399.06
313.476	376.06
313.706	374.06
313.935	367.06
314.165	397.06
314.394	409.06
314.624	399.06
314.853	397.06
315.083	379.06
315.312	396.06
315.542	389.06
315.771	389.06
316.001	377.06
316.23	369.06
316.46	379.06
316.689	387.06
316.919	402.06
317.148	391.06
317.377	400.06
317.607	381.06
317.836	388.06
318.065	401.06
318.295	388.06
318.524	376.06
318.753	368.06
318.983	381.06
319.212	389.06
319.441	396.06
319.67	399.06
319.9	371.06
320.129	415.06
320.358	392.06
320.587	380.06
320.816	405.06
321.046	411.06
321.275	386.06
321.504	415.06
321.733	414.06
321.962	402.06
322.191	419.06
322.42	432.06
322.649	457.06
322.878	473.06
323.108	461.06
323.337	492.06
323.566	508.06
323.795	555.06
324.024	604.06
324.253	718.06
324.482	1000.06
324.71	1661.06
324.939	2521.06
325.168	2160.06
325.397	1042.06
325.626	684.06
325.855	568.06
326.084	529.06
326.313	521.06
326.542	527.06
326.77	580.06
326.999	655.06
327.228	940.06
327.457	1513.06
327.686	1910.06
327.914	1203.06
328.143	733.06
328.372	662.06
328.6	606.06
328.829	600.06
329.058	590.06
329.287	597.06
329.515	584.06
329.744	506.06
329.972	521.06
330.201	533.06
330.43	568.06
330.658	590.06
330.887	630.06
331.115	633.06
331.344	539.06
331.572	531.06
331.801	516.06
332.03	514.06
332.258	483.06
332.486	495.06
332.715	465.06
332.943	478.06
333.172	476.06
333.4	482.06
333.629	466.06
333.857	485.06
334.085	499.06
334.314	516.06
334.542	547.06
334.771	559.06
334.999	511.06
335.227	499.06
335.455	490.06
335.684	489.06
335.912	463.06
336.14	460.06
336.369	484.06
336.597	495.06
336.825	479.06
337.053	461.06
337.281	481.06
337.51	446.06
337.738	450.06
337.966	462.06
338.194	484.06
338.422	451.06
338.65	462.06
338.878	445.06
339.106	438.06
339.334	458.06
339.562	443.06
339.79	453.06
340.018	446.06
340.246	458.06
340.474	445.06
340.702	460.06
340.93	447.06
341.158	425.06
341.386	450.06
341.614	469.06
341.842	459.06
342.07	439.06
342.298	446.06
342.526	438.06
342.754	440.06
342.981	446.06
343.209	432.06
343.437	452.06
343.665	461.06
343.893	430.06
344.12	453.06
344.348	468.06
344.576	462.06
344.804	457.06
345.031	481.06
345.259	471.06
345.487	459.06
345.714	479.06
345.942	439.06
346.17	447.06
346.397	444.06
346.625	447.06
346.853	433.06
347.08	429.06
347.308	443.06
347.535	470.06
347.763	457.06
347.99	421.06
348.218	441.06
348.445	445.06
348.673	435.06
348.9	453.06
349.128	423.06
349.355	426.06
349.583	427.06
349.81	447.06
350.037	419.06
350.265	414.06
350.492	423.06
350.72	402.06
350.947	429.06
351.174	459.06
351.402	440.06
351.629	439.06
351.856	438.06
352.083	454.06
352.311	451.06
352.538	458.06
352.765	459.06
352.992	461.06
353.22	428.06
353.447	456.06
353.674	445.06
353.901	428.06
354.128	419.06
354.355	426.06
354.583	421.06
354.81	424.06
355.037	422.06
355.264	421.06
355.491	401.06
355.718	405.06
355.945	406.06
356.172	407.06
356.399	420.06
356.626	429.06
356.853	418.06
357.08	405.06
357.307	438.06
357.534	395.06
357.761	407.06
357.988	427.06
358.215	421.06
358.441	425.06
358.668	423.06
358.895	418.06
359.122	400.06
359.349	445.06
359.576	439.06
359.802	455.06
360.029	474.06
360.256	511.06
360.483	462.06
360.709	457.06
360.936	456.06
361.163	453.06
361.39	461.06
361.616	445.06
361.843	448.06
362.07	458.06
362.296	456.06
362.523	435.06
362.749	437.06
362.976	445.06
363.203	433.06
363.429	411.06
363.656	419.06
363.882	405.06
364.109	428.06
364.335	429.06
364.562	437.06
364.788	415.06
365.015	438.06
365.241	415.06
365.468	449.06
365.694	432.06
365.92	431.06
366.147	415.06
366.373	423.06
366.599	408.06
366.826	423.06
367.052	416.06
367.278	439.06
367.505	427.06
367.731	429.06
367.957	442.06
368.184	438.06
368.41	447.06
368.636	441.06
368.862	433.06
369.089	452.06
369.315	425.06
369.541	460.06
369.767	451.06
369.993	418.06
370.219	441.06
370.445	423.06
370.672	445.06
370.898	447.06
371.124	421.06
371.35	440.06
371.576	424.06
371.802	447.06
372.028	455.06
372.254	453.06
372.48	428.06
372.706	427.06
372.932	437.06
373.158	439.06
373.384	436.06
373.61	435.06
373.835	439.06
374.061	422.06
374.287	439.06
374.513	443.06
374.739	430.06
374.965	459.06
375.191	441.06
375.416	446.06
375.642	437.06
375.868	443.06
376.094	442.06
376.319	445.06
376.545	453.06
376.771	440.06
376.997	433.06
377.222	420.06
377.448	454.06
377.674	440.06
377.899	424.06
378.125	415.06
378.35	424.06
378.576	432.06
378.802	446.06
379.027	428.06
379.253	464.06
379.478	442.06
379.704	439.06
379.929	440.06
380.155	421.06
380.38	438.06
380.606	427.06
380.831	429.06
381.057	440.06
381.282	439.06
381.507	424.06
381.733	424.06
381.958	427.06
382.184	446.06
382.409	459.06
382.634	463.06
382.86	442.06
383.085	445.06
383.31	446.06
383.535	467.06
383.761	451.06
383.986	463.06
384.211	450.06
384.436	445.06
384.662	465.06
384.887	461.06
385.112	457.06
385.337	468.06
385.562	467.06
385.787	480.06
386.013	488.06
386.238	493.06
386.463	474.06
386.688	471.06
386.913	453.06
387.138	486.06
387.363	489.06
387.588	472.06
387.813	461.06
388.038	485.06
388.263	477.06
388.488	501.06
388.713	488.06
388.938	501.06
389.163	507.06
389.387	502.06
389.612	491.06
389.837	478.06
390.062	486.06
390.287	479.06
390.512	479.06
390.736	489.06
390.961	491.06
391.186	480.06
391.411	483.06
391.636	498.06
391.86	499.06
392.085	508.06
392.31	513.06
392.534	510.06
392.759	505.06
392.984	502.06
393.208	474.06
393.433	508.06
393.658	463.06
393.882	484.06
394.107	500.06
394.331	510.06
394.556	484.06
394.78	491.06
395.005	490.06
395.229	494.06
395.454	528.06
395.678	495.06
395.903	518.06
396.127	537.06
396.352	555.06
396.576	534.06
396.801	523.06
397.025	494.06
397.249	526.06
397.474	540.06
397.698	522.06
397.922	575.06
398.147	560.06
398.371	569.06
398.595	575.06
398.82	561.06
399.044	591.06
399.268	594.06
399.492	629.06
399.717	643.06
399.941	680.06
400.165	695.06
400.389	688.06
400.613	641.06
400.837	607.06
401.062	599.06
401.286	593.06
401.51	569.06
401.734	572.06
401.958	572.06
402.182	565.06
402.406	579.06
402.63	599.06
402.854	600.06
403.078	582.06
403.302	577.06
403.526	592.06
403.75	603.06
403.974	588.06
404.198	567.06
404.422	577.06
404.645	609.06
404.869	619.06
405.093	650.06
405.317	677.06
405.541	738.06
405.765	659.06
405.988	624.06
406.212	639.06
406.436	675.06
406.66	660.06
406.883	628.06
407.107	677.06
407.331	714.06
407.555	791.06
407.778	802.06
408.002	713.06
408.226	680.06
408.449	676.06
408.673	640.06
408.896	672.06
409.12	750.06
409.344	691.06
409.567	615.06
409.791	627.06
410.014	600.06
410.238	574.06
410.461	613.06
410.685	607.06
410.908	611.06
411.132	659.06
411.355	695.06
411.578	664.06
411.802	603.06
412.025	567.06
412.249	607.06
412.472	635.06
412.695	683.06
412.919	658.06
413.142	625.06
413.365	576.06
413.589	586.06
413.812	566.06
414.035	569.06
414.258	566.06
414.482	572.06
414.705	559.06
414.928	551.06
415.151	567.06
415.374	558.06
415.597	573.06
415.821	563.06
416.044	573.06
416.267	560.06
416.49	584.06
416.713	545.06
416.936	536.06
417.159	568.06
417.382	562.06
417.605	545.06
417.828	574.06
418.051	592.06
418.274	597.06
418.497	569.06
418.72	588.06
418.943	550.06
419.166	595.06
419.389	605.06
419.611	591.06
419.834	584.06
420.057	576.06
420.28	586.06
420.503	581.06
420.726	591.06
420.948	576.06
421.171	643.06
421.394	675.06
421.617	608.06
421.839	571.06
422.062	596.06
422.285	579.06
422.507	669.06
422.73	761.06
422.953	730.06
423.175	628.06
423.398	617.06
423.621	607.06
423.843	638.06
424.066	617.06
424.288	611.06
424.511	662.06
424.733	696.06
424.956	819.06
425.178	769.06
425.401	763.06
425.623	794.06
425.846	670.06
426.068	648.06
426.291	651.06
426.513	631.06
426.735	612.06
426.958	660.06
427.18	747.06
427.402	944.06
427.625	1029.06
427.847	868.06
428.069	779.06
428.292	688.06
428.514	649.06
428.736	595.06
428.958	609.06
429.181	579.06
429.403	581.06
429.625	569.06
429.847	632.06
430.069	725.06
430.292	697.06
430.514	619.06
430.736	560.06
430.958	573.06
431.18	575.06
431.402	552.06
431.624	531.06
431.846	542.06
432.068	570.06
432.29	557.06
432.512	561.06
432.734	547.06
432.956	541.06
433.178	580.06
433.4	569.06
433.622	541.06
433.844	579.06
434.066	550.06
434.287	542.06
434.509	584.06
434.731	591.06
434.953	573.06
435.175	615.06
435.397	619.06
435.618	629.06
435.84	670.06
436.062	807.06
436.284	876.06
436.505	719.06
436.727	641.06
436.949	579.06
437.17	596.06
437.392	573.06
437.614	605.06
437.835	613.06
438.057	743.06
438.278	882.06
438.5	859.06
438.721	960.06
438.943	925.06
439.165	701.06
439.386	647.06
439.608	653.06
439.829	632.06
440.05	664.06
440.272	773.06
440.493	691.06
440.715	603.06
440.936	583.06
441.158	602.06
441.379	587.06
441.6	603.06
441.822	624.06
442.043	671.06
442.264	775.06
442.486	835.06
442.707	710.06
442.928	668.06
443.149	663.06
443.371	665.06
443.592	730.06
443.813	845.06
444.034	930.06
444.255	773.06
444.476	656.06
444.698	654.06
444.919	651.06
445.14	719.06
445.361	709.06
445.582	684.06
445.803	753.06
446.024	884.06
446.245	908.06
446.466	838.06
446.687	707.06
446.908	616.06
447.129	590.06
447.35	583.06
447.571	586.06
447.792	579.06
448.013	573.06
448.234	599.06
448.455	671.06
448.675	767.06
448.896	929.06
449.117	782.06
449.338	725.06
449.559	846.06
449.779	993.06
450	775.06
450.221	643.06
450.442	586.06
450.662	552.06
450.883	555.06
451.104	583.06
451.324	581.06
451.545	543.06
451.766	520.06
451.986	508.06
452.207	552.06
452.428	503.06
452.648	504.06
452.869	490.06
453.089	536.06
453.31	513.06
453.53	534.06
453.751	518.06
453.971	498.06
454.192	539.06
454.412	539.06
454.633	536.06
454.853	509.06
455.073	495.06
455.294	557.06
455.514	613.06
455.734	606.06
455.955	519.06
456.175	492.06
456.395	488.06
456.616	471.06
456.836	484.06
457.056	456.06
457.276	489.06
457.497	491.06
457.717	484.06
457.937	506.06
458.157	506.06
458.377	512.06
458.598	535.06
458.818	600.06
459.038	671.06
459.258	737.06
459.478	591.06
459.698	584.06
459.918	565.06
460.138	547.06
460.358	565.06
460.578	566.06
460.798	559.06
461.018	568.06
461.238	555.06
461.458	582.06
461.678	582.06
461.898	580.06
462.118	567.06
462.338	589.06
462.558	602.06
462.777	605.06
462.997	635.06
463.217	603.06
463.437	613.06
463.657	613.06
463.876	626.06
464.096	601.06
464.316	628.06
464.536	613.06
464.755	605.06
464.975	622.06
465.195	636.06
465.414	716.06
465.634	658.06
465.854	599.06
466.073	546.06
466.293	569.06
466.512	549.06
466.732	553.06
466.951	541.06
467.171	530.06
467.391	541.06
467.61	531.06
467.829	525.06
468.049	534.06
468.268	522.06
468.488	534.06
468.707	544.06
468.927	504.06
469.146	497.06
469.365	526.06
469.585	519.06
469.804	538.06
470.023	535.06
470.243	526.06
470.462	541.06
470.681	560.06
470.901	551.06
471.12	550.06
471.339	551.06
471.558	563.06
471.777	537.06
471.997	541.06
472.216	557.06
472.435	549.06
472.654	551.06
472.873	525.06
473.092	521.06
473.311	536.06
473.53	545.06
473.749	557.06
473.968	594.06
474.187	720.06
474.406	747.06
474.625	613.06
474.844	558.06
475.063	553.06
475.282	553.06
475.501	566.06
475.72	560.06
475.939	551.06
476.158	575.06
476.377	537.06
476.596	567.06
476.814	571.06
477.033	578.06
477.252	567.06
477.471	587.06
477.69	609.06
477.908	592.06
478.127	600.06
478.346	621.06
478.564	603.06
478.783	636.06
479.002	646.06
479.22	610.06
479.439	639.06
479.658	646.06
479.876	642.06
480.095	685.06
480.313	709.06
480.532	678.06
480.751	673.06
480.969	693.06
481.188	744.06
481.406	756.06
481.624	675.06
481.843	679.06
482.061	652.06
482.28	637.06
482.498	637.06
482.717	639.06
482.935	630.06
483.153	638.06
483.372	649.06
483.59	640.06
483.808	624.06
484.027	618.06
484.245	646.06
484.463	640.06
484.681	664.06
484.9	652.06
485.118	649.06
485.336	616.06
485.554	632.06
485.772	651.06
485.99	663.06
486.209	657.06
486.427	677.06
486.645	679.06
486.863	682.06
487.081	683.06
487.299	685.06
487.517	691.06
487.735	677.06
487.953	684.06
488.171	658.06
488.389	657.06
488.607	697.06
488.825	675.06
489.043	695.06
489.261	692.06
489.479	672.06
489.696	694.06
489.914	705.06
490.132	725.06
490.35	708.06
490.568	710.06
490.786	726.06
491.003	727.06
491.221	761.06
491.439	740.06
491.657	736.06
491.874	771.06
492.092	785.06
492.31	762.06
492.527	731.06
492.745	735.06
492.963	770.06
493.18	793.06
493.398	773.06
493.615	791.06
493.833	786.06
494.05	795.06
494.268	800.06
494.485	785.06
494.703	795.06
494.92	800.06
495.138	794.06
495.355	805.06
495.573	808.06
495.79	793.06
496.008	819.06
496.225	832.06
496.442	806.06
496.66	819.06
496.877	814.06
497.094	785.06
497.312	824.06
497.529	827.06
497.746	854.06
497.963	849.06
498.181	889.06
498.398	899.06
498.615	926.06
498.832	903.06
499.049	935.06
499.267	948.06
499.484	1015.06
499.701	1031.06
499.918	1065.06
500.135	1148.06
500.352	1150.06
500.569	1149.06
500.786	1152.06
501.003	1156.06
501.22	1111.06
501.437	1080.06
501.654	1082.06
