Data from 1978.PennyLincolnUp.Lamp.En5.5.200Scan.071719.P1_HRD10591_16-14-19-863.txt Node
Date: Thu Jul 18 16:14:19 EDT 2019
User: cochatt
Spectrometer: HR+D1059
Trigger mode: 1
Integration Time (sec): 1.000000E-1
Scans to average: 1
Electric dark correction enabled: true
Nonlinearity correction enabled: false
Boxcar width: 0
XAxis mode: Wavelengths
Number of Pixels in Spectrum: 2048
>>>>>Begin Spectral Data<<<<<
223.165	-17.88
223.4	-17.88
223.635	-17.88
223.869	-8.88
224.104	-15.88
224.338	-29.88
224.573	-22.88
224.808	-12.88
225.042	0.12
225.277	5.12
225.511	-9.88
225.746	4.12
225.98	15.12
226.215	16.12
226.449	8.12
226.683	15.12
226.918	23.12
227.152	31.12
227.387	36.12
227.621	41.12
227.856	28.12
228.09	56.12
228.324	40.12
228.559	62.12
228.793	68.12
229.027	103.12
229.262	92.12
229.496	115.12
229.73	130.12
229.964	162.12
230.199	125.12
230.433	116.12
230.667	115.12
230.901	101.12
231.136	103.12
231.37	122.12
231.604	122.12
231.838	115.12
232.072	106.12
232.306	111.12
232.541	97.12
232.775	104.12
233.009	109.12
233.243	115.12
233.477	110.12
233.711	116.12
233.945	118.12
234.179	107.12
234.413	106.12
234.647	110.12
234.881	104.12
235.115	120.12
235.349	112.12
235.583	115.12
235.817	119.12
236.051	121.12
236.285	133.12
236.519	111.12
236.753	134.12
236.987	143.12
237.221	174.12
237.455	238.12
237.689	191.12
237.922	132.12
238.156	132.12
238.39	129.12
238.624	123.12
238.858	140.12
239.091	129.12
239.325	123.12
239.559	135.12
239.793	123.12
240.027	126.12
240.26	132.12
240.494	159.12
240.728	151.12
240.961	151.12
241.195	133.12
241.429	132.12
241.662	140.12
241.896	127.12
242.13	128.12
242.363	130.12
242.597	141.12
242.83	150.12
243.064	137.12
243.298	131.12
243.531	143.12
243.765	121.12
243.998	126.12
244.232	131.12
244.465	152.12
244.699	134.12
244.932	140.12
245.166	141.12
245.399	148.12
245.633	147.12
245.866	129.12
246.099	139.12
246.333	151.12
246.566	140.12
246.8	156.12
247.033	155.12
247.266	146.12
247.5	154.12
247.733	147.12
247.966	178.12
248.2	169.12
248.433	178.12
248.666	170.12
248.899	161.12
249.133	195.12
249.366	194.12
249.599	188.12
249.832	178.12
250.066	176.12
250.299	171.12
250.532	183.12
250.765	187.12
250.998	208.12
251.231	225.12
251.465	211.12
251.698	212.12
251.931	202.12
252.164	170.12
252.397	190.12
252.63	203.12
252.863	194.12
253.096	200.12
253.329	220.12
253.562	227.12
253.795	204.12
254.028	198.12
254.261	198.12
254.494	215.12
254.727	230.12
254.96	267.12
255.193	252.12
255.426	238.12
255.659	226.12
255.892	228.12
256.124	217.12
256.357	228.12
256.59	212.12
256.823	206.12
257.056	196.12
257.289	198.12
257.521	212.12
257.754	205.12
257.987	192.12
258.22	206.12
258.452	188.12
258.685	199.12
258.918	201.12
259.151	199.12
259.383	220.12
259.616	212.12
259.849	219.12
260.081	222.12
260.314	236.12
260.547	240.12
260.779	227.12
261.012	227.12
261.244	227.12
261.477	207.12
261.71	210.12
261.942	214.12
262.175	238.12
262.407	226.12
262.64	220.12
262.872	215.12
263.105	203.12
263.337	206.12
263.57	211.12
263.802	211.12
264.035	216.12
264.267	194.12
264.499	199.12
264.732	210.12
264.964	215.12
265.197	207.12
265.429	212.12
265.661	194.12
265.894	194.12
266.126	209.12
266.358	214.12
266.591	219.12
266.823	210.12
267.055	218.12
267.287	223.12
267.52	232.12
267.752	215.12
267.984	226.12
268.216	220.12
268.448	216.12
268.681	223.12
268.913	233.12
269.145	250.12
269.377	278.12
269.609	272.12
269.841	265.12
270.073	251.12
270.306	273.12
270.538	306.12
270.77	317.12
271.002	293.12
271.234	272.12
271.466	293.12
271.698	297.12
271.93	305.12
272.162	298.12
272.394	315.12
272.626	276.12
272.858	281.12
273.09	283.12
273.322	272.12
273.553	258.12
273.785	248.12
274.017	254.12
274.249	265.12
274.481	268.12
274.713	257.12
274.945	271.12
275.176	257.12
275.408	279.12
275.64	267.12
275.872	269.12
276.104	252.12
276.335	256.12
276.567	260.12
276.799	266.12
277.031	292.12
277.262	314.12
277.494	307.12
277.726	276.12
277.957	286.12
278.189	307.12
278.421	260.12
278.652	268.12
278.884	281.12
279.115	259.12
279.347	258.12
279.579	257.12
279.81	277.12
280.042	257.12
280.273	266.12
280.505	250.12
280.736	274.12
280.968	253.12
281.199	264.12
281.431	274.12
281.662	277.12
281.894	239.12
282.125	263.12
282.356	279.12
282.588	291.12
282.819	312.12
283.051	288.12
283.282	275.12
283.513	281.12
283.745	272.12
283.976	278.12
284.207	274.12
284.439	289.12
284.67	265.12
284.901	279.12
285.132	275.12
285.364	265.12
285.595	274.12
285.826	271.12
286.057	290.12
286.288	260.12
286.52	274.12
286.751	282.12
286.982	274.12
287.213	280.12
287.444	282.12
287.675	281.12
287.906	275.12
288.138	304.12
288.369	280.12
288.6	299.12
288.831	295.12
289.062	295.12
289.293	272.12
289.524	291.12
289.755	278.12
289.986	291.12
290.217	275.12
290.448	298.12
290.679	291.12
290.91	283.12
291.141	276.12
291.371	303.12
291.602	276.12
291.833	288.12
292.064	295.12
292.295	284.12
292.526	282.12
292.757	278.12
292.987	281.12
293.218	302.12
293.449	306.12
293.68	294.12
293.91	284.12
294.141	311.12
294.372	275.12
294.603	295.12
294.833	285.12
295.064	283.12
295.295	283.12
295.525	293.12
295.756	298.12
295.987	292.12
296.217	318.12
296.448	327.12
296.679	291.12
296.909	320.12
297.14	300.12
297.37	305.12
297.601	292.12
297.831	299.12
298.062	286.12
298.292	293.12
298.523	316.12
298.753	314.12
298.984	304.12
299.214	300.12
299.445	320.12
299.675	309.12
299.905	326.12
300.136	304.12
300.366	304.12
300.597	336.12
300.827	314.12
301.057	325.12
301.288	321.12
301.518	318.12
301.748	307.12
301.979	311.12
302.209	333.12
302.439	319.12
302.669	337.12
302.9	332.12
303.13	325.12
303.36	325.12
303.59	323.12
303.82	345.12
304.051	367.12
304.281	345.12
304.511	343.12
304.741	345.12
304.971	337.12
305.201	329.12
305.431	332.12
305.661	334.12
305.891	330.12
306.121	314.12
306.352	329.12
306.582	339.12
306.812	338.12
307.042	320.12
307.272	343.12
307.502	330.12
307.731	332.12
307.961	331.12
308.191	322.12
308.421	329.12
308.651	349.12
308.881	337.12
309.111	366.12
309.341	345.12
309.571	361.12
309.8	361.12
310.03	363.12
310.26	388.12
310.49	373.12
310.72	374.12
310.949	383.12
311.179	374.12
311.409	381.12
311.639	379.12
311.868	372.12
312.098	385.12
312.328	374.12
312.557	391.12
312.787	409.12
313.017	409.12
313.246	402.12
313.476	379.12
313.706	376.12
313.935	395.12
314.165	406.12
314.394	411.12
314.624	409.12
314.853	396.12
315.083	393.12
315.312	386.12
315.542	376.12
315.771	368.12
316.001	377.12
316.23	384.12
316.46	377.12
316.689	386.12
316.919	360.12
317.148	370.12
317.377	398.12
317.607	374.12
317.836	391.12
318.065	364.12
318.295	372.12
318.524	387.12
318.753	374.12
318.983	384.12
319.212	394.12
319.441	385.12
319.67	384.12
319.9	363.12
320.129	382.12
320.358	376.12
320.587	396.12
320.816	376.12
321.046	408.12
321.275	402.12
321.504	415.12
321.733	416.12
321.962	387.12
322.191	409.12
322.42	429.12
322.649	452.12
322.878	442.12
323.108	451.12
323.337	464.12
323.566	516.12
323.795	535.12
324.024	576.12
324.253	696.12
324.482	998.12
324.71	1652.12
324.939	2432.12
325.168	2064.12
325.397	1016.12
325.626	679.12
325.855	554.12
326.084	532.12
326.313	507.12
326.542	511.12
326.77	576.12
326.999	678.12
327.228	905.12
327.457	1432.12
327.686	1830.12
327.914	1169.12
328.143	742.12
328.372	626.12
328.6	606.12
328.829	547.12
329.058	586.12
329.287	568.12
329.515	534.12
329.744	515.12
329.972	514.12
330.201	524.12
330.43	539.12
330.658	572.12
330.887	598.12
331.115	597.12
331.344	544.12
331.572	482.12
331.801	493.12
332.03	486.12
332.258	489.12
332.486	437.12
332.715	445.12
332.943	463.12
333.172	457.12
333.4	465.12
333.629	466.12
333.857	477.12
334.085	498.12
334.314	512.12
334.542	539.12
334.771	546.12
334.999	535.12
335.227	510.12
335.455	473.12
335.684	465.12
335.912	479.12
336.14	466.12
336.369	446.12
336.597	474.12
336.825	484.12
337.053	466.12
337.281	426.12
337.51	456.12
337.738	458.12
337.966	447.12
338.194	472.12
338.422	468.12
338.65	459.12
338.878	459.12
339.106	441.12
339.334	458.12
339.562	440.12
339.79	437.12
340.018	451.12
340.246	458.12
340.474	464.12
340.702	454.12
340.93	465.12
341.158	440.12
341.386	448.12
341.614	446.12
341.842	444.12
342.07	442.12
342.298	414.12
342.526	437.12
342.754	426.12
342.981	426.12
343.209	426.12
343.437	440.12
343.665	442.12
343.893	451.12
344.12	450.12
344.348	446.12
344.576	472.12
344.804	474.12
345.031	452.12
345.259	452.12
345.487	459.12
345.714	468.12
345.942	441.12
346.17	442.12
346.397	417.12
346.625	434.12
346.853	432.12
347.08	456.12
347.308	425.12
347.535	437.12
347.763	438.12
347.99	450.12
348.218	423.12
348.445	425.12
348.673	428.12
348.9	438.12
349.128	423.12
349.355	414.12
349.583	428.12
349.81	409.12
350.037	409.12
350.265	402.12
350.492	419.12
350.72	417.12
350.947	402.12
351.174	432.12
351.402	448.12
351.629	426.12
351.856	461.12
352.083	459.12
352.311	446.12
352.538	449.12
352.765	454.12
352.992	430.12
353.22	434.12
353.447	435.12
353.674	415.12
353.901	410.12
354.128	400.12
354.355	404.12
354.583	404.12
354.81	393.12
355.037	410.12
355.264	387.12
355.491	390.12
355.718	386.12
355.945	407.12
356.172	426.12
356.399	421.12
356.626	387.12
356.853	408.12
357.08	422.12
357.307	388.12
357.534	412.12
357.761	401.12
357.988	404.12
358.215	396.12
358.441	407.12
358.668	412.12
358.895	417.12
359.122	416.12
359.349	386.12
359.576	447.12
359.802	464.12
360.029	471.12
360.256	484.12
360.483	460.12
360.709	450.12
360.936	441.12
361.163	438.12
361.39	426.12
361.616	444.12
361.843	414.12
362.07	415.12
362.296	435.12
362.523	427.12
362.749	435.12
362.976	422.12
363.203	404.12
363.429	404.12
363.656	421.12
363.882	416.12
364.109	415.12
364.335	403.12
364.562	396.12
364.788	435.12
365.015	411.12
365.241	416.12
365.468	419.12
365.694	425.12
365.92	416.12
366.147	406.12
366.373	410.12
366.599	404.12
366.826	394.12
367.052	424.12
367.278	418.12
367.505	413.12
367.731	408.12
367.957	407.12
368.184	420.12
368.41	406.12
368.636	444.12
368.862	425.12
369.089	409.12
369.315	424.12
369.541	406.12
369.767	418.12
369.993	412.12
370.219	439.12
370.445	412.12
370.672	436.12
370.898	425.12
371.124	417.12
371.35	428.12
371.576	424.12
371.802	422.12
372.028	426.12
372.254	405.12
372.48	408.12
372.706	410.12
372.932	408.12
373.158	419.12
373.384	436.12
373.61	425.12
373.835	433.12
374.061	423.12
374.287	427.12
374.513	420.12
374.739	440.12
374.965	433.12
375.191	417.12
375.416	444.12
375.642	432.12
375.868	426.12
376.094	431.12
376.319	421.12
376.545	439.12
376.771	425.12
376.997	422.12
377.222	437.12
377.448	425.12
377.674	426.12
377.899	438.12
378.125	410.12
378.35	425.12
378.576	408.12
378.802	428.12
379.027	404.12
379.253	415.12
379.478	419.12
379.704	428.12
379.929	432.12
380.155	419.12
380.38	425.12
380.606	437.12
380.831	407.12
381.057	424.12
381.282	419.12
381.507	406.12
381.733	408.12
381.958	422.12
382.184	447.12
382.409	442.12
382.634	456.12
382.86	426.12
383.085	439.12
383.31	438.12
383.535	433.12
383.761	449.12
383.986	436.12
384.211	459.12
384.436	454.12
384.662	464.12
384.887	458.12
385.112	476.12
385.337	459.12
385.562	475.12
385.787	470.12
386.013	475.12
386.238	472.12
386.463	486.12
386.688	466.12
386.913	479.12
387.138	468.12
387.363	455.12
387.588	471.12
387.813	474.12
388.038	460.12
388.263	478.12
388.488	457.12
388.713	465.12
388.938	485.12
389.163	482.12
389.387	457.12
389.612	451.12
389.837	461.12
390.062	468.12
390.287	462.12
390.512	466.12
390.736	477.12
390.961	471.12
391.186	471.12
391.411	475.12
391.636	495.12
391.86	483.12
392.085	480.12
392.31	482.12
392.534	500.12
392.759	483.12
392.984	462.12
393.208	479.12
393.433	467.12
393.658	467.12
393.882	481.12
394.107	481.12
394.331	497.12
394.556	449.12
394.78	481.12
395.005	506.12
395.229	505.12
395.454	499.12
395.678	477.12
395.903	505.12
396.127	533.12
396.352	510.12
396.576	528.12
396.801	499.12
397.025	489.12
397.249	518.12
397.474	530.12
397.698	524.12
397.922	552.12
398.147	534.12
398.371	545.12
398.595	551.12
398.82	541.12
399.044	572.12
399.268	580.12
399.492	580.12
399.717	624.12
399.941	662.12
400.165	689.12
400.389	706.12
400.613	641.12
400.837	588.12
401.062	601.12
401.286	571.12
401.51	565.12
401.734	569.12
401.958	582.12
402.182	570.12
402.406	565.12
402.63	561.12
402.854	543.12
403.078	569.12
403.302	570.12
403.526	555.12
403.75	577.12
403.974	565.12
404.198	566.12
404.422	565.12
404.645	609.12
404.869	591.12
405.093	611.12
405.317	625.12
405.541	697.12
405.765	654.12
405.988	603.12
406.212	630.12
406.436	631.12
406.66	665.12
406.883	625.12
407.107	656.12
407.331	708.12
407.555	793.12
407.778	784.12
408.002	690.12
408.226	684.12
408.449	652.12
408.673	617.12
408.896	644.12
409.12	699.12
409.344	684.12
409.567	619.12
409.791	597.12
410.014	589.12
410.238	588.12
410.461	594.12
410.685	598.12
410.908	592.12
411.132	646.12
411.355	673.12
411.578	643.12
411.802	592.12
412.025	569.12
412.249	558.12
412.472	622.12
412.695	660.12
412.919	652.12
413.142	598.12
413.365	566.12
413.589	554.12
413.812	546.12
414.035	543.12
414.258	532.12
414.482	556.12
414.705	552.12
414.928	544.12
415.151	545.12
415.374	547.12
415.597	539.12
415.821	560.12
416.044	530.12
416.267	554.12
416.49	532.12
416.713	528.12
416.936	540.12
417.159	556.12
417.382	545.12
417.605	543.12
417.828	547.12
418.051	586.12
418.274	579.12
418.497	542.12
418.72	547.12
418.943	543.12
419.166	571.12
419.389	600.12
419.611	592.12
419.834	585.12
420.057	555.12
420.28	575.12
420.503	548.12
420.726	565.12
420.948	595.12
421.171	619.12
421.394	644.12
421.617	567.12
421.839	578.12
422.062	563.12
422.285	581.12
422.507	632.12
422.73	737.12
422.953	710.12
423.175	617.12
423.398	583.12
423.621	581.12
423.843	610.12
424.066	620.12
424.288	616.12
424.511	628.12
424.733	667.12
424.956	785.12
425.178	750.12
425.401	718.12
425.623	787.12
425.846	642.12
426.068	606.12
426.291	586.12
426.513	590.12
426.735	621.12
426.958	651.12
427.18	751.12
427.402	898.12
427.625	1020.12
427.847	876.12
428.069	741.12
428.292	666.12
428.514	613.12
428.736	590.12
428.958	569.12
429.181	551.12
429.403	555.12
429.625	571.12
429.847	606.12
430.069	691.12
430.292	697.12
430.514	585.12
430.736	587.12
430.958	570.12
431.18	552.12
431.402	530.12
431.624	528.12
431.846	521.12
432.068	520.12
432.29	533.12
432.512	540.12
432.734	547.12
432.956	524.12
433.178	546.12
433.4	553.12
433.622	542.12
433.844	544.12
434.066	531.12
434.287	523.12
434.509	542.12
434.731	539.12
434.953	552.12
435.175	574.12
435.397	621.12
435.618	632.12
435.84	636.12
436.062	762.12
436.284	862.12
436.505	708.12
436.727	622.12
436.949	586.12
437.17	571.12
437.392	581.12
437.614	554.12
437.835	592.12
438.057	727.12
438.278	843.12
438.5	832.12
438.721	935.12
438.943	878.12
439.165	676.12
439.386	644.12
439.608	616.12
439.829	632.12
440.05	643.12
440.272	710.12
440.493	647.12
440.715	605.12
440.936	588.12
441.158	565.12
441.379	600.12
441.6	615.12
441.822	601.12
442.043	640.12
442.264	747.12
442.486	808.12
442.707	690.12
442.928	606.12
443.149	646.12
443.371	644.12
443.592	697.12
443.813	810.12
444.034	890.12
444.255	716.12
444.476	638.12
444.698	623.12
444.919	600.12
445.14	724.12
445.361	667.12
445.582	678.12
445.803	766.12
446.024	873.12
446.245	859.12
446.466	792.12
446.687	660.12
446.908	608.12
447.129	584.12
447.35	568.12
447.571	576.12
447.792	550.12
448.013	568.12
448.234	580.12
448.455	630.12
448.675	768.12
448.896	896.12
449.117	756.12
449.338	706.12
449.559	834.12
449.779	997.12
450	742.12
450.221	619.12
450.442	563.12
450.662	555.12
450.883	554.12
451.104	568.12
451.324	536.12
451.545	520.12
451.766	527.12
451.986	495.12
452.207	521.12
452.428	507.12
452.648	518.12
452.869	518.12
453.089	489.12
453.31	525.12
453.53	507.12
453.751	479.12
453.971	503.12
454.192	515.12
454.412	513.12
454.633	515.12
454.853	499.12
455.073	495.12
455.294	529.12
455.514	622.12
455.734	595.12
455.955	518.12
456.175	513.12
456.395	491.12
456.616	460.12
456.836	486.12
457.056	497.12
457.276	474.12
457.497	474.12
457.717	482.12
457.937	507.12
458.157	499.12
458.377	493.12
458.598	530.12
458.818	579.12
459.038	665.12
459.258	678.12
459.478	609.12
459.698	544.12
459.918	559.12
460.138	551.12
460.358	544.12
460.578	549.12
460.798	537.12
461.018	547.12
461.238	554.12
461.458	550.12
461.678	534.12
461.898	556.12
462.118	566.12
462.338	570.12
462.558	571.12
462.777	586.12
462.997	601.12
463.217	597.12
463.437	654.12
463.657	584.12
463.876	600.12
464.096	594.12
464.316	584.12
464.536	596.12
464.755	612.12
464.975	616.12
465.195	618.12
465.414	721.12
465.634	613.12
465.854	574.12
466.073	551.12
466.293	529.12
466.512	528.12
466.732	529.12
466.951	535.12
467.171	545.12
467.391	545.12
467.61	552.12
467.829	548.12
468.049	532.12
468.268	518.12
468.488	503.12
468.707	497.12
468.927	516.12
469.146	519.12
469.365	502.12
469.585	503.12
469.804	506.12
470.023	532.12
470.243	542.12
470.462	530.12
470.681	536.12
470.901	537.12
471.12	525.12
471.339	491.12
471.558	539.12
471.777	534.12
471.997	538.12
472.216	521.12
472.435	571.12
472.654	566.12
472.873	523.12
473.092	560.12
473.311	536.12
473.53	542.12
473.749	552.12
473.968	569.12
474.187	688.12
474.406	734.12
474.625	577.12
474.844	549.12
475.063	526.12
475.282	521.12
475.501	519.12
475.72	537.12
475.939	551.12
476.158	553.12
476.377	581.12
476.596	532.12
476.814	555.12
477.033	556.12
477.252	568.12
477.471	571.12
477.69	587.12
477.908	554.12
478.127	579.12
478.346	587.12
478.564	575.12
478.783	565.12
479.002	596.12
479.22	612.12
479.439	617.12
479.658	658.12
479.876	634.12
480.095	636.12
480.313	686.12
480.532	669.12
480.751	636.12
480.969	658.12
481.188	703.12
481.406	742.12
481.624	674.12
481.843	642.12
482.061	633.12
482.28	657.12
482.498	651.12
482.717	614.12
482.935	622.12
483.153	626.12
483.372	633.12
483.59	605.12
483.808	614.12
484.027	635.12
484.245	620.12
484.463	625.12
484.681	632.12
484.9	623.12
485.118	617.12
485.336	612.12
485.554	652.12
485.772	642.12
485.99	680.12
486.209	637.12
486.427	649.12
486.645	644.12
486.863	676.12
487.081	644.12
487.299	661.12
487.517	652.12
487.735	650.12
487.953	664.12
488.171	658.12
488.389	659.12
488.607	659.12
488.825	673.12
489.043	666.12
489.261	649.12
489.479	665.12
489.696	679.12
489.914	664.12
490.132	689.12
490.35	696.12
490.568	678.12
490.786	707.12
491.003	706.12
491.221	734.12
491.439	741.12
491.657	727.12
491.874	740.12
492.092	741.12
492.31	754.12
492.527	747.12
492.745	746.12
492.963	765.12
493.18	784.12
493.398	764.12
493.615	792.12
493.833	784.12
494.05	751.12
494.268	768.12
494.485	756.12
494.703	755.12
494.92	754.12
495.138	757.12
495.355	780.12
495.573	777.12
495.79	799.12
496.008	779.12
496.225	791.12
496.442	790.12
496.66	786.12
496.877	766.12
497.094	778.12
497.312	793.12
497.529	820.12
497.746	819.12
497.963	844.12
498.181	878.12
498.398	884.12
498.615	883.12
498.832	898.12
499.049	913.12
499.267	961.12
499.484	966.12
499.701	970.12
499.918	1026.12
500.135	1079.12
500.352	1104.12
500.569	1132.12
500.786	1118.12
501.003	1122.12
501.22	1108.12
501.437	1037.12
501.654	1053.12
501.871	1009.12
