Data from 1978.PennyLincolnUp.Lamp.En5.5.200Scan.071719.P1_HRD10591_16-12-09-864.txt Node
Date: Thu Jul 18 16:12:09 EDT 2019
User: cochatt
Spectrometer: HR+D1059
Trigger mode: 1
Integration Time (sec): 1.000000E-1
Scans to average: 1
Electric dark correction enabled: true
Nonlinearity correction enabled: false
Boxcar width: 0
XAxis mode: Wavelengths
Number of Pixels in Spectrum: 2048
>>>>>Begin Spectral Data<<<<<
223.165	-6.69
223.4	-6.69
223.635	-6.69
223.869	-24.69
224.104	-20.69
224.338	-10.69
224.573	-16.69
224.808	-16.69
225.042	-0.69
225.277	-9.69
225.511	-6.69
225.746	14.31
225.98	6.31
226.215	3.31
226.449	15.31
226.683	20.31
226.918	22.31
227.152	31.31
227.387	41.31
227.621	50.31
227.856	44.31
228.09	43.31
228.324	45.31
228.559	55.31
228.793	52.31
229.027	73.31
229.262	89.31
229.496	112.31
229.73	114.31
229.964	128.31
230.199	100.31
230.433	101.31
230.667	113.31
230.901	109.31
231.136	109.31
231.37	107.31
231.604	95.31
231.838	103.31
232.072	104.31
232.306	120.31
232.541	95.31
232.775	115.31
233.009	107.31
233.243	116.31
233.477	113.31
233.711	106.31
233.945	119.31
234.179	122.31
234.413	116.31
234.647	118.31
234.881	116.31
235.115	121.31
235.349	118.31
235.583	108.31
235.817	108.31
236.051	117.31
236.285	126.31
236.519	104.31
236.753	117.31
236.987	116.31
237.221	151.31
237.455	207.31
237.689	168.31
237.922	126.31
238.156	134.31
238.39	118.31
238.624	119.31
238.858	113.31
239.091	115.31
239.325	129.31
239.559	112.31
239.793	127.31
240.027	134.31
240.26	122.31
240.494	125.31
240.728	138.31
240.961	149.31
241.195	134.31
241.429	128.31
241.662	117.31
241.896	123.31
242.13	130.31
242.363	126.31
242.597	120.31
242.83	133.31
243.064	130.31
243.298	134.31
243.531	130.31
243.765	131.31
243.998	134.31
244.232	129.31
244.465	132.31
244.699	131.31
244.932	132.31
245.166	125.31
245.399	148.31
245.633	148.31
245.866	148.31
246.099	131.31
246.333	126.31
246.566	144.31
246.8	132.31
247.033	156.31
247.266	139.31
247.5	155.31
247.733	168.31
247.966	154.31
248.2	156.31
248.433	139.31
248.666	156.31
248.899	166.31
249.133	180.31
249.366	188.31
249.599	174.31
249.832	158.31
250.066	176.31
250.299	172.31
250.532	166.31
250.765	182.31
250.998	184.31
251.231	193.31
251.465	176.31
251.698	189.31
251.931	178.31
252.164	171.31
252.397	173.31
252.63	164.31
252.863	183.31
253.096	188.31
253.329	187.31
253.562	181.31
253.795	190.31
254.028	176.31
254.261	198.31
254.494	194.31
254.727	208.31
254.96	204.31
255.193	223.31
255.426	211.31
255.659	193.31
255.892	196.31
256.124	202.31
256.357	193.31
256.59	183.31
256.823	184.31
257.056	191.31
257.289	175.31
257.521	194.31
257.754	186.31
257.987	181.31
258.22	213.31
258.452	197.31
258.685	179.31
258.918	175.31
259.151	185.31
259.383	178.31
259.616	182.31
259.849	196.31
260.081	206.31
260.314	216.31
260.547	213.31
260.779	208.31
261.012	211.31
261.244	190.31
261.477	196.31
261.71	198.31
261.942	201.31
262.175	220.31
262.407	208.31
262.64	180.31
262.872	206.31
263.105	192.31
263.337	203.31
263.57	200.31
263.802	186.31
264.035	178.31
264.267	193.31
264.499	200.31
264.732	199.31
264.964	196.31
265.197	213.31
265.429	188.31
265.661	210.31
265.894	212.31
266.126	202.31
266.358	214.31
266.591	206.31
266.823	209.31
267.055	207.31
267.287	214.31
267.52	201.31
267.752	208.31
267.984	215.31
268.216	216.31
268.448	226.31
268.681	200.31
268.913	226.31
269.145	221.31
269.377	237.31
269.609	225.31
269.841	216.31
270.073	233.31
270.306	250.31
270.538	244.31
270.77	252.31
271.002	263.31
271.234	246.31
271.466	253.31
271.698	251.31
271.93	266.31
272.162	268.31
272.394	266.31
272.626	247.31
272.858	246.31
273.09	242.31
273.322	247.31
273.553	232.31
273.785	233.31
274.017	229.31
274.249	237.31
274.481	235.31
274.713	226.31
274.945	259.31
275.176	231.31
275.408	232.31
275.64	236.31
275.872	253.31
276.104	236.31
276.335	231.31
276.567	242.31
276.799	235.31
277.031	264.31
277.262	264.31
277.494	267.31
277.726	262.31
277.957	263.31
278.189	244.31
278.421	258.31
278.652	243.31
278.884	234.31
279.115	234.31
279.347	244.31
279.579	234.31
279.81	238.31
280.042	244.31
280.273	251.31
280.505	236.31
280.736	248.31
280.968	255.31
281.199	236.31
281.431	230.31
281.662	243.31
281.894	242.31
282.125	257.31
282.356	258.31
282.588	264.31
282.819	289.31
283.051	270.31
283.282	243.31
283.513	254.31
283.745	245.31
283.976	245.31
284.207	263.31
284.439	249.31
284.67	257.31
284.901	264.31
285.132	248.31
285.364	243.31
285.595	266.31
285.826	243.31
286.057	273.31
286.288	247.31
286.52	233.31
286.751	266.31
286.982	262.31
287.213	264.31
287.444	263.31
287.675	272.31
287.906	267.31
288.138	281.31
288.369	263.31
288.6	288.31
288.831	272.31
289.062	259.31
289.293	267.31
289.524	273.31
289.755	268.31
289.986	254.31
290.217	254.31
290.448	262.31
290.679	262.31
290.91	265.31
291.141	277.31
291.371	278.31
291.602	281.31
291.833	272.31
292.064	274.31
292.295	264.31
292.526	278.31
292.757	282.31
292.987	264.31
293.218	269.31
293.449	269.31
293.68	269.31
293.91	257.31
294.141	261.31
294.372	282.31
294.603	264.31
294.833	283.31
295.064	270.31
295.295	271.31
295.525	286.31
295.756	280.31
295.987	277.31
296.217	289.31
296.448	297.31
296.679	271.31
296.909	276.31
297.14	282.31
297.37	280.31
297.601	272.31
297.831	283.31
298.062	290.31
298.292	273.31
298.523	282.31
298.753	307.31
298.984	290.31
299.214	294.31
299.445	275.31
299.675	289.31
299.905	302.31
300.136	293.31
300.366	300.31
300.597	294.31
300.827	302.31
301.057	310.31
301.288	293.31
301.518	303.31
301.748	310.31
301.979	296.31
302.209	299.31
302.439	318.31
302.669	316.31
302.9	317.31
303.13	283.31
303.36	314.31
303.59	321.31
303.82	311.31
304.051	327.31
304.281	313.31
304.511	315.31
304.741	298.31
304.971	304.31
305.201	302.31
305.431	313.31
305.661	298.31
305.891	306.31
306.121	319.31
306.352	311.31
306.582	323.31
306.812	303.31
307.042	329.31
307.272	301.31
307.502	306.31
307.731	325.31
307.961	304.31
308.191	308.31
308.421	322.31
308.651	299.31
308.881	325.31
309.111	310.31
309.341	324.31
309.571	319.31
309.8	326.31
310.03	327.31
310.26	332.31
310.49	334.31
310.72	345.31
310.949	337.31
311.179	358.31
311.409	347.31
311.639	336.31
311.868	335.31
312.098	348.31
312.328	351.31
312.557	350.31
312.787	372.31
313.017	366.31
313.246	354.31
313.476	327.31
313.706	331.31
313.935	351.31
314.165	355.31
314.394	338.31
314.624	335.31
314.853	338.31
315.083	338.31
315.312	347.31
315.542	360.31
315.771	328.31
316.001	340.31
316.23	352.31
316.46	357.31
316.689	371.31
316.919	356.31
317.148	338.31
317.377	372.31
317.607	357.31
317.836	351.31
318.065	339.31
318.295	355.31
318.524	343.31
318.753	341.31
318.983	365.31
319.212	356.31
319.441	333.31
319.67	366.31
319.9	362.31
320.129	359.31
320.358	342.31
320.587	346.31
320.816	359.31
321.046	365.31
321.275	364.31
321.504	370.31
321.733	363.31
321.962	373.31
322.191	347.31
322.42	386.31
322.649	380.31
322.878	412.31
323.108	410.31
323.337	408.31
323.566	434.31
323.795	450.31
324.024	475.31
324.253	566.31
324.482	755.31
324.71	1160.31
324.939	1802.31
325.168	1513.31
325.397	787.31
325.626	561.31
325.855	487.31
326.084	457.31
326.313	445.31
326.542	430.31
326.77	460.31
326.999	549.31
327.228	722.31
327.457	1074.31
327.686	1344.31
327.914	898.31
328.143	573.31
328.372	518.31
328.6	498.31
328.829	446.31
329.058	466.31
329.287	496.31
329.515	455.31
329.744	449.31
329.972	433.31
330.201	446.31
330.43	493.31
330.658	495.31
330.887	499.31
331.115	502.31
331.344	432.31
331.572	437.31
331.801	450.31
332.03	428.31
332.258	437.31
332.486	411.31
332.715	406.31
332.943	407.31
333.172	418.31
333.4	427.31
333.629	448.31
333.857	427.31
334.085	434.31
334.314	467.31
334.542	463.31
334.771	485.31
334.999	459.31
335.227	450.31
335.455	423.31
335.684	419.31
335.912	429.31
336.14	407.31
336.369	424.31
336.597	433.31
336.825	425.31
337.053	411.31
337.281	414.31
337.51	399.31
337.738	398.31
337.966	400.31
338.194	403.31
338.422	436.31
338.65	400.31
338.878	403.31
339.106	409.31
339.334	395.31
339.562	400.31
339.79	397.31
340.018	386.31
340.246	392.31
340.474	415.31
340.702	380.31
340.93	406.31
341.158	421.31
341.386	391.31
341.614	401.31
341.842	389.31
342.07	400.31
342.298	381.31
342.526	415.31
342.754	398.31
342.981	407.31
343.209	400.31
343.437	406.31
343.665	424.31
343.893	421.31
344.12	431.31
344.348	409.31
344.576	426.31
344.804	407.31
345.031	404.31
345.259	409.31
345.487	405.31
345.714	395.31
345.942	399.31
346.17	423.31
346.397	411.31
346.625	387.31
346.853	401.31
347.08	378.31
347.308	395.31
347.535	398.31
347.763	399.31
347.99	387.31
348.218	397.31
348.445	397.31
348.673	424.31
348.9	396.31
349.128	394.31
349.355	379.31
349.583	378.31
349.81	371.31
350.037	380.31
350.265	385.31
350.492	386.31
350.72	408.31
350.947	376.31
351.174	374.31
351.402	395.31
351.629	412.31
351.856	390.31
352.083	415.31
352.311	398.31
352.538	393.31
352.765	400.31
352.992	391.31
353.22	393.31
353.447	394.31
353.674	391.31
353.901	382.31
354.128	373.31
354.355	371.31
354.583	376.31
354.81	382.31
355.037	373.31
355.264	373.31
355.491	382.31
355.718	377.31
355.945	363.31
356.172	342.31
356.399	372.31
356.626	386.31
356.853	376.31
357.08	378.31
357.307	384.31
357.534	377.31
357.761	373.31
357.988	383.31
358.215	376.31
358.441	364.31
358.668	375.31
358.895	384.31
359.122	375.31
359.349	372.31
359.576	393.31
359.802	416.31
360.029	410.31
360.256	426.31
360.483	408.31
360.709	401.31
360.936	407.31
361.163	389.31
361.39	383.31
361.616	404.31
361.843	390.31
362.07	380.31
362.296	389.31
362.523	391.31
362.749	407.31
362.976	381.31
363.203	418.31
363.429	404.31
363.656	395.31
363.882	378.31
364.109	376.31
364.335	392.31
364.562	380.31
364.788	380.31
365.015	390.31
365.241	400.31
365.468	395.31
365.694	403.31
365.92	394.31
366.147	367.31
366.373	396.31
366.599	384.31
366.826	391.31
367.052	381.31
367.278	378.31
367.505	403.31
367.731	398.31
367.957	410.31
368.184	402.31
368.41	400.31
368.636	387.31
368.862	412.31
369.089	405.31
369.315	396.31
369.541	392.31
369.767	385.31
369.993	382.31
370.219	385.31
370.445	392.31
370.672	376.31
370.898	398.31
371.124	386.31
371.35	393.31
371.576	386.31
371.802	391.31
372.028	383.31
372.254	378.31
372.48	393.31
372.706	391.31
372.932	403.31
373.158	391.31
373.384	379.31
373.61	394.31
373.835	406.31
374.061	374.31
374.287	397.31
374.513	398.31
374.739	403.31
374.965	421.31
375.191	413.31
375.416	406.31
375.642	368.31
375.868	412.31
376.094	404.31
376.319	381.31
376.545	417.31
376.771	387.31
376.997	381.31
377.222	392.31
377.448	403.31
377.674	396.31
377.899	384.31
378.125	382.31
378.35	396.31
378.576	398.31
378.802	373.31
379.027	386.31
379.253	400.31
379.478	400.31
379.704	414.31
379.929	399.31
380.155	404.31
380.38	407.31
380.606	392.31
380.831	368.31
381.057	403.31
381.282	403.31
381.507	432.31
381.733	399.31
381.958	395.31
382.184	400.31
382.409	406.31
382.634	407.31
382.86	400.31
383.085	409.31
383.31	415.31
383.535	432.31
383.761	400.31
383.986	404.31
384.211	436.31
384.436	429.31
384.662	442.31
384.887	444.31
385.112	424.31
385.337	423.31
385.562	436.31
385.787	421.31
386.013	447.31
386.238	422.31
386.463	444.31
386.688	440.31
386.913	458.31
387.138	449.31
387.363	440.31
387.588	445.31
387.813	442.31
388.038	441.31
388.263	451.31
388.488	450.31
388.713	436.31
388.938	454.31
389.163	454.31
389.387	455.31
389.612	464.31
389.837	455.31
390.062	439.31
390.287	425.31
390.512	437.31
390.736	442.31
390.961	456.31
391.186	450.31
391.411	448.31
391.636	455.31
391.86	464.31
392.085	462.31
392.31	479.31
392.534	467.31
392.759	458.31
392.984	477.31
393.208	448.31
393.433	476.31
393.658	442.31
393.882	445.31
394.107	455.31
394.331	467.31
394.556	454.31
394.78	454.31
395.005	467.31
395.229	470.31
395.454	458.31
395.678	457.31
395.903	495.31
396.127	486.31
396.352	500.31
396.576	476.31
396.801	464.31
397.025	475.31
397.249	480.31
397.474	482.31
397.698	487.31
397.922	486.31
398.147	496.31
398.371	504.31
398.595	511.31
398.82	505.31
399.044	533.31
399.268	554.31
399.492	589.31
399.717	570.31
399.941	611.31
400.165	644.31
400.389	635.31
400.613	593.31
400.837	568.31
401.062	531.31
401.286	546.31
401.51	529.31
401.734	500.31
401.958	539.31
402.182	502.31
402.406	540.31
402.63	538.31
402.854	538.31
403.078	528.31
403.302	549.31
403.526	542.31
403.75	555.31
403.974	550.31
404.198	532.31
404.422	545.31
404.645	556.31
404.869	565.31
405.093	570.31
405.317	598.31
405.541	640.31
405.765	578.31
405.988	548.31
406.212	580.31
406.436	587.31
406.66	586.31
406.883	598.31
407.107	633.31
407.331	644.31
407.555	713.31
407.778	694.31
408.002	656.31
408.226	594.31
408.449	601.31
408.673	603.31
408.896	593.31
409.12	669.31
409.344	614.31
409.567	554.31
409.791	559.31
410.014	530.31
410.238	558.31
410.461	551.31
410.685	572.31
410.908	560.31
411.132	596.31
411.355	635.31
411.578	594.31
411.802	572.31
412.025	542.31
412.249	541.31
412.472	558.31
412.695	599.31
412.919	580.31
413.142	540.31
413.365	528.31
413.589	531.31
413.812	510.31
414.035	524.31
414.258	518.31
414.482	496.31
414.705	503.31
414.928	522.31
415.151	523.31
415.374	507.31
415.597	511.31
415.821	514.31
416.044	507.31
416.267	516.31
416.49	489.31
416.713	498.31
416.936	514.31
417.159	486.31
417.382	511.31
417.605	496.31
417.828	523.31
418.051	530.31
418.274	524.31
418.497	522.31
418.72	514.31
418.943	487.31
419.166	516.31
419.389	550.31
419.611	526.31
419.834	524.31
420.057	532.31
420.28	513.31
420.503	523.31
420.726	505.31
420.948	544.31
421.171	568.31
421.394	596.31
421.617	554.31
421.839	524.31
422.062	539.31
422.285	527.31
422.507	590.31
422.73	642.31
422.953	629.31
423.175	578.31
423.398	587.31
423.621	546.31
423.843	565.31
424.066	547.31
424.288	550.31
424.511	575.31
424.733	629.31
424.956	683.31
425.178	645.31
425.401	662.31
425.623	708.31
425.846	592.31
426.068	539.31
426.291	553.31
426.513	541.31
426.735	570.31
426.958	588.31
427.18	652.31
427.402	807.31
427.625	898.31
427.847	750.31
428.069	653.31
428.292	599.31
428.514	520.31
428.736	513.31
428.958	525.31
429.181	510.31
429.403	534.31
429.625	535.31
429.847	547.31
430.069	603.31
430.292	607.31
430.514	544.31
430.736	535.31
430.958	504.31
431.18	519.31
431.402	506.31
431.624	482.31
431.846	493.31
432.068	488.31
432.29	512.31
432.512	509.31
432.734	504.31
432.956	490.31
433.178	522.31
433.4	523.31
433.622	505.31
433.844	503.31
434.066	488.31
434.287	506.31
434.509	492.31
434.731	499.31
434.953	546.31
435.175	535.31
435.397	548.31
435.618	550.31
435.84	575.31
436.062	674.31
436.284	751.31
436.505	611.31
436.727	566.31
436.949	564.31
437.17	545.31
437.392	522.31
437.614	548.31
437.835	574.31
438.057	632.31
438.278	743.31
438.5	729.31
438.721	792.31
438.943	776.31
439.165	636.31
439.386	548.31
439.608	559.31
439.829	550.31
440.05	571.31
440.272	608.31
440.493	592.31
440.715	550.31
440.936	523.31
441.158	526.31
441.379	534.31
441.6	547.31
441.822	542.31
442.043	574.31
442.264	617.31
442.486	696.31
442.707	591.31
442.928	573.31
443.149	568.31
443.371	584.31
443.592	634.31
443.813	710.31
444.034	746.31
444.255	648.31
444.476	582.31
444.698	572.31
444.919	552.31
445.14	634.31
445.361	592.31
445.582	570.31
445.803	639.31
446.024	728.31
446.245	779.31
446.466	697.31
446.687	584.31
446.908	564.31
447.129	527.31
447.35	516.31
447.571	515.31
447.792	509.31
448.013	506.31
448.234	532.31
448.455	568.31
448.675	651.31
448.896	782.31
449.117	662.31
449.338	648.31
449.559	728.31
449.779	838.31
450	676.31
450.221	572.31
450.442	538.31
450.662	514.31
450.883	501.31
451.104	516.31
451.324	508.31
451.545	487.31
451.766	476.31
451.986	484.31
452.207	478.31
452.428	432.31
452.648	455.31
452.869	458.31
453.089	470.31
453.31	471.31
453.53	496.31
453.751	464.31
453.971	464.31
454.192	475.31
454.412	462.31
454.633	477.31
454.853	453.31
455.073	455.31
455.294	486.31
455.514	538.31
455.734	492.31
455.955	447.31
456.175	458.31
456.395	430.31
456.616	431.31
456.836	457.31
457.056	451.31
457.276	444.31
457.497	434.31
457.717	450.31
457.937	449.31
458.157	472.31
458.377	467.31
458.598	491.31
458.818	506.31
459.038	578.31
459.258	578.31
459.478	534.31
459.698	503.31
459.918	498.31
460.138	520.31
460.358	500.31
460.578	502.31
460.798	507.31
461.018	532.31
461.238	525.31
461.458	509.31
461.678	526.31
461.898	538.31
462.118	541.31
462.338	555.31
462.558	546.31
462.777	558.31
462.997	553.31
463.217	558.31
463.437	575.31
463.657	584.31
463.876	583.31
464.096	573.31
464.316	570.31
464.536	564.31
464.755	568.31
464.975	573.31
465.195	574.31
465.414	602.31
465.634	563.31
465.854	543.31
466.073	495.31
466.293	504.31
466.512	484.31
466.732	471.31
466.951	503.31
467.171	491.31
467.391	479.31
467.61	496.31
467.829	492.31
468.049	494.31
468.268	480.31
468.488	489.31
468.707	478.31
468.927	478.31
469.146	460.31
469.365	480.31
469.585	472.31
469.804	488.31
470.023	475.31
470.243	483.31
470.462	471.31
470.681	494.31
470.901	502.31
471.12	498.31
471.339	482.31
471.558	486.31
471.777	511.31
471.997	482.31
472.216	482.31
472.435	523.31
472.654	476.31
472.873	495.31
473.092	506.31
473.311	485.31
473.53	486.31
473.749	502.31
473.968	543.31
474.187	599.31
474.406	610.31
474.625	557.31
474.844	504.31
475.063	482.31
475.282	488.31
475.501	505.31
475.72	512.31
475.939	474.31
476.158	502.31
476.377	492.31
476.596	517.31
476.814	528.31
477.033	527.31
477.252	546.31
477.471	532.31
477.69	521.31
477.908	541.31
478.127	538.31
478.346	538.31
478.564	554.31
478.783	565.31
479.002	563.31
479.22	567.31
479.439	585.31
479.658	589.31
479.876	597.31
480.095	616.31
480.313	603.31
480.532	610.31
480.751	594.31
480.969	599.31
481.188	626.31
481.406	652.31
481.624	608.31
481.843	593.31
482.061	584.31
482.28	573.31
482.498	564.31
482.717	590.31
482.935	572.31
483.153	573.31
483.372	587.31
483.59	575.31
483.808	571.31
484.027	587.31
484.245	596.31
484.463	588.31
484.681	584.31
484.9	588.31
485.118	586.31
485.336	599.31
485.554	607.31
485.772	575.31
485.99	597.31
486.209	587.31
486.427	606.31
486.645	603.31
486.863	638.31
487.081	628.31
487.299	622.31
487.517	610.31
487.735	596.31
487.953	618.31
488.171	638.31
488.389	601.31
488.607	613.31
488.825	610.31
489.043	614.31
489.261	619.31
489.479	618.31
489.696	629.31
489.914	622.31
490.132	620.31
490.35	646.31
490.568	653.31
490.786	652.31
491.003	628.31
491.221	668.31
491.439	643.31
491.657	663.31
491.874	682.31
492.092	656.31
492.31	657.31
492.527	648.31
492.745	702.31
492.963	692.31
493.18	697.31
493.398	693.31
493.615	674.31
493.833	696.31
494.05	674.31
494.268	671.31
494.485	684.31
494.703	699.31
494.92	714.31
495.138	689.31
495.355	710.31
495.573	679.31
495.79	722.31
496.008	723.31
496.225	695.31
496.442	709.31
496.66	730.31
496.877	709.31
497.094	742.31
497.312	737.31
497.529	742.31
497.746	724.31
497.963	794.31
498.181	827.31
498.398	791.31
498.615	798.31
498.832	849.31
499.049	854.31
499.267	863.31
499.484	898.31
499.701	934.31
499.918	995.31
500.135	1016.31
500.352	1050.31
500.569	1040.31
500.786	1034.31
501.003	1061.31
501.22	1033.31
501.437	980.31
501.654	928.31
501.871	936.31
