Data from 1978.PennyLincolnUp.Lamp.En5.5.200Scan.071719.P1_HRD10591_16-14-45-862.txt Node
Date: Thu Jul 18 16:14:45 EDT 2019
User: cochatt
Spectrometer: HR+D1059
Trigger mode: 1
Integration Time (sec): 1.000000E-1
Scans to average: 1
Electric dark correction enabled: true
Nonlinearity correction enabled: false
Boxcar width: 0
XAxis mode: Wavelengths
Number of Pixels in Spectrum: 2048
>>>>>Begin Spectral Data<<<<<
223.165	-9.88
223.4	-9.88
223.635	-9.88
223.869	-11.88
224.104	-8.88
224.338	-17.88
224.573	-22.88
224.808	-28.88
225.042	-14.88
225.277	-12.88
225.511	2.12
225.746	17.12
225.98	11.12
226.215	10.12
226.449	20.12
226.683	23.12
226.918	17.12
227.152	27.12
227.387	21.12
227.621	40.12
227.856	49.12
228.09	36.12
228.324	41.12
228.559	65.12
228.793	62.12
229.027	104.12
229.262	114.12
229.496	117.12
229.73	134.12
229.964	162.12
230.199	133.12
230.433	113.12
230.667	114.12
230.901	100.12
231.136	133.12
231.37	110.12
231.604	111.12
231.838	117.12
232.072	117.12
232.306	118.12
232.541	110.12
232.775	116.12
233.009	115.12
233.243	96.12
233.477	121.12
233.711	113.12
233.945	121.12
234.179	119.12
234.413	102.12
234.647	111.12
234.881	109.12
235.115	107.12
235.349	135.12
235.583	123.12
235.817	117.12
236.051	123.12
236.285	104.12
236.519	119.12
236.753	133.12
236.987	148.12
237.221	183.12
237.455	228.12
237.689	191.12
237.922	138.12
238.156	127.12
238.39	126.12
238.624	125.12
238.858	128.12
239.091	125.12
239.325	119.12
239.559	134.12
239.793	115.12
240.027	136.12
240.26	134.12
240.494	153.12
240.728	138.12
240.961	150.12
241.195	163.12
241.429	142.12
241.662	137.12
241.896	137.12
242.13	140.12
242.363	145.12
242.597	127.12
242.83	132.12
243.064	143.12
243.298	151.12
243.531	144.12
243.765	129.12
243.998	137.12
244.232	133.12
244.465	143.12
244.699	153.12
244.932	133.12
245.166	150.12
245.399	141.12
245.633	142.12
245.866	151.12
246.099	139.12
246.333	153.12
246.566	145.12
246.8	149.12
247.033	154.12
247.266	170.12
247.5	152.12
247.733	154.12
247.966	162.12
248.2	170.12
248.433	171.12
248.666	171.12
248.899	166.12
249.133	196.12
249.366	208.12
249.599	187.12
249.832	176.12
250.066	172.12
250.299	165.12
250.532	187.12
250.765	213.12
250.998	217.12
251.231	221.12
251.465	225.12
251.698	203.12
251.931	191.12
252.164	208.12
252.397	186.12
252.63	193.12
252.863	186.12
253.096	199.12
253.329	237.12
253.562	207.12
253.795	215.12
254.028	207.12
254.261	211.12
254.494	221.12
254.727	241.12
254.96	277.12
255.193	245.12
255.426	219.12
255.659	213.12
255.892	211.12
256.124	236.12
256.357	225.12
256.59	219.12
256.823	199.12
257.056	198.12
257.289	213.12
257.521	204.12
257.754	213.12
257.987	214.12
258.22	199.12
258.452	200.12
258.685	212.12
258.918	189.12
259.151	190.12
259.383	204.12
259.616	206.12
259.849	211.12
260.081	226.12
260.314	238.12
260.547	244.12
260.779	247.12
261.012	218.12
261.244	219.12
261.477	219.12
261.71	219.12
261.942	235.12
262.175	224.12
262.407	231.12
262.64	227.12
262.872	215.12
263.105	223.12
263.337	217.12
263.57	210.12
263.802	212.12
264.035	228.12
264.267	220.12
264.499	203.12
264.732	230.12
264.964	211.12
265.197	211.12
265.429	212.12
265.661	209.12
265.894	203.12
266.126	205.12
266.358	210.12
266.591	225.12
266.823	237.12
267.055	226.12
267.287	234.12
267.52	231.12
267.752	218.12
267.984	226.12
268.216	227.12
268.448	229.12
268.681	231.12
268.913	250.12
269.145	272.12
269.377	278.12
269.609	272.12
269.841	253.12
270.073	270.12
270.306	305.12
270.538	295.12
270.77	313.12
271.002	296.12
271.234	276.12
271.466	287.12
271.698	303.12
271.93	297.12
272.162	298.12
272.394	320.12
272.626	301.12
272.858	278.12
273.09	259.12
273.322	271.12
273.553	243.12
273.785	246.12
274.017	270.12
274.249	276.12
274.481	258.12
274.713	269.12
274.945	263.12
275.176	269.12
275.408	280.12
275.64	259.12
275.872	259.12
276.104	262.12
276.335	257.12
276.567	248.12
276.799	292.12
277.031	279.12
277.262	307.12
277.494	302.12
277.726	289.12
277.957	302.12
278.189	265.12
278.421	282.12
278.652	275.12
278.884	269.12
279.115	270.12
279.347	272.12
279.579	265.12
279.81	247.12
280.042	274.12
280.273	266.12
280.505	274.12
280.736	250.12
280.968	285.12
281.199	274.12
281.431	279.12
281.662	266.12
281.894	277.12
282.125	259.12
282.356	291.12
282.588	301.12
282.819	307.12
283.051	275.12
283.282	262.12
283.513	285.12
283.745	282.12
283.976	278.12
284.207	268.12
284.439	267.12
284.67	269.12
284.901	287.12
285.132	274.12
285.364	254.12
285.595	271.12
285.826	281.12
286.057	277.12
286.288	284.12
286.52	262.12
286.751	289.12
286.982	283.12
287.213	274.12
287.444	287.12
287.675	287.12
287.906	314.12
288.138	302.12
288.369	288.12
288.6	310.12
288.831	301.12
289.062	292.12
289.293	289.12
289.524	297.12
289.755	280.12
289.986	300.12
290.217	292.12
290.448	294.12
290.679	285.12
290.91	292.12
291.141	289.12
291.371	299.12
291.602	287.12
291.833	288.12
292.064	279.12
292.295	267.12
292.526	284.12
292.757	315.12
292.987	301.12
293.218	302.12
293.449	299.12
293.68	303.12
293.91	297.12
294.141	297.12
294.372	302.12
294.603	292.12
294.833	290.12
295.064	297.12
295.295	299.12
295.525	304.12
295.756	288.12
295.987	303.12
296.217	326.12
296.448	341.12
296.679	311.12
296.909	298.12
297.14	317.12
297.37	297.12
297.601	305.12
297.831	305.12
298.062	310.12
298.292	296.12
298.523	322.12
298.753	320.12
298.984	317.12
299.214	320.12
299.445	317.12
299.675	307.12
299.905	322.12
300.136	311.12
300.366	306.12
300.597	302.12
300.827	293.12
301.057	321.12
301.288	329.12
301.518	313.12
301.748	336.12
301.979	330.12
302.209	323.12
302.439	318.12
302.669	331.12
302.9	317.12
303.13	334.12
303.36	334.12
303.59	337.12
303.82	339.12
304.051	347.12
304.281	345.12
304.511	311.12
304.741	309.12
304.971	328.12
305.201	334.12
305.431	322.12
305.661	344.12
305.891	318.12
306.121	343.12
306.352	333.12
306.582	333.12
306.812	338.12
307.042	338.12
307.272	329.12
307.502	335.12
307.731	316.12
307.961	342.12
308.191	314.12
308.421	326.12
308.651	351.12
308.881	332.12
309.111	355.12
309.341	359.12
309.571	379.12
309.8	375.12
310.03	369.12
310.26	376.12
310.49	381.12
310.72	378.12
310.949	387.12
311.179	395.12
311.409	381.12
311.639	372.12
311.868	375.12
312.098	369.12
312.328	369.12
312.557	414.12
312.787	401.12
313.017	400.12
313.246	388.12
313.476	374.12
313.706	385.12
313.935	386.12
314.165	403.12
314.394	396.12
314.624	395.12
314.853	403.12
315.083	376.12
315.312	387.12
315.542	371.12
315.771	371.12
316.001	373.12
316.23	383.12
316.46	402.12
316.689	373.12
316.919	372.12
317.148	398.12
317.377	388.12
317.607	413.12
317.836	391.12
318.065	383.12
318.295	386.12
318.524	376.12
318.753	363.12
318.983	369.12
319.212	369.12
319.441	386.12
319.67	403.12
319.9	427.12
320.129	402.12
320.358	378.12
320.587	384.12
320.816	405.12
321.046	411.12
321.275	390.12
321.504	399.12
321.733	422.12
321.962	411.12
322.191	424.12
322.42	423.12
322.649	449.12
322.878	453.12
323.108	465.12
323.337	478.12
323.566	527.12
323.795	527.12
324.024	563.12
324.253	717.12
324.482	1025.12
324.71	1618.12
324.939	2540.12
325.168	2135.12
325.397	1015.12
325.626	675.12
325.855	582.12
326.084	530.12
326.313	533.12
326.542	495.12
326.77	566.12
326.999	651.12
327.228	942.12
327.457	1491.12
327.686	1863.12
327.914	1173.12
328.143	727.12
328.372	643.12
328.6	592.12
328.829	559.12
329.058	560.12
329.287	596.12
329.515	582.12
329.744	543.12
329.972	521.12
330.201	554.12
330.43	561.12
330.658	617.12
330.887	606.12
331.115	627.12
331.344	537.12
331.572	487.12
331.801	509.12
332.03	514.12
332.258	493.12
332.486	471.12
332.715	460.12
332.943	478.12
333.172	458.12
333.4	467.12
333.629	488.12
333.857	483.12
334.085	507.12
334.314	499.12
334.542	530.12
334.771	552.12
334.999	527.12
335.227	506.12
335.455	493.12
335.684	473.12
335.912	469.12
336.14	460.12
336.369	445.12
336.597	467.12
336.825	474.12
337.053	454.12
337.281	442.12
337.51	449.12
337.738	449.12
337.966	463.12
338.194	453.12
338.422	473.12
338.65	455.12
338.878	450.12
339.106	439.12
339.334	442.12
339.562	447.12
339.79	438.12
340.018	439.12
340.246	438.12
340.474	459.12
340.702	434.12
340.93	413.12
341.158	451.12
341.386	421.12
341.614	451.12
341.842	449.12
342.07	455.12
342.298	443.12
342.526	428.12
342.754	444.12
342.981	428.12
343.209	439.12
343.437	439.12
343.665	434.12
343.893	434.12
344.12	463.12
344.348	465.12
344.576	450.12
344.804	488.12
345.031	462.12
345.259	481.12
345.487	459.12
345.714	440.12
345.942	443.12
346.17	420.12
346.397	417.12
346.625	426.12
346.853	443.12
347.08	437.12
347.308	431.12
347.535	449.12
347.763	438.12
347.99	433.12
348.218	437.12
348.445	441.12
348.673	430.12
348.9	442.12
349.128	428.12
349.355	423.12
349.583	428.12
349.81	419.12
350.037	417.12
350.265	417.12
350.492	418.12
350.72	425.12
350.947	427.12
351.174	435.12
351.402	421.12
351.629	429.12
351.856	435.12
352.083	455.12
352.311	459.12
352.538	440.12
352.765	447.12
352.992	441.12
353.22	421.12
353.447	418.12
353.674	427.12
353.901	427.12
354.128	404.12
354.355	406.12
354.583	404.12
354.81	404.12
355.037	408.12
355.264	413.12
355.491	403.12
355.718	414.12
355.945	393.12
356.172	419.12
356.399	389.12
356.626	407.12
356.853	402.12
357.08	405.12
357.307	411.12
357.534	395.12
357.761	396.12
357.988	411.12
358.215	414.12
358.441	409.12
358.668	395.12
358.895	414.12
359.122	409.12
359.349	430.12
359.576	447.12
359.802	445.12
360.029	494.12
360.256	492.12
360.483	484.12
360.709	459.12
360.936	444.12
361.163	456.12
361.39	434.12
361.616	442.12
361.843	420.12
362.07	446.12
362.296	441.12
362.523	442.12
362.749	446.12
362.976	426.12
363.203	428.12
363.429	435.12
363.656	417.12
363.882	397.12
364.109	421.12
364.335	394.12
364.562	411.12
364.788	414.12
365.015	408.12
365.241	411.12
365.468	429.12
365.694	415.12
365.92	427.12
366.147	431.12
366.373	418.12
366.599	440.12
366.826	427.12
367.052	417.12
367.278	425.12
367.505	431.12
367.731	412.12
367.957	433.12
368.184	427.12
368.41	422.12
368.636	421.12
368.862	430.12
369.089	439.12
369.315	435.12
369.541	426.12
369.767	431.12
369.993	442.12
370.219	393.12
370.445	426.12
370.672	429.12
370.898	408.12
371.124	426.12
371.35	424.12
371.576	439.12
371.802	428.12
372.028	426.12
372.254	431.12
372.48	444.12
372.706	443.12
372.932	429.12
373.158	433.12
373.384	433.12
373.61	454.12
373.835	436.12
374.061	426.12
374.287	443.12
374.513	462.12
374.739	447.12
374.965	452.12
375.191	428.12
375.416	448.12
375.642	435.12
375.868	433.12
376.094	426.12
376.319	423.12
376.545	430.12
376.771	435.12
376.997	457.12
377.222	410.12
377.448	434.12
377.674	422.12
377.899	431.12
378.125	425.12
378.35	422.12
378.576	422.12
378.802	414.12
379.027	433.12
379.253	420.12
379.478	403.12
379.704	431.12
379.929	425.12
380.155	410.12
380.38	435.12
380.606	442.12
380.831	415.12
381.057	437.12
381.282	442.12
381.507	422.12
381.733	449.12
381.958	441.12
382.184	430.12
382.409	453.12
382.634	455.12
382.86	434.12
383.085	441.12
383.31	436.12
383.535	449.12
383.761	444.12
383.986	430.12
384.211	457.12
384.436	429.12
384.662	451.12
384.887	456.12
385.112	441.12
385.337	472.12
385.562	471.12
385.787	460.12
386.013	488.12
386.238	480.12
386.463	486.12
386.688	475.12
386.913	455.12
387.138	462.12
387.363	469.12
387.588	476.12
387.813	488.12
388.038	463.12
388.263	473.12
388.488	481.12
388.713	478.12
388.938	460.12
389.163	467.12
389.387	489.12
389.612	478.12
389.837	475.12
390.062	479.12
390.287	483.12
390.512	488.12
390.736	473.12
390.961	497.12
391.186	483.12
391.411	479.12
391.636	495.12
391.86	504.12
392.085	483.12
392.31	503.12
392.534	506.12
392.759	500.12
392.984	494.12
393.208	513.12
393.433	469.12
393.658	462.12
393.882	494.12
394.107	489.12
394.331	504.12
394.556	498.12
394.78	489.12
395.005	471.12
395.229	494.12
395.454	502.12
395.678	508.12
395.903	513.12
396.127	530.12
396.352	540.12
396.576	499.12
396.801	503.12
397.025	503.12
397.249	519.12
397.474	518.12
397.698	536.12
397.922	544.12
398.147	536.12
398.371	540.12
398.595	547.12
398.82	551.12
399.044	586.12
399.268	597.12
399.492	588.12
399.717	627.12
399.941	669.12
400.165	667.12
400.389	699.12
400.613	632.12
400.837	594.12
401.062	569.12
401.286	550.12
401.51	554.12
401.734	535.12
401.958	559.12
402.182	550.12
402.406	562.12
402.63	567.12
402.854	577.12
403.078	574.12
403.302	578.12
403.526	584.12
403.75	586.12
403.974	566.12
404.198	564.12
404.422	570.12
404.645	563.12
404.869	583.12
405.093	637.12
405.317	681.12
405.541	719.12
405.765	635.12
405.988	610.12
406.212	613.12
406.436	601.12
406.66	637.12
406.883	635.12
407.107	643.12
407.331	708.12
407.555	797.12
407.778	769.12
408.002	702.12
408.226	665.12
408.449	645.12
408.673	640.12
408.896	657.12
409.12	713.12
409.344	681.12
409.567	619.12
409.791	594.12
410.014	598.12
410.238	581.12
410.461	588.12
410.685	579.12
410.908	613.12
411.132	648.12
411.355	686.12
411.578	649.12
411.802	596.12
412.025	555.12
412.249	579.12
412.472	622.12
412.695	658.12
412.919	651.12
413.142	607.12
413.365	553.12
413.589	579.12
413.812	575.12
414.035	557.12
414.258	562.12
414.482	541.12
414.705	548.12
414.928	533.12
415.151	542.12
415.374	519.12
415.597	541.12
415.821	554.12
416.044	541.12
416.267	553.12
416.49	551.12
416.713	533.12
416.936	544.12
417.159	529.12
417.382	542.12
417.605	555.12
417.828	573.12
418.051	591.12
418.274	544.12
418.497	567.12
418.72	547.12
418.943	561.12
419.166	565.12
419.389	608.12
419.611	587.12
419.834	575.12
420.057	592.12
420.28	573.12
420.503	563.12
420.726	559.12
420.948	584.12
421.171	630.12
421.394	659.12
421.617	599.12
421.839	581.12
422.062	577.12
422.285	573.12
422.507	646.12
422.73	731.12
422.953	714.12
423.175	652.12
423.398	613.12
423.621	599.12
423.843	611.12
424.066	610.12
424.288	614.12
424.511	644.12
424.733	677.12
424.956	771.12
425.178	744.12
425.401	733.12
425.623	798.12
425.846	662.12
426.068	618.12
426.291	629.12
426.513	590.12
426.735	614.12
426.958	658.12
427.18	769.12
427.402	893.12
427.625	995.12
427.847	865.12
428.069	755.12
428.292	663.12
428.514	605.12
428.736	590.12
428.958	608.12
429.181	571.12
429.403	572.12
429.625	555.12
429.847	625.12
430.069	705.12
430.292	695.12
430.514	561.12
430.736	544.12
430.958	559.12
431.18	552.12
431.402	547.12
431.624	548.12
431.846	530.12
432.068	526.12
432.29	528.12
432.512	533.12
432.734	555.12
432.956	559.12
433.178	555.12
433.4	578.12
433.622	557.12
433.844	536.12
434.066	555.12
434.287	554.12
434.509	569.12
434.731	553.12
434.953	573.12
435.175	579.12
435.397	601.12
435.618	620.12
435.84	649.12
436.062	775.12
436.284	857.12
436.505	729.12
436.727	637.12
436.949	569.12
437.17	573.12
437.392	571.12
437.614	585.12
437.835	619.12
438.057	718.12
438.278	883.12
438.5	872.12
438.721	936.12
438.943	874.12
439.165	699.12
439.386	615.12
439.608	627.12
439.829	638.12
440.05	662.12
440.272	697.12
440.493	674.12
440.715	604.12
440.936	593.12
441.158	588.12
441.379	593.12
441.6	612.12
441.822	641.12
442.043	671.12
442.264	737.12
442.486	805.12
442.707	684.12
442.928	638.12
443.149	625.12
443.371	656.12
443.592	707.12
443.813	830.12
444.034	884.12
444.255	730.12
444.476	627.12
444.698	614.12
444.919	631.12
445.14	692.12
445.361	683.12
445.582	650.12
445.803	760.12
446.024	886.12
446.245	892.12
446.466	775.12
446.687	679.12
446.908	618.12
447.129	593.12
447.35	553.12
447.571	579.12
447.792	569.12
448.013	580.12
448.234	580.12
448.455	661.12
448.675	799.12
448.896	909.12
449.117	757.12
449.338	719.12
449.559	811.12
449.779	970.12
450	758.12
450.221	622.12
450.442	561.12
450.662	572.12
450.883	544.12
451.104	577.12
451.324	561.12
451.545	556.12
451.766	523.12
451.986	492.12
452.207	508.12
452.428	522.12
452.648	510.12
452.869	529.12
453.089	517.12
453.31	547.12
453.53	548.12
453.751	524.12
453.971	518.12
454.192	531.12
454.412	521.12
454.633	519.12
454.853	511.12
455.073	525.12
455.294	549.12
455.514	607.12
455.734	601.12
455.955	505.12
456.175	485.12
456.395	490.12
456.616	476.12
456.836	495.12
457.056	493.12
457.276	477.12
457.497	475.12
457.717	463.12
457.937	497.12
458.157	505.12
458.377	501.12
458.598	521.12
458.818	577.12
459.038	658.12
459.258	690.12
459.478	575.12
459.698	531.12
459.918	551.12
460.138	545.12
460.358	540.12
460.578	557.12
460.798	583.12
461.018	587.12
461.238	579.12
461.458	556.12
461.678	546.12
461.898	554.12
462.118	543.12
462.338	585.12
462.558	583.12
462.777	601.12
462.997	603.12
463.217	612.12
463.437	635.12
463.657	619.12
463.876	574.12
464.096	587.12
464.316	607.12
464.536	617.12
464.755	588.12
464.975	607.12
465.195	645.12
465.414	693.12
465.634	638.12
465.854	590.12
466.073	563.12
466.293	555.12
466.512	533.12
466.732	523.12
466.951	518.12
467.171	531.12
467.391	531.12
467.61	541.12
467.829	521.12
468.049	541.12
468.268	522.12
468.488	518.12
468.707	534.12
468.927	523.12
469.146	502.12
469.365	506.12
469.585	507.12
469.804	517.12
470.023	543.12
470.243	527.12
470.462	525.12
470.681	556.12
470.901	543.12
471.12	525.12
471.339	525.12
471.558	536.12
471.777	515.12
471.997	529.12
472.216	540.12
472.435	562.12
472.654	574.12
472.873	550.12
473.092	540.12
473.311	515.12
473.53	527.12
473.749	540.12
473.968	597.12
474.187	700.12
474.406	714.12
474.625	591.12
474.844	551.12
475.063	538.12
475.282	547.12
475.501	539.12
475.72	551.12
475.939	556.12
476.158	545.12
476.377	546.12
476.596	541.12
476.814	553.12
477.033	567.12
477.252	575.12
477.471	570.12
477.69	575.12
477.908	582.12
478.127	589.12
478.346	570.12
478.564	590.12
478.783	569.12
479.002	588.12
479.22	598.12
479.439	636.12
479.658	638.12
479.876	634.12
480.095	648.12
480.313	681.12
480.532	665.12
480.751	635.12
480.969	672.12
481.188	713.12
481.406	764.12
481.624	694.12
481.843	689.12
482.061	629.12
482.28	646.12
482.498	651.12
482.717	610.12
482.935	618.12
483.153	623.12
483.372	625.12
483.59	619.12
483.808	628.12
484.027	609.12
484.245	629.12
484.463	611.12
484.681	625.12
484.9	642.12
485.118	661.12
485.336	635.12
485.554	638.12
485.772	636.12
485.99	628.12
486.209	649.12
486.427	653.12
486.645	645.12
486.863	673.12
487.081	665.12
487.299	653.12
487.517	664.12
487.735	651.12
487.953	689.12
488.171	673.12
488.389	660.12
488.607	660.12
488.825	656.12
489.043	679.12
489.261	679.12
489.479	682.12
489.696	661.12
489.914	683.12
490.132	694.12
490.35	696.12
490.568	700.12
490.786	698.12
491.003	725.12
491.221	740.12
491.439	731.12
491.657	722.12
491.874	770.12
492.092	740.12
492.31	761.12
492.527	738.12
492.745	742.12
492.963	716.12
493.18	761.12
493.398	763.12
493.615	787.12
493.833	783.12
494.05	770.12
494.268	749.12
494.485	769.12
494.703	767.12
494.92	785.12
495.138	759.12
495.355	779.12
495.573	779.12
495.79	770.12
496.008	797.12
496.225	791.12
496.442	782.12
496.66	795.12
496.877	793.12
497.094	805.12
497.312	788.12
497.529	792.12
497.746	854.12
497.963	843.12
498.181	901.12
498.398	905.12
498.615	888.12
498.832	924.12
499.049	899.12
499.267	934.12
499.484	978.12
499.701	991.12
499.918	1045.12
500.135	1100.12
500.352	1115.12
500.569	1092.12
500.786	1145.12
501.003	1151.12
501.22	1088.12
501.437	1079.12
501.654	1037.12
501.871	1016.12
