Data from 1978.PennyLincolnUp.Lamp.En5.5.200Scan.071719.P1_HRD10591_16-13-35-864.txt Node
Date: Thu Jul 18 16:13:35 EDT 2019
User: cochatt
Spectrometer: HR+D1059
Trigger mode: 1
Integration Time (sec): 1.000000E-1
Scans to average: 1
Electric dark correction enabled: true
Nonlinearity correction enabled: false
Boxcar width: 0
XAxis mode: Wavelengths
Number of Pixels in Spectrum: 2048
>>>>>Begin Spectral Data<<<<<
223.165	-13.38
223.4	-13.38
223.635	-13.38
223.869	-21.38
224.104	-22.38
224.338	-17.38
224.573	-15.38
224.808	-12.38
225.042	-2.38
225.277	-8.38
225.511	-13.38
225.746	5.62
225.98	15.62
226.215	-0.38
226.449	28.62
226.683	23.62
226.918	17.62
227.152	35.62
227.387	45.62
227.621	38.62
227.856	47.62
228.09	36.62
228.324	43.62
228.559	60.62
228.793	74.62
229.027	107.62
229.262	106.62
229.496	116.62
229.73	123.62
229.964	154.62
230.199	141.62
230.433	105.62
230.667	102.62
230.901	119.62
231.136	118.62
231.37	110.62
231.604	119.62
231.838	116.62
232.072	116.62
232.306	118.62
232.541	134.62
232.775	129.62
233.009	116.62
233.243	102.62
233.477	108.62
233.711	107.62
233.945	127.62
234.179	114.62
234.413	119.62
234.647	116.62
234.881	126.62
235.115	116.62
235.349	126.62
235.583	122.62
235.817	122.62
236.051	125.62
236.285	117.62
236.519	121.62
236.753	139.62
236.987	126.62
237.221	188.62
237.455	236.62
237.689	195.62
237.922	140.62
238.156	145.62
238.39	116.62
238.624	122.62
238.858	128.62
239.091	121.62
239.325	116.62
239.559	125.62
239.793	126.62
240.027	134.62
240.26	161.62
240.494	148.62
240.728	163.62
240.961	150.62
241.195	152.62
241.429	135.62
241.662	128.62
241.896	124.62
242.13	125.62
242.363	135.62
242.597	148.62
242.83	136.62
243.064	139.62
243.298	129.62
243.531	139.62
243.765	142.62
243.998	138.62
244.232	136.62
244.465	136.62
244.699	141.62
244.932	143.62
245.166	139.62
245.399	132.62
245.633	135.62
245.866	151.62
246.099	140.62
246.333	143.62
246.566	155.62
246.8	144.62
247.033	142.62
247.266	150.62
247.5	156.62
247.733	148.62
247.966	158.62
248.2	171.62
248.433	158.62
248.666	170.62
248.899	174.62
249.133	184.62
249.366	201.62
249.599	186.62
249.832	164.62
250.066	161.62
250.299	178.62
250.532	179.62
250.765	192.62
250.998	200.62
251.231	228.62
251.465	208.62
251.698	194.62
251.931	197.62
252.164	187.62
252.397	195.62
252.63	194.62
252.863	197.62
253.096	208.62
253.329	227.62
253.562	226.62
253.795	209.62
254.028	199.62
254.261	189.62
254.494	229.62
254.727	249.62
254.96	266.62
255.193	260.62
255.426	240.62
255.659	222.62
255.892	217.62
256.124	207.62
256.357	216.62
256.59	219.62
256.823	214.62
257.056	219.62
257.289	202.62
257.521	200.62
257.754	205.62
257.987	200.62
258.22	198.62
258.452	196.62
258.685	197.62
258.918	198.62
259.151	199.62
259.383	215.62
259.616	221.62
259.849	214.62
260.081	223.62
260.314	235.62
260.547	233.62
260.779	213.62
261.012	237.62
261.244	233.62
261.477	221.62
261.71	217.62
261.942	212.62
262.175	223.62
262.407	215.62
262.64	205.62
262.872	203.62
263.105	204.62
263.337	223.62
263.57	222.62
263.802	193.62
264.035	209.62
264.267	206.62
264.499	223.62
264.732	208.62
264.964	203.62
265.197	195.62
265.429	203.62
265.661	224.62
265.894	212.62
266.126	202.62
266.358	198.62
266.591	214.62
266.823	217.62
267.055	220.62
267.287	232.62
267.52	224.62
267.752	211.62
267.984	243.62
268.216	223.62
268.448	218.62
268.681	231.62
268.913	231.62
269.145	258.62
269.377	255.62
269.609	270.62
269.841	248.62
270.073	271.62
270.306	287.62
270.538	281.62
270.77	289.62
271.002	297.62
271.234	267.62
271.466	280.62
271.698	313.62
271.93	295.62
272.162	321.62
272.394	292.62
272.626	291.62
272.858	292.62
273.09	275.62
273.322	273.62
273.553	250.62
273.785	272.62
274.017	266.62
274.249	272.62
274.481	246.62
274.713	257.62
274.945	264.62
275.176	248.62
275.408	264.62
275.64	270.62
275.872	235.62
276.104	266.62
276.335	268.62
276.567	281.62
276.799	289.62
277.031	294.62
277.262	316.62
277.494	311.62
277.726	291.62
277.957	295.62
278.189	272.62
278.421	270.62
278.652	270.62
278.884	263.62
279.115	272.62
279.347	269.62
279.579	271.62
279.81	265.62
280.042	259.62
280.273	276.62
280.505	274.62
280.736	243.62
280.968	244.62
281.199	279.62
281.431	292.62
281.662	273.62
281.894	268.62
282.125	287.62
282.356	296.62
282.588	311.62
282.819	290.62
283.051	283.62
283.282	272.62
283.513	269.62
283.745	293.62
283.976	274.62
284.207	275.62
284.439	303.62
284.67	282.62
284.901	278.62
285.132	270.62
285.364	280.62
285.595	275.62
285.826	265.62
286.057	269.62
286.288	281.62
286.52	293.62
286.751	276.62
286.982	281.62
287.213	285.62
287.444	286.62
287.675	288.62
287.906	302.62
288.138	309.62
288.369	292.62
288.6	311.62
288.831	294.62
289.062	290.62
289.293	301.62
289.524	293.62
289.755	290.62
289.986	279.62
290.217	308.62
290.448	277.62
290.679	278.62
290.91	296.62
291.141	282.62
291.371	289.62
291.602	296.62
291.833	303.62
292.064	286.62
292.295	268.62
292.526	292.62
292.757	278.62
292.987	299.62
293.218	292.62
293.449	293.62
293.68	292.62
293.91	292.62
294.141	290.62
294.372	291.62
294.603	287.62
294.833	304.62
295.064	302.62
295.295	296.62
295.525	287.62
295.756	294.62
295.987	283.62
296.217	312.62
296.448	336.62
296.679	317.62
296.909	300.62
297.14	306.62
297.37	304.62
297.601	312.62
297.831	307.62
298.062	314.62
298.292	292.62
298.523	299.62
298.753	294.62
298.984	308.62
299.214	316.62
299.445	335.62
299.675	303.62
299.905	316.62
300.136	314.62
300.366	310.62
300.597	323.62
300.827	311.62
301.057	327.62
301.288	315.62
301.518	319.62
301.748	318.62
301.979	346.62
302.209	333.62
302.439	333.62
302.669	327.62
302.9	318.62
303.13	329.62
303.36	332.62
303.59	326.62
303.82	331.62
304.051	347.62
304.281	322.62
304.511	331.62
304.741	318.62
304.971	317.62
305.201	328.62
305.431	324.62
305.661	346.62
305.891	322.62
306.121	340.62
306.352	326.62
306.582	361.62
306.812	335.62
307.042	324.62
307.272	343.62
307.502	332.62
307.731	326.62
307.961	332.62
308.191	346.62
308.421	346.62
308.651	334.62
308.881	350.62
309.111	339.62
309.341	347.62
309.571	335.62
309.8	364.62
310.03	353.62
310.26	374.62
310.49	380.62
310.72	384.62
310.949	396.62
311.179	409.62
311.409	368.62
311.639	362.62
311.868	359.62
312.098	350.62
312.328	395.62
312.557	396.62
312.787	392.62
313.017	418.62
313.246	376.62
313.476	378.62
313.706	379.62
313.935	378.62
314.165	388.62
314.394	400.62
314.624	404.62
314.853	388.62
315.083	380.62
315.312	362.62
315.542	376.62
315.771	370.62
316.001	374.62
316.23	371.62
316.46	355.62
316.689	378.62
316.919	365.62
317.148	367.62
317.377	382.62
317.607	391.62
317.836	383.62
318.065	377.62
318.295	366.62
318.524	382.62
318.753	386.62
318.983	368.62
319.212	377.62
319.441	373.62
319.67	404.62
319.9	386.62
320.129	384.62
320.358	377.62
320.587	404.62
320.816	394.62
321.046	411.62
321.275	390.62
321.504	398.62
321.733	404.62
321.962	405.62
322.191	438.62
322.42	404.62
322.649	414.62
322.878	456.62
323.108	455.62
323.337	477.62
323.566	497.62
323.795	533.62
324.024	569.62
324.253	695.62
324.482	967.62
324.71	1562.62
324.939	2372.62
325.168	2027.62
325.397	968.62
325.626	673.62
325.855	570.62
326.084	514.62
326.313	508.62
326.542	524.62
326.77	547.62
326.999	638.62
327.228	889.62
327.457	1405.62
327.686	1780.62
327.914	1131.62
328.143	708.62
328.372	642.62
328.6	587.62
328.829	542.62
329.058	582.62
329.287	576.62
329.515	555.62
329.744	494.62
329.972	493.62
330.201	531.62
330.43	546.62
330.658	570.62
330.887	607.62
331.115	595.62
331.344	520.62
331.572	484.62
331.801	514.62
332.03	494.62
332.258	478.62
332.486	437.62
332.715	442.62
332.943	459.62
333.172	445.62
333.4	480.62
333.629	480.62
333.857	493.62
334.085	497.62
334.314	512.62
334.542	495.62
334.771	565.62
334.999	490.62
335.227	480.62
335.455	473.62
335.684	474.62
335.912	479.62
336.14	446.62
336.369	457.62
336.597	466.62
336.825	476.62
337.053	455.62
337.281	443.62
337.51	436.62
337.738	456.62
337.966	460.62
338.194	462.62
338.422	474.62
338.65	428.62
338.878	461.62
339.106	446.62
339.334	436.62
339.562	439.62
339.79	458.62
340.018	464.62
340.246	420.62
340.474	456.62
340.702	432.62
340.93	453.62
341.158	428.62
341.386	443.62
341.614	438.62
341.842	430.62
342.07	442.62
342.298	446.62
342.526	437.62
342.754	437.62
342.981	424.62
343.209	435.62
343.437	446.62
343.665	441.62
343.893	444.62
344.12	448.62
344.348	452.62
344.576	415.62
344.804	464.62
345.031	479.62
345.259	461.62
345.487	452.62
345.714	428.62
345.942	442.62
346.17	442.62
346.397	429.62
346.625	430.62
346.853	422.62
347.08	431.62
347.308	438.62
347.535	439.62
347.763	444.62
347.99	460.62
348.218	448.62
348.445	451.62
348.673	454.62
348.9	436.62
349.128	436.62
349.355	415.62
349.583	419.62
349.81	404.62
350.037	406.62
350.265	448.62
350.492	425.62
350.72	432.62
350.947	420.62
351.174	436.62
351.402	430.62
351.629	428.62
351.856	417.62
352.083	437.62
352.311	439.62
352.538	439.62
352.765	457.62
352.992	431.62
353.22	439.62
353.447	436.62
353.674	428.62
353.901	394.62
354.128	405.62
354.355	419.62
354.583	411.62
354.81	408.62
355.037	392.62
355.264	394.62
355.491	397.62
355.718	396.62
355.945	421.62
356.172	393.62
356.399	395.62
356.626	410.62
356.853	394.62
357.08	410.62
357.307	417.62
357.534	400.62
357.761	416.62
357.988	404.62
358.215	431.62
358.441	414.62
358.668	398.62
358.895	421.62
359.122	414.62
359.349	412.62
359.576	420.62
359.802	446.62
360.029	477.62
360.256	498.62
360.483	466.62
360.709	428.62
360.936	436.62
361.163	423.62
361.39	458.62
361.616	444.62
361.843	438.62
362.07	422.62
362.296	423.62
362.523	422.62
362.749	428.62
362.976	420.62
363.203	414.62
363.429	430.62
363.656	420.62
363.882	438.62
364.109	413.62
364.335	422.62
364.562	424.62
364.788	414.62
365.015	422.62
365.241	403.62
365.468	423.62
365.694	424.62
365.92	427.62
366.147	411.62
366.373	423.62
366.599	400.62
366.826	409.62
367.052	400.62
367.278	434.62
367.505	422.62
367.731	415.62
367.957	412.62
368.184	413.62
368.41	436.62
368.636	429.62
368.862	416.62
369.089	446.62
369.315	425.62
369.541	428.62
369.767	415.62
369.993	424.62
370.219	418.62
370.445	420.62
370.672	430.62
370.898	430.62
371.124	399.62
371.35	419.62
371.576	442.62
371.802	423.62
372.028	440.62
372.254	428.62
372.48	424.62
372.706	443.62
372.932	417.62
373.158	435.62
373.384	421.62
373.61	435.62
373.835	418.62
374.061	415.62
374.287	438.62
374.513	434.62
374.739	442.62
374.965	426.62
375.191	414.62
375.416	442.62
375.642	439.62
375.868	416.62
376.094	437.62
376.319	420.62
376.545	429.62
376.771	424.62
376.997	435.62
377.222	415.62
377.448	416.62
377.674	423.62
377.899	407.62
378.125	415.62
378.35	414.62
378.576	438.62
378.802	442.62
379.027	428.62
379.253	436.62
379.478	415.62
379.704	426.62
379.929	430.62
380.155	420.62
380.38	422.62
380.606	431.62
380.831	416.62
381.057	443.62
381.282	420.62
381.507	425.62
381.733	445.62
381.958	409.62
382.184	453.62
382.409	458.62
382.634	451.62
382.86	444.62
383.085	458.62
383.31	438.62
383.535	444.62
383.761	438.62
383.986	452.62
384.211	431.62
384.436	440.62
384.662	449.62
384.887	450.62
385.112	441.62
385.337	464.62
385.562	472.62
385.787	475.62
386.013	466.62
386.238	493.62
386.463	482.62
386.688	471.62
386.913	456.62
387.138	464.62
387.363	455.62
387.588	489.62
387.813	475.62
388.038	487.62
388.263	482.62
388.488	502.62
388.713	487.62
388.938	479.62
389.163	490.62
389.387	484.62
389.612	458.62
389.837	487.62
390.062	500.62
390.287	463.62
390.512	483.62
390.736	479.62
390.961	484.62
391.186	493.62
391.411	498.62
391.636	485.62
391.86	478.62
392.085	472.62
392.31	493.62
392.534	497.62
392.759	499.62
392.984	482.62
393.208	475.62
393.433	490.62
393.658	487.62
393.882	487.62
394.107	475.62
394.331	483.62
394.556	466.62
394.78	479.62
395.005	495.62
395.229	498.62
395.454	485.62
395.678	505.62
395.903	508.62
396.127	548.62
396.352	535.62
396.576	506.62
396.801	508.62
397.025	506.62
397.249	502.62
397.474	502.62
397.698	517.62
397.922	558.62
398.147	544.62
398.371	544.62
398.595	552.62
398.82	553.62
399.044	556.62
399.268	568.62
399.492	607.62
399.717	649.62
399.941	656.62
400.165	702.62
400.389	690.62
400.613	629.62
400.837	592.62
401.062	582.62
401.286	579.62
401.51	540.62
401.734	553.62
401.958	557.62
402.182	575.62
402.406	570.62
402.63	572.62
402.854	574.62
403.078	555.62
403.302	578.62
403.526	590.62
403.75	577.62
403.974	594.62
404.198	565.62
404.422	580.62
404.645	582.62
404.869	586.62
405.093	631.62
405.317	668.62
405.541	698.62
405.765	629.62
405.988	604.62
406.212	634.62
406.436	608.62
406.66	650.62
406.883	615.62
407.107	636.62
407.331	693.62
407.555	743.62
407.778	773.62
408.002	691.62
408.226	639.62
408.449	638.62
408.673	644.62
408.896	662.62
409.12	717.62
409.344	677.62
409.567	611.62
409.791	597.62
410.014	611.62
410.238	587.62
410.461	554.62
410.685	566.62
410.908	612.62
411.132	633.62
411.355	688.62
411.578	652.62
411.802	607.62
412.025	590.62
412.249	574.62
412.472	622.62
412.695	655.62
412.919	648.62
413.142	560.62
413.365	596.62
413.589	568.62
413.812	560.62
414.035	566.62
414.258	549.62
414.482	563.62
414.705	557.62
414.928	540.62
415.151	542.62
415.374	565.62
415.597	542.62
415.821	538.62
416.044	547.62
416.267	535.62
416.49	554.62
416.713	542.62
416.936	560.62
417.159	529.62
417.382	546.62
417.605	546.62
417.828	567.62
418.051	568.62
418.274	564.62
418.497	551.62
418.72	534.62
418.943	567.62
419.166	589.62
419.389	591.62
419.611	584.62
419.834	574.62
420.057	586.62
420.28	581.62
420.503	571.62
420.726	566.62
420.948	580.62
421.171	616.62
421.394	645.62
421.617	603.62
421.839	560.62
422.062	560.62
422.285	563.62
422.507	640.62
422.73	749.62
422.953	720.62
423.175	624.62
423.398	602.62
423.621	572.62
423.843	614.62
424.066	594.62
424.288	611.62
424.511	642.62
424.733	690.62
424.956	792.62
425.178	745.62
425.401	723.62
425.623	773.62
425.846	640.62
426.068	577.62
426.291	612.62
426.513	591.62
426.735	609.62
426.958	651.62
427.18	729.62
427.402	896.62
427.625	981.62
427.847	850.62
428.069	739.62
428.292	685.62
428.514	606.62
428.736	578.62
428.958	590.62
429.181	560.62
429.403	566.62
429.625	579.62
429.847	567.62
430.069	677.62
430.292	659.62
430.514	595.62
430.736	575.62
430.958	548.62
431.18	570.62
431.402	562.62
431.624	513.62
431.846	536.62
432.068	520.62
432.29	534.62
432.512	522.62
432.734	546.62
432.956	544.62
433.178	548.62
433.4	573.62
433.622	534.62
433.844	558.62
434.066	531.62
434.287	541.62
434.509	543.62
434.731	541.62
434.953	559.62
435.175	564.62
435.397	596.62
435.618	594.62
435.84	655.62
436.062	762.62
436.284	827.62
436.505	678.62
436.727	623.62
436.949	579.62
437.17	579.62
437.392	565.62
437.614	581.62
437.835	606.62
438.057	706.62
438.278	815.62
438.5	785.62
438.721	912.62
438.943	868.62
439.165	678.62
439.386	637.62
439.608	634.62
439.829	625.62
440.05	626.62
440.272	696.62
440.493	680.62
440.715	610.62
440.936	577.62
441.158	570.62
441.379	573.62
441.6	573.62
441.822	600.62
442.043	656.62
442.264	743.62
442.486	789.62
442.707	660.62
442.928	624.62
443.149	636.62
443.371	643.62
443.592	687.62
443.813	808.62
444.034	871.62
444.255	724.62
444.476	632.62
444.698	630.62
444.919	641.62
445.14	679.62
445.361	656.62
445.582	682.62
445.803	730.62
446.024	850.62
446.245	876.62
446.466	789.62
446.687	664.62
446.908	634.62
447.129	596.62
447.35	559.62
447.571	561.62
447.792	575.62
448.013	581.62
448.234	581.62
448.455	642.62
448.675	773.62
448.896	937.62
449.117	745.62
449.338	702.62
449.559	815.62
449.779	970.62
450	739.62
450.221	604.62
450.442	587.62
450.662	565.62
450.883	557.62
451.104	564.62
451.324	542.62
451.545	538.62
451.766	526.62
451.986	500.62
452.207	514.62
452.428	504.62
452.648	506.62
452.869	490.62
453.089	513.62
453.31	534.62
453.53	509.62
453.751	483.62
453.971	500.62
454.192	535.62
454.412	495.62
454.633	522.62
454.853	497.62
455.073	510.62
455.294	526.62
455.514	587.62
455.734	602.62
455.955	514.62
456.175	485.62
456.395	495.62
456.616	485.62
456.836	473.62
457.056	477.62
457.276	501.62
457.497	485.62
457.717	483.62
457.937	498.62
458.157	490.62
458.377	481.62
458.598	506.62
458.818	577.62
459.038	676.62
459.258	688.62
459.478	598.62
459.698	555.62
459.918	542.62
460.138	551.62
460.358	568.62
460.578	522.62
460.798	562.62
461.018	562.62
461.238	552.62
461.458	542.62
461.678	546.62
461.898	564.62
462.118	574.62
462.338	585.62
462.558	572.62
462.777	580.62
462.997	621.62
463.217	602.62
463.437	611.62
463.657	580.62
463.876	600.62
464.096	632.62
464.316	613.62
464.536	606.62
464.755	599.62
464.975	587.62
465.195	638.62
465.414	706.62
465.634	656.62
465.854	594.62
466.073	584.62
466.293	535.62
466.512	539.62
466.732	528.62
466.951	509.62
467.171	518.62
467.391	536.62
467.61	524.62
467.829	542.62
468.049	511.62
468.268	554.62
468.488	527.62
468.707	524.62
468.927	496.62
469.146	499.62
469.365	506.62
469.585	504.62
469.804	516.62
470.023	514.62
470.243	534.62
470.462	536.62
470.681	553.62
470.901	541.62
471.12	508.62
471.339	527.62
471.558	515.62
471.777	517.62
471.997	515.62
472.216	536.62
472.435	563.62
472.654	582.62
472.873	508.62
473.092	514.62
473.311	528.62
473.53	516.62
473.749	529.62
473.968	587.62
474.187	680.62
474.406	717.62
474.625	602.62
474.844	543.62
475.063	531.62
475.282	522.62
475.501	570.62
475.72	562.62
475.939	538.62
476.158	540.62
476.377	559.62
476.596	552.62
476.814	556.62
477.033	588.62
477.252	577.62
477.471	552.62
477.69	582.62
477.908	570.62
478.127	567.62
478.346	578.62
478.564	587.62
478.783	605.62
479.002	623.62
479.22	606.62
479.439	623.62
479.658	631.62
479.876	628.62
480.095	650.62
480.313	672.62
480.532	663.62
480.751	646.62
480.969	644.62
481.188	687.62
481.406	724.62
481.624	664.62
481.843	637.62
482.061	641.62
482.28	623.62
482.498	618.62
482.717	633.62
482.935	637.62
483.153	653.62
483.372	623.62
483.59	608.62
483.808	620.62
484.027	621.62
484.245	624.62
484.463	621.62
484.681	625.62
484.9	619.62
485.118	645.62
485.336	650.62
485.554	645.62
485.772	635.62
485.99	663.62
486.209	642.62
486.427	644.62
486.645	658.62
486.863	676.62
487.081	668.62
487.299	633.62
487.517	679.62
487.735	668.62
487.953	655.62
488.171	666.62
488.389	644.62
488.607	655.62
488.825	676.62
489.043	649.62
489.261	682.62
489.479	666.62
489.696	671.62
489.914	677.62
490.132	675.62
490.35	696.62
490.568	680.62
490.786	713.62
491.003	696.62
491.221	741.62
491.439	724.62
491.657	718.62
491.874	720.62
492.092	729.62
492.31	732.62
492.527	738.62
492.745	765.62
492.963	762.62
493.18	762.62
493.398	771.62
493.615	743.62
493.833	741.62
494.05	746.62
494.268	749.62
494.485	761.62
494.703	757.62
494.92	772.62
495.138	780.62
495.355	797.62
495.573	765.62
495.79	763.62
496.008	777.62
496.225	795.62
496.442	787.62
496.66	789.62
496.877	766.62
497.094	779.62
497.312	775.62
497.529	785.62
497.746	824.62
497.963	835.62
498.181	853.62
498.398	874.62
498.615	882.62
498.832	904.62
499.049	903.62
499.267	958.62
499.484	964.62
499.701	969.62
499.918	1034.62
500.135	1111.62
500.352	1135.62
500.569	1144.62
500.786	1142.62
501.003	1135.62
501.22	1116.62
501.437	1069.62
501.654	1039.62
