Data from 1978.PennyLincolnUp.Lamp.En5.5.200Scan.071719.P1_HRD10591_16-13-16-863.txt Node
Date: Thu Jul 18 16:13:16 EDT 2019
User: cochatt
Spectrometer: HR+D1059
Trigger mode: 1
Integration Time (sec): 1.000000E-1
Scans to average: 1
Electric dark correction enabled: true
Nonlinearity correction enabled: false
Boxcar width: 0
XAxis mode: Wavelengths
Number of Pixels in Spectrum: 2048
>>>>>Begin Spectral Data<<<<<
223.165	-15.44
223.4	-15.44
223.635	-15.44
223.869	-22.44
224.104	-20.44
224.338	-25.44
224.573	-11.44
224.808	-11.44
225.042	-14.44
225.277	-0.44
225.511	11.56
225.746	15.56
225.98	-2.44
226.215	5.56
226.449	13.56
226.683	24.56
226.918	31.56
227.152	21.56
227.387	33.56
227.621	33.56
227.856	44.56
228.09	43.56
228.324	62.56
228.559	51.56
228.793	64.56
229.027	89.56
229.262	104.56
229.496	126.56
229.73	129.56
229.964	143.56
230.199	123.56
230.433	128.56
230.667	112.56
230.901	108.56
231.136	111.56
231.37	112.56
231.604	103.56
231.838	117.56
232.072	105.56
232.306	127.56
232.541	101.56
232.775	131.56
233.009	109.56
233.243	114.56
233.477	107.56
233.711	121.56
233.945	112.56
234.179	123.56
234.413	133.56
234.647	122.56
234.881	118.56
235.115	92.56
235.349	131.56
235.583	122.56
235.817	128.56
236.051	125.56
236.285	121.56
236.519	120.56
236.753	123.56
236.987	143.56
237.221	179.56
237.455	229.56
237.689	167.56
237.922	137.56
238.156	141.56
238.39	127.56
238.624	117.56
238.858	139.56
239.091	131.56
239.325	119.56
239.559	138.56
239.793	121.56
240.027	127.56
240.26	129.56
240.494	140.56
240.728	146.56
240.961	144.56
241.195	136.56
241.429	154.56
241.662	133.56
241.896	137.56
242.13	140.56
242.363	136.56
242.597	140.56
242.83	129.56
243.064	149.56
243.298	142.56
243.531	128.56
243.765	144.56
243.998	154.56
244.232	150.56
244.465	133.56
244.699	145.56
244.932	140.56
245.166	132.56
245.399	133.56
245.633	146.56
245.866	138.56
246.099	150.56
246.333	141.56
246.566	144.56
246.8	162.56
247.033	155.56
247.266	154.56
247.5	169.56
247.733	163.56
247.966	169.56
248.2	175.56
248.433	166.56
248.666	166.56
248.899	182.56
249.133	178.56
249.366	178.56
249.599	189.56
249.832	165.56
250.066	159.56
250.299	177.56
250.532	187.56
250.765	207.56
250.998	216.56
251.231	208.56
251.465	209.56
251.698	190.56
251.931	195.56
252.164	195.56
252.397	182.56
252.63	172.56
252.863	196.56
253.096	205.56
253.329	218.56
253.562	219.56
253.795	195.56
254.028	205.56
254.261	207.56
254.494	221.56
254.727	232.56
254.96	260.56
255.193	264.56
255.426	233.56
255.659	218.56
255.892	225.56
256.124	219.56
256.357	237.56
256.59	212.56
256.823	194.56
257.056	210.56
257.289	199.56
257.521	206.56
257.754	206.56
257.987	196.56
258.22	203.56
258.452	198.56
258.685	197.56
258.918	188.56
259.151	196.56
259.383	208.56
259.616	217.56
259.849	228.56
260.081	228.56
260.314	236.56
260.547	246.56
260.779	231.56
261.012	244.56
261.244	206.56
261.477	213.56
261.71	215.56
261.942	213.56
262.175	231.56
262.407	220.56
262.64	225.56
262.872	206.56
263.105	209.56
263.337	218.56
263.57	226.56
263.802	201.56
264.035	213.56
264.267	209.56
264.499	220.56
264.732	219.56
264.964	215.56
265.197	209.56
265.429	225.56
265.661	215.56
265.894	196.56
266.126	215.56
266.358	229.56
266.591	227.56
266.823	216.56
267.055	217.56
267.287	208.56
267.52	209.56
267.752	216.56
267.984	220.56
268.216	230.56
268.448	224.56
268.681	231.56
268.913	225.56
269.145	239.56
269.377	244.56
269.609	251.56
269.841	253.56
270.073	257.56
270.306	268.56
270.538	296.56
270.77	294.56
271.002	273.56
271.234	273.56
271.466	283.56
271.698	313.56
271.93	310.56
272.162	310.56
272.394	291.56
272.626	283.56
272.858	262.56
273.09	269.56
273.322	251.56
273.553	288.56
273.785	250.56
274.017	253.56
274.249	269.56
274.481	258.56
274.713	267.56
274.945	267.56
275.176	265.56
275.408	234.56
275.64	266.56
275.872	245.56
276.104	261.56
276.335	271.56
276.567	254.56
276.799	288.56
277.031	315.56
277.262	315.56
277.494	296.56
277.726	279.56
277.957	266.56
278.189	281.56
278.421	271.56
278.652	263.56
278.884	283.56
279.115	275.56
279.347	250.56
279.579	246.56
279.81	259.56
280.042	252.56
280.273	268.56
280.505	259.56
280.736	251.56
280.968	266.56
281.199	282.56
281.431	276.56
281.662	268.56
281.894	263.56
282.125	264.56
282.356	283.56
282.588	297.56
282.819	312.56
283.051	286.56
283.282	272.56
283.513	269.56
283.745	275.56
283.976	281.56
284.207	288.56
284.439	269.56
284.67	265.56
284.901	288.56
285.132	273.56
285.364	270.56
285.595	282.56
285.826	284.56
286.057	268.56
286.288	281.56
286.52	269.56
286.751	288.56
286.982	290.56
287.213	294.56
287.444	272.56
287.675	301.56
287.906	289.56
288.138	298.56
288.369	288.56
288.6	301.56
288.831	293.56
289.062	281.56
289.293	305.56
289.524	272.56
289.755	293.56
289.986	271.56
290.217	288.56
290.448	302.56
290.679	289.56
290.91	296.56
291.141	277.56
291.371	279.56
291.602	274.56
291.833	288.56
292.064	269.56
292.295	283.56
292.526	278.56
292.757	305.56
292.987	286.56
293.218	296.56
293.449	287.56
293.68	285.56
293.91	299.56
294.141	296.56
294.372	300.56
294.603	303.56
294.833	293.56
295.064	299.56
295.295	297.56
295.525	296.56
295.756	296.56
295.987	300.56
296.217	339.56
296.448	332.56
296.679	319.56
296.909	287.56
297.14	287.56
297.37	311.56
297.601	292.56
297.831	322.56
298.062	315.56
298.292	290.56
298.523	273.56
298.753	314.56
298.984	309.56
299.214	308.56
299.445	308.56
299.675	308.56
299.905	323.56
300.136	314.56
300.366	298.56
300.597	318.56
300.827	311.56
301.057	314.56
301.288	326.56
301.518	313.56
301.748	310.56
301.979	330.56
302.209	323.56
302.439	314.56
302.669	327.56
302.9	334.56
303.13	325.56
303.36	329.56
303.59	325.56
303.82	329.56
304.051	323.56
304.281	350.56
304.511	320.56
304.741	325.56
304.971	328.56
305.201	318.56
305.431	318.56
305.661	340.56
305.891	335.56
306.121	347.56
306.352	329.56
306.582	333.56
306.812	332.56
307.042	342.56
307.272	339.56
307.502	329.56
307.731	333.56
307.961	333.56
308.191	322.56
308.421	338.56
308.651	360.56
308.881	339.56
309.111	327.56
309.341	353.56
309.571	360.56
309.8	357.56
310.03	352.56
310.26	352.56
310.49	359.56
310.72	382.56
310.949	379.56
311.179	380.56
311.409	359.56
311.639	378.56
311.868	373.56
312.098	379.56
312.328	397.56
312.557	412.56
312.787	396.56
313.017	407.56
313.246	381.56
313.476	369.56
313.706	364.56
313.935	368.56
314.165	387.56
314.394	383.56
314.624	389.56
314.853	398.56
315.083	381.56
315.312	388.56
315.542	378.56
315.771	378.56
316.001	371.56
316.23	381.56
316.46	366.56
316.689	381.56
316.919	379.56
317.148	377.56
317.377	395.56
317.607	380.56
317.836	371.56
318.065	395.56
318.295	372.56
318.524	355.56
318.753	383.56
318.983	369.56
319.212	383.56
319.441	387.56
319.67	401.56
319.9	407.56
320.129	385.56
320.358	395.56
320.587	384.56
320.816	389.56
321.046	397.56
321.275	400.56
321.504	390.56
321.733	398.56
321.962	386.56
322.191	421.56
322.42	430.56
322.649	449.56
322.878	443.56
323.108	445.56
323.337	478.56
323.566	471.56
323.795	516.56
324.024	577.56
324.253	667.56
324.482	972.56
324.71	1537.56
324.939	2269.56
325.168	2006.56
325.397	944.56
325.626	624.56
325.855	552.56
326.084	503.56
326.313	503.56
326.542	488.56
326.77	540.56
326.999	635.56
327.228	860.56
327.457	1382.56
327.686	1734.56
327.914	1119.56
328.143	722.56
328.372	592.56
328.6	579.56
328.829	548.56
329.058	549.56
329.287	575.56
329.515	534.56
329.744	509.56
329.972	508.56
330.201	503.56
330.43	538.56
330.658	591.56
330.887	588.56
331.115	573.56
331.344	492.56
331.572	491.56
331.801	496.56
332.03	480.56
332.258	466.56
332.486	462.56
332.715	457.56
332.943	448.56
333.172	475.56
333.4	451.56
333.629	462.56
333.857	480.56
334.085	499.56
334.314	494.56
334.542	540.56
334.771	558.56
334.999	511.56
335.227	495.56
335.455	461.56
335.684	454.56
335.912	447.56
336.14	463.56
336.369	457.56
336.597	465.56
336.825	469.56
337.053	465.56
337.281	444.56
337.51	447.56
337.738	446.56
337.966	445.56
338.194	469.56
338.422	438.56
338.65	437.56
338.878	457.56
339.106	453.56
339.334	459.56
339.562	460.56
339.79	443.56
340.018	437.56
340.246	431.56
340.474	462.56
340.702	469.56
340.93	429.56
341.158	447.56
341.386	452.56
341.614	456.56
341.842	461.56
342.07	449.56
342.298	428.56
342.526	441.56
342.754	437.56
342.981	429.56
343.209	441.56
343.437	440.56
343.665	428.56
343.893	441.56
344.12	454.56
344.348	473.56
344.576	440.56
344.804	465.56
345.031	473.56
345.259	461.56
345.487	452.56
345.714	456.56
345.942	427.56
346.17	445.56
346.397	424.56
346.625	433.56
346.853	435.56
347.08	422.56
347.308	440.56
347.535	436.56
347.763	438.56
347.99	447.56
348.218	453.56
348.445	442.56
348.673	429.56
348.9	429.56
349.128	418.56
349.355	419.56
349.583	436.56
349.81	411.56
350.037	415.56
350.265	416.56
350.492	422.56
350.72	418.56
350.947	415.56
351.174	439.56
351.402	459.56
351.629	445.56
351.856	440.56
352.083	426.56
352.311	416.56
352.538	454.56
352.765	444.56
352.992	431.56
353.22	441.56
353.447	419.56
353.674	429.56
353.901	411.56
354.128	417.56
354.355	405.56
354.583	391.56
354.81	417.56
355.037	387.56
355.264	409.56
355.491	387.56
355.718	406.56
355.945	412.56
356.172	402.56
356.399	404.56
356.626	425.56
356.853	393.56
357.08	408.56
357.307	398.56
357.534	385.56
357.761	399.56
357.988	416.56
358.215	397.56
358.441	425.56
358.668	401.56
358.895	413.56
359.122	410.56
359.349	425.56
359.576	429.56
359.802	437.56
360.029	467.56
360.256	493.56
360.483	455.56
360.709	449.56
360.936	427.56
361.163	429.56
361.39	454.56
361.616	435.56
361.843	443.56
362.07	458.56
362.296	452.56
362.523	423.56
362.749	430.56
362.976	452.56
363.203	440.56
363.429	405.56
363.656	412.56
363.882	438.56
364.109	438.56
364.335	406.56
364.562	409.56
364.788	409.56
365.015	426.56
365.241	415.56
365.468	423.56
365.694	439.56
365.92	420.56
366.147	415.56
366.373	443.56
366.599	431.56
366.826	437.56
367.052	419.56
367.278	416.56
367.505	438.56
367.731	411.56
367.957	428.56
368.184	427.56
368.41	431.56
368.636	430.56
368.862	452.56
369.089	430.56
369.315	421.56
369.541	416.56
369.767	428.56
369.993	421.56
370.219	410.56
370.445	423.56
370.672	431.56
370.898	417.56
371.124	420.56
371.35	415.56
371.576	416.56
371.802	424.56
372.028	440.56
372.254	425.56
372.48	441.56
372.706	412.56
372.932	433.56
373.158	446.56
373.384	435.56
373.61	438.56
373.835	428.56
374.061	417.56
374.287	439.56
374.513	443.56
374.739	436.56
374.965	441.56
375.191	419.56
375.416	446.56
375.642	439.56
375.868	438.56
376.094	437.56
376.319	424.56
376.545	429.56
376.771	417.56
376.997	429.56
377.222	418.56
377.448	410.56
377.674	414.56
377.899	405.56
378.125	411.56
378.35	407.56
378.576	413.56
378.802	416.56
379.027	433.56
379.253	422.56
379.478	404.56
379.704	432.56
379.929	430.56
380.155	425.56
380.38	416.56
380.606	420.56
380.831	429.56
381.057	432.56
381.282	409.56
381.507	433.56
381.733	425.56
381.958	413.56
382.184	431.56
382.409	432.56
382.634	437.56
382.86	441.56
383.085	438.56
383.31	420.56
383.535	440.56
383.761	448.56
383.986	447.56
384.211	471.56
384.436	450.56
384.662	472.56
384.887	459.56
385.112	446.56
385.337	457.56
385.562	469.56
385.787	474.56
386.013	472.56
386.238	489.56
386.463	490.56
386.688	476.56
386.913	471.56
387.138	461.56
387.363	489.56
387.588	478.56
387.813	476.56
388.038	481.56
388.263	465.56
388.488	454.56
388.713	455.56
388.938	476.56
389.163	480.56
389.387	495.56
389.612	491.56
389.837	486.56
390.062	472.56
390.287	469.56
390.512	463.56
390.736	459.56
390.961	484.56
391.186	492.56
391.411	507.56
391.636	494.56
391.86	493.56
392.085	502.56
392.31	496.56
392.534	462.56
392.759	493.56
392.984	483.56
393.208	476.56
393.433	483.56
393.658	487.56
393.882	473.56
394.107	470.56
394.331	472.56
394.556	495.56
394.78	485.56
395.005	497.56
395.229	495.56
395.454	500.56
395.678	486.56
395.903	517.56
396.127	529.56
396.352	530.56
396.576	496.56
396.801	506.56
397.025	485.56
397.249	492.56
397.474	524.56
397.698	520.56
397.922	561.56
398.147	533.56
398.371	524.56
398.595	542.56
398.82	553.56
399.044	559.56
399.268	568.56
399.492	605.56
399.717	621.56
399.941	651.56
400.165	699.56
400.389	693.56
400.613	641.56
400.837	587.56
401.062	590.56
401.286	560.56
401.51	589.56
401.734	557.56
401.958	552.56
402.182	531.56
402.406	539.56
402.63	574.56
402.854	567.56
403.078	575.56
403.302	593.56
403.526	595.56
403.75	589.56
403.974	579.56
404.198	577.56
404.422	591.56
404.645	573.56
404.869	588.56
405.093	623.56
405.317	679.56
405.541	693.56
405.765	622.56
405.988	606.56
406.212	599.56
406.436	623.56
406.66	640.56
406.883	629.56
407.107	669.56
407.331	705.56
407.555	759.56
407.778	749.56
408.002	728.56
408.226	649.56
408.449	656.56
408.673	655.56
408.896	654.56
409.12	717.56
409.344	675.56
409.567	636.56
409.791	602.56
410.014	561.56
410.238	579.56
410.461	558.56
410.685	587.56
410.908	602.56
411.132	624.56
411.355	652.56
411.578	630.56
411.802	594.56
412.025	586.56
412.249	587.56
412.472	577.56
412.695	634.56
412.919	637.56
413.142	589.56
413.365	573.56
413.589	560.56
413.812	537.56
414.035	549.56
414.258	557.56
414.482	565.56
414.705	567.56
414.928	534.56
415.151	531.56
415.374	541.56
415.597	538.56
415.821	517.56
416.044	556.56
416.267	541.56
416.49	561.56
416.713	544.56
416.936	539.56
417.159	538.56
417.382	565.56
417.605	536.56
417.828	564.56
418.051	547.56
418.274	570.56
418.497	526.56
418.72	525.56
418.943	521.56
419.166	569.56
419.389	601.56
419.611	564.56
419.834	566.56
420.057	574.56
420.28	586.56
420.503	556.56
420.726	592.56
420.948	583.56
421.171	623.56
421.394	677.56
421.617	593.56
421.839	560.56
422.062	552.56
422.285	584.56
422.507	637.56
422.73	729.56
422.953	720.56
423.175	604.56
423.398	593.56
423.621	607.56
423.843	575.56
424.066	613.56
424.288	592.56
424.511	623.56
424.733	695.56
424.956	768.56
425.178	705.56
425.401	718.56
425.623	780.56
425.846	644.56
426.068	621.56
426.291	599.56
426.513	597.56
426.735	609.56
426.958	675.56
427.18	725.56
427.402	889.56
427.625	996.56
427.847	847.56
428.069	738.56
428.292	682.56
428.514	595.56
428.736	569.56
428.958	584.56
429.181	550.56
429.403	566.56
429.625	554.56
429.847	612.56
430.069	693.56
430.292	672.56
430.514	573.56
430.736	563.56
430.958	550.56
431.18	551.56
431.402	513.56
431.624	529.56
431.846	545.56
432.068	548.56
432.29	559.56
432.512	532.56
432.734	548.56
432.956	544.56
433.178	582.56
433.4	555.56
433.622	556.56
433.844	572.56
434.066	533.56
434.287	550.56
434.509	533.56
434.731	557.56
434.953	566.56
435.175	579.56
435.397	588.56
435.618	618.56
435.84	661.56
436.062	743.56
436.284	846.56
436.505	707.56
436.727	618.56
436.949	578.56
437.17	592.56
437.392	584.56
437.614	581.56
437.835	621.56
438.057	699.56
438.278	832.56
438.5	797.56
438.721	937.56
438.943	879.56
439.165	682.56
439.386	616.56
439.608	635.56
439.829	607.56
440.05	636.56
440.272	657.56
440.493	646.56
440.715	604.56
440.936	591.56
441.158	575.56
441.379	575.56
441.6	581.56
441.822	606.56
442.043	617.56
442.264	750.56
442.486	766.56
442.707	653.56
442.928	622.56
443.149	636.56
443.371	632.56
443.592	693.56
443.813	791.56
444.034	865.56
444.255	703.56
444.476	641.56
444.698	607.56
444.919	555.56
445.14	722.56
445.361	683.56
445.582	659.56
445.803	738.56
446.024	849.56
446.245	838.56
446.466	763.56
446.687	647.56
446.908	615.56
447.129	573.56
447.35	558.56
447.571	565.56
447.792	576.56
448.013	566.56
448.234	565.56
448.455	639.56
448.675	742.56
448.896	878.56
449.117	749.56
449.338	713.56
449.559	806.56
449.779	947.56
450	763.56
450.221	624.56
450.442	585.56
450.662	536.56
450.883	547.56
451.104	570.56
451.324	559.56
451.545	523.56
451.766	527.56
451.986	512.56
452.207	521.56
452.428	503.56
452.648	491.56
452.869	486.56
453.089	537.56
453.31	532.56
453.53	502.56
453.751	511.56
453.971	506.56
454.192	520.56
454.412	523.56
454.633	510.56
454.853	492.56
455.073	485.56
455.294	515.56
455.514	604.56
455.734	587.56
455.955	511.56
456.175	494.56
456.395	483.56
456.616	468.56
456.836	477.56
457.056	463.56
457.276	476.56
457.497	502.56
457.717	500.56
457.937	501.56
458.157	483.56
458.377	502.56
458.598	528.56
458.818	564.56
459.038	642.56
459.258	685.56
459.478	604.56
459.698	559.56
459.918	550.56
460.138	541.56
460.358	570.56
460.578	542.56
460.798	544.56
461.018	552.56
461.238	564.56
461.458	535.56
461.678	541.56
461.898	543.56
462.118	571.56
462.338	581.56
462.558	593.56
462.777	597.56
462.997	581.56
463.217	601.56
463.437	604.56
463.657	586.56
463.876	590.56
464.096	603.56
464.316	604.56
464.536	616.56
464.755	604.56
464.975	611.56
465.195	625.56
465.414	704.56
465.634	612.56
465.854	579.56
466.073	565.56
466.293	553.56
466.512	533.56
466.732	535.56
466.951	545.56
467.171	528.56
467.391	533.56
467.61	530.56
467.829	548.56
468.049	541.56
468.268	526.56
468.488	514.56
468.707	521.56
468.927	490.56
469.146	492.56
469.365	521.56
469.585	544.56
469.804	523.56
470.023	535.56
470.243	542.56
470.462	536.56
470.681	530.56
470.901	517.56
471.12	547.56
471.339	511.56
471.558	542.56
471.777	526.56
471.997	513.56
472.216	535.56
472.435	527.56
472.654	549.56
472.873	527.56
473.092	517.56
473.311	507.56
473.53	543.56
473.749	541.56
473.968	595.56
474.187	675.56
474.406	715.56
474.625	604.56
474.844	565.56
475.063	540.56
475.282	507.56
475.501	548.56
475.72	516.56
475.939	542.56
476.158	539.56
476.377	524.56
476.596	547.56
476.814	554.56
477.033	560.56
477.252	561.56
477.471	583.56
477.69	570.56
477.908	588.56
478.127	587.56
478.346	568.56
478.564	601.56
478.783	588.56
479.002	602.56
479.22	594.56
479.439	613.56
479.658	625.56
479.876	658.56
480.095	664.56
480.313	676.56
480.532	672.56
480.751	659.56
480.969	672.56
481.188	692.56
481.406	723.56
481.624	674.56
481.843	639.56
482.061	644.56
482.28	638.56
482.498	620.56
482.717	619.56
482.935	628.56
483.153	616.56
483.372	631.56
483.59	618.56
483.808	621.56
484.027	623.56
484.245	604.56
484.463	613.56
484.681	623.56
484.9	652.56
485.118	626.56
485.336	642.56
485.554	620.56
485.772	656.56
485.99	638.56
486.209	647.56
486.427	631.56
486.645	676.56
486.863	685.56
487.081	658.56
487.299	653.56
487.517	635.56
487.735	639.56
487.953	678.56
488.171	659.56
488.389	678.56
488.607	694.56
488.825	676.56
489.043	649.56
489.261	661.56
489.479	663.56
489.696	666.56
489.914	660.56
490.132	686.56
490.35	699.56
490.568	685.56
490.786	698.56
491.003	702.56
491.221	726.56
491.439	709.56
491.657	736.56
491.874	727.56
492.092	736.56
492.31	739.56
492.527	746.56
492.745	740.56
492.963	748.56
493.18	741.56
493.398	755.56
493.615	747.56
493.833	759.56
494.05	771.56
494.268	745.56
494.485	761.56
494.703	744.56
494.92	792.56
495.138	785.56
495.355	759.56
495.573	784.56
495.79	762.56
496.008	770.56
496.225	784.56
496.442	773.56
496.66	784.56
496.877	773.56
497.094	764.56
497.312	768.56
497.529	819.56
497.746	823.56
497.963	824.56
498.181	848.56
498.398	868.56
498.615	860.56
498.832	912.56
499.049	939.56
499.267	957.56
499.484	967.56
499.701	1005.56
499.918	1031.56
500.135	1068.56
500.352	1118.56
500.569	1131.56
500.786	1118.56
501.003	1099.56
501.22	1075.56
501.437	1076.56
501.654	1045.56
501.871	1011.56
