Data from 1978.PennyLincolnUp.Lamp.En5.5.200Scan.071719.P1_HRD10591_16-12-11-864.txt Node
Date: Thu Jul 18 16:12:11 EDT 2019
User: cochatt
Spectrometer: HR+D1059
Trigger mode: 1
Integration Time (sec): 1.000000E-1
Scans to average: 1
Electric dark correction enabled: true
Nonlinearity correction enabled: false
Boxcar width: 0
XAxis mode: Wavelengths
Number of Pixels in Spectrum: 2048
>>>>>Begin Spectral Data<<<<<
223.165	-23.25
223.4	-23.25
223.635	-23.25
223.869	-10.25
224.104	-22.25
224.338	0.75
224.573	-19.25
224.808	-14.25
225.042	-2.25
225.277	-6.25
225.511	5.75
225.746	-4.25
225.98	-0.25
226.215	-5.25
226.449	14.75
226.683	19.75
226.918	23.75
227.152	42.75
227.387	32.75
227.621	35.75
227.856	44.75
228.09	52.75
228.324	41.75
228.559	38.75
228.793	51.75
229.027	90.75
229.262	93.75
229.496	116.75
229.73	117.75
229.964	148.75
230.199	114.75
230.433	94.75
230.667	99.75
230.901	100.75
231.136	118.75
231.37	114.75
231.604	102.75
231.838	105.75
232.072	113.75
232.306	116.75
232.541	91.75
232.775	121.75
233.009	97.75
233.243	116.75
233.477	116.75
233.711	114.75
233.945	108.75
234.179	101.75
234.413	116.75
234.647	104.75
234.881	110.75
235.115	116.75
235.349	114.75
235.583	123.75
235.817	108.75
236.051	120.75
236.285	132.75
236.519	124.75
236.753	113.75
236.987	128.75
237.221	155.75
237.455	194.75
237.689	164.75
237.922	143.75
238.156	111.75
238.39	122.75
238.624	120.75
238.858	112.75
239.091	117.75
239.325	109.75
239.559	124.75
239.793	120.75
240.027	130.75
240.26	136.75
240.494	130.75
240.728	136.75
240.961	136.75
241.195	134.75
241.429	130.75
241.662	130.75
241.896	131.75
242.13	118.75
242.363	113.75
242.597	134.75
242.83	126.75
243.064	123.75
243.298	136.75
243.531	122.75
243.765	136.75
243.998	131.75
244.232	118.75
244.465	141.75
244.699	134.75
244.932	137.75
245.166	136.75
245.399	135.75
245.633	140.75
245.866	140.75
246.099	140.75
246.333	142.75
246.566	137.75
246.8	155.75
247.033	138.75
247.266	143.75
247.5	138.75
247.733	129.75
247.966	155.75
248.2	157.75
248.433	139.75
248.666	156.75
248.899	148.75
249.133	166.75
249.366	172.75
249.599	182.75
249.832	158.75
250.066	160.75
250.299	169.75
250.532	168.75
250.765	182.75
250.998	198.75
251.231	186.75
251.465	195.75
251.698	186.75
251.931	180.75
252.164	173.75
252.397	184.75
252.63	188.75
252.863	165.75
253.096	176.75
253.329	180.75
253.562	188.75
253.795	192.75
254.028	189.75
254.261	195.75
254.494	190.75
254.727	212.75
254.96	220.75
255.193	209.75
255.426	209.75
255.659	197.75
255.892	203.75
256.124	181.75
256.357	173.75
256.59	181.75
256.823	184.75
257.056	194.75
257.289	177.75
257.521	175.75
257.754	196.75
257.987	187.75
258.22	182.75
258.452	172.75
258.685	179.75
258.918	186.75
259.151	196.75
259.383	202.75
259.616	195.75
259.849	196.75
260.081	186.75
260.314	221.75
260.547	207.75
260.779	212.75
261.012	205.75
261.244	199.75
261.477	193.75
261.71	195.75
261.942	207.75
262.175	213.75
262.407	201.75
262.64	204.75
262.872	195.75
263.105	195.75
263.337	194.75
263.57	209.75
263.802	195.75
264.035	210.75
264.267	184.75
264.499	183.75
264.732	184.75
264.964	209.75
265.197	188.75
265.429	207.75
265.661	199.75
265.894	212.75
266.126	198.75
266.358	193.75
266.591	188.75
266.823	197.75
267.055	203.75
267.287	205.75
267.52	205.75
267.752	192.75
267.984	201.75
268.216	210.75
268.448	216.75
268.681	213.75
268.913	223.75
269.145	230.75
269.377	237.75
269.609	236.75
269.841	249.75
270.073	240.75
270.306	231.75
270.538	264.75
270.77	239.75
271.002	257.75
271.234	253.75
271.466	261.75
271.698	260.75
271.93	255.75
272.162	260.75
272.394	261.75
272.626	244.75
272.858	240.75
273.09	242.75
273.322	240.75
273.553	244.75
273.785	237.75
274.017	235.75
274.249	242.75
274.481	224.75
274.713	232.75
274.945	243.75
275.176	228.75
275.408	234.75
275.64	256.75
275.872	236.75
276.104	247.75
276.335	217.75
276.567	240.75
276.799	250.75
277.031	281.75
277.262	281.75
277.494	250.75
277.726	255.75
277.957	261.75
278.189	254.75
278.421	228.75
278.652	244.75
278.884	234.75
279.115	256.75
279.347	229.75
279.579	237.75
279.81	250.75
280.042	250.75
280.273	244.75
280.505	251.75
280.736	245.75
280.968	229.75
281.199	259.75
281.431	227.75
281.662	240.75
281.894	231.75
282.125	263.75
282.356	250.75
282.588	273.75
282.819	278.75
283.051	253.75
283.282	254.75
283.513	245.75
283.745	254.75
283.976	256.75
284.207	240.75
284.439	254.75
284.67	251.75
284.901	265.75
285.132	269.75
285.364	260.75
285.595	251.75
285.826	263.75
286.057	262.75
286.288	262.75
286.52	249.75
286.751	270.75
286.982	264.75
287.213	267.75
287.444	275.75
287.675	241.75
287.906	272.75
288.138	260.75
288.369	261.75
288.6	257.75
288.831	276.75
289.062	269.75
289.293	273.75
289.524	253.75
289.755	274.75
289.986	256.75
290.217	266.75
290.448	267.75
290.679	274.75
290.91	268.75
291.141	270.75
291.371	292.75
291.602	263.75
291.833	262.75
292.064	262.75
292.295	273.75
292.526	264.75
292.757	262.75
292.987	257.75
293.218	266.75
293.449	280.75
293.68	273.75
293.91	261.75
294.141	266.75
294.372	262.75
294.603	258.75
294.833	267.75
295.064	265.75
295.295	277.75
295.525	270.75
295.756	260.75
295.987	270.75
296.217	284.75
296.448	299.75
296.679	270.75
296.909	286.75
297.14	276.75
297.37	271.75
297.601	285.75
297.831	284.75
298.062	289.75
298.292	270.75
298.523	283.75
298.753	280.75
298.984	285.75
299.214	288.75
299.445	280.75
299.675	267.75
299.905	314.75
300.136	295.75
300.366	292.75
300.597	282.75
300.827	288.75
301.057	296.75
301.288	307.75
301.518	308.75
301.748	291.75
301.979	284.75
302.209	298.75
302.439	307.75
302.669	288.75
302.9	310.75
303.13	293.75
303.36	322.75
303.59	301.75
303.82	306.75
304.051	290.75
304.281	297.75
304.511	312.75
304.741	302.75
304.971	296.75
305.201	311.75
305.431	321.75
305.661	313.75
305.891	308.75
306.121	298.75
306.352	309.75
306.582	301.75
306.812	305.75
307.042	310.75
307.272	316.75
307.502	297.75
307.731	310.75
307.961	322.75
308.191	290.75
308.421	328.75
308.651	313.75
308.881	320.75
309.111	310.75
309.341	309.75
309.571	336.75
309.8	312.75
310.03	324.75
310.26	342.75
310.49	340.75
310.72	347.75
310.949	346.75
311.179	359.75
311.409	354.75
311.639	346.75
311.868	335.75
312.098	342.75
312.328	339.75
312.557	354.75
312.787	356.75
313.017	364.75
313.246	363.75
313.476	336.75
313.706	349.75
313.935	333.75
314.165	352.75
314.394	362.75
314.624	371.75
314.853	349.75
315.083	353.75
315.312	338.75
315.542	348.75
315.771	336.75
316.001	333.75
316.23	363.75
316.46	352.75
316.689	333.75
316.919	345.75
317.148	369.75
317.377	366.75
317.607	361.75
317.836	343.75
318.065	344.75
318.295	357.75
318.524	338.75
318.753	348.75
318.983	338.75
319.212	341.75
319.441	333.75
319.67	369.75
319.9	357.75
320.129	355.75
320.358	354.75
320.587	348.75
320.816	360.75
321.046	382.75
321.275	354.75
321.504	384.75
321.733	360.75
321.962	365.75
322.191	376.75
322.42	386.75
322.649	403.75
322.878	393.75
323.108	402.75
323.337	416.75
323.566	428.75
323.795	448.75
324.024	489.75
324.253	554.75
324.482	779.75
324.71	1201.75
324.939	1837.75
325.168	1594.75
325.397	822.75
325.626	541.75
325.855	457.75
326.084	450.75
326.313	437.75
326.542	437.75
326.77	457.75
326.999	535.75
327.228	737.75
327.457	1086.75
327.686	1372.75
327.914	914.75
328.143	586.75
328.372	520.75
328.6	471.75
328.829	468.75
329.058	485.75
329.287	482.75
329.515	466.75
329.744	444.75
329.972	422.75
330.201	462.75
330.43	477.75
330.658	503.75
330.887	502.75
331.115	484.75
331.344	450.75
331.572	421.75
331.801	454.75
332.03	442.75
332.258	438.75
332.486	397.75
332.715	416.75
332.943	422.75
333.172	419.75
333.4	430.75
333.629	433.75
333.857	466.75
334.085	446.75
334.314	454.75
334.542	474.75
334.771	492.75
334.999	455.75
335.227	443.75
335.455	437.75
335.684	420.75
335.912	424.75
336.14	424.75
336.369	413.75
336.597	436.75
336.825	421.75
337.053	408.75
337.281	399.75
337.51	399.75
337.738	397.75
337.966	426.75
338.194	419.75
338.422	414.75
338.65	408.75
338.878	405.75
339.106	389.75
339.334	423.75
339.562	414.75
339.79	400.75
340.018	412.75
340.246	389.75
340.474	412.75
340.702	407.75
340.93	403.75
341.158	389.75
341.386	383.75
341.614	395.75
341.842	407.75
342.07	404.75
342.298	384.75
342.526	389.75
342.754	415.75
342.981	391.75
343.209	403.75
343.437	394.75
343.665	414.75
343.893	419.75
344.12	432.75
344.348	410.75
344.576	411.75
344.804	423.75
345.031	418.75
345.259	424.75
345.487	412.75
345.714	409.75
345.942	391.75
346.17	414.75
346.397	398.75
346.625	410.75
346.853	376.75
347.08	389.75
347.308	390.75
347.535	392.75
347.763	364.75
347.99	402.75
348.218	408.75
348.445	397.75
348.673	406.75
348.9	394.75
349.128	411.75
349.355	372.75
349.583	412.75
349.81	383.75
350.037	394.75
350.265	375.75
350.492	384.75
350.72	379.75
350.947	394.75
351.174	402.75
351.402	424.75
351.629	392.75
351.856	391.75
352.083	389.75
352.311	404.75
352.538	399.75
352.765	417.75
352.992	389.75
353.22	400.75
353.447	380.75
353.674	376.75
353.901	379.75
354.128	365.75
354.355	372.75
354.583	386.75
354.81	384.75
355.037	373.75
355.264	379.75
355.491	374.75
355.718	377.75
355.945	371.75
356.172	394.75
356.399	378.75
356.626	356.75
356.853	372.75
357.08	385.75
357.307	374.75
357.534	368.75
357.761	397.75
357.988	386.75
358.215	378.75
358.441	385.75
358.668	388.75
358.895	386.75
359.122	379.75
359.349	386.75
359.576	409.75
359.802	409.75
360.029	434.75
360.256	416.75
360.483	424.75
360.709	387.75
360.936	412.75
361.163	385.75
361.39	390.75
361.616	418.75
361.843	386.75
362.07	384.75
362.296	384.75
362.523	382.75
362.749	381.75
362.976	402.75
363.203	388.75
363.429	371.75
363.656	395.75
363.882	394.75
364.109	380.75
364.335	390.75
364.562	387.75
364.788	388.75
365.015	387.75
365.241	393.75
365.468	385.75
365.694	401.75
365.92	415.75
366.147	380.75
366.373	373.75
366.599	388.75
366.826	362.75
367.052	361.75
367.278	372.75
367.505	384.75
367.731	398.75
367.957	380.75
368.184	365.75
368.41	396.75
368.636	405.75
368.862	414.75
369.089	395.75
369.315	398.75
369.541	385.75
369.767	394.75
369.993	390.75
370.219	377.75
370.445	393.75
370.672	398.75
370.898	377.75
371.124	389.75
371.35	398.75
371.576	398.75
371.802	387.75
372.028	379.75
372.254	398.75
372.48	392.75
372.706	418.75
372.932	402.75
373.158	392.75
373.384	397.75
373.61	382.75
373.835	398.75
374.061	395.75
374.287	408.75
374.513	420.75
374.739	404.75
374.965	400.75
375.191	408.75
375.416	396.75
375.642	398.75
375.868	415.75
376.094	380.75
376.319	394.75
376.545	391.75
376.771	400.75
376.997	391.75
377.222	405.75
377.448	404.75
377.674	380.75
377.899	389.75
378.125	389.75
378.35	396.75
378.576	390.75
378.802	384.75
379.027	413.75
379.253	410.75
379.478	387.75
379.704	416.75
379.929	403.75
380.155	385.75
380.38	396.75
380.606	395.75
380.831	414.75
381.057	414.75
381.282	405.75
381.507	416.75
381.733	394.75
381.958	397.75
382.184	400.75
382.409	408.75
382.634	404.75
382.86	407.75
383.085	407.75
383.31	403.75
383.535	406.75
383.761	392.75
383.986	416.75
384.211	444.75
384.436	430.75
384.662	402.75
384.887	419.75
385.112	404.75
385.337	431.75
385.562	432.75
385.787	428.75
386.013	460.75
386.238	453.75
386.463	443.75
386.688	446.75
386.913	441.75
387.138	450.75
387.363	466.75
387.588	446.75
387.813	437.75
388.038	443.75
388.263	440.75
388.488	435.75
388.713	447.75
388.938	444.75
389.163	442.75
389.387	460.75
389.612	450.75
389.837	445.75
390.062	456.75
390.287	457.75
390.512	444.75
390.736	438.75
390.961	454.75
391.186	434.75
391.411	461.75
391.636	454.75
391.86	483.75
392.085	458.75
392.31	476.75
392.534	476.75
392.759	467.75
392.984	467.75
393.208	465.75
393.433	435.75
393.658	445.75
393.882	469.75
394.107	428.75
394.331	464.75
394.556	455.75
394.78	484.75
395.005	440.75
395.229	466.75
395.454	457.75
395.678	462.75
395.903	490.75
396.127	499.75
396.352	468.75
396.576	461.75
396.801	465.75
397.025	474.75
397.249	476.75
397.474	452.75
397.698	474.75
397.922	509.75
398.147	544.75
398.371	511.75
398.595	508.75
398.82	512.75
399.044	537.75
399.268	548.75
399.492	583.75
399.717	582.75
399.941	630.75
400.165	622.75
400.389	654.75
400.613	582.75
400.837	572.75
401.062	554.75
401.286	519.75
401.51	508.75
401.734	526.75
401.958	502.75
402.182	500.75
402.406	541.75
402.63	510.75
402.854	521.75
403.078	551.75
403.302	539.75
403.526	524.75
403.75	548.75
403.974	530.75
404.198	537.75
404.422	540.75
404.645	566.75
404.869	557.75
405.093	586.75
405.317	614.75
405.541	632.75
405.765	584.75
405.988	572.75
406.212	567.75
406.436	574.75
406.66	595.75
406.883	554.75
407.107	601.75
407.331	633.75
407.555	706.75
407.778	723.75
408.002	644.75
408.226	614.75
408.449	581.75
408.673	563.75
408.896	637.75
409.12	658.75
409.344	638.75
409.567	581.75
409.791	557.75
410.014	562.75
410.238	540.75
410.461	550.75
410.685	577.75
410.908	584.75
411.132	589.75
411.355	618.75
411.578	593.75
411.802	550.75
412.025	526.75
412.249	564.75
412.472	562.75
412.695	602.75
412.919	573.75
413.142	557.75
413.365	516.75
413.589	550.75
413.812	534.75
414.035	521.75
414.258	527.75
414.482	524.75
414.705	524.75
414.928	520.75
415.151	508.75
415.374	531.75
415.597	480.75
415.821	506.75
416.044	530.75
416.267	496.75
416.49	514.75
416.713	531.75
416.936	514.75
417.159	496.75
417.382	520.75
417.605	504.75
417.828	525.75
418.051	525.75
418.274	507.75
418.497	498.75
418.72	492.75
418.943	510.75
419.166	517.75
419.389	556.75
419.611	553.75
419.834	532.75
420.057	535.75
420.28	536.75
420.503	526.75
420.726	527.75
420.948	513.75
421.171	581.75
421.394	603.75
421.617	540.75
421.839	553.75
422.062	550.75
422.285	548.75
422.507	587.75
422.73	642.75
422.953	624.75
423.175	553.75
423.398	566.75
423.621	570.75
423.843	549.75
424.066	566.75
424.288	557.75
424.511	547.75
424.733	621.75
424.956	697.75
425.178	677.75
425.401	662.75
425.623	701.75
425.846	580.75
426.068	546.75
426.291	560.75
426.513	546.75
426.735	543.75
426.958	606.75
427.18	676.75
427.402	792.75
427.625	892.75
427.847	753.75
428.069	651.75
428.292	599.75
428.514	535.75
428.736	536.75
428.958	531.75
429.181	530.75
429.403	528.75
429.625	539.75
429.847	572.75
430.069	607.75
430.292	608.75
430.514	529.75
430.736	519.75
430.958	518.75
431.18	491.75
431.402	490.75
431.624	497.75
431.846	494.75
432.068	494.75
432.29	506.75
432.512	518.75
432.734	485.75
432.956	516.75
433.178	532.75
433.4	499.75
433.622	518.75
433.844	509.75
434.066	522.75
434.287	497.75
434.509	514.75
434.731	520.75
434.953	521.75
435.175	528.75
435.397	560.75
435.618	546.75
435.84	591.75
436.062	658.75
436.284	772.75
436.505	626.75
436.727	588.75
436.949	552.75
437.17	511.75
437.392	509.75
437.614	541.75
437.835	558.75
438.057	624.75
438.278	730.75
438.5	736.75
438.721	818.75
438.943	783.75
439.165	660.75
439.386	580.75
439.608	561.75
439.829	558.75
440.05	577.75
440.272	628.75
440.493	577.75
440.715	572.75
440.936	532.75
441.158	532.75
441.379	519.75
441.6	556.75
441.822	547.75
442.043	590.75
442.264	638.75
442.486	693.75
442.707	604.75
442.928	572.75
443.149	579.75
443.371	599.75
443.592	592.75
443.813	724.75
444.034	809.75
444.255	633.75
444.476	586.75
444.698	560.75
444.919	563.75
445.14	667.75
445.361	621.75
445.582	608.75
445.803	646.75
446.024	732.75
446.245	732.75
446.466	690.75
446.687	590.75
446.908	565.75
447.129	539.75
447.35	520.75
447.571	532.75
447.792	512.75
448.013	530.75
448.234	518.75
448.455	566.75
448.675	658.75
448.896	786.75
449.117	671.75
449.338	624.75
449.559	732.75
449.779	843.75
450	672.75
450.221	553.75
450.442	523.75
450.662	519.75
450.883	515.75
451.104	511.75
451.324	482.75
451.545	477.75
451.766	482.75
451.986	448.75
452.207	455.75
452.428	443.75
452.648	469.75
452.869	470.75
453.089	466.75
453.31	467.75
453.53	484.75
453.751	443.75
453.971	436.75
454.192	466.75
454.412	473.75
454.633	464.75
454.853	457.75
455.073	478.75
455.294	479.75
455.514	516.75
455.734	513.75
455.955	449.75
456.175	443.75
456.395	428.75
456.616	421.75
456.836	452.75
457.056	435.75
457.276	437.75
457.497	466.75
457.717	446.75
457.937	474.75
458.157	460.75
458.377	475.75
458.598	459.75
458.818	544.75
459.038	590.75
459.258	612.75
459.478	542.75
459.698	516.75
459.918	506.75
460.138	496.75
460.358	502.75
460.578	532.75
460.798	548.75
461.018	537.75
461.238	529.75
461.458	509.75
461.678	510.75
461.898	534.75
462.118	535.75
462.338	544.75
462.558	538.75
462.777	562.75
462.997	570.75
463.217	598.75
463.437	588.75
463.657	575.75
463.876	555.75
464.096	547.75
464.316	573.75
464.536	583.75
464.755	589.75
464.975	558.75
465.195	574.75
465.414	614.75
465.634	584.75
465.854	538.75
466.073	550.75
466.293	485.75
466.512	504.75
466.732	509.75
466.951	494.75
467.171	500.75
467.391	499.75
467.61	506.75
467.829	493.75
468.049	504.75
468.268	499.75
468.488	471.75
468.707	479.75
468.927	488.75
469.146	490.75
469.365	484.75
469.585	502.75
469.804	517.75
470.023	496.75
470.243	482.75
470.462	524.75
470.681	507.75
470.901	519.75
471.12	484.75
471.339	501.75
471.558	496.75
471.777	513.75
471.997	468.75
472.216	490.75
472.435	502.75
472.654	516.75
472.873	505.75
473.092	490.75
473.311	512.75
473.53	503.75
473.749	482.75
473.968	513.75
474.187	589.75
474.406	610.75
474.625	552.75
474.844	516.75
475.063	482.75
475.282	498.75
475.501	497.75
475.72	496.75
475.939	516.75
476.158	508.75
476.377	524.75
476.596	477.75
476.814	508.75
477.033	519.75
477.252	526.75
477.471	557.75
477.69	547.75
477.908	550.75
478.127	547.75
478.346	535.75
478.564	540.75
478.783	551.75
479.002	576.75
479.22	574.75
479.439	575.75
479.658	600.75
479.876	605.75
480.095	599.75
480.313	610.75
480.532	606.75
480.751	627.75
480.969	611.75
481.188	634.75
481.406	634.75
481.624	603.75
481.843	618.75
482.061	589.75
482.28	597.75
482.498	580.75
482.717	571.75
482.935	577.75
483.153	562.75
483.372	572.75
483.59	565.75
483.808	583.75
484.027	582.75
484.245	601.75
484.463	582.75
484.681	575.75
484.9	575.75
485.118	586.75
485.336	592.75
485.554	584.75
485.772	603.75
485.99	616.75
486.209	593.75
486.427	572.75
486.645	614.75
486.863	626.75
487.081	617.75
487.299	631.75
487.517	618.75
487.735	596.75
487.953	621.75
488.171	632.75
488.389	618.75
488.607	619.75
488.825	625.75
489.043	609.75
489.261	593.75
489.479	604.75
489.696	650.75
489.914	610.75
490.132	629.75
490.35	628.75
490.568	653.75
490.786	621.75
491.003	637.75
491.221	655.75
491.439	663.75
491.657	665.75
491.874	650.75
492.092	663.75
492.31	673.75
492.527	676.75
492.745	705.75
492.963	678.75
493.18	684.75
493.398	702.75
493.615	714.75
493.833	701.75
494.05	707.75
494.268	683.75
494.485	707.75
494.703	683.75
494.92	714.75
495.138	713.75
495.355	729.75
495.573	701.75
495.79	710.75
496.008	725.75
496.225	731.75
496.442	714.75
496.66	721.75
496.877	704.75
497.094	717.75
497.312	731.75
497.529	755.75
497.746	750.75
497.963	762.75
498.181	810.75
498.398	806.75
498.615	804.75
498.832	828.75
499.049	853.75
499.267	883.75
499.484	909.75
499.701	965.75
499.918	987.75
500.135	1010.75
500.352	1098.75
500.569	1092.75
500.786	1093.75
501.003	1050.75
501.22	1052.75
501.437	1008.75
501.654	963.75
501.871	961.75
