Data from 1978.PennyLincolnUp.Lamp.En5.5.200Scan.071719.P1_HRD10591_16-13-11-864.txt Node
Date: Thu Jul 18 16:13:11 EDT 2019
User: cochatt
Spectrometer: HR+D1059
Trigger mode: 1
Integration Time (sec): 1.000000E-1
Scans to average: 1
Electric dark correction enabled: true
Nonlinearity correction enabled: false
Boxcar width: 0
XAxis mode: Wavelengths
Number of Pixels in Spectrum: 2048
>>>>>Begin Spectral Data<<<<<
223.165	-19.56
223.4	-19.56
223.635	-19.56
223.869	-29.56
224.104	-23.56
224.338	-7.56
224.573	-17.56
224.808	-22.56
225.042	3.44
225.277	-2.56
225.511	1.44
225.746	5.44
225.98	5.44
226.215	26.44
226.449	-2.56
226.683	28.44
226.918	22.44
227.152	32.44
227.387	41.44
227.621	40.44
227.856	49.44
228.09	51.44
228.324	65.44
228.559	61.44
228.793	65.44
229.027	104.44
229.262	102.44
229.496	132.44
229.73	127.44
229.964	140.44
230.199	121.44
230.433	119.44
230.667	125.44
230.901	103.44
231.136	108.44
231.37	100.44
231.604	109.44
231.838	104.44
232.072	114.44
232.306	123.44
232.541	108.44
232.775	114.44
233.009	134.44
233.243	109.44
233.477	122.44
233.711	107.44
233.945	108.44
234.179	127.44
234.413	116.44
234.647	126.44
234.881	114.44
235.115	115.44
235.349	107.44
235.583	130.44
235.817	126.44
236.051	130.44
236.285	133.44
236.519	113.44
236.753	126.44
236.987	148.44
237.221	179.44
237.455	223.44
237.689	194.44
237.922	141.44
238.156	125.44
238.39	134.44
238.624	124.44
238.858	125.44
239.091	121.44
239.325	126.44
239.559	121.44
239.793	119.44
240.027	138.44
240.26	138.44
240.494	142.44
240.728	130.44
240.961	141.44
241.195	130.44
241.429	140.44
241.662	137.44
241.896	121.44
242.13	134.44
242.363	129.44
242.597	140.44
242.83	144.44
243.064	125.44
243.298	143.44
243.531	125.44
243.765	133.44
243.998	129.44
244.232	127.44
244.465	145.44
244.699	137.44
244.932	134.44
245.166	138.44
245.399	126.44
245.633	138.44
245.866	147.44
246.099	144.44
246.333	135.44
246.566	162.44
246.8	155.44
247.033	147.44
247.266	144.44
247.5	153.44
247.733	152.44
247.966	154.44
248.2	152.44
248.433	151.44
248.666	169.44
248.899	161.44
249.133	177.44
249.366	182.44
249.599	182.44
249.832	170.44
250.066	172.44
250.299	180.44
250.532	171.44
250.765	179.44
250.998	207.44
251.231	207.44
251.465	201.44
251.698	201.44
251.931	174.44
252.164	166.44
252.397	197.44
252.63	193.44
252.863	194.44
253.096	189.44
253.329	212.44
253.562	203.44
253.795	197.44
254.028	203.44
254.261	203.44
254.494	191.44
254.727	240.44
254.96	254.44
255.193	227.44
255.426	209.44
255.659	216.44
255.892	208.44
256.124	210.44
256.357	214.44
256.59	210.44
256.823	184.44
257.056	201.44
257.289	200.44
257.521	209.44
257.754	189.44
257.987	192.44
258.22	201.44
258.452	210.44
258.685	186.44
258.918	205.44
259.151	197.44
259.383	208.44
259.616	208.44
259.849	195.44
260.081	210.44
260.314	215.44
260.547	251.44
260.779	242.44
261.012	213.44
261.244	221.44
261.477	222.44
261.71	224.44
261.942	197.44
262.175	235.44
262.407	222.44
262.64	215.44
262.872	228.44
263.105	201.44
263.337	200.44
263.57	198.44
263.802	201.44
264.035	186.44
264.267	200.44
264.499	202.44
264.732	218.44
264.964	218.44
265.197	199.44
265.429	194.44
265.661	213.44
265.894	216.44
266.126	219.44
266.358	209.44
266.591	202.44
266.823	224.44
267.055	205.44
267.287	210.44
267.52	234.44
267.752	227.44
267.984	210.44
268.216	218.44
268.448	217.44
268.681	227.44
268.913	237.44
269.145	241.44
269.377	236.44
269.609	257.44
269.841	253.44
270.073	266.44
270.306	271.44
270.538	277.44
270.77	290.44
271.002	273.44
271.234	259.44
271.466	284.44
271.698	273.44
271.93	292.44
272.162	289.44
272.394	293.44
272.626	269.44
272.858	271.44
273.09	254.44
273.322	256.44
273.553	251.44
273.785	254.44
274.017	240.44
274.249	245.44
274.481	270.44
274.713	243.44
274.945	252.44
275.176	243.44
275.408	239.44
275.64	264.44
275.872	258.44
276.104	246.44
276.335	244.44
276.567	242.44
276.799	279.44
277.031	273.44
277.262	293.44
277.494	314.44
277.726	278.44
277.957	274.44
278.189	275.44
278.421	250.44
278.652	259.44
278.884	267.44
279.115	255.44
279.347	245.44
279.579	262.44
279.81	248.44
280.042	241.44
280.273	259.44
280.505	267.44
280.736	275.44
280.968	257.44
281.199	258.44
281.431	242.44
281.662	261.44
281.894	252.44
282.125	269.44
282.356	265.44
282.588	296.44
282.819	301.44
283.051	247.44
283.282	267.44
283.513	264.44
283.745	273.44
283.976	258.44
284.207	251.44
284.439	273.44
284.67	273.44
284.901	262.44
285.132	264.44
285.364	273.44
285.595	270.44
285.826	261.44
286.057	253.44
286.288	260.44
286.52	283.44
286.751	279.44
286.982	261.44
287.213	269.44
287.444	270.44
287.675	285.44
287.906	274.44
288.138	287.44
288.369	284.44
288.6	278.44
288.831	271.44
289.062	264.44
289.293	281.44
289.524	265.44
289.755	275.44
289.986	273.44
290.217	267.44
290.448	268.44
290.679	273.44
290.91	287.44
291.141	294.44
291.371	274.44
291.602	268.44
291.833	279.44
292.064	276.44
292.295	274.44
292.526	280.44
292.757	268.44
292.987	293.44
293.218	291.44
293.449	289.44
293.68	278.44
293.91	301.44
294.141	275.44
294.372	279.44
294.603	287.44
294.833	280.44
295.064	265.44
295.295	287.44
295.525	267.44
295.756	285.44
295.987	298.44
296.217	295.44
296.448	320.44
296.679	305.44
296.909	289.44
297.14	277.44
297.37	280.44
297.601	292.44
297.831	305.44
298.062	295.44
298.292	275.44
298.523	279.44
298.753	296.44
298.984	317.44
299.214	304.44
299.445	299.44
299.675	281.44
299.905	307.44
300.136	295.44
300.366	293.44
300.597	300.44
300.827	306.44
301.057	289.44
301.288	312.44
301.518	344.44
301.748	302.44
301.979	328.44
302.209	299.44
302.439	313.44
302.669	316.44
302.9	303.44
303.13	322.44
303.36	317.44
303.59	302.44
303.82	329.44
304.051	337.44
304.281	325.44
304.511	318.44
304.741	313.44
304.971	325.44
305.201	318.44
305.431	323.44
305.661	325.44
305.891	315.44
306.121	321.44
306.352	320.44
306.582	314.44
306.812	321.44
307.042	324.44
307.272	317.44
307.502	313.44
307.731	330.44
307.961	320.44
308.191	328.44
308.421	321.44
308.651	294.44
308.881	317.44
309.111	318.44
309.341	343.44
309.571	334.44
309.8	337.44
310.03	349.44
310.26	353.44
310.49	361.44
310.72	362.44
310.949	367.44
311.179	376.44
311.409	345.44
311.639	358.44
311.868	357.44
312.098	360.44
312.328	355.44
312.557	383.44
312.787	387.44
313.017	395.44
313.246	373.44
313.476	345.44
313.706	361.44
313.935	384.44
314.165	366.44
314.394	376.44
314.624	372.44
314.853	369.44
315.083	361.44
315.312	355.44
315.542	364.44
315.771	352.44
316.001	355.44
316.23	360.44
316.46	360.44
316.689	361.44
316.919	342.44
317.148	370.44
317.377	380.44
317.607	362.44
317.836	378.44
318.065	368.44
318.295	363.44
318.524	364.44
318.753	357.44
318.983	348.44
319.212	360.44
319.441	374.44
319.67	368.44
319.9	375.44
320.129	375.44
320.358	376.44
320.587	365.44
320.816	385.44
321.046	380.44
321.275	367.44
321.504	375.44
321.733	388.44
321.962	390.44
322.191	396.44
322.42	420.44
322.649	426.44
322.878	427.44
323.108	433.44
323.337	457.44
323.566	448.44
323.795	491.44
324.024	535.44
324.253	657.44
324.482	946.44
324.71	1421.44
324.939	2199.44
325.168	1901.44
325.397	945.44
325.626	604.44
325.855	515.44
326.084	476.44
326.313	490.44
326.542	464.44
326.77	528.44
326.999	599.44
327.228	846.44
327.457	1305.44
327.686	1681.44
327.914	1063.44
328.143	654.44
328.372	586.44
328.6	566.44
328.829	523.44
329.058	540.44
329.287	555.44
329.515	523.44
329.744	483.44
329.972	483.44
330.201	475.44
330.43	530.44
330.658	556.44
330.887	571.44
331.115	565.44
331.344	489.44
331.572	464.44
331.801	456.44
332.03	477.44
332.258	462.44
332.486	432.44
332.715	441.44
332.943	433.44
333.172	439.44
333.4	449.44
333.629	462.44
333.857	475.44
334.085	477.44
334.314	477.44
334.542	507.44
334.771	505.44
334.999	491.44
335.227	483.44
335.455	455.44
335.684	450.44
335.912	443.44
336.14	441.44
336.369	438.44
336.597	430.44
336.825	437.44
337.053	422.44
337.281	427.44
337.51	438.44
337.738	434.44
337.966	448.44
338.194	421.44
338.422	425.44
338.65	432.44
338.878	415.44
339.106	417.44
339.334	409.44
339.562	430.44
339.79	401.44
340.018	407.44
340.246	429.44
340.474	426.44
340.702	403.44
340.93	426.44
341.158	408.44
341.386	408.44
341.614	431.44
341.842	423.44
342.07	403.44
342.298	406.44
342.526	425.44
342.754	406.44
342.981	399.44
343.209	411.44
343.437	409.44
343.665	413.44
343.893	424.44
344.12	429.44
344.348	434.44
344.576	430.44
344.804	438.44
345.031	445.44
345.259	443.44
345.487	445.44
345.714	421.44
345.942	415.44
346.17	400.44
346.397	411.44
346.625	401.44
346.853	413.44
347.08	400.44
347.308	402.44
347.535	428.44
347.763	432.44
347.99	424.44
348.218	410.44
348.445	422.44
348.673	422.44
348.9	405.44
349.128	398.44
349.355	412.44
349.583	387.44
349.81	385.44
350.037	399.44
350.265	415.44
350.492	397.44
350.72	392.44
350.947	398.44
351.174	418.44
351.402	426.44
351.629	420.44
351.856	406.44
352.083	409.44
352.311	429.44
352.538	411.44
352.765	435.44
352.992	395.44
353.22	415.44
353.447	413.44
353.674	396.44
353.901	409.44
354.128	409.44
354.355	381.44
354.583	387.44
354.81	362.44
355.037	377.44
355.264	386.44
355.491	381.44
355.718	386.44
355.945	393.44
356.172	393.44
356.399	397.44
356.626	360.44
356.853	413.44
357.08	386.44
357.307	389.44
357.534	370.44
357.761	379.44
357.988	393.44
358.215	385.44
358.441	387.44
358.668	401.44
358.895	389.44
359.122	382.44
359.349	407.44
359.576	403.44
359.802	417.44
360.029	461.44
360.256	469.44
360.483	441.44
360.709	434.44
360.936	421.44
361.163	403.44
361.39	417.44
361.616	391.44
361.843	396.44
362.07	407.44
362.296	416.44
362.523	393.44
362.749	415.44
362.976	409.44
363.203	410.44
363.429	402.44
363.656	394.44
363.882	397.44
364.109	377.44
364.335	401.44
364.562	420.44
364.788	411.44
365.015	386.44
365.241	395.44
365.468	410.44
365.694	402.44
365.92	415.44
366.147	399.44
366.373	402.44
366.599	386.44
366.826	381.44
367.052	395.44
367.278	394.44
367.505	404.44
367.731	409.44
367.957	404.44
368.184	421.44
368.41	415.44
368.636	418.44
368.862	433.44
369.089	421.44
369.315	416.44
369.541	423.44
369.767	405.44
369.993	423.44
370.219	423.44
370.445	399.44
370.672	398.44
370.898	390.44
371.124	408.44
371.35	387.44
371.576	400.44
371.802	408.44
372.028	418.44
372.254	424.44
372.48	405.44
372.706	406.44
372.932	408.44
373.158	408.44
373.384	408.44
373.61	410.44
373.835	409.44
374.061	397.44
374.287	387.44
374.513	422.44
374.739	411.44
374.965	430.44
375.191	414.44
375.416	410.44
375.642	401.44
375.868	406.44
376.094	415.44
376.319	398.44
376.545	394.44
376.771	400.44
376.997	404.44
377.222	421.44
377.448	408.44
377.674	419.44
377.899	414.44
378.125	411.44
378.35	397.44
378.576	389.44
378.802	421.44
379.027	431.44
379.253	410.44
379.478	403.44
379.704	398.44
379.929	421.44
380.155	404.44
380.38	401.44
380.606	420.44
380.831	411.44
381.057	441.44
381.282	399.44
381.507	393.44
381.733	410.44
381.958	401.44
382.184	430.44
382.409	429.44
382.634	419.44
382.86	405.44
383.085	404.44
383.31	434.44
383.535	435.44
383.761	440.44
383.986	445.44
384.211	433.44
384.436	434.44
384.662	434.44
384.887	439.44
385.112	429.44
385.337	444.44
385.562	435.44
385.787	446.44
386.013	456.44
386.238	455.44
386.463	479.44
386.688	446.44
386.913	455.44
387.138	455.44
387.363	453.44
387.588	461.44
387.813	445.44
388.038	444.44
388.263	445.44
388.488	467.44
388.713	443.44
388.938	488.44
389.163	460.44
389.387	456.44
389.612	474.44
389.837	444.44
390.062	448.44
390.287	456.44
390.512	435.44
390.736	451.44
390.961	453.44
391.186	461.44
391.411	465.44
391.636	461.44
391.86	481.44
392.085	477.44
392.31	455.44
392.534	474.44
392.759	488.44
392.984	457.44
393.208	473.44
393.433	465.44
393.658	451.44
393.882	473.44
394.107	457.44
394.331	475.44
394.556	455.44
394.78	453.44
395.005	475.44
395.229	469.44
395.454	462.44
395.678	494.44
395.903	474.44
396.127	505.44
396.352	495.44
396.576	488.44
396.801	456.44
397.025	462.44
397.249	502.44
397.474	505.44
397.698	506.44
397.922	507.44
398.147	517.44
398.371	538.44
398.595	517.44
398.82	529.44
399.044	537.44
399.268	545.44
399.492	581.44
399.717	596.44
399.941	628.44
400.165	637.44
400.389	647.44
400.613	588.44
400.837	558.44
401.062	555.44
401.286	537.44
401.51	556.44
401.734	539.44
401.958	537.44
402.182	525.44
402.406	541.44
402.63	533.44
402.854	529.44
403.078	521.44
403.302	545.44
403.526	556.44
403.75	556.44
403.974	570.44
404.198	559.44
404.422	561.44
404.645	579.44
404.869	563.44
405.093	598.44
405.317	635.44
405.541	656.44
405.765	605.44
405.988	586.44
406.212	577.44
406.436	575.44
406.66	605.44
406.883	612.44
407.107	624.44
407.331	662.44
407.555	719.44
407.778	705.44
408.002	649.44
408.226	633.44
408.449	619.44
408.673	603.44
408.896	641.44
409.12	666.44
409.344	641.44
409.567	587.44
409.791	599.44
410.014	584.44
410.238	550.44
410.461	567.44
410.685	581.44
410.908	555.44
411.132	606.44
411.355	663.44
411.578	606.44
411.802	558.44
412.025	579.44
412.249	572.44
412.472	586.44
412.695	626.44
412.919	605.44
413.142	572.44
413.365	531.44
413.589	527.44
413.812	543.44
414.035	508.44
414.258	525.44
414.482	527.44
414.705	522.44
414.928	525.44
415.151	519.44
415.374	539.44
415.597	511.44
415.821	520.44
416.044	521.44
416.267	536.44
416.49	526.44
416.713	525.44
416.936	519.44
417.159	521.44
417.382	528.44
417.605	534.44
417.828	531.44
418.051	551.44
418.274	541.44
418.497	508.44
418.72	527.44
418.943	519.44
419.166	535.44
419.389	568.44
419.611	552.44
419.834	551.44
420.057	562.44
420.28	549.44
420.503	523.44
420.726	550.44
420.948	553.44
421.171	601.44
421.394	635.44
421.617	576.44
421.839	543.44
422.062	538.44
422.285	578.44
422.507	615.44
422.73	686.44
422.953	679.44
423.175	589.44
423.398	569.44
423.621	559.44
423.843	597.44
424.066	571.44
424.288	585.44
424.511	583.44
424.733	623.44
424.956	742.44
425.178	712.44
425.401	713.44
425.623	743.44
425.846	644.44
426.068	603.44
426.291	567.44
426.513	567.44
426.735	601.44
426.958	626.44
427.18	712.44
427.402	833.44
427.625	943.44
427.847	811.44
428.069	719.44
428.292	630.44
428.514	576.44
428.736	541.44
428.958	548.44
429.181	535.44
429.403	554.44
429.625	544.44
429.847	568.44
430.069	663.44
430.292	672.44
430.514	555.44
430.736	533.44
430.958	521.44
431.18	513.44
431.402	521.44
431.624	523.44
431.846	519.44
432.068	517.44
432.29	518.44
432.512	490.44
432.734	525.44
432.956	527.44
433.178	536.44
433.4	519.44
433.622	522.44
433.844	504.44
434.066	520.44
434.287	522.44
434.509	503.44
434.731	530.44
434.953	540.44
435.175	561.44
435.397	588.44
435.618	598.44
435.84	610.44
436.062	716.44
436.284	781.44
436.505	677.44
436.727	587.44
436.949	541.44
437.17	561.44
437.392	523.44
437.614	547.44
437.835	573.44
438.057	679.44
438.278	810.44
438.5	784.44
438.721	864.44
438.943	858.44
439.165	659.44
439.386	617.44
439.608	589.44
439.829	586.44
440.05	619.44
440.272	665.44
440.493	614.44
440.715	547.44
440.936	556.44
441.158	559.44
441.379	534.44
441.6	585.44
441.822	575.44
442.043	598.44
442.264	690.44
442.486	767.44
442.707	641.44
442.928	605.44
443.149	622.44
443.371	611.44
443.592	667.44
443.813	768.44
444.034	852.44
444.255	677.44
444.476	621.44
444.698	584.44
444.919	581.44
445.14	718.44
445.361	654.44
445.582	636.44
445.803	670.44
446.024	798.44
446.245	822.44
446.466	755.44
446.687	622.44
446.908	590.44
447.129	570.44
447.35	534.44
447.571	534.44
447.792	513.44
448.013	502.44
448.234	557.44
448.455	612.44
448.675	739.44
448.896	842.44
449.117	717.44
449.338	677.44
449.559	794.44
449.779	874.44
450	715.44
450.221	589.44
450.442	549.44
450.662	527.44
450.883	540.44
451.104	537.44
451.324	542.44
451.545	525.44
451.766	501.44
451.986	493.44
452.207	476.44
452.428	472.44
452.648	500.44
452.869	490.44
453.089	479.44
453.31	503.44
453.53	505.44
453.751	473.44
453.971	482.44
454.192	503.44
454.412	503.44
454.633	489.44
454.853	479.44
455.073	465.44
455.294	502.44
455.514	560.44
455.734	549.44
455.955	481.44
456.175	482.44
456.395	451.44
456.616	487.44
456.836	458.44
457.056	460.44
457.276	433.44
457.497	457.44
457.717	468.44
457.937	462.44
458.157	476.44
458.377	480.44
458.598	486.44
458.818	549.44
459.038	638.44
459.258	641.44
459.478	568.44
459.698	519.44
459.918	509.44
460.138	502.44
460.358	541.44
460.578	545.44
460.798	522.44
461.018	535.44
461.238	525.44
461.458	545.44
461.678	525.44
461.898	547.44
462.118	511.44
462.338	543.44
462.558	567.44
462.777	563.44
462.997	567.44
463.217	576.44
463.437	597.44
463.657	581.44
463.876	558.44
464.096	585.44
464.316	553.44
464.536	580.44
464.755	584.44
464.975	587.44
465.195	602.44
465.414	659.44
465.634	595.44
465.854	562.44
466.073	530.44
466.293	517.44
466.512	518.44
466.732	500.44
466.951	518.44
467.171	503.44
467.391	506.44
467.61	518.44
467.829	498.44
468.049	512.44
468.268	505.44
468.488	501.44
468.707	485.44
468.927	475.44
469.146	467.44
469.365	495.44
469.585	482.44
469.804	512.44
470.023	494.44
470.243	496.44
470.462	499.44
470.681	522.44
470.901	527.44
471.12	523.44
471.339	519.44
471.558	495.44
471.777	498.44
471.997	503.44
472.216	513.44
472.435	525.44
472.654	509.44
472.873	513.44
473.092	509.44
473.311	507.44
473.53	497.44
473.749	506.44
473.968	551.44
474.187	645.44
474.406	671.44
474.625	571.44
474.844	525.44
475.063	519.44
475.282	511.44
475.501	491.44
475.72	507.44
475.939	511.44
476.158	521.44
476.377	504.44
476.596	518.44
476.814	535.44
477.033	558.44
477.252	554.44
477.471	554.44
477.69	559.44
477.908	577.44
478.127	543.44
478.346	536.44
478.564	557.44
478.783	567.44
479.002	589.44
479.22	573.44
479.439	570.44
479.658	583.44
479.876	636.44
480.095	601.44
480.313	631.44
480.532	625.44
480.751	616.44
480.969	625.44
481.188	671.44
481.406	712.44
481.624	636.44
481.843	603.44
482.061	615.44
482.28	622.44
482.498	618.44
482.717	585.44
482.935	586.44
483.153	602.44
483.372	582.44
483.59	595.44
483.808	599.44
484.027	577.44
484.245	589.44
484.463	595.44
484.681	611.44
484.9	604.44
485.118	619.44
485.336	619.44
485.554	594.44
485.772	609.44
485.99	594.44
486.209	600.44
486.427	627.44
486.645	614.44
486.863	662.44
487.081	656.44
487.299	637.44
487.517	622.44
487.735	641.44
487.953	625.44
488.171	639.44
488.389	647.44
488.607	627.44
488.825	618.44
489.043	642.44
489.261	649.44
489.479	641.44
489.696	626.44
489.914	631.44
490.132	650.44
490.35	658.44
490.568	651.44
490.786	642.44
491.003	652.44
491.221	671.44
491.439	686.44
491.657	704.44
491.874	698.44
492.092	710.44
492.31	697.44
492.527	721.44
492.745	703.44
492.963	727.44
493.18	717.44
493.398	722.44
493.615	729.44
493.833	723.44
494.05	719.44
494.268	733.44
494.485	725.44
494.703	733.44
494.92	712.44
495.138	723.44
495.355	737.44
495.573	765.44
495.79	758.44
496.008	742.44
496.225	749.44
496.442	768.44
496.66	743.44
496.877	728.44
497.094	749.44
497.312	750.44
497.529	761.44
497.746	808.44
497.963	762.44
498.181	816.44
498.398	817.44
498.615	846.44
498.832	873.44
499.049	874.44
499.267	873.44
499.484	927.44
499.701	949.44
499.918	963.44
500.135	1024.44
500.352	1072.44
500.569	1079.44
500.786	1078.44
501.003	1063.44
501.22	1037.44
501.437	1004.44
501.654	989.44
501.871	953.44
