Data from 1978.PennyLincolnUp.Lamp.En5.5.200Scan.071719.P1_HRD10591_16-14-02-863.txt Node
Date: Thu Jul 18 16:14:02 EDT 2019
User: cochatt
Spectrometer: HR+D1059
Trigger mode: 1
Integration Time (sec): 1.000000E-1
Scans to average: 1
Electric dark correction enabled: true
Nonlinearity correction enabled: false
Boxcar width: 0
XAxis mode: Wavelengths
Number of Pixels in Spectrum: 2048
>>>>>Begin Spectral Data<<<<<
223.165	-25.88
223.4	-25.88
223.635	-25.88
223.869	-26.88
224.104	3.12
224.338	-15.88
224.573	-13.88
224.808	-11.88
225.042	-15.88
225.277	-10.88
225.511	-0.88
225.746	2.12
225.98	13.12
226.215	1.12
226.449	15.12
226.683	27.12
226.918	33.12
227.152	27.12
227.387	35.12
227.621	38.12
227.856	46.12
228.09	48.12
228.324	51.12
228.559	58.12
228.793	68.12
229.027	81.12
229.262	78.12
229.496	84.12
229.73	117.12
229.964	152.12
230.199	109.12
230.433	104.12
230.667	120.12
230.901	118.12
231.136	106.12
231.37	110.12
231.604	106.12
231.838	107.12
232.072	120.12
232.306	114.12
232.541	106.12
232.775	108.12
233.009	116.12
233.243	106.12
233.477	105.12
233.711	117.12
233.945	103.12
234.179	107.12
234.413	118.12
234.647	122.12
234.881	115.12
235.115	109.12
235.349	122.12
235.583	122.12
235.817	122.12
236.051	126.12
236.285	115.12
236.519	114.12
236.753	129.12
236.987	138.12
237.221	190.12
237.455	218.12
237.689	183.12
237.922	143.12
238.156	126.12
238.39	122.12
238.624	116.12
238.858	120.12
239.091	127.12
239.325	116.12
239.559	117.12
239.793	106.12
240.027	133.12
240.26	139.12
240.494	160.12
240.728	129.12
240.961	139.12
241.195	114.12
241.429	126.12
241.662	140.12
241.896	128.12
242.13	122.12
242.363	132.12
242.597	116.12
242.83	133.12
243.064	133.12
243.298	135.12
243.531	136.12
243.765	138.12
243.998	137.12
244.232	132.12
244.465	152.12
244.699	130.12
244.932	140.12
245.166	141.12
245.399	139.12
245.633	130.12
245.866	136.12
246.099	135.12
246.333	152.12
246.566	135.12
246.8	140.12
247.033	151.12
247.266	148.12
247.5	147.12
247.733	170.12
247.966	172.12
248.2	141.12
248.433	158.12
248.666	172.12
248.899	168.12
249.133	194.12
249.366	183.12
249.599	186.12
249.832	172.12
250.066	162.12
250.299	170.12
250.532	165.12
250.765	185.12
250.998	197.12
251.231	210.12
251.465	208.12
251.698	204.12
251.931	186.12
252.164	159.12
252.397	195.12
252.63	179.12
252.863	209.12
253.096	189.12
253.329	221.12
253.562	195.12
253.795	211.12
254.028	199.12
254.261	192.12
254.494	189.12
254.727	221.12
254.96	265.12
255.193	244.12
255.426	221.12
255.659	200.12
255.892	208.12
256.124	202.12
256.357	210.12
256.59	216.12
256.823	206.12
257.056	221.12
257.289	181.12
257.521	213.12
257.754	190.12
257.987	208.12
258.22	202.12
258.452	206.12
258.685	186.12
258.918	192.12
259.151	186.12
259.383	204.12
259.616	193.12
259.849	212.12
260.081	217.12
260.314	232.12
260.547	229.12
260.779	233.12
261.012	197.12
261.244	216.12
261.477	208.12
261.71	214.12
261.942	193.12
262.175	210.12
262.407	224.12
262.64	205.12
262.872	201.12
263.105	201.12
263.337	203.12
263.57	211.12
263.802	205.12
264.035	196.12
264.267	202.12
264.499	213.12
264.732	186.12
264.964	205.12
265.197	203.12
265.429	197.12
265.661	208.12
265.894	202.12
266.126	210.12
266.358	211.12
266.591	177.12
266.823	221.12
267.055	217.12
267.287	220.12
267.52	224.12
267.752	209.12
267.984	212.12
268.216	203.12
268.448	216.12
268.681	218.12
268.913	239.12
269.145	249.12
269.377	256.12
269.609	245.12
269.841	240.12
270.073	256.12
270.306	273.12
270.538	286.12
270.77	291.12
271.002	284.12
271.234	267.12
271.466	267.12
271.698	278.12
271.93	290.12
272.162	286.12
272.394	286.12
272.626	271.12
272.858	257.12
273.09	242.12
273.322	256.12
273.553	243.12
273.785	250.12
274.017	270.12
274.249	260.12
274.481	245.12
274.713	242.12
274.945	261.12
275.176	248.12
275.408	258.12
275.64	236.12
275.872	243.12
276.104	257.12
276.335	260.12
276.567	267.12
276.799	275.12
277.031	291.12
277.262	297.12
277.494	308.12
277.726	276.12
277.957	270.12
278.189	266.12
278.421	241.12
278.652	243.12
278.884	262.12
279.115	248.12
279.347	259.12
279.579	258.12
279.81	248.12
280.042	256.12
280.273	268.12
280.505	257.12
280.736	270.12
280.968	241.12
281.199	259.12
281.431	264.12
281.662	244.12
281.894	245.12
282.125	265.12
282.356	261.12
282.588	278.12
282.819	299.12
283.051	271.12
283.282	265.12
283.513	267.12
283.745	264.12
283.976	275.12
284.207	280.12
284.439	267.12
284.67	270.12
284.901	271.12
285.132	278.12
285.364	268.12
285.595	249.12
285.826	270.12
286.057	274.12
286.288	276.12
286.52	259.12
286.751	284.12
286.982	262.12
287.213	266.12
287.444	273.12
287.675	284.12
287.906	283.12
288.138	301.12
288.369	291.12
288.6	293.12
288.831	288.12
289.062	256.12
289.293	275.12
289.524	269.12
289.755	293.12
289.986	256.12
290.217	261.12
290.448	305.12
290.679	285.12
290.91	284.12
291.141	288.12
291.371	273.12
291.602	274.12
291.833	269.12
292.064	280.12
292.295	268.12
292.526	269.12
292.757	279.12
292.987	290.12
293.218	281.12
293.449	285.12
293.68	283.12
293.91	271.12
294.141	288.12
294.372	279.12
294.603	267.12
294.833	275.12
295.064	274.12
295.295	277.12
295.525	291.12
295.756	299.12
295.987	292.12
296.217	296.12
296.448	323.12
296.679	292.12
296.909	290.12
297.14	290.12
297.37	290.12
297.601	294.12
297.831	293.12
298.062	287.12
298.292	282.12
298.523	292.12
298.753	292.12
298.984	291.12
299.214	303.12
299.445	288.12
299.675	294.12
299.905	302.12
300.136	291.12
300.366	298.12
300.597	300.12
300.827	302.12
301.057	296.12
301.288	319.12
301.518	323.12
301.748	295.12
301.979	324.12
302.209	328.12
302.439	318.12
302.669	325.12
302.9	310.12
303.13	309.12
303.36	312.12
303.59	312.12
303.82	307.12
304.051	328.12
304.281	318.12
304.511	319.12
304.741	321.12
304.971	310.12
305.201	314.12
305.431	318.12
305.661	314.12
305.891	334.12
306.121	327.12
306.352	323.12
306.582	320.12
306.812	307.12
307.042	329.12
307.272	324.12
307.502	316.12
307.731	312.12
307.961	330.12
308.191	316.12
308.421	318.12
308.651	318.12
308.881	330.12
309.111	344.12
309.341	337.12
309.571	334.12
309.8	349.12
310.03	352.12
310.26	350.12
310.49	349.12
310.72	370.12
310.949	393.12
311.179	382.12
311.409	373.12
311.639	365.12
311.868	380.12
312.098	363.12
312.328	344.12
312.557	388.12
312.787	384.12
313.017	399.12
313.246	382.12
313.476	368.12
313.706	373.12
313.935	370.12
314.165	373.12
314.394	385.12
314.624	378.12
314.853	362.12
315.083	358.12
315.312	379.12
315.542	363.12
315.771	372.12
316.001	360.12
316.23	352.12
316.46	345.12
316.689	347.12
316.919	349.12
317.148	368.12
317.377	368.12
317.607	373.12
317.836	378.12
318.065	371.12
318.295	363.12
318.524	374.12
318.753	352.12
318.983	368.12
319.212	384.12
319.441	378.12
319.67	399.12
319.9	375.12
320.129	370.12
320.358	392.12
320.587	362.12
320.816	372.12
321.046	390.12
321.275	384.12
321.504	391.12
321.733	386.12
321.962	392.12
322.191	399.12
322.42	413.12
322.649	424.12
322.878	429.12
323.108	430.12
323.337	457.12
323.566	479.12
323.795	493.12
324.024	535.12
324.253	654.12
324.482	965.12
324.71	1516.12
324.939	2299.12
325.168	2041.12
325.397	949.12
325.626	639.12
325.855	548.12
326.084	496.12
326.313	507.12
326.542	498.12
326.77	540.12
326.999	626.12
327.228	867.12
327.457	1349.12
327.686	1765.12
327.914	1145.12
328.143	703.12
328.372	593.12
328.6	587.12
328.829	540.12
329.058	578.12
329.287	560.12
329.515	540.12
329.744	522.12
329.972	485.12
330.201	501.12
330.43	535.12
330.658	551.12
330.887	568.12
331.115	564.12
331.344	517.12
331.572	463.12
331.801	469.12
332.03	485.12
332.258	476.12
332.486	443.12
332.715	428.12
332.943	445.12
333.172	451.12
333.4	461.12
333.629	452.12
333.857	470.12
334.085	497.12
334.314	476.12
334.542	501.12
334.771	521.12
334.999	498.12
335.227	465.12
335.455	455.12
335.684	437.12
335.912	421.12
336.14	430.12
336.369	443.12
336.597	448.12
336.825	437.12
337.053	438.12
337.281	447.12
337.51	437.12
337.738	445.12
337.966	456.12
338.194	444.12
338.422	430.12
338.65	442.12
338.878	452.12
339.106	412.12
339.334	435.12
339.562	440.12
339.79	421.12
340.018	442.12
340.246	402.12
340.474	415.12
340.702	423.12
340.93	412.12
341.158	410.12
341.386	427.12
341.614	430.12
341.842	426.12
342.07	408.12
342.298	411.12
342.526	415.12
342.754	424.12
342.981	405.12
343.209	404.12
343.437	418.12
343.665	418.12
343.893	437.12
344.12	460.12
344.348	449.12
344.576	447.12
344.804	452.12
345.031	454.12
345.259	452.12
345.487	450.12
345.714	447.12
345.942	402.12
346.17	433.12
346.397	405.12
346.625	425.12
346.853	411.12
347.08	415.12
347.308	427.12
347.535	418.12
347.763	429.12
347.99	425.12
348.218	423.12
348.445	442.12
348.673	419.12
348.9	451.12
349.128	424.12
349.355	408.12
349.583	405.12
349.81	410.12
350.037	394.12
350.265	411.12
350.492	408.12
350.72	403.12
350.947	401.12
351.174	417.12
351.402	422.12
351.629	417.12
351.856	437.12
352.083	426.12
352.311	425.12
352.538	443.12
352.765	432.12
352.992	416.12
353.22	406.12
353.447	396.12
353.674	408.12
353.901	405.12
354.128	403.12
354.355	398.12
354.583	399.12
354.81	388.12
355.037	406.12
355.264	379.12
355.491	366.12
355.718	380.12
355.945	388.12
356.172	404.12
356.399	407.12
356.626	388.12
356.853	406.12
357.08	382.12
357.307	384.12
357.534	375.12
357.761	403.12
357.988	388.12
358.215	404.12
358.441	405.12
358.668	383.12
358.895	396.12
359.122	412.12
359.349	398.12
359.576	409.12
359.802	418.12
360.029	460.12
360.256	448.12
360.483	465.12
360.709	419.12
360.936	437.12
361.163	434.12
361.39	396.12
361.616	398.12
361.843	413.12
362.07	407.12
362.296	434.12
362.523	426.12
362.749	422.12
362.976	415.12
363.203	405.12
363.429	394.12
363.656	394.12
363.882	403.12
364.109	408.12
364.335	421.12
364.562	407.12
364.788	397.12
365.015	378.12
365.241	409.12
365.468	402.12
365.694	414.12
365.92	428.12
366.147	387.12
366.373	388.12
366.599	402.12
366.826	384.12
367.052	398.12
367.278	403.12
367.505	410.12
367.731	384.12
367.957	392.12
368.184	403.12
368.41	418.12
368.636	419.12
368.862	445.12
369.089	422.12
369.315	405.12
369.541	406.12
369.767	410.12
369.993	412.12
370.219	398.12
370.445	407.12
370.672	412.12
370.898	414.12
371.124	399.12
371.35	418.12
371.576	414.12
371.802	420.12
372.028	414.12
372.254	397.12
372.48	432.12
372.706	418.12
372.932	396.12
373.158	426.12
373.384	411.12
373.61	415.12
373.835	409.12
374.061	402.12
374.287	434.12
374.513	410.12
374.739	398.12
374.965	416.12
375.191	429.12
375.416	408.12
375.642	399.12
375.868	429.12
376.094	415.12
376.319	419.12
376.545	396.12
376.771	424.12
376.997	402.12
377.222	430.12
377.448	395.12
377.674	416.12
377.899	436.12
378.125	390.12
378.35	390.12
378.576	395.12
378.802	394.12
379.027	408.12
379.253	383.12
379.478	406.12
379.704	386.12
379.929	427.12
380.155	418.12
380.38	421.12
380.606	393.12
380.831	411.12
381.057	413.12
381.282	412.12
381.507	392.12
381.733	405.12
381.958	410.12
382.184	417.12
382.409	398.12
382.634	432.12
382.86	398.12
383.085	436.12
383.31	405.12
383.535	425.12
383.761	430.12
383.986	432.12
384.211	442.12
384.436	441.12
384.662	439.12
384.887	456.12
385.112	445.12
385.337	451.12
385.562	445.12
385.787	452.12
386.013	454.12
386.238	466.12
386.463	468.12
386.688	458.12
386.913	471.12
387.138	448.12
387.363	456.12
387.588	437.12
387.813	450.12
388.038	445.12
388.263	461.12
388.488	440.12
388.713	458.12
388.938	454.12
389.163	453.12
389.387	483.12
389.612	455.12
389.837	443.12
390.062	452.12
390.287	464.12
390.512	450.12
390.736	459.12
390.961	483.12
391.186	459.12
391.411	459.12
391.636	467.12
391.86	469.12
392.085	486.12
392.31	470.12
392.534	475.12
392.759	472.12
392.984	465.12
393.208	468.12
393.433	471.12
393.658	460.12
393.882	476.12
394.107	461.12
394.331	502.12
394.556	488.12
394.78	474.12
395.005	478.12
395.229	479.12
395.454	473.12
395.678	483.12
395.903	501.12
396.127	518.12
396.352	501.12
396.576	501.12
396.801	488.12
397.025	476.12
397.249	484.12
397.474	490.12
397.698	486.12
397.922	522.12
398.147	510.12
398.371	546.12
398.595	504.12
398.82	539.12
399.044	540.12
399.268	586.12
399.492	580.12
399.717	596.12
399.941	635.12
400.165	644.12
400.389	676.12
400.613	618.12
400.837	575.12
401.062	539.12
401.286	520.12
401.51	538.12
401.734	549.12
401.958	544.12
402.182	554.12
402.406	558.12
402.63	560.12
402.854	557.12
403.078	556.12
403.302	549.12
403.526	564.12
403.75	566.12
403.974	553.12
404.198	564.12
404.422	553.12
404.645	562.12
404.869	564.12
405.093	600.12
405.317	649.12
405.541	696.12
405.765	635.12
405.988	606.12
406.212	628.12
406.436	627.12
406.66	631.12
406.883	604.12
407.107	619.12
407.331	678.12
407.555	728.12
407.778	734.12
408.002	690.12
408.226	632.12
408.449	613.12
408.673	618.12
408.896	648.12
409.12	682.12
409.344	650.12
409.567	587.12
409.791	582.12
410.014	572.12
410.238	565.12
410.461	579.12
410.685	567.12
410.908	572.12
411.132	629.12
411.355	663.12
411.578	634.12
411.802	552.12
412.025	551.12
412.249	569.12
412.472	601.12
412.695	631.12
412.919	627.12
413.142	580.12
413.365	548.12
413.589	558.12
413.812	556.12
414.035	548.12
414.258	545.12
414.482	532.12
414.705	509.12
414.928	525.12
415.151	537.12
415.374	510.12
415.597	533.12
415.821	502.12
416.044	526.12
416.267	542.12
416.49	534.12
416.713	538.12
416.936	520.12
417.159	539.12
417.382	537.12
417.605	537.12
417.828	560.12
418.051	555.12
418.274	556.12
418.497	518.12
418.72	530.12
418.943	526.12
419.166	546.12
419.389	560.12
419.611	564.12
419.834	536.12
420.057	558.12
420.28	518.12
420.503	551.12
420.726	568.12
420.948	555.12
421.171	621.12
421.394	636.12
421.617	600.12
421.839	553.12
422.062	579.12
422.285	554.12
422.507	611.12
422.73	702.12
422.953	696.12
423.175	619.12
423.398	598.12
423.621	572.12
423.843	586.12
424.066	595.12
424.288	584.12
424.511	603.12
424.733	666.12
424.956	746.12
425.178	731.12
425.401	719.12
425.623	735.12
425.846	658.12
426.068	581.12
426.291	585.12
426.513	588.12
426.735	600.12
426.958	637.12
427.18	724.12
427.402	880.12
427.625	967.12
427.847	840.12
428.069	703.12
428.292	634.12
428.514	594.12
428.736	556.12
428.958	562.12
429.181	548.12
429.403	550.12
429.625	550.12
429.847	581.12
430.069	675.12
430.292	648.12
430.514	578.12
430.736	540.12
430.958	530.12
431.18	530.12
431.402	516.12
431.624	513.12
431.846	541.12
432.068	539.12
432.29	533.12
432.512	504.12
432.734	527.12
432.956	547.12
433.178	538.12
433.4	527.12
433.622	520.12
433.844	530.12
434.066	521.12
434.287	504.12
434.509	526.12
434.731	535.12
434.953	553.12
435.175	553.12
435.397	588.12
435.618	594.12
435.84	614.12
436.062	753.12
436.284	834.12
436.505	662.12
436.727	617.12
436.949	570.12
437.17	540.12
437.392	545.12
437.614	549.12
437.835	581.12
438.057	706.12
438.278	820.12
438.5	826.12
438.721	886.12
438.943	856.12
439.165	669.12
439.386	644.12
439.608	599.12
439.829	598.12
440.05	630.12
440.272	666.12
440.493	626.12
440.715	600.12
440.936	572.12
441.158	545.12
441.379	536.12
441.6	566.12
441.822	588.12
442.043	627.12
442.264	712.12
442.486	747.12
442.707	624.12
442.928	605.12
443.149	626.12
443.371	620.12
443.592	667.12
443.813	777.12
444.034	854.12
444.255	724.12
444.476	629.12
444.698	614.12
444.919	608.12
445.14	663.12
445.361	668.12
445.582	628.12
445.803	708.12
446.024	821.12
446.245	813.12
446.466	764.12
446.687	628.12
446.908	572.12
447.129	590.12
447.35	550.12
447.571	541.12
447.792	534.12
448.013	533.12
448.234	548.12
448.455	619.12
448.675	737.12
448.896	873.12
449.117	725.12
449.338	694.12
449.559	805.12
449.779	962.12
450	714.12
450.221	604.12
450.442	552.12
450.662	529.12
450.883	539.12
451.104	541.12
451.324	532.12
451.545	520.12
451.766	508.12
451.986	480.12
452.207	489.12
452.428	501.12
452.648	517.12
452.869	479.12
453.089	496.12
453.31	517.12
453.53	469.12
453.751	502.12
453.971	511.12
454.192	517.12
454.412	491.12
454.633	478.12
454.853	467.12
455.073	464.12
455.294	516.12
455.514	567.12
455.734	563.12
455.955	508.12
456.175	473.12
456.395	476.12
456.616	480.12
456.836	476.12
457.056	458.12
457.276	461.12
457.497	446.12
457.717	475.12
457.937	473.12
458.157	474.12
458.377	486.12
458.598	508.12
458.818	572.12
459.038	622.12
459.258	652.12
459.478	583.12
459.698	532.12
459.918	537.12
460.138	524.12
460.358	548.12
460.578	524.12
460.798	547.12
461.018	540.12
461.238	533.12
461.458	538.12
461.678	509.12
461.898	554.12
462.118	538.12
462.338	547.12
462.558	542.12
462.777	569.12
462.997	582.12
463.217	592.12
463.437	605.12
463.657	594.12
463.876	599.12
464.096	606.12
464.316	585.12
464.536	573.12
464.755	568.12
464.975	589.12
465.195	598.12
465.414	690.12
465.634	604.12
465.854	553.12
466.073	545.12
466.293	534.12
466.512	501.12
466.732	513.12
466.951	487.12
467.171	521.12
467.391	512.12
467.61	524.12
467.829	503.12
468.049	512.12
468.268	516.12
468.488	494.12
468.707	492.12
468.927	504.12
469.146	505.12
469.365	523.12
469.585	508.12
469.804	528.12
470.023	521.12
470.243	521.12
470.462	534.12
470.681	545.12
470.901	543.12
471.12	525.12
471.339	532.12
471.558	520.12
471.777	521.12
471.997	513.12
472.216	521.12
472.435	559.12
472.654	541.12
472.873	500.12
473.092	518.12
473.311	504.12
473.53	504.12
473.749	512.12
473.968	587.12
474.187	671.12
474.406	695.12
474.625	573.12
474.844	529.12
475.063	514.12
475.282	514.12
475.501	497.12
475.72	536.12
475.939	514.12
476.158	539.12
476.377	530.12
476.596	519.12
476.814	511.12
477.033	549.12
477.252	568.12
477.471	554.12
477.69	526.12
477.908	578.12
478.127	580.12
478.346	572.12
478.564	588.12
478.783	561.12
479.002	581.12
479.22	593.12
479.439	582.12
479.658	613.12
479.876	604.12
480.095	624.12
480.313	646.12
480.532	665.12
480.751	613.12
480.969	632.12
481.188	672.12
481.406	684.12
481.624	658.12
481.843	588.12
482.061	630.12
482.28	602.12
482.498	592.12
482.717	634.12
482.935	631.12
483.153	599.12
483.372	611.12
483.59	587.12
483.808	615.12
484.027	621.12
484.245	622.12
484.463	609.12
484.681	606.12
484.9	601.12
485.118	623.12
485.336	626.12
485.554	598.12
485.772	636.12
485.99	619.12
486.209	595.12
486.427	627.12
486.645	630.12
486.863	665.12
487.081	653.12
487.299	628.12
487.517	648.12
487.735	631.12
487.953	639.12
488.171	619.12
488.389	648.12
488.607	662.12
488.825	646.12
489.043	653.12
489.261	631.12
489.479	644.12
489.696	664.12
489.914	654.12
490.132	662.12
490.35	684.12
490.568	655.12
490.786	683.12
491.003	665.12
491.221	676.12
491.439	693.12
491.657	699.12
491.874	712.12
492.092	708.12
492.31	726.12
492.527	710.12
492.745	716.12
492.963	742.12
493.18	761.12
493.398	729.12
493.615	732.12
493.833	727.12
494.05	748.12
494.268	717.12
494.485	721.12
494.703	735.12
494.92	731.12
495.138	740.12
495.355	744.12
495.573	753.12
495.79	760.12
496.008	762.12
496.225	753.12
496.442	757.12
496.66	759.12
496.877	753.12
497.094	750.12
497.312	777.12
497.529	803.12
497.746	801.12
497.963	816.12
498.181	840.12
498.398	846.12
498.615	869.12
498.832	878.12
499.049	895.12
499.267	909.12
499.484	922.12
499.701	976.12
499.918	993.12
500.135	1063.12
500.352	1082.12
500.569	1101.12
500.786	1084.12
501.003	1093.12
501.22	1058.12
501.437	1011.12
501.654	1020.12
501.871	977.12
