Data from 1978.PennyLincolnUp.Lamp.En5.5.200Scan.071719.P1_HRD10591_16-12-20-865.txt Node
Date: Thu Jul 18 16:12:20 EDT 2019
User: cochatt
Spectrometer: HR+D1059
Trigger mode: 1
Integration Time (sec): 1.000000E-1
Scans to average: 1
Electric dark correction enabled: true
Nonlinearity correction enabled: false
Boxcar width: 0
XAxis mode: Wavelengths
Number of Pixels in Spectrum: 2048
>>>>>Begin Spectral Data<<<<<
223.165	-13.25
223.4	-13.25
223.635	-13.25
223.869	-23.25
224.104	-13.25
224.338	-14.25
224.573	-17.25
224.808	-12.25
225.042	-11.25
225.277	-10.25
225.511	-4.25
225.746	5.75
225.98	10.75
226.215	10.75
226.449	7.75
226.683	27.75
226.918	24.75
227.152	31.75
227.387	30.75
227.621	27.75
227.856	44.75
228.09	46.75
228.324	53.75
228.559	57.75
228.793	77.75
229.027	100.75
229.262	116.75
229.496	117.75
229.73	125.75
229.964	138.75
230.199	119.75
230.433	122.75
230.667	107.75
230.901	111.75
231.136	126.75
231.37	119.75
231.604	116.75
231.838	119.75
232.072	107.75
232.306	116.75
232.541	116.75
232.775	103.75
233.009	101.75
233.243	102.75
233.477	104.75
233.711	126.75
233.945	123.75
234.179	111.75
234.413	120.75
234.647	111.75
234.881	121.75
235.115	120.75
235.349	125.75
235.583	103.75
235.817	124.75
236.051	117.75
236.285	116.75
236.519	124.75
236.753	120.75
236.987	138.75
237.221	167.75
237.455	209.75
237.689	174.75
237.922	133.75
238.156	140.75
238.39	122.75
238.624	119.75
238.858	131.75
239.091	121.75
239.325	123.75
239.559	120.75
239.793	139.75
240.027	127.75
240.26	118.75
240.494	136.75
240.728	140.75
240.961	144.75
241.195	140.75
241.429	136.75
241.662	132.75
241.896	128.75
242.13	126.75
242.363	112.75
242.597	128.75
242.83	134.75
243.064	123.75
243.298	128.75
243.531	134.75
243.765	129.75
243.998	137.75
244.232	145.75
244.465	133.75
244.699	145.75
244.932	152.75
245.166	119.75
245.399	136.75
245.633	144.75
245.866	153.75
246.099	148.75
246.333	150.75
246.566	153.75
246.8	136.75
247.033	152.75
247.266	145.75
247.5	140.75
247.733	164.75
247.966	167.75
248.2	142.75
248.433	158.75
248.666	166.75
248.899	162.75
249.133	182.75
249.366	184.75
249.599	172.75
249.832	154.75
250.066	170.75
250.299	176.75
250.532	163.75
250.765	180.75
250.998	176.75
251.231	209.75
251.465	186.75
251.698	180.75
251.931	173.75
252.164	173.75
252.397	171.75
252.63	183.75
252.863	171.75
253.096	191.75
253.329	183.75
253.562	175.75
253.795	182.75
254.028	200.75
254.261	166.75
254.494	189.75
254.727	214.75
254.96	234.75
255.193	214.75
255.426	216.75
255.659	204.75
255.892	200.75
256.124	196.75
256.357	199.75
256.59	216.75
256.823	191.75
257.056	193.75
257.289	188.75
257.521	187.75
257.754	179.75
257.987	191.75
258.22	196.75
258.452	193.75
258.685	175.75
258.918	167.75
259.151	182.75
259.383	196.75
259.616	209.75
259.849	196.75
260.081	197.75
260.314	207.75
260.547	238.75
260.779	222.75
261.012	200.75
261.244	197.75
261.477	190.75
261.71	214.75
261.942	214.75
262.175	215.75
262.407	203.75
262.64	191.75
262.872	201.75
263.105	201.75
263.337	203.75
263.57	205.75
263.802	199.75
264.035	188.75
264.267	200.75
264.499	195.75
264.732	190.75
264.964	188.75
265.197	185.75
265.429	206.75
265.661	194.75
265.894	196.75
266.126	205.75
266.358	202.75
266.591	202.75
266.823	207.75
267.055	202.75
267.287	197.75
267.52	224.75
267.752	204.75
267.984	218.75
268.216	203.75
268.448	204.75
268.681	202.75
268.913	217.75
269.145	228.75
269.377	252.75
269.609	252.75
269.841	233.75
270.073	256.75
270.306	235.75
270.538	282.75
270.77	272.75
271.002	266.75
271.234	249.75
271.466	262.75
271.698	271.75
271.93	283.75
272.162	272.75
272.394	255.75
272.626	258.75
272.858	256.75
273.09	260.75
273.322	247.75
273.553	230.75
273.785	233.75
274.017	242.75
274.249	250.75
274.481	230.75
274.713	244.75
274.945	248.75
275.176	243.75
275.408	240.75
275.64	231.75
275.872	240.75
276.104	236.75
276.335	238.75
276.567	245.75
276.799	248.75
277.031	270.75
277.262	272.75
277.494	278.75
277.726	272.75
277.957	252.75
278.189	256.75
278.421	262.75
278.652	240.75
278.884	245.75
279.115	256.75
279.347	256.75
279.579	261.75
279.81	249.75
280.042	250.75
280.273	258.75
280.505	262.75
280.736	245.75
280.968	235.75
281.199	254.75
281.431	273.75
281.662	240.75
281.894	258.75
282.125	257.75
282.356	262.75
282.588	285.75
282.819	277.75
283.051	286.75
283.282	233.75
283.513	250.75
283.745	252.75
283.976	267.75
284.207	247.75
284.439	280.75
284.67	270.75
284.901	263.75
285.132	254.75
285.364	240.75
285.595	247.75
285.826	229.75
286.057	257.75
286.288	268.75
286.52	263.75
286.751	281.75
286.982	256.75
287.213	258.75
287.444	248.75
287.675	270.75
287.906	271.75
288.138	264.75
288.369	279.75
288.6	273.75
288.831	287.75
289.062	280.75
289.293	264.75
289.524	269.75
289.755	266.75
289.986	282.75
290.217	253.75
290.448	255.75
290.679	265.75
290.91	267.75
291.141	264.75
291.371	267.75
291.602	265.75
291.833	277.75
292.064	276.75
292.295	245.75
292.526	274.75
292.757	267.75
292.987	283.75
293.218	266.75
293.449	274.75
293.68	255.75
293.91	280.75
294.141	262.75
294.372	273.75
294.603	298.75
294.833	302.75
295.064	260.75
295.295	280.75
295.525	270.75
295.756	296.75
295.987	276.75
296.217	294.75
296.448	310.75
296.679	280.75
296.909	290.75
297.14	280.75
297.37	272.75
297.601	290.75
297.831	288.75
298.062	279.75
298.292	282.75
298.523	296.75
298.753	290.75
298.984	285.75
299.214	285.75
299.445	291.75
299.675	282.75
299.905	298.75
300.136	299.75
300.366	305.75
300.597	288.75
300.827	294.75
301.057	314.75
301.288	313.75
301.518	317.75
301.748	297.75
301.979	301.75
302.209	287.75
302.439	318.75
302.669	311.75
302.9	307.75
303.13	313.75
303.36	314.75
303.59	301.75
303.82	313.75
304.051	318.75
304.281	309.75
304.511	321.75
304.741	319.75
304.971	310.75
305.201	301.75
305.431	297.75
305.661	295.75
305.891	314.75
306.121	318.75
306.352	301.75
306.582	317.75
306.812	305.75
307.042	319.75
307.272	316.75
307.502	309.75
307.731	324.75
307.961	302.75
308.191	324.75
308.421	334.75
308.651	334.75
308.881	326.75
309.111	330.75
309.341	323.75
309.571	313.75
309.8	314.75
310.03	326.75
310.26	337.75
310.49	357.75
310.72	362.75
310.949	365.75
311.179	369.75
311.409	336.75
311.639	347.75
311.868	333.75
312.098	371.75
312.328	360.75
312.557	356.75
312.787	358.75
313.017	368.75
313.246	350.75
313.476	350.75
313.706	344.75
313.935	338.75
314.165	338.75
314.394	369.75
314.624	372.75
314.853	344.75
315.083	362.75
315.312	346.75
315.542	344.75
315.771	335.75
316.001	346.75
316.23	340.75
316.46	340.75
316.689	362.75
316.919	362.75
317.148	366.75
317.377	360.75
317.607	362.75
317.836	345.75
318.065	364.75
318.295	343.75
318.524	367.75
318.753	338.75
318.983	339.75
319.212	353.75
319.441	363.75
319.67	359.75
319.9	351.75
320.129	320.75
320.358	347.75
320.587	354.75
320.816	368.75
321.046	383.75
321.275	364.75
321.504	380.75
321.733	372.75
321.962	372.75
322.191	380.75
322.42	380.75
322.649	381.75
322.878	389.75
323.108	391.75
323.337	423.75
323.566	431.75
323.795	479.75
324.024	484.75
324.253	576.75
324.482	837.75
324.71	1252.75
324.939	1912.75
325.168	1634.75
325.397	827.75
325.626	559.75
325.855	494.75
326.084	441.75
326.313	461.75
326.542	457.75
326.77	472.75
326.999	560.75
327.228	738.75
327.457	1133.75
327.686	1444.75
327.914	950.75
328.143	629.75
328.372	536.75
328.6	510.75
328.829	489.75
329.058	501.75
329.287	484.75
329.515	469.75
329.744	447.75
329.972	454.75
330.201	445.75
330.43	480.75
330.658	517.75
330.887	533.75
331.115	517.75
331.344	470.75
331.572	466.75
331.801	443.75
332.03	455.75
332.258	458.75
332.486	408.75
332.715	412.75
332.943	429.75
333.172	414.75
333.4	436.75
333.629	419.75
333.857	429.75
334.085	438.75
334.314	456.75
334.542	459.75
334.771	505.75
334.999	434.75
335.227	427.75
335.455	426.75
335.684	453.75
335.912	425.75
336.14	410.75
336.369	413.75
336.597	425.75
336.825	433.75
337.053	444.75
337.281	433.75
337.51	424.75
337.738	432.75
337.966	427.75
338.194	417.75
338.422	448.75
338.65	406.75
338.878	434.75
339.106	421.75
339.334	413.75
339.562	402.75
339.79	398.75
340.018	413.75
340.246	433.75
340.474	413.75
340.702	413.75
340.93	415.75
341.158	422.75
341.386	412.75
341.614	396.75
341.842	407.75
342.07	421.75
342.298	417.75
342.526	389.75
342.754	395.75
342.981	381.75
343.209	421.75
343.437	418.75
343.665	421.75
343.893	422.75
344.12	433.75
344.348	417.75
344.576	421.75
344.804	428.75
345.031	411.75
345.259	440.75
345.487	428.75
345.714	405.75
345.942	404.75
346.17	418.75
346.397	407.75
346.625	401.75
346.853	391.75
347.08	406.75
347.308	410.75
347.535	402.75
347.763	410.75
347.99	390.75
348.218	399.75
348.445	411.75
348.673	420.75
348.9	394.75
349.128	391.75
349.355	392.75
349.583	392.75
349.81	396.75
350.037	385.75
350.265	374.75
350.492	400.75
350.72	392.75
350.947	388.75
351.174	409.75
351.402	385.75
351.629	381.75
351.856	382.75
352.083	409.75
352.311	417.75
352.538	420.75
352.765	412.75
352.992	406.75
353.22	402.75
353.447	418.75
353.674	403.75
353.901	387.75
354.128	382.75
354.355	392.75
354.583	363.75
354.81	364.75
355.037	384.75
355.264	383.75
355.491	361.75
355.718	384.75
355.945	384.75
356.172	384.75
356.399	377.75
356.626	384.75
356.853	388.75
357.08	390.75
357.307	391.75
357.534	376.75
357.761	382.75
357.988	372.75
358.215	378.75
358.441	373.75
358.668	377.75
358.895	394.75
359.122	401.75
359.349	394.75
359.576	410.75
359.802	403.75
360.029	413.75
360.256	442.75
360.483	421.75
360.709	406.75
360.936	420.75
361.163	413.75
361.39	412.75
361.616	398.75
361.843	397.75
362.07	393.75
362.296	405.75
362.523	414.75
362.749	414.75
362.976	413.75
363.203	405.75
363.429	389.75
363.656	387.75
363.882	402.75
364.109	405.75
364.335	396.75
364.562	388.75
364.788	410.75
365.015	402.75
365.241	406.75
365.468	399.75
365.694	413.75
365.92	387.75
366.147	394.75
366.373	393.75
366.599	401.75
366.826	391.75
367.052	399.75
367.278	407.75
367.505	383.75
367.731	384.75
367.957	397.75
368.184	378.75
368.41	400.75
368.636	396.75
368.862	401.75
369.089	387.75
369.315	398.75
369.541	414.75
369.767	388.75
369.993	396.75
370.219	385.75
370.445	404.75
370.672	394.75
370.898	406.75
371.124	397.75
371.35	389.75
371.576	408.75
371.802	408.75
372.028	391.75
372.254	430.75
372.48	409.75
372.706	412.75
372.932	399.75
373.158	410.75
373.384	416.75
373.61	429.75
373.835	406.75
374.061	403.75
374.287	403.75
374.513	421.75
374.739	398.75
374.965	406.75
375.191	415.75
375.416	422.75
375.642	422.75
375.868	401.75
376.094	394.75
376.319	383.75
376.545	394.75
376.771	383.75
376.997	400.75
377.222	405.75
377.448	388.75
377.674	416.75
377.899	399.75
378.125	401.75
378.35	403.75
378.576	403.75
378.802	384.75
379.027	408.75
379.253	400.75
379.478	376.75
379.704	399.75
379.929	414.75
380.155	420.75
380.38	403.75
380.606	404.75
380.831	412.75
381.057	419.75
381.282	407.75
381.507	412.75
381.733	393.75
381.958	412.75
382.184	421.75
382.409	399.75
382.634	416.75
382.86	407.75
383.085	415.75
383.31	422.75
383.535	436.75
383.761	406.75
383.986	421.75
384.211	410.75
384.436	426.75
384.662	441.75
384.887	450.75
385.112	443.75
385.337	444.75
385.562	442.75
385.787	428.75
386.013	459.75
386.238	461.75
386.463	459.75
386.688	441.75
386.913	447.75
387.138	437.75
387.363	457.75
387.588	455.75
387.813	458.75
388.038	427.75
388.263	458.75
388.488	436.75
388.713	439.75
388.938	450.75
389.163	453.75
389.387	461.75
389.612	440.75
389.837	444.75
390.062	459.75
390.287	461.75
390.512	436.75
390.736	456.75
390.961	459.75
391.186	453.75
391.411	450.75
391.636	456.75
391.86	458.75
392.085	451.75
392.31	448.75
392.534	470.75
392.759	455.75
392.984	478.75
393.208	443.75
393.433	455.75
393.658	460.75
393.882	457.75
394.107	488.75
394.331	471.75
394.556	437.75
394.78	451.75
395.005	462.75
395.229	445.75
395.454	484.75
395.678	459.75
395.903	468.75
396.127	504.75
396.352	490.75
396.576	493.75
396.801	486.75
397.025	489.75
397.249	493.75
397.474	479.75
397.698	518.75
397.922	518.75
398.147	507.75
398.371	519.75
398.595	521.75
398.82	527.75
399.044	538.75
399.268	530.75
399.492	572.75
399.717	592.75
399.941	608.75
400.165	646.75
400.389	666.75
400.613	592.75
400.837	568.75
401.062	537.75
401.286	529.75
401.51	512.75
401.734	527.75
401.958	535.75
402.182	542.75
402.406	532.75
402.63	551.75
402.854	548.75
403.078	537.75
403.302	538.75
403.526	536.75
403.75	530.75
403.974	509.75
404.198	540.75
404.422	543.75
404.645	556.75
404.869	568.75
405.093	590.75
405.317	580.75
405.541	660.75
405.765	575.75
405.988	567.75
406.212	559.75
406.436	592.75
406.66	622.75
406.883	577.75
407.107	592.75
407.331	660.75
407.555	720.75
407.778	684.75
408.002	646.75
408.226	597.75
408.449	595.75
408.673	611.75
408.896	622.75
409.12	678.75
409.344	635.75
409.567	586.75
409.791	540.75
410.014	552.75
410.238	559.75
410.461	558.75
410.685	557.75
410.908	572.75
411.132	607.75
411.355	635.75
411.578	610.75
411.802	580.75
412.025	549.75
412.249	540.75
412.472	575.75
412.695	578.75
412.919	613.75
413.142	574.75
413.365	543.75
413.589	520.75
413.812	529.75
414.035	522.75
414.258	526.75
414.482	521.75
414.705	506.75
414.928	501.75
415.151	518.75
415.374	525.75
415.597	485.75
415.821	521.75
416.044	519.75
416.267	541.75
416.49	521.75
416.713	488.75
416.936	511.75
417.159	512.75
417.382	516.75
417.605	514.75
417.828	503.75
418.051	538.75
418.274	525.75
418.497	539.75
418.72	522.75
418.943	497.75
419.166	536.75
419.389	549.75
419.611	541.75
419.834	555.75
420.057	552.75
420.28	521.75
420.503	513.75
420.726	525.75
420.948	545.75
421.171	589.75
421.394	588.75
421.617	542.75
421.839	536.75
422.062	553.75
422.285	554.75
422.507	606.75
422.73	669.75
422.953	650.75
423.175	559.75
423.398	580.75
423.621	538.75
423.843	568.75
424.066	545.75
424.288	559.75
424.511	574.75
424.733	610.75
424.956	684.75
425.178	673.75
425.401	667.75
425.623	708.75
425.846	604.75
426.068	561.75
426.291	533.75
426.513	567.75
426.735	548.75
426.958	612.75
427.18	688.75
427.402	792.75
427.625	896.75
427.847	750.75
428.069	656.75
428.292	596.75
428.514	542.75
428.736	544.75
428.958	547.75
429.181	532.75
429.403	504.75
429.625	539.75
429.847	585.75
430.069	609.75
430.292	634.75
430.514	538.75
430.736	503.75
430.958	518.75
431.18	517.75
431.402	531.75
431.624	513.75
431.846	523.75
432.068	490.75
432.29	524.75
432.512	527.75
432.734	526.75
432.956	499.75
433.178	515.75
433.4	521.75
433.622	528.75
433.844	523.75
434.066	512.75
434.287	497.75
434.509	502.75
434.731	524.75
434.953	531.75
435.175	530.75
435.397	559.75
435.618	591.75
435.84	597.75
436.062	686.75
436.284	761.75
436.505	641.75
436.727	568.75
436.949	551.75
437.17	502.75
437.392	525.75
437.614	549.75
437.835	556.75
438.057	654.75
438.278	741.75
438.5	736.75
438.721	809.75
438.943	772.75
439.165	645.75
439.386	573.75
439.608	569.75
439.829	566.75
440.05	611.75
440.272	652.75
440.493	606.75
440.715	546.75
440.936	521.75
441.158	521.75
441.379	501.75
441.6	533.75
441.822	565.75
442.043	589.75
442.264	652.75
442.486	705.75
442.707	603.75
442.928	568.75
443.149	594.75
443.371	602.75
443.592	625.75
443.813	708.75
444.034	804.75
444.255	666.75
444.476	616.75
444.698	589.75
444.919	591.75
445.14	654.75
445.361	616.75
445.582	601.75
445.803	663.75
446.024	768.75
446.245	785.75
446.466	700.75
446.687	581.75
446.908	559.75
447.129	533.75
447.35	536.75
447.571	521.75
447.792	504.75
448.013	520.75
448.234	518.75
448.455	584.75
448.675	701.75
448.896	804.75
449.117	676.75
449.338	620.75
449.559	722.75
449.779	884.75
450	696.75
450.221	553.75
450.442	542.75
450.662	532.75
450.883	505.75
451.104	533.75
451.324	502.75
451.545	501.75
451.766	480.75
451.986	477.75
452.207	470.75
452.428	471.75
452.648	474.75
452.869	473.75
453.089	485.75
453.31	503.75
453.53	464.75
453.751	465.75
453.971	476.75
454.192	472.75
454.412	494.75
454.633	495.75
454.853	471.75
455.073	480.75
455.294	497.75
455.514	548.75
455.734	531.75
455.955	454.75
456.175	468.75
456.395	457.75
456.616	447.75
456.836	463.75
457.056	463.75
457.276	461.75
457.497	432.75
457.717	444.75
457.937	457.75
458.157	470.75
458.377	472.75
458.598	484.75
458.818	520.75
459.038	580.75
459.258	597.75
459.478	534.75
459.698	501.75
459.918	530.75
460.138	531.75
460.358	524.75
460.578	515.75
460.798	514.75
461.018	526.75
461.238	510.75
461.458	524.75
461.678	522.75
461.898	545.75
462.118	524.75
462.338	533.75
462.558	540.75
462.777	565.75
462.997	595.75
463.217	579.75
463.437	589.75
463.657	584.75
463.876	574.75
464.096	583.75
464.316	566.75
464.536	584.75
464.755	546.75
464.975	560.75
465.195	576.75
465.414	614.75
465.634	580.75
465.854	559.75
466.073	512.75
466.293	512.75
466.512	508.75
466.732	492.75
466.951	507.75
467.171	495.75
467.391	483.75
467.61	473.75
467.829	503.75
468.049	525.75
468.268	500.75
468.488	501.75
468.707	486.75
468.927	484.75
469.146	496.75
469.365	500.75
469.585	458.75
469.804	481.75
470.023	507.75
470.243	514.75
470.462	490.75
470.681	521.75
470.901	516.75
471.12	518.75
471.339	485.75
471.558	510.75
471.777	490.75
471.997	477.75
472.216	493.75
472.435	532.75
472.654	519.75
472.873	481.75
473.092	481.75
473.311	508.75
473.53	500.75
473.749	501.75
473.968	524.75
474.187	615.75
474.406	645.75
474.625	552.75
474.844	522.75
475.063	521.75
475.282	511.75
475.501	504.75
475.72	497.75
475.939	524.75
476.158	504.75
476.377	498.75
476.596	510.75
476.814	516.75
477.033	548.75
477.252	551.75
477.471	529.75
477.69	525.75
477.908	538.75
478.127	541.75
478.346	536.75
478.564	561.75
478.783	559.75
479.002	582.75
479.22	553.75
479.439	569.75
479.658	608.75
479.876	590.75
480.095	611.75
480.313	651.75
480.532	644.75
480.751	588.75
480.969	606.75
481.188	641.75
481.406	674.75
481.624	629.75
481.843	597.75
482.061	604.75
482.28	570.75
482.498	574.75
482.717	573.75
482.935	577.75
483.153	597.75
483.372	588.75
483.59	590.75
483.808	594.75
484.027	569.75
484.245	565.75
484.463	580.75
484.681	588.75
484.9	584.75
485.118	610.75
485.336	571.75
485.554	591.75
485.772	590.75
485.99	605.75
486.209	601.75
486.427	604.75
486.645	636.75
486.863	620.75
487.081	640.75
487.299	600.75
487.517	641.75
487.735	613.75
487.953	584.75
488.171	600.75
488.389	607.75
488.607	637.75
488.825	599.75
489.043	598.75
489.261	613.75
489.479	609.75
489.696	629.75
489.914	604.75
490.132	652.75
490.35	650.75
490.568	673.75
490.786	661.75
491.003	666.75
491.221	662.75
491.439	672.75
491.657	663.75
491.874	677.75
492.092	695.75
492.31	678.75
492.527	682.75
492.745	676.75
492.963	668.75
493.18	695.75
493.398	709.75
493.615	713.75
493.833	708.75
494.05	709.75
494.268	712.75
494.485	712.75
494.703	691.75
494.92	698.75
495.138	704.75
495.355	722.75
495.573	726.75
495.79	722.75
496.008	710.75
496.225	695.75
496.442	725.75
496.66	734.75
496.877	734.75
497.094	735.75
497.312	742.75
497.529	736.75
497.746	764.75
497.963	780.75
498.181	795.75
498.398	801.75
498.615	850.75
498.832	833.75
499.049	856.75
499.267	882.75
499.484	901.75
499.701	948.75
499.918	976.75
500.135	1003.75
500.352	1035.75
500.569	1066.75
500.786	1093.75
501.003	1045.75
501.22	1026.75
501.437	983.75
501.654	950.75
501.871	954.75
