Data from 1978.PennyLincolnUp.Lamp.En5.5.200Scan.071719.P1_HRD10591_16-14-31-863.txt Node
Date: Thu Jul 18 16:14:31 EDT 2019
User: cochatt
Spectrometer: HR+D1059
Trigger mode: 1
Integration Time (sec): 1.000000E-1
Scans to average: 1
Electric dark correction enabled: true
Nonlinearity correction enabled: false
Boxcar width: 0
XAxis mode: Wavelengths
Number of Pixels in Spectrum: 2048
>>>>>Begin Spectral Data<<<<<
223.165	-4.88
223.4	-4.88
223.635	-4.88
223.869	-17.88
224.104	-27.88
224.338	-11.88
224.573	-19.88
224.808	-4.88
225.042	-15.88
225.277	-17.88
225.511	-13.88
225.746	2.12
225.98	5.12
226.215	11.12
226.449	10.12
226.683	28.12
226.918	41.12
227.152	37.12
227.387	27.12
227.621	34.12
227.856	34.12
228.09	49.12
228.324	44.12
228.559	61.12
228.793	78.12
229.027	101.12
229.262	101.12
229.496	108.12
229.73	143.12
229.964	160.12
230.199	113.12
230.433	118.12
230.667	109.12
230.901	102.12
231.136	110.12
231.37	113.12
231.604	114.12
231.838	123.12
232.072	99.12
232.306	99.12
232.541	105.12
232.775	128.12
233.009	124.12
233.243	120.12
233.477	138.12
233.711	120.12
233.945	102.12
234.179	111.12
234.413	109.12
234.647	115.12
234.881	130.12
235.115	120.12
235.349	116.12
235.583	126.12
235.817	124.12
236.051	124.12
236.285	119.12
236.519	121.12
236.753	134.12
236.987	148.12
237.221	191.12
237.455	232.12
237.689	189.12
237.922	128.12
238.156	122.12
238.39	137.12
238.624	126.12
238.858	125.12
239.091	123.12
239.325	126.12
239.559	133.12
239.793	110.12
240.027	138.12
240.26	136.12
240.494	148.12
240.728	143.12
240.961	132.12
241.195	139.12
241.429	146.12
241.662	127.12
241.896	134.12
242.13	143.12
242.363	125.12
242.597	136.12
242.83	144.12
243.064	144.12
243.298	145.12
243.531	146.12
243.765	131.12
243.998	146.12
244.232	140.12
244.465	146.12
244.699	155.12
244.932	142.12
245.166	152.12
245.399	150.12
245.633	139.12
245.866	155.12
246.099	155.12
246.333	136.12
246.566	150.12
246.8	143.12
247.033	140.12
247.266	137.12
247.5	133.12
247.733	165.12
247.966	172.12
248.2	176.12
248.433	172.12
248.666	162.12
248.899	183.12
249.133	198.12
249.366	214.12
249.599	188.12
249.832	188.12
250.066	178.12
250.299	174.12
250.532	179.12
250.765	181.12
250.998	205.12
251.231	222.12
251.465	204.12
251.698	193.12
251.931	191.12
252.164	174.12
252.397	190.12
252.63	198.12
252.863	185.12
253.096	207.12
253.329	222.12
253.562	209.12
253.795	210.12
254.028	217.12
254.261	218.12
254.494	204.12
254.727	241.12
254.96	266.12
255.193	261.12
255.426	216.12
255.659	228.12
255.892	229.12
256.124	221.12
256.357	218.12
256.59	215.12
256.823	192.12
257.056	210.12
257.289	205.12
257.521	204.12
257.754	217.12
257.987	217.12
258.22	209.12
258.452	201.12
258.685	197.12
258.918	194.12
259.151	218.12
259.383	208.12
259.616	203.12
259.849	227.12
260.081	225.12
260.314	248.12
260.547	247.12
260.779	223.12
261.012	231.12
261.244	213.12
261.477	215.12
261.71	235.12
261.942	213.12
262.175	234.12
262.407	230.12
262.64	206.12
262.872	202.12
263.105	201.12
263.337	214.12
263.57	208.12
263.802	218.12
264.035	201.12
264.267	201.12
264.499	200.12
264.732	202.12
264.964	219.12
265.197	214.12
265.429	224.12
265.661	208.12
265.894	207.12
266.126	203.12
266.358	217.12
266.591	225.12
266.823	229.12
267.055	221.12
267.287	219.12
267.52	218.12
267.752	226.12
267.984	230.12
268.216	209.12
268.448	209.12
268.681	244.12
268.913	245.12
269.145	261.12
269.377	261.12
269.609	268.12
269.841	266.12
270.073	260.12
270.306	300.12
270.538	322.12
270.77	324.12
271.002	292.12
271.234	284.12
271.466	285.12
271.698	304.12
271.93	309.12
272.162	317.12
272.394	310.12
272.626	292.12
272.858	270.12
273.09	272.12
273.322	274.12
273.553	255.12
273.785	254.12
274.017	253.12
274.249	264.12
274.481	280.12
274.713	249.12
274.945	272.12
275.176	265.12
275.408	248.12
275.64	253.12
275.872	279.12
276.104	258.12
276.335	266.12
276.567	278.12
276.799	295.12
277.031	307.12
277.262	329.12
277.494	306.12
277.726	293.12
277.957	278.12
278.189	243.12
278.421	282.12
278.652	284.12
278.884	278.12
279.115	269.12
279.347	256.12
279.579	254.12
279.81	270.12
280.042	245.12
280.273	268.12
280.505	254.12
280.736	275.12
280.968	266.12
281.199	262.12
281.431	277.12
281.662	273.12
281.894	284.12
282.125	283.12
282.356	286.12
282.588	300.12
282.819	317.12
283.051	287.12
283.282	282.12
283.513	271.12
283.745	289.12
283.976	275.12
284.207	294.12
284.439	269.12
284.67	282.12
284.901	280.12
285.132	283.12
285.364	271.12
285.595	262.12
285.826	270.12
286.057	273.12
286.288	286.12
286.52	281.12
286.751	288.12
286.982	285.12
287.213	278.12
287.444	278.12
287.675	275.12
287.906	284.12
288.138	300.12
288.369	294.12
288.6	292.12
288.831	295.12
289.062	287.12
289.293	297.12
289.524	291.12
289.755	286.12
289.986	267.12
290.217	291.12
290.448	284.12
290.679	285.12
290.91	305.12
291.141	292.12
291.371	275.12
291.602	274.12
291.833	292.12
292.064	294.12
292.295	300.12
292.526	269.12
292.757	287.12
292.987	291.12
293.218	295.12
293.449	269.12
293.68	273.12
293.91	297.12
294.141	286.12
294.372	298.12
294.603	295.12
294.833	297.12
295.064	288.12
295.295	291.12
295.525	302.12
295.756	307.12
295.987	301.12
296.217	329.12
296.448	321.12
296.679	301.12
296.909	295.12
297.14	293.12
297.37	299.12
297.601	304.12
297.831	286.12
298.062	320.12
298.292	295.12
298.523	314.12
298.753	310.12
298.984	304.12
299.214	311.12
299.445	317.12
299.675	310.12
299.905	325.12
300.136	325.12
300.366	321.12
300.597	322.12
300.827	328.12
301.057	322.12
301.288	331.12
301.518	328.12
301.748	330.12
301.979	328.12
302.209	353.12
302.439	361.12
302.669	329.12
302.9	335.12
303.13	338.12
303.36	333.12
303.59	337.12
303.82	353.12
304.051	324.12
304.281	333.12
304.511	319.12
304.741	316.12
304.971	348.12
305.201	336.12
305.431	304.12
305.661	323.12
305.891	323.12
306.121	329.12
306.352	331.12
306.582	345.12
306.812	339.12
307.042	306.12
307.272	332.12
307.502	330.12
307.731	321.12
307.961	332.12
308.191	311.12
308.421	340.12
308.651	312.12
308.881	352.12
309.111	332.12
309.341	345.12
309.571	346.12
309.8	384.12
310.03	379.12
310.26	384.12
310.49	375.12
310.72	374.12
310.949	385.12
311.179	414.12
311.409	375.12
311.639	380.12
311.868	376.12
312.098	384.12
312.328	399.12
312.557	398.12
312.787	419.12
313.017	402.12
313.246	394.12
313.476	377.12
313.706	387.12
313.935	379.12
314.165	401.12
314.394	397.12
314.624	408.12
314.853	397.12
315.083	363.12
315.312	357.12
315.542	381.12
315.771	388.12
316.001	374.12
316.23	370.12
316.46	383.12
316.689	389.12
316.919	382.12
317.148	379.12
317.377	396.12
317.607	382.12
317.836	369.12
318.065	392.12
318.295	370.12
318.524	373.12
318.753	384.12
318.983	383.12
319.212	391.12
319.441	389.12
319.67	393.12
319.9	404.12
320.129	380.12
320.358	360.12
320.587	398.12
320.816	410.12
321.046	413.12
321.275	397.12
321.504	385.12
321.733	400.12
321.962	408.12
322.191	412.12
322.42	422.12
322.649	427.12
322.878	460.12
323.108	459.12
323.337	495.12
323.566	500.12
323.795	506.12
324.024	578.12
324.253	704.12
324.482	1026.12
324.71	1613.12
324.939	2490.12
325.168	2187.12
325.397	1042.12
325.626	670.12
325.855	582.12
326.084	547.12
326.313	504.12
326.542	521.12
326.77	554.12
326.999	668.12
327.228	924.12
327.457	1473.12
327.686	1890.12
327.914	1200.12
328.143	748.12
328.372	640.12
328.6	594.12
328.829	583.12
329.058	574.12
329.287	601.12
329.515	566.12
329.744	513.12
329.972	496.12
330.201	558.12
330.43	548.12
330.658	589.12
330.887	622.12
331.115	609.12
331.344	532.12
331.572	489.12
331.801	498.12
332.03	490.12
332.258	480.12
332.486	474.12
332.715	476.12
332.943	448.12
333.172	466.12
333.4	463.12
333.629	486.12
333.857	508.12
334.085	494.12
334.314	521.12
334.542	536.12
334.771	572.12
334.999	516.12
335.227	480.12
335.455	483.12
335.684	497.12
335.912	452.12
336.14	464.12
336.369	458.12
336.597	464.12
336.825	460.12
337.053	467.12
337.281	462.12
337.51	451.12
337.738	456.12
337.966	442.12
338.194	437.12
338.422	460.12
338.65	467.12
338.878	445.12
339.106	438.12
339.334	452.12
339.562	458.12
339.79	428.12
340.018	449.12
340.246	448.12
340.474	456.12
340.702	450.12
340.93	455.12
341.158	452.12
341.386	460.12
341.614	449.12
341.842	458.12
342.07	448.12
342.298	450.12
342.526	412.12
342.754	427.12
342.981	445.12
343.209	427.12
343.437	450.12
343.665	450.12
343.893	447.12
344.12	453.12
344.348	461.12
344.576	452.12
344.804	456.12
345.031	469.12
345.259	475.12
345.487	465.12
345.714	450.12
345.942	453.12
346.17	455.12
346.397	440.12
346.625	424.12
346.853	432.12
347.08	413.12
347.308	435.12
347.535	444.12
347.763	462.12
347.99	431.12
348.218	438.12
348.445	463.12
348.673	440.12
348.9	418.12
349.128	418.12
349.355	429.12
349.583	417.12
349.81	443.12
350.037	404.12
350.265	404.12
350.492	435.12
350.72	398.12
350.947	429.12
351.174	447.12
351.402	438.12
351.629	428.12
351.856	435.12
352.083	450.12
352.311	469.12
352.538	447.12
352.765	460.12
352.992	453.12
353.22	432.12
353.447	424.12
353.674	422.12
353.901	441.12
354.128	411.12
354.355	392.12
354.583	412.12
354.81	413.12
355.037	409.12
355.264	417.12
355.491	412.12
355.718	386.12
355.945	408.12
356.172	377.12
356.399	410.12
356.626	410.12
356.853	402.12
357.08	400.12
357.307	411.12
357.534	391.12
357.761	389.12
357.988	415.12
358.215	413.12
358.441	403.12
358.668	402.12
358.895	404.12
359.122	427.12
359.349	409.12
359.576	435.12
359.802	456.12
360.029	489.12
360.256	489.12
360.483	455.12
360.709	461.12
360.936	446.12
361.163	435.12
361.39	444.12
361.616	446.12
361.843	425.12
362.07	433.12
362.296	422.12
362.523	420.12
362.749	429.12
362.976	436.12
363.203	412.12
363.429	423.12
363.656	437.12
363.882	436.12
364.109	425.12
364.335	402.12
364.562	418.12
364.788	398.12
365.015	422.12
365.241	418.12
365.468	434.12
365.694	438.12
365.92	442.12
366.147	426.12
366.373	419.12
366.599	427.12
366.826	408.12
367.052	398.12
367.278	429.12
367.505	415.12
367.731	415.12
367.957	420.12
368.184	439.12
368.41	436.12
368.636	417.12
368.862	427.12
369.089	437.12
369.315	421.12
369.541	421.12
369.767	417.12
369.993	410.12
370.219	434.12
370.445	414.12
370.672	419.12
370.898	419.12
371.124	446.12
371.35	425.12
371.576	421.12
371.802	434.12
372.028	433.12
372.254	423.12
372.48	414.12
372.706	435.12
372.932	449.12
373.158	434.12
373.384	444.12
373.61	449.12
373.835	440.12
374.061	429.12
374.287	419.12
374.513	433.12
374.739	440.12
374.965	437.12
375.191	434.12
375.416	433.12
375.642	431.12
375.868	443.12
376.094	435.12
376.319	425.12
376.545	423.12
376.771	425.12
376.997	419.12
377.222	439.12
377.448	440.12
377.674	414.12
377.899	421.12
378.125	415.12
378.35	429.12
378.576	425.12
378.802	402.12
379.027	441.12
379.253	431.12
379.478	427.12
379.704	418.12
379.929	423.12
380.155	440.12
380.38	429.12
380.606	436.12
380.831	438.12
381.057	436.12
381.282	438.12
381.507	450.12
381.733	451.12
381.958	446.12
382.184	444.12
382.409	454.12
382.634	458.12
382.86	424.12
383.085	436.12
383.31	439.12
383.535	446.12
383.761	469.12
383.986	451.12
384.211	440.12
384.436	449.12
384.662	460.12
384.887	438.12
385.112	466.12
385.337	446.12
385.562	464.12
385.787	463.12
386.013	474.12
386.238	482.12
386.463	481.12
386.688	469.12
386.913	487.12
387.138	484.12
387.363	459.12
387.588	473.12
387.813	480.12
388.038	484.12
388.263	470.12
388.488	470.12
388.713	499.12
388.938	477.12
389.163	476.12
389.387	492.12
389.612	476.12
389.837	457.12
390.062	461.12
390.287	488.12
390.512	498.12
390.736	492.12
390.961	487.12
391.186	468.12
391.411	460.12
391.636	483.12
391.86	492.12
392.085	481.12
392.31	514.12
392.534	504.12
392.759	504.12
392.984	456.12
393.208	473.12
393.433	469.12
393.658	468.12
393.882	485.12
394.107	492.12
394.331	486.12
394.556	472.12
394.78	491.12
395.005	500.12
395.229	483.12
395.454	510.12
395.678	505.12
395.903	500.12
396.127	525.12
396.352	550.12
396.576	478.12
396.801	523.12
397.025	507.12
397.249	496.12
397.474	544.12
397.698	522.12
397.922	531.12
398.147	554.12
398.371	575.12
398.595	532.12
398.82	550.12
399.044	553.12
399.268	588.12
399.492	596.12
399.717	613.12
399.941	666.12
400.165	686.12
400.389	710.12
400.613	647.12
400.837	580.12
401.062	554.12
401.286	587.12
401.51	564.12
401.734	531.12
401.958	574.12
402.182	587.12
402.406	562.12
402.63	582.12
402.854	563.12
403.078	537.12
403.302	564.12
403.526	594.12
403.75	566.12
403.974	602.12
404.198	575.12
404.422	583.12
404.645	594.12
404.869	584.12
405.093	626.12
405.317	651.12
405.541	684.12
405.765	635.12
405.988	633.12
406.212	599.12
406.436	619.12
406.66	651.12
406.883	644.12
407.107	672.12
407.331	701.12
407.555	753.12
407.778	786.12
408.002	715.12
408.226	650.12
408.449	643.12
408.673	655.12
408.896	709.12
409.12	721.12
409.344	667.12
409.567	625.12
409.791	603.12
410.014	589.12
410.238	578.12
410.461	589.12
410.685	594.12
410.908	587.12
411.132	663.12
411.355	716.12
411.578	649.12
411.802	617.12
412.025	611.12
412.249	586.12
412.472	609.12
412.695	678.12
412.919	656.12
413.142	606.12
413.365	576.12
413.589	572.12
413.812	570.12
414.035	559.12
414.258	573.12
414.482	576.12
414.705	553.12
414.928	554.12
415.151	555.12
415.374	538.12
415.597	552.12
415.821	546.12
416.044	560.12
416.267	547.12
416.49	517.12
416.713	524.12
416.936	529.12
417.159	556.12
417.382	561.12
417.605	564.12
417.828	544.12
418.051	556.12
418.274	553.12
418.497	544.12
418.72	568.12
418.943	541.12
419.166	576.12
419.389	599.12
419.611	581.12
419.834	589.12
420.057	583.12
420.28	555.12
420.503	551.12
420.726	576.12
420.948	574.12
421.171	614.12
421.394	652.12
421.617	579.12
421.839	596.12
422.062	569.12
422.285	600.12
422.507	661.12
422.73	742.12
422.953	701.12
423.175	625.12
423.398	577.12
423.621	591.12
423.843	619.12
424.066	609.12
424.288	625.12
424.511	634.12
424.733	708.12
424.956	804.12
425.178	730.12
425.401	742.12
425.623	787.12
425.846	671.12
426.068	627.12
426.291	610.12
426.513	596.12
426.735	608.12
426.958	647.12
427.18	771.12
427.402	914.12
427.625	1014.12
427.847	857.12
428.069	722.12
428.292	660.12
428.514	611.12
428.736	593.12
428.958	594.12
429.181	566.12
429.403	567.12
429.625	608.12
429.847	598.12
430.069	688.12
430.292	698.12
430.514	582.12
430.736	581.12
430.958	580.12
431.18	554.12
431.402	548.12
431.624	554.12
431.846	541.12
432.068	551.12
432.29	553.12
432.512	562.12
432.734	553.12
432.956	557.12
433.178	538.12
433.4	558.12
433.622	530.12
433.844	534.12
434.066	564.12
434.287	537.12
434.509	553.12
434.731	548.12
434.953	564.12
435.175	578.12
435.397	585.12
435.618	614.12
435.84	650.12
436.062	757.12
436.284	866.12
436.505	716.12
436.727	616.12
436.949	617.12
437.17	584.12
437.392	555.12
437.614	593.12
437.835	636.12
438.057	715.12
438.278	858.12
438.5	858.12
438.721	921.12
438.943	883.12
439.165	718.12
439.386	652.12
439.608	624.12
439.829	642.12
440.05	632.12
440.272	716.12
440.493	679.12
440.715	617.12
440.936	585.12
441.158	610.12
441.379	570.12
441.6	593.12
441.822	584.12
442.043	647.12
442.264	780.12
442.486	814.12
442.707	691.12
442.928	647.12
443.149	650.12
443.371	659.12
443.592	711.12
443.813	830.12
444.034	885.12
444.255	747.12
444.476	632.12
444.698	636.12
444.919	615.12
445.14	694.12
445.361	683.12
445.582	689.12
445.803	725.12
446.024	871.12
446.245	866.12
446.466	812.12
446.687	679.12
446.908	616.12
447.129	592.12
447.35	601.12
447.571	568.12
447.792	560.12
448.013	592.12
448.234	576.12
448.455	658.12
448.675	782.12
448.896	915.12
449.117	765.12
449.338	710.12
449.559	850.12
449.779	1002.12
450	731.12
450.221	640.12
450.442	564.12
450.662	576.12
450.883	550.12
451.104	596.12
451.324	560.12
451.545	529.12
451.766	525.12
451.986	515.12
452.207	496.12
452.428	507.12
452.648	514.12
452.869	501.12
453.089	516.12
453.31	525.12
453.53	509.12
453.751	507.12
453.971	523.12
454.192	526.12
454.412	510.12
454.633	500.12
454.853	509.12
455.073	498.12
455.294	552.12
455.514	622.12
455.734	600.12
455.955	520.12
456.175	499.12
456.395	472.12
456.616	507.12
456.836	504.12
457.056	490.12
457.276	475.12
457.497	482.12
457.717	484.12
457.937	471.12
458.157	480.12
458.377	496.12
458.598	523.12
458.818	601.12
459.038	688.12
459.258	682.12
459.478	603.12
459.698	530.12
459.918	542.12
460.138	549.12
460.358	552.12
460.578	550.12
460.798	548.12
461.018	549.12
461.238	568.12
461.458	547.12
461.678	545.12
461.898	553.12
462.118	565.12
462.338	574.12
462.558	570.12
462.777	595.12
462.997	620.12
463.217	606.12
463.437	621.12
463.657	596.12
463.876	603.12
464.096	596.12
464.316	600.12
464.536	582.12
464.755	608.12
464.975	594.12
465.195	618.12
465.414	732.12
465.634	633.12
465.854	587.12
466.073	550.12
466.293	531.12
466.512	522.12
466.732	524.12
466.951	546.12
467.171	524.12
467.391	523.12
467.61	533.12
467.829	565.12
468.049	562.12
468.268	532.12
468.488	518.12
468.707	535.12
468.927	542.12
469.146	501.12
469.365	512.12
469.585	524.12
469.804	526.12
470.023	565.12
470.243	550.12
470.462	539.12
470.681	574.12
470.901	549.12
471.12	533.12
471.339	526.12
471.558	549.12
471.777	537.12
471.997	543.12
472.216	537.12
472.435	561.12
472.654	551.12
472.873	532.12
473.092	503.12
473.311	522.12
473.53	529.12
473.749	555.12
473.968	573.12
474.187	672.12
474.406	736.12
474.625	598.12
474.844	523.12
475.063	545.12
475.282	551.12
475.501	546.12
475.72	544.12
475.939	564.12
476.158	546.12
476.377	557.12
476.596	540.12
476.814	568.12
477.033	557.12
477.252	575.12
477.471	573.12
477.69	577.12
477.908	572.12
478.127	553.12
478.346	613.12
478.564	600.12
478.783	584.12
479.002	627.12
479.22	602.12
479.439	656.12
479.658	645.12
479.876	630.12
480.095	654.12
480.313	677.12
480.532	671.12
480.751	647.12
480.969	667.12
481.188	690.12
481.406	722.12
481.624	667.12
481.843	668.12
482.061	649.12
482.28	644.12
482.498	622.12
482.717	637.12
482.935	649.12
483.153	621.12
483.372	633.12
483.59	607.12
483.808	617.12
484.027	621.12
484.245	611.12
484.463	657.12
484.681	653.12
484.9	628.12
485.118	642.12
485.336	627.12
485.554	642.12
485.772	663.12
485.99	642.12
486.209	645.12
486.427	663.12
486.645	630.12
486.863	670.12
487.081	668.12
487.299	682.12
487.517	676.12
487.735	682.12
487.953	641.12
488.171	673.12
488.389	664.12
488.607	658.12
488.825	680.12
489.043	672.12
489.261	664.12
489.479	693.12
489.696	669.12
489.914	684.12
490.132	710.12
490.35	689.12
490.568	690.12
490.786	718.12
491.003	726.12
491.221	724.12
491.439	733.12
491.657	737.12
491.874	747.12
492.092	785.12
492.31	757.12
492.527	754.12
492.745	755.12
492.963	740.12
493.18	753.12
493.398	778.12
493.615	786.12
493.833	781.12
494.05	793.12
494.268	788.12
494.485	789.12
494.703	762.12
494.92	752.12
495.138	803.12
495.355	767.12
495.573	776.12
495.79	816.12
496.008	811.12
496.225	794.12
496.442	788.12
496.66	816.12
496.877	808.12
497.094	788.12
497.312	818.12
497.529	814.12
497.746	840.12
497.963	852.12
498.181	869.12
498.398	877.12
498.615	881.12
498.832	896.12
499.049	944.12
499.267	932.12
499.484	994.12
499.701	1029.12
499.918	1039.12
500.135	1075.12
500.352	1121.12
500.569	1140.12
500.786	1121.12
501.003	1130.12
501.22	1097.12
501.437	1058.12
501.654	1038.12
