Data from 1978.PennyLincolnUp.Lamp.En5.5.200Scan.071719.P1_HRD10591_16-13-57-864.txt Node
Date: Thu Jul 18 16:13:57 EDT 2019
User: cochatt
Spectrometer: HR+D1059
Trigger mode: 1
Integration Time (sec): 1.000000E-1
Scans to average: 1
Electric dark correction enabled: true
Nonlinearity correction enabled: false
Boxcar width: 0
XAxis mode: Wavelengths
Number of Pixels in Spectrum: 2048
>>>>>Begin Spectral Data<<<<<
223.165	-17.81
223.4	-17.81
223.635	-17.81
223.869	-14.81
224.104	-14.81
224.338	-14.81
224.573	-16.81
224.808	-19.81
225.042	-9.81
225.277	-3.81
225.511	-1.81
225.746	8.19
225.98	6.19
226.215	15.19
226.449	18.19
226.683	13.19
226.918	20.19
227.152	33.19
227.387	31.19
227.621	30.19
227.856	57.19
228.09	46.19
228.324	52.19
228.559	50.19
228.793	78.19
229.027	101.19
229.262	108.19
229.496	108.19
229.73	127.19
229.964	161.19
230.199	143.19
230.433	117.19
230.667	124.19
230.901	124.19
231.136	123.19
231.37	131.19
231.604	105.19
231.838	120.19
232.072	125.19
232.306	120.19
232.541	114.19
232.775	125.19
233.009	106.19
233.243	111.19
233.477	115.19
233.711	125.19
233.945	121.19
234.179	114.19
234.413	125.19
234.647	110.19
234.881	119.19
235.115	114.19
235.349	123.19
235.583	129.19
235.817	125.19
236.051	133.19
236.285	134.19
236.519	125.19
236.753	127.19
236.987	136.19
237.221	177.19
237.455	241.19
237.689	178.19
237.922	140.19
238.156	133.19
238.39	133.19
238.624	118.19
238.858	130.19
239.091	126.19
239.325	119.19
239.559	129.19
239.793	127.19
240.027	134.19
240.26	155.19
240.494	161.19
240.728	156.19
240.961	155.19
241.195	133.19
241.429	141.19
241.662	137.19
241.896	133.19
242.13	133.19
242.363	117.19
242.597	145.19
242.83	140.19
243.064	125.19
243.298	133.19
243.531	142.19
243.765	133.19
243.998	135.19
244.232	153.19
244.465	139.19
244.699	149.19
244.932	143.19
245.166	151.19
245.399	145.19
245.633	147.19
245.866	161.19
246.099	133.19
246.333	143.19
246.566	145.19
246.8	149.19
247.033	157.19
247.266	158.19
247.5	151.19
247.733	168.19
247.966	176.19
248.2	161.19
248.433	163.19
248.666	161.19
248.899	185.19
249.133	202.19
249.366	229.19
249.599	191.19
249.832	187.19
250.066	171.19
250.299	190.19
250.532	177.19
250.765	195.19
250.998	231.19
251.231	221.19
251.465	219.19
251.698	206.19
251.931	197.19
252.164	184.19
252.397	187.19
252.63	197.19
252.863	193.19
253.096	206.19
253.329	216.19
253.562	209.19
253.795	202.19
254.028	209.19
254.261	207.19
254.494	214.19
254.727	234.19
254.96	263.19
255.193	246.19
255.426	241.19
255.659	220.19
255.892	222.19
256.124	218.19
256.357	229.19
256.59	218.19
256.823	224.19
257.056	215.19
257.289	211.19
257.521	207.19
257.754	210.19
257.987	205.19
258.22	217.19
258.452	211.19
258.685	222.19
258.918	221.19
259.151	196.19
259.383	214.19
259.616	204.19
259.849	227.19
260.081	236.19
260.314	229.19
260.547	261.19
260.779	236.19
261.012	229.19
261.244	235.19
261.477	230.19
261.71	228.19
261.942	228.19
262.175	230.19
262.407	207.19
262.64	221.19
262.872	203.19
263.105	189.19
263.337	209.19
263.57	214.19
263.802	214.19
264.035	212.19
264.267	211.19
264.499	213.19
264.732	192.19
264.964	232.19
265.197	222.19
265.429	207.19
265.661	202.19
265.894	193.19
266.126	204.19
266.358	227.19
266.591	214.19
266.823	229.19
267.055	229.19
267.287	242.19
267.52	230.19
267.752	222.19
267.984	223.19
268.216	229.19
268.448	220.19
268.681	235.19
268.913	238.19
269.145	261.19
269.377	277.19
269.609	258.19
269.841	267.19
270.073	277.19
270.306	297.19
270.538	307.19
270.77	300.19
271.002	298.19
271.234	274.19
271.466	311.19
271.698	292.19
271.93	312.19
272.162	284.19
272.394	305.19
272.626	285.19
272.858	277.19
273.09	282.19
273.322	283.19
273.553	259.19
273.785	248.19
274.017	238.19
274.249	234.19
274.481	268.19
274.713	261.19
274.945	261.19
275.176	245.19
275.408	239.19
275.64	265.19
275.872	269.19
276.104	255.19
276.335	258.19
276.567	264.19
276.799	285.19
277.031	305.19
277.262	309.19
277.494	298.19
277.726	310.19
277.957	278.19
278.189	277.19
278.421	277.19
278.652	271.19
278.884	250.19
279.115	269.19
279.347	263.19
279.579	276.19
279.81	267.19
280.042	259.19
280.273	257.19
280.505	269.19
280.736	274.19
280.968	264.19
281.199	271.19
281.431	268.19
281.662	262.19
281.894	265.19
282.125	269.19
282.356	306.19
282.588	286.19
282.819	315.19
283.051	277.19
283.282	277.19
283.513	281.19
283.745	296.19
283.976	274.19
284.207	291.19
284.439	304.19
284.67	281.19
284.901	281.19
285.132	262.19
285.364	281.19
285.595	279.19
285.826	277.19
286.057	269.19
286.288	272.19
286.52	278.19
286.751	275.19
286.982	276.19
287.213	280.19
287.444	283.19
287.675	286.19
287.906	286.19
288.138	299.19
288.369	310.19
288.6	291.19
288.831	313.19
289.062	279.19
289.293	294.19
289.524	297.19
289.755	303.19
289.986	274.19
290.217	285.19
290.448	286.19
290.679	308.19
290.91	293.19
291.141	292.19
291.371	305.19
291.602	296.19
291.833	293.19
292.064	287.19
292.295	264.19
292.526	293.19
292.757	293.19
292.987	294.19
293.218	292.19
293.449	299.19
293.68	291.19
293.91	276.19
294.141	292.19
294.372	296.19
294.603	287.19
294.833	295.19
295.064	302.19
295.295	307.19
295.525	299.19
295.756	301.19
295.987	327.19
296.217	335.19
296.448	346.19
296.679	329.19
296.909	307.19
297.14	299.19
297.37	301.19
297.601	297.19
297.831	300.19
298.062	295.19
298.292	318.19
298.523	312.19
298.753	318.19
298.984	317.19
299.214	289.19
299.445	293.19
299.675	320.19
299.905	331.19
300.136	319.19
300.366	324.19
300.597	341.19
300.827	331.19
301.057	309.19
301.288	315.19
301.518	330.19
301.748	316.19
301.979	316.19
302.209	320.19
302.439	335.19
302.669	348.19
302.9	324.19
303.13	347.19
303.36	347.19
303.59	338.19
303.82	340.19
304.051	353.19
304.281	318.19
304.511	312.19
304.741	329.19
304.971	323.19
305.201	345.19
305.431	342.19
305.661	344.19
305.891	350.19
306.121	329.19
306.352	325.19
306.582	338.19
306.812	343.19
307.042	347.19
307.272	347.19
307.502	358.19
307.731	331.19
307.961	333.19
308.191	335.19
308.421	307.19
308.651	338.19
308.881	340.19
309.111	342.19
309.341	333.19
309.571	353.19
309.8	357.19
310.03	369.19
310.26	373.19
310.49	372.19
310.72	391.19
310.949	394.19
311.179	395.19
311.409	375.19
311.639	388.19
311.868	392.19
312.098	388.19
312.328	389.19
312.557	398.19
312.787	401.19
313.017	399.19
313.246	394.19
313.476	375.19
313.706	395.19
313.935	405.19
314.165	425.19
314.394	413.19
314.624	400.19
314.853	388.19
315.083	386.19
315.312	390.19
315.542	375.19
315.771	366.19
316.001	381.19
316.23	389.19
316.46	385.19
316.689	390.19
316.919	399.19
317.148	381.19
317.377	400.19
317.607	391.19
317.836	404.19
318.065	394.19
318.295	386.19
318.524	380.19
318.753	403.19
318.983	378.19
319.212	371.19
319.441	399.19
319.67	395.19
319.9	398.19
320.129	389.19
320.358	394.19
320.587	387.19
320.816	402.19
321.046	412.19
321.275	414.19
321.504	406.19
321.733	387.19
321.962	413.19
322.191	443.19
322.42	414.19
322.649	453.19
322.878	449.19
323.108	453.19
323.337	472.19
323.566	496.19
323.795	530.19
324.024	571.19
324.253	674.19
324.482	987.19
324.71	1559.19
324.939	2402.19
325.168	2028.19
325.397	1007.19
325.626	652.19
325.855	553.19
326.084	527.19
326.313	510.19
326.542	518.19
326.77	581.19
326.999	654.19
327.228	892.19
327.457	1422.19
327.686	1783.19
327.914	1165.19
328.143	722.19
328.372	628.19
328.6	587.19
328.829	573.19
329.058	575.19
329.287	578.19
329.515	551.19
329.744	513.19
329.972	527.19
330.201	545.19
330.43	584.19
330.658	581.19
330.887	633.19
331.115	598.19
331.344	535.19
331.572	514.19
331.801	515.19
332.03	491.19
332.258	484.19
332.486	472.19
332.715	456.19
332.943	455.19
333.172	482.19
333.4	492.19
333.629	469.19
333.857	493.19
334.085	505.19
334.314	528.19
334.542	518.19
334.771	549.19
334.999	524.19
335.227	487.19
335.455	494.19
335.684	473.19
335.912	468.19
336.14	446.19
336.369	448.19
336.597	471.19
336.825	447.19
337.053	459.19
337.281	458.19
337.51	455.19
337.738	428.19
337.966	451.19
338.194	477.19
338.422	459.19
338.65	454.19
338.878	468.19
339.106	445.19
339.334	461.19
339.562	448.19
339.79	450.19
340.018	424.19
340.246	445.19
340.474	434.19
340.702	434.19
340.93	456.19
341.158	445.19
341.386	450.19
341.614	448.19
341.842	449.19
342.07	434.19
342.298	447.19
342.526	454.19
342.754	439.19
342.981	437.19
343.209	436.19
343.437	445.19
343.665	442.19
343.893	467.19
344.12	451.19
344.348	463.19
344.576	438.19
344.804	479.19
345.031	453.19
345.259	475.19
345.487	475.19
345.714	463.19
345.942	460.19
346.17	443.19
346.397	418.19
346.625	425.19
346.853	444.19
347.08	413.19
347.308	422.19
347.535	446.19
347.763	450.19
347.99	462.19
348.218	454.19
348.445	451.19
348.673	439.19
348.9	421.19
349.128	427.19
349.355	412.19
349.583	440.19
349.81	401.19
350.037	423.19
350.265	423.19
350.492	410.19
350.72	416.19
350.947	436.19
351.174	436.19
351.402	460.19
351.629	458.19
351.856	429.19
352.083	439.19
352.311	431.19
352.538	450.19
352.765	438.19
352.992	449.19
353.22	441.19
353.447	429.19
353.674	434.19
353.901	423.19
354.128	418.19
354.355	412.19
354.583	417.19
354.81	396.19
355.037	413.19
355.264	393.19
355.491	403.19
355.718	409.19
355.945	420.19
356.172	407.19
356.399	372.19
356.626	415.19
356.853	407.19
357.08	391.19
357.307	380.19
357.534	409.19
357.761	402.19
357.988	413.19
358.215	407.19
358.441	415.19
358.668	400.19
358.895	431.19
359.122	407.19
359.349	434.19
359.576	423.19
359.802	437.19
360.029	476.19
360.256	490.19
360.483	482.19
360.709	453.19
360.936	457.19
361.163	440.19
361.39	457.19
361.616	437.19
361.843	443.19
362.07	418.19
362.296	458.19
362.523	427.19
362.749	445.19
362.976	436.19
363.203	429.19
363.429	430.19
363.656	441.19
363.882	424.19
364.109	421.19
364.335	427.19
364.562	422.19
364.788	394.19
365.015	441.19
365.241	423.19
365.468	414.19
365.694	423.19
365.92	425.19
366.147	430.19
366.373	417.19
366.599	435.19
366.826	407.19
367.052	415.19
367.278	436.19
367.505	417.19
367.731	419.19
367.957	429.19
368.184	424.19
368.41	441.19
368.636	456.19
368.862	441.19
369.089	455.19
369.315	439.19
369.541	422.19
369.767	425.19
369.993	444.19
370.219	430.19
370.445	435.19
370.672	444.19
370.898	433.19
371.124	432.19
371.35	425.19
371.576	414.19
371.802	429.19
372.028	434.19
372.254	432.19
372.48	437.19
372.706	433.19
372.932	425.19
373.158	425.19
373.384	451.19
373.61	439.19
373.835	434.19
374.061	450.19
374.287	424.19
374.513	438.19
374.739	456.19
374.965	442.19
375.191	428.19
375.416	421.19
375.642	439.19
375.868	453.19
376.094	445.19
376.319	440.19
376.545	447.19
376.771	416.19
376.997	423.19
377.222	417.19
377.448	424.19
377.674	436.19
377.899	419.19
378.125	412.19
378.35	408.19
378.576	437.19
378.802	423.19
379.027	417.19
379.253	424.19
379.478	438.19
379.704	430.19
379.929	439.19
380.155	427.19
380.38	443.19
380.606	437.19
380.831	428.19
381.057	423.19
381.282	441.19
381.507	428.19
381.733	431.19
381.958	429.19
382.184	426.19
382.409	436.19
382.634	437.19
382.86	453.19
383.085	426.19
383.31	439.19
383.535	449.19
383.761	465.19
383.986	454.19
384.211	464.19
384.436	458.19
384.662	467.19
384.887	449.19
385.112	454.19
385.337	467.19
385.562	470.19
385.787	474.19
386.013	495.19
386.238	463.19
386.463	488.19
386.688	464.19
386.913	440.19
387.138	466.19
387.363	479.19
387.588	461.19
387.813	473.19
388.038	467.19
388.263	489.19
388.488	476.19
388.713	469.19
388.938	484.19
389.163	495.19
389.387	482.19
389.612	473.19
389.837	493.19
390.062	469.19
390.287	495.19
390.512	474.19
390.736	468.19
390.961	485.19
391.186	487.19
391.411	477.19
391.636	489.19
391.86	495.19
392.085	491.19
392.31	480.19
392.534	495.19
392.759	493.19
392.984	486.19
393.208	491.19
393.433	478.19
393.658	507.19
393.882	485.19
394.107	481.19
394.331	511.19
394.556	470.19
394.78	489.19
395.005	498.19
395.229	480.19
395.454	513.19
395.678	510.19
395.903	521.19
396.127	553.19
396.352	526.19
396.576	486.19
396.801	501.19
397.025	519.19
397.249	504.19
397.474	527.19
397.698	535.19
397.922	553.19
398.147	539.19
398.371	542.19
398.595	539.19
398.82	554.19
399.044	549.19
399.268	571.19
399.492	606.19
399.717	650.19
399.941	649.19
400.165	698.19
400.389	700.19
400.613	631.19
400.837	606.19
401.062	573.19
401.286	550.19
401.51	563.19
401.734	554.19
401.958	577.19
402.182	556.19
402.406	572.19
402.63	595.19
402.854	575.19
403.078	578.19
403.302	554.19
403.526	574.19
403.75	574.19
403.974	586.19
404.198	565.19
404.422	592.19
404.645	579.19
404.869	594.19
405.093	623.19
405.317	656.19
405.541	659.19
405.765	642.19
405.988	620.19
406.212	621.19
406.436	634.19
406.66	649.19
406.883	649.19
407.107	676.19
407.331	680.19
407.555	754.19
407.778	787.19
408.002	709.19
408.226	649.19
408.449	645.19
408.673	647.19
408.896	669.19
409.12	735.19
409.344	694.19
409.567	628.19
409.791	603.19
410.014	599.19
410.238	600.19
410.461	594.19
410.685	583.19
410.908	607.19
411.132	665.19
411.355	700.19
411.578	656.19
411.802	586.19
412.025	591.19
412.249	595.19
412.472	627.19
412.695	661.19
412.919	657.19
413.142	591.19
413.365	577.19
413.589	561.19
413.812	570.19
414.035	591.19
414.258	563.19
414.482	549.19
414.705	556.19
414.928	562.19
415.151	546.19
415.374	549.19
415.597	561.19
415.821	545.19
416.044	536.19
416.267	556.19
416.49	553.19
416.713	557.19
416.936	569.19
417.159	563.19
417.382	553.19
417.605	567.19
417.828	566.19
418.051	564.19
418.274	553.19
418.497	572.19
418.72	565.19
418.943	545.19
419.166	565.19
419.389	598.19
419.611	607.19
419.834	585.19
420.057	597.19
420.28	579.19
420.503	571.19
420.726	565.19
420.948	601.19
421.171	631.19
421.394	643.19
421.617	597.19
421.839	593.19
422.062	578.19
422.285	599.19
422.507	630.19
422.73	717.19
422.953	699.19
423.175	626.19
423.398	590.19
423.621	584.19
423.843	599.19
424.066	616.19
424.288	609.19
424.511	649.19
424.733	684.19
424.956	802.19
425.178	769.19
425.401	754.19
425.623	800.19
425.846	677.19
426.068	621.19
426.291	601.19
426.513	604.19
426.735	628.19
426.958	651.19
427.18	756.19
427.402	904.19
427.625	1006.19
427.847	844.19
428.069	744.19
428.292	682.19
428.514	616.19
428.736	589.19
428.958	566.19
429.181	573.19
429.403	571.19
429.625	574.19
429.847	593.19
430.069	704.19
430.292	692.19
430.514	588.19
430.736	550.19
430.958	553.19
431.18	526.19
431.402	572.19
431.624	539.19
431.846	547.19
432.068	532.19
432.29	564.19
432.512	551.19
432.734	555.19
432.956	551.19
433.178	546.19
433.4	551.19
433.622	565.19
433.844	568.19
434.066	555.19
434.287	564.19
434.509	558.19
434.731	543.19
434.953	550.19
435.175	556.19
435.397	608.19
435.618	616.19
435.84	643.19
436.062	769.19
436.284	861.19
436.505	706.19
436.727	655.19
436.949	604.19
437.17	587.19
437.392	552.19
437.614	582.19
437.835	619.19
438.057	704.19
438.278	841.19
438.5	843.19
438.721	948.19
438.943	889.19
439.165	718.19
439.386	651.19
439.608	616.19
439.829	615.19
440.05	628.19
440.272	708.19
440.493	666.19
440.715	608.19
440.936	596.19
441.158	587.19
441.379	588.19
441.6	609.19
441.822	610.19
442.043	649.19
442.264	726.19
442.486	819.19
442.707	694.19
442.928	628.19
443.149	612.19
443.371	691.19
443.592	721.19
443.813	820.19
444.034	897.19
444.255	730.19
444.476	659.19
444.698	614.19
444.919	629.19
445.14	693.19
445.361	673.19
445.582	690.19
445.803	747.19
446.024	829.19
446.245	885.19
446.466	780.19
446.687	680.19
446.908	613.19
447.129	558.19
447.35	563.19
447.571	583.19
447.792	569.19
448.013	558.19
448.234	581.19
448.455	634.19
448.675	768.19
448.896	947.19
449.117	771.19
449.338	706.19
449.559	848.19
449.779	970.19
450	749.19
450.221	626.19
450.442	580.19
450.662	549.19
450.883	589.19
451.104	563.19
451.324	536.19
451.545	541.19
451.766	547.19
451.986	531.19
452.207	519.19
452.428	524.19
452.648	523.19
452.869	494.19
453.089	514.19
453.31	526.19
453.53	531.19
453.751	511.19
453.971	538.19
454.192	510.19
454.412	535.19
454.633	525.19
454.853	520.19
455.073	502.19
455.294	538.19
455.514	595.19
455.734	580.19
455.955	517.19
456.175	509.19
456.395	461.19
456.616	471.19
456.836	484.19
457.056	476.19
457.276	471.19
457.497	492.19
457.717	479.19
457.937	484.19
458.157	502.19
458.377	500.19
458.598	534.19
458.818	579.19
459.038	678.19
459.258	691.19
459.478	604.19
459.698	569.19
459.918	570.19
460.138	546.19
460.358	561.19
460.578	573.19
460.798	583.19
461.018	565.19
461.238	564.19
461.458	574.19
461.678	545.19
461.898	567.19
462.118	555.19
462.338	584.19
462.558	580.19
462.777	611.19
462.997	597.19
463.217	620.19
463.437	618.19
463.657	587.19
463.876	593.19
464.096	581.19
464.316	593.19
464.536	606.19
464.755	606.19
464.975	600.19
465.195	638.19
465.414	709.19
465.634	626.19
465.854	582.19
466.073	565.19
466.293	555.19
466.512	550.19
466.732	509.19
466.951	524.19
467.171	532.19
467.391	547.19
467.61	542.19
467.829	527.19
468.049	545.19
468.268	538.19
468.488	529.19
468.707	526.19
468.927	523.19
469.146	499.19
469.365	526.19
469.585	518.19
469.804	525.19
470.023	539.19
470.243	539.19
470.462	547.19
470.681	531.19
470.901	557.19
471.12	525.19
471.339	542.19
471.558	551.19
471.777	552.19
471.997	535.19
472.216	551.19
472.435	586.19
472.654	562.19
472.873	531.19
473.092	558.19
473.311	541.19
473.53	539.19
473.749	546.19
473.968	573.19
474.187	700.19
474.406	728.19
474.625	584.19
474.844	569.19
475.063	547.19
475.282	546.19
475.501	537.19
475.72	561.19
475.939	544.19
476.158	555.19
476.377	556.19
476.596	540.19
476.814	580.19
477.033	586.19
477.252	577.19
477.471	573.19
477.69	582.19
477.908	606.19
478.127	571.19
478.346	587.19
478.564	574.19
478.783	617.19
479.002	633.19
479.22	622.19
479.439	610.19
479.658	651.19
479.876	643.19
480.095	657.19
480.313	691.19
480.532	681.19
480.751	642.19
480.969	638.19
481.188	702.19
481.406	738.19
481.624	676.19
481.843	629.19
482.061	631.19
482.28	636.19
482.498	618.19
482.717	662.19
482.935	649.19
483.153	631.19
483.372	614.19
483.59	631.19
483.808	633.19
484.027	616.19
484.245	628.19
484.463	621.19
484.681	638.19
484.9	639.19
485.118	650.19
485.336	646.19
485.554	645.19
485.772	649.19
485.99	673.19
486.209	658.19
486.427	643.19
486.645	678.19
486.863	663.19
487.081	698.19
487.299	667.19
487.517	666.19
487.735	667.19
487.953	668.19
488.171	655.19
488.389	683.19
488.607	678.19
488.825	660.19
489.043	658.19
489.261	687.19
489.479	680.19
489.696	663.19
489.914	681.19
490.132	683.19
490.35	679.19
490.568	686.19
490.786	705.19
491.003	713.19
491.221	715.19
491.439	735.19
491.657	742.19
491.874	741.19
492.092	736.19
492.31	773.19
492.527	784.19
492.745	769.19
492.963	751.19
493.18	750.19
493.398	779.19
493.615	801.19
493.833	782.19
494.05	773.19
494.268	795.19
494.485	763.19
494.703	779.19
494.92	794.19
495.138	765.19
495.355	780.19
495.573	811.19
495.79	806.19
496.008	796.19
496.225	776.19
496.442	808.19
496.66	801.19
496.877	770.19
497.094	784.19
497.312	826.19
497.529	813.19
497.746	845.19
497.963	830.19
498.181	901.19
498.398	873.19
498.615	890.19
498.832	912.19
499.049	925.19
499.267	930.19
499.484	1004.19
499.701	1036.19
499.918	1055.19
500.135	1103.19
500.352	1143.19
500.569	1145.19
500.786	1146.19
501.003	1140.19
501.22	1113.19
501.437	1057.19
501.654	1027.19
