Data from 1978.PennyLincolnUp.Lamp.En5.5.200Scan.071719.P1_HRD10591_16-13-05-864.txt Node
Date: Thu Jul 18 16:13:05 EDT 2019
User: cochatt
Spectrometer: HR+D1059
Trigger mode: 1
Integration Time (sec): 1.000000E-1
Scans to average: 1
Electric dark correction enabled: true
Nonlinearity correction enabled: false
Boxcar width: 0
XAxis mode: Wavelengths
Number of Pixels in Spectrum: 2048
>>>>>Begin Spectral Data<<<<<
223.165	-14.06
223.4	-14.06
223.635	-14.06
223.869	-10.06
224.104	-23.06
224.338	-5.06
224.573	-18.06
224.808	-2.06
225.042	-11.06
225.277	5.94
225.511	-9.06
225.746	7.94
225.98	-1.06
226.215	7.94
226.449	-0.06
226.683	20.94
226.918	26.94
227.152	23.94
227.387	25.94
227.621	41.94
227.856	37.94
228.09	47.94
228.324	37.94
228.559	52.94
228.793	57.94
229.027	86.94
229.262	99.94
229.496	105.94
229.73	117.94
229.964	135.94
230.199	120.94
230.433	119.94
230.667	123.94
230.901	100.94
231.136	87.94
231.37	112.94
231.604	99.94
231.838	106.94
232.072	129.94
232.306	122.94
232.541	105.94
232.775	111.94
233.009	97.94
233.243	103.94
233.477	110.94
233.711	111.94
233.945	108.94
234.179	115.94
234.413	111.94
234.647	128.94
234.881	93.94
235.115	109.94
235.349	128.94
235.583	112.94
235.817	116.94
236.051	104.94
236.285	106.94
236.519	114.94
236.753	123.94
236.987	141.94
237.221	177.94
237.455	211.94
237.689	179.94
237.922	142.94
238.156	120.94
238.39	110.94
238.624	105.94
238.858	107.94
239.091	131.94
239.325	118.94
239.559	108.94
239.793	121.94
240.027	136.94
240.26	138.94
240.494	135.94
240.728	149.94
240.961	149.94
241.195	135.94
241.429	135.94
241.662	129.94
241.896	147.94
242.13	119.94
242.363	131.94
242.597	119.94
242.83	139.94
243.064	124.94
243.298	138.94
243.531	146.94
243.765	137.94
243.998	141.94
244.232	121.94
244.465	148.94
244.699	140.94
244.932	131.94
245.166	143.94
245.399	144.94
245.633	138.94
245.866	146.94
246.099	125.94
246.333	132.94
246.566	152.94
246.8	140.94
247.033	125.94
247.266	142.94
247.5	150.94
247.733	152.94
247.966	172.94
248.2	157.94
248.433	155.94
248.666	163.94
248.899	157.94
249.133	178.94
249.366	191.94
249.599	179.94
249.832	149.94
250.066	162.94
250.299	171.94
250.532	183.94
250.765	183.94
250.998	219.94
251.231	203.94
251.465	204.94
251.698	200.94
251.931	179.94
252.164	180.94
252.397	180.94
252.63	186.94
252.863	211.94
253.096	196.94
253.329	204.94
253.562	192.94
253.795	198.94
254.028	189.94
254.261	215.94
254.494	202.94
254.727	210.94
254.96	243.94
255.193	257.94
255.426	229.94
255.659	214.94
255.892	208.94
256.124	224.94
256.357	208.94
256.59	200.94
256.823	202.94
257.056	193.94
257.289	188.94
257.521	188.94
257.754	206.94
257.987	196.94
258.22	191.94
258.452	203.94
258.685	205.94
258.918	195.94
259.151	199.94
259.383	202.94
259.616	204.94
259.849	211.94
260.081	209.94
260.314	238.94
260.547	235.94
260.779	243.94
261.012	218.94
261.244	196.94
261.477	213.94
261.71	191.94
261.942	209.94
262.175	228.94
262.407	213.94
262.64	194.94
262.872	203.94
263.105	204.94
263.337	187.94
263.57	200.94
263.802	190.94
264.035	202.94
264.267	217.94
264.499	203.94
264.732	197.94
264.964	198.94
265.197	215.94
265.429	221.94
265.661	216.94
265.894	204.94
266.126	211.94
266.358	209.94
266.591	228.94
266.823	212.94
267.055	220.94
267.287	236.94
267.52	204.94
267.752	203.94
267.984	215.94
268.216	208.94
268.448	204.94
268.681	224.94
268.913	228.94
269.145	248.94
269.377	245.94
269.609	246.94
269.841	265.94
270.073	237.94
270.306	276.94
270.538	282.94
270.77	268.94
271.002	265.94
271.234	275.94
271.466	272.94
271.698	292.94
271.93	275.94
272.162	282.94
272.394	270.94
272.626	287.94
272.858	279.94
273.09	267.94
273.322	251.94
273.553	265.94
273.785	242.94
274.017	265.94
274.249	264.94
274.481	253.94
274.713	249.94
274.945	272.94
275.176	249.94
275.408	249.94
275.64	249.94
275.872	258.94
276.104	269.94
276.335	248.94
276.567	273.94
276.799	277.94
277.031	300.94
277.262	302.94
277.494	304.94
277.726	277.94
277.957	257.94
278.189	263.94
278.421	264.94
278.652	256.94
278.884	268.94
279.115	247.94
279.347	259.94
279.579	247.94
279.81	245.94
280.042	266.94
280.273	256.94
280.505	250.94
280.736	235.94
280.968	274.94
281.199	259.94
281.431	251.94
281.662	275.94
281.894	274.94
282.125	252.94
282.356	268.94
282.588	301.94
282.819	292.94
283.051	265.94
283.282	272.94
283.513	270.94
283.745	266.94
283.976	271.94
284.207	277.94
284.439	276.94
284.67	269.94
284.901	259.94
285.132	288.94
285.364	273.94
285.595	274.94
285.826	276.94
286.057	278.94
286.288	279.94
286.52	269.94
286.751	288.94
286.982	281.94
287.213	288.94
287.444	287.94
287.675	282.94
287.906	272.94
288.138	291.94
288.369	293.94
288.6	287.94
288.831	292.94
289.062	275.94
289.293	276.94
289.524	289.94
289.755	288.94
289.986	277.94
290.217	279.94
290.448	286.94
290.679	287.94
290.91	282.94
291.141	289.94
291.371	289.94
291.602	275.94
291.833	277.94
292.064	292.94
292.295	287.94
292.526	285.94
292.757	276.94
292.987	294.94
293.218	287.94
293.449	279.94
293.68	284.94
293.91	284.94
294.141	283.94
294.372	280.94
294.603	278.94
294.833	282.94
295.064	289.94
295.295	279.94
295.525	288.94
295.756	299.94
295.987	309.94
296.217	312.94
296.448	331.94
296.679	312.94
296.909	296.94
297.14	303.94
297.37	304.94
297.601	297.94
297.831	313.94
298.062	293.94
298.292	299.94
298.523	299.94
298.753	321.94
298.984	299.94
299.214	303.94
299.445	312.94
299.675	296.94
299.905	319.94
300.136	304.94
300.366	304.94
300.597	309.94
300.827	322.94
301.057	306.94
301.288	323.94
301.518	319.94
301.748	333.94
301.979	312.94
302.209	294.94
302.439	321.94
302.669	321.94
302.9	318.94
303.13	329.94
303.36	337.94
303.59	331.94
303.82	313.94
304.051	334.94
304.281	324.94
304.511	347.94
304.741	325.94
304.971	316.94
305.201	329.94
305.431	327.94
305.661	342.94
305.891	327.94
306.121	316.94
306.352	333.94
306.582	344.94
306.812	330.94
307.042	321.94
307.272	318.94
307.502	313.94
307.731	325.94
307.961	343.94
308.191	346.94
308.421	336.94
308.651	339.94
308.881	338.94
309.111	325.94
309.341	339.94
309.571	347.94
309.8	357.94
310.03	355.94
310.26	355.94
310.49	357.94
310.72	367.94
310.949	389.94
311.179	379.94
311.409	364.94
311.639	360.94
311.868	363.94
312.098	371.94
312.328	351.94
312.557	388.94
312.787	399.94
313.017	385.94
313.246	383.94
313.476	348.94
313.706	371.94
313.935	371.94
314.165	374.94
314.394	396.94
314.624	396.94
314.853	361.94
315.083	372.94
315.312	383.94
315.542	379.94
315.771	368.94
316.001	349.94
316.23	367.94
316.46	357.94
316.689	353.94
316.919	377.94
317.148	394.94
317.377	375.94
317.607	386.94
317.836	374.94
318.065	371.94
318.295	379.94
318.524	378.94
318.753	375.94
318.983	373.94
319.212	361.94
319.441	378.94
319.67	399.94
319.9	387.94
320.129	362.94
320.358	367.94
320.587	363.94
320.816	389.94
321.046	386.94
321.275	396.94
321.504	383.94
321.733	361.94
321.962	404.94
322.191	395.94
322.42	432.94
322.649	426.94
322.878	419.94
323.108	440.94
323.337	461.94
323.566	480.94
323.795	501.94
324.024	545.94
324.253	672.94
324.482	925.94
324.71	1440.94
324.939	2221.94
325.168	1901.94
325.397	923.94
325.626	623.94
325.855	527.94
326.084	494.94
326.313	489.94
326.542	485.94
326.77	528.94
326.999	611.94
327.228	827.94
327.457	1327.94
327.686	1645.94
327.914	1053.94
328.143	680.94
328.372	581.94
328.6	549.94
328.829	523.94
329.058	542.94
329.287	561.94
329.515	511.94
329.744	500.94
329.972	479.94
330.201	498.94
330.43	535.94
330.658	550.94
330.887	572.94
331.115	586.94
331.344	491.94
331.572	489.94
331.801	483.94
332.03	472.94
332.258	469.94
332.486	450.94
332.715	435.94
332.943	449.94
333.172	450.94
333.4	446.94
333.629	442.94
333.857	478.94
334.085	508.94
334.314	498.94
334.542	500.94
334.771	546.94
334.999	497.94
335.227	456.94
335.455	454.94
335.684	437.94
335.912	448.94
336.14	423.94
336.369	460.94
336.597	449.94
336.825	439.94
337.053	449.94
337.281	449.94
337.51	431.94
337.738	443.94
337.966	451.94
338.194	446.94
338.422	446.94
338.65	412.94
338.878	439.94
339.106	429.94
339.334	455.94
339.562	447.94
339.79	441.94
340.018	447.94
340.246	440.94
340.474	421.94
340.702	423.94
340.93	424.94
341.158	419.94
341.386	415.94
341.614	456.94
341.842	437.94
342.07	427.94
342.298	435.94
342.526	418.94
342.754	410.94
342.981	403.94
343.209	425.94
343.437	435.94
343.665	415.94
343.893	462.94
344.12	445.94
344.348	442.94
344.576	437.94
344.804	459.94
345.031	447.94
345.259	484.94
345.487	451.94
345.714	437.94
345.942	423.94
346.17	428.94
346.397	425.94
346.625	420.94
346.853	424.94
347.08	422.94
347.308	424.94
347.535	416.94
347.763	434.94
347.99	431.94
348.218	437.94
348.445	436.94
348.673	422.94
348.9	413.94
349.128	404.94
349.355	415.94
349.583	419.94
349.81	406.94
350.037	403.94
350.265	411.94
350.492	405.94
350.72	408.94
350.947	412.94
351.174	411.94
351.402	412.94
351.629	410.94
351.856	429.94
352.083	420.94
352.311	440.94
352.538	422.94
352.765	426.94
352.992	436.94
353.22	409.94
353.447	406.94
353.674	409.94
353.901	415.94
354.128	398.94
354.355	407.94
354.583	399.94
354.81	407.94
355.037	412.94
355.264	390.94
355.491	403.94
355.718	397.94
355.945	379.94
356.172	390.94
356.399	411.94
356.626	386.94
356.853	407.94
357.08	391.94
357.307	394.94
357.534	400.94
357.761	404.94
357.988	393.94
358.215	396.94
358.441	422.94
358.668	412.94
358.895	413.94
359.122	396.94
359.349	404.94
359.576	423.94
359.802	427.94
360.029	440.94
360.256	481.94
360.483	457.94
360.709	449.94
360.936	410.94
361.163	417.94
361.39	428.94
361.616	410.94
361.843	417.94
362.07	420.94
362.296	403.94
362.523	417.94
362.749	426.94
362.976	415.94
363.203	410.94
363.429	428.94
363.656	419.94
363.882	415.94
364.109	415.94
364.335	389.94
364.562	404.94
364.788	405.94
365.015	406.94
365.241	412.94
365.468	405.94
365.694	424.94
365.92	426.94
366.147	426.94
366.373	423.94
366.599	414.94
366.826	424.94
367.052	403.94
367.278	406.94
367.505	409.94
367.731	423.94
367.957	418.94
368.184	424.94
368.41	429.94
368.636	427.94
368.862	420.94
369.089	423.94
369.315	431.94
369.541	406.94
369.767	405.94
369.993	418.94
370.219	428.94
370.445	415.94
370.672	405.94
370.898	404.94
371.124	422.94
371.35	403.94
371.576	407.94
371.802	412.94
372.028	413.94
372.254	413.94
372.48	420.94
372.706	434.94
372.932	426.94
373.158	414.94
373.384	420.94
373.61	414.94
373.835	425.94
374.061	435.94
374.287	443.94
374.513	433.94
374.739	427.94
374.965	431.94
375.191	437.94
375.416	456.94
375.642	415.94
375.868	409.94
376.094	419.94
376.319	425.94
376.545	402.94
376.771	413.94
376.997	406.94
377.222	429.94
377.448	408.94
377.674	422.94
377.899	417.94
378.125	403.94
378.35	414.94
378.576	424.94
378.802	413.94
379.027	416.94
379.253	399.94
379.478	419.94
379.704	425.94
379.929	412.94
380.155	435.94
380.38	428.94
380.606	421.94
380.831	419.94
381.057	434.94
381.282	397.94
381.507	425.94
381.733	433.94
381.958	414.94
382.184	435.94
382.409	423.94
382.634	423.94
382.86	433.94
383.085	449.94
383.31	436.94
383.535	424.94
383.761	429.94
383.986	438.94
384.211	435.94
384.436	434.94
384.662	451.94
384.887	439.94
385.112	436.94
385.337	455.94
385.562	461.94
385.787	447.94
386.013	472.94
386.238	489.94
386.463	466.94
386.688	474.94
386.913	466.94
387.138	467.94
387.363	472.94
387.588	459.94
387.813	460.94
388.038	457.94
388.263	469.94
388.488	463.94
388.713	465.94
388.938	457.94
389.163	471.94
389.387	500.94
389.612	492.94
389.837	475.94
390.062	474.94
390.287	464.94
390.512	469.94
390.736	451.94
390.961	479.94
391.186	483.94
391.411	481.94
391.636	480.94
391.86	490.94
392.085	506.94
392.31	491.94
392.534	496.94
392.759	480.94
392.984	474.94
393.208	486.94
393.433	474.94
393.658	476.94
393.882	457.94
394.107	472.94
394.331	492.94
394.556	466.94
394.78	492.94
395.005	485.94
395.229	512.94
395.454	506.94
395.678	498.94
395.903	495.94
396.127	529.94
396.352	519.94
396.576	524.94
396.801	491.94
397.025	503.94
397.249	484.94
397.474	512.94
397.698	519.94
397.922	515.94
398.147	538.94
398.371	525.94
398.595	553.94
398.82	562.94
399.044	559.94
399.268	582.94
399.492	583.94
399.717	645.94
399.941	637.94
400.165	691.94
400.389	683.94
400.613	640.94
400.837	575.94
401.062	584.94
401.286	565.94
401.51	539.94
401.734	573.94
401.958	545.94
402.182	565.94
402.406	547.94
402.63	556.94
402.854	545.94
403.078	569.94
403.302	577.94
403.526	555.94
403.75	591.94
403.974	572.94
404.198	559.94
404.422	555.94
404.645	569.94
404.869	588.94
405.093	627.94
405.317	663.94
405.541	693.94
405.765	617.94
405.988	590.94
406.212	588.94
406.436	620.94
406.66	625.94
406.883	615.94
407.107	620.94
407.331	692.94
407.555	728.94
407.778	712.94
408.002	682.94
408.226	641.94
408.449	649.94
408.673	624.94
408.896	666.94
409.12	688.94
409.344	676.94
409.567	599.94
409.791	604.94
410.014	564.94
410.238	584.94
410.461	593.94
410.685	586.94
410.908	582.94
411.132	615.94
411.355	680.94
411.578	633.94
411.802	601.94
412.025	566.94
412.249	577.94
412.472	594.94
412.695	622.94
412.919	633.94
413.142	601.94
413.365	573.94
413.589	565.94
413.812	553.94
414.035	548.94
414.258	547.94
414.482	562.94
414.705	527.94
414.928	556.94
415.151	553.94
415.374	537.94
415.597	531.94
415.821	519.94
416.044	544.94
416.267	543.94
416.49	543.94
416.713	532.94
416.936	563.94
417.159	556.94
417.382	527.94
417.605	531.94
417.828	526.94
418.051	555.94
418.274	537.94
418.497	556.94
418.72	524.94
418.943	533.94
419.166	575.94
419.389	592.94
419.611	573.94
419.834	581.94
420.057	561.94
420.28	555.94
420.503	552.94
420.726	546.94
420.948	590.94
421.171	615.94
421.394	644.94
421.617	577.94
421.839	559.94
422.062	563.94
422.285	568.94
422.507	609.94
422.73	741.94
422.953	690.94
423.175	596.94
423.398	598.94
423.621	589.94
423.843	577.94
424.066	599.94
424.288	604.94
424.511	598.94
424.733	674.94
424.956	771.94
425.178	724.94
425.401	719.94
425.623	724.94
425.846	649.94
426.068	613.94
426.291	563.94
426.513	604.94
426.735	594.94
426.958	641.94
427.18	723.94
427.402	890.94
427.625	963.94
427.847	817.94
428.069	729.94
428.292	637.94
428.514	609.94
428.736	565.94
428.958	585.94
429.181	548.94
429.403	557.94
429.625	532.94
429.847	588.94
430.069	665.94
430.292	659.94
430.514	563.94
430.736	535.94
430.958	541.94
431.18	547.94
431.402	549.94
431.624	529.94
431.846	515.94
432.068	531.94
432.29	540.94
432.512	530.94
432.734	539.94
432.956	529.94
433.178	547.94
433.4	559.94
433.622	548.94
433.844	532.94
434.066	532.94
434.287	530.94
434.509	561.94
434.731	559.94
434.953	559.94
435.175	562.94
435.397	586.94
435.618	580.94
435.84	624.94
436.062	750.94
436.284	799.94
436.505	688.94
436.727	597.94
436.949	558.94
437.17	557.94
437.392	556.94
437.614	574.94
437.835	585.94
438.057	691.94
438.278	795.94
438.5	787.94
438.721	901.94
438.943	838.94
439.165	673.94
439.386	605.94
439.608	599.94
439.829	600.94
440.05	617.94
440.272	685.94
440.493	644.94
440.715	617.94
440.936	564.94
441.158	545.94
441.379	564.94
441.6	560.94
441.822	589.94
442.043	658.94
442.264	720.94
442.486	780.94
442.707	664.94
442.928	627.94
443.149	601.94
443.371	643.94
443.592	676.94
443.813	753.94
444.034	869.94
444.255	704.94
444.476	627.94
444.698	613.94
444.919	623.94
445.14	703.94
445.361	673.94
445.582	659.94
445.803	708.94
446.024	815.94
446.245	831.94
446.466	762.94
446.687	623.94
446.908	620.94
447.129	556.94
447.35	523.94
447.571	549.94
447.792	541.94
448.013	559.94
448.234	584.94
448.455	628.94
448.675	737.94
448.896	862.94
449.117	731.94
449.338	701.94
449.559	818.94
449.779	941.94
450	723.94
450.221	586.94
450.442	544.94
450.662	523.94
450.883	536.94
451.104	567.94
451.324	549.94
451.545	539.94
451.766	518.94
451.986	501.94
452.207	482.94
452.428	493.94
452.648	510.94
452.869	511.94
453.089	506.94
453.31	495.94
453.53	502.94
453.751	513.94
453.971	501.94
454.192	515.94
454.412	498.94
454.633	499.94
454.853	500.94
455.073	508.94
455.294	519.94
455.514	591.94
455.734	587.94
455.955	514.94
456.175	474.94
456.395	480.94
456.616	466.94
456.836	459.94
457.056	477.94
457.276	455.94
457.497	485.94
457.717	465.94
457.937	470.94
458.157	456.94
458.377	490.94
458.598	513.94
458.818	561.94
459.038	639.94
459.258	643.94
459.478	578.94
459.698	559.94
459.918	549.94
460.138	528.94
460.358	565.94
460.578	556.94
460.798	556.94
461.018	544.94
461.238	568.94
461.458	561.94
461.678	547.94
461.898	555.94
462.118	560.94
462.338	575.94
462.558	563.94
462.777	563.94
462.997	615.94
463.217	597.94
463.437	603.94
463.657	579.94
463.876	591.94
464.096	604.94
464.316	575.94
464.536	588.94
464.755	600.94
464.975	586.94
465.195	603.94
465.414	679.94
465.634	581.94
465.854	567.94
466.073	530.94
466.293	533.94
466.512	513.94
466.732	520.94
466.951	532.94
467.171	496.94
467.391	505.94
467.61	545.94
467.829	539.94
468.049	506.94
468.268	524.94
468.488	526.94
468.707	511.94
468.927	501.94
469.146	511.94
469.365	497.94
469.585	516.94
469.804	514.94
470.023	527.94
470.243	510.94
470.462	515.94
470.681	541.94
470.901	547.94
471.12	516.94
471.339	522.94
471.558	519.94
471.777	513.94
471.997	513.94
472.216	511.94
472.435	537.94
472.654	549.94
472.873	529.94
473.092	515.94
473.311	524.94
473.53	531.94
473.749	525.94
473.968	571.94
474.187	654.94
474.406	684.94
474.625	565.94
474.844	547.94
475.063	543.94
475.282	528.94
475.501	536.94
475.72	544.94
475.939	557.94
476.158	533.94
476.377	551.94
476.596	535.94
476.814	555.94
477.033	541.94
477.252	572.94
477.471	547.94
477.69	578.94
477.908	561.94
478.127	561.94
478.346	559.94
478.564	570.94
478.783	591.94
479.002	597.94
479.22	627.94
479.439	638.94
479.658	604.94
479.876	631.94
480.095	647.94
480.313	653.94
480.532	649.94
480.751	626.94
480.969	653.94
481.188	666.94
481.406	692.94
481.624	672.94
481.843	634.94
482.061	613.94
482.28	635.94
482.498	618.94
482.717	634.94
482.935	609.94
483.153	589.94
483.372	612.94
483.59	625.94
483.808	621.94
484.027	617.94
484.245	618.94
484.463	639.94
484.681	626.94
484.9	625.94
485.118	600.94
485.336	613.94
485.554	631.94
485.772	641.94
485.99	603.94
486.209	633.94
486.427	596.94
486.645	678.94
486.863	672.94
487.081	638.94
487.299	667.94
487.517	654.94
487.735	655.94
487.953	641.94
488.171	677.94
488.389	652.94
488.607	645.94
488.825	664.94
489.043	637.94
489.261	648.94
489.479	669.94
489.696	658.94
489.914	671.94
490.132	663.94
490.35	671.94
490.568	657.94
490.786	662.94
491.003	692.94
491.221	691.94
491.439	714.94
491.657	718.94
491.874	713.94
492.092	731.94
492.31	725.94
492.527	745.94
492.745	719.94
492.963	722.94
493.18	714.94
493.398	747.94
493.615	742.94
493.833	752.94
494.05	756.94
494.268	761.94
494.485	762.94
494.703	755.94
494.92	748.94
495.138	768.94
495.355	741.94
495.573	733.94
495.79	733.94
496.008	763.94
496.225	769.94
496.442	775.94
496.66	781.94
496.877	752.94
497.094	805.94
497.312	797.94
497.529	794.94
497.746	801.94
497.963	825.94
498.181	821.94
498.398	840.94
498.615	872.94
498.832	891.94
499.049	900.94
499.267	927.94
499.484	939.94
499.701	966.94
499.918	1038.94
500.135	1079.94
500.352	1141.94
500.569	1129.94
500.786	1135.94
501.003	1093.94
501.22	1079.94
501.437	1065.94
501.654	1019.94
501.871	998.94
