Data from 1978.PennyLincolnUp.Lamp.En5.5.200Scan.071719.P1_HRD10591_16-13-54-864.txt Node
Date: Thu Jul 18 16:13:54 EDT 2019
User: cochatt
Spectrometer: HR+D1059
Trigger mode: 1
Integration Time (sec): 1.000000E-1
Scans to average: 1
Electric dark correction enabled: true
Nonlinearity correction enabled: false
Boxcar width: 0
XAxis mode: Wavelengths
Number of Pixels in Spectrum: 2048
>>>>>Begin Spectral Data<<<<<
223.165	-19.06
223.4	-19.06
223.635	-19.06
223.869	-6.06
224.104	-25.06
224.338	-15.06
224.573	-24.06
224.808	0.94
225.042	-7.06
225.277	-9.06
225.511	-5.06
225.746	-10.06
225.98	9.94
226.215	15.94
226.449	17.94
226.683	19.94
226.918	13.94
227.152	41.94
227.387	37.94
227.621	25.94
227.856	38.94
228.09	45.94
228.324	44.94
228.559	41.94
228.793	58.94
229.027	90.94
229.262	117.94
229.496	116.94
229.73	114.94
229.964	127.94
230.199	137.94
230.433	115.94
230.667	108.94
230.901	121.94
231.136	107.94
231.37	115.94
231.604	113.94
231.838	104.94
232.072	109.94
232.306	113.94
232.541	113.94
232.775	110.94
233.009	123.94
233.243	110.94
233.477	113.94
233.711	117.94
233.945	119.94
234.179	130.94
234.413	109.94
234.647	113.94
234.881	97.94
235.115	117.94
235.349	107.94
235.583	115.94
235.817	119.94
236.051	119.94
236.285	102.94
236.519	119.94
236.753	113.94
236.987	150.94
237.221	187.94
237.455	233.94
237.689	179.94
237.922	136.94
238.156	124.94
238.39	127.94
238.624	126.94
238.858	123.94
239.091	130.94
239.325	119.94
239.559	117.94
239.793	132.94
240.027	124.94
240.26	133.94
240.494	154.94
240.728	146.94
240.961	143.94
241.195	142.94
241.429	119.94
241.662	123.94
241.896	141.94
242.13	143.94
242.363	124.94
242.597	126.94
242.83	127.94
243.064	138.94
243.298	138.94
243.531	128.94
243.765	141.94
243.998	126.94
244.232	132.94
244.465	142.94
244.699	147.94
244.932	135.94
245.166	130.94
245.399	140.94
245.633	128.94
245.866	138.94
246.099	131.94
246.333	135.94
246.566	142.94
246.8	140.94
247.033	159.94
247.266	153.94
247.5	173.94
247.733	162.94
247.966	150.94
248.2	170.94
248.433	173.94
248.666	181.94
248.899	190.94
249.133	206.94
249.366	204.94
249.599	198.94
249.832	181.94
250.066	153.94
250.299	175.94
250.532	179.94
250.765	209.94
250.998	195.94
251.231	220.94
251.465	215.94
251.698	200.94
251.931	200.94
252.164	189.94
252.397	189.94
252.63	191.94
252.863	201.94
253.096	194.94
253.329	215.94
253.562	209.94
253.795	200.94
254.028	209.94
254.261	201.94
254.494	215.94
254.727	247.94
254.96	232.94
255.193	239.94
255.426	224.94
255.659	194.94
255.892	221.94
256.124	212.94
256.357	213.94
256.59	202.94
256.823	220.94
257.056	188.94
257.289	187.94
257.521	199.94
257.754	199.94
257.987	218.94
258.22	210.94
258.452	205.94
258.685	206.94
258.918	205.94
259.151	185.94
259.383	211.94
259.616	206.94
259.849	196.94
260.081	215.94
260.314	246.94
260.547	255.94
260.779	243.94
261.012	234.94
261.244	207.94
261.477	214.94
261.71	221.94
261.942	208.94
262.175	229.94
262.407	226.94
262.64	203.94
262.872	203.94
263.105	202.94
263.337	216.94
263.57	195.94
263.802	218.94
264.035	205.94
264.267	203.94
264.499	209.94
264.732	199.94
264.964	197.94
265.197	194.94
265.429	203.94
265.661	198.94
265.894	215.94
266.126	193.94
266.358	202.94
266.591	209.94
266.823	232.94
267.055	225.94
267.287	222.94
267.52	226.94
267.752	226.94
267.984	202.94
268.216	213.94
268.448	222.94
268.681	228.94
268.913	264.94
269.145	242.94
269.377	266.94
269.609	261.94
269.841	267.94
270.073	265.94
270.306	261.94
270.538	313.94
270.77	305.94
271.002	275.94
271.234	268.94
271.466	261.94
271.698	280.94
271.93	292.94
272.162	293.94
272.394	291.94
272.626	288.94
272.858	267.94
273.09	265.94
273.322	248.94
273.553	255.94
273.785	241.94
274.017	254.94
274.249	257.94
274.481	253.94
274.713	246.94
274.945	250.94
275.176	262.94
275.408	257.94
275.64	259.94
275.872	258.94
276.104	261.94
276.335	254.94
276.567	265.94
276.799	272.94
277.031	295.94
277.262	300.94
277.494	306.94
277.726	291.94
277.957	285.94
278.189	259.94
278.421	287.94
278.652	265.94
278.884	265.94
279.115	272.94
279.347	249.94
279.579	238.94
279.81	257.94
280.042	257.94
280.273	247.94
280.505	260.94
280.736	258.94
280.968	264.94
281.199	249.94
281.431	259.94
281.662	276.94
281.894	253.94
282.125	272.94
282.356	284.94
282.588	289.94
282.819	306.94
283.051	302.94
283.282	259.94
283.513	261.94
283.745	279.94
283.976	274.94
284.207	266.94
284.439	277.94
284.67	257.94
284.901	248.94
285.132	271.94
285.364	302.94
285.595	264.94
285.826	267.94
286.057	277.94
286.288	287.94
286.52	284.94
286.751	276.94
286.982	293.94
287.213	282.94
287.444	271.94
287.675	282.94
287.906	281.94
288.138	293.94
288.369	313.94
288.6	295.94
288.831	297.94
289.062	299.94
289.293	288.94
289.524	284.94
289.755	271.94
289.986	289.94
290.217	289.94
290.448	278.94
290.679	297.94
290.91	295.94
291.141	275.94
291.371	287.94
291.602	289.94
291.833	284.94
292.064	291.94
292.295	289.94
292.526	271.94
292.757	291.94
292.987	295.94
293.218	282.94
293.449	282.94
293.68	292.94
293.91	293.94
294.141	269.94
294.372	296.94
294.603	286.94
294.833	282.94
295.064	287.94
295.295	287.94
295.525	290.94
295.756	293.94
295.987	302.94
296.217	310.94
296.448	321.94
296.679	307.94
296.909	305.94
297.14	289.94
297.37	297.94
297.601	297.94
297.831	294.94
298.062	314.94
298.292	290.94
298.523	297.94
298.753	277.94
298.984	308.94
299.214	307.94
299.445	303.94
299.675	298.94
299.905	311.94
300.136	294.94
300.366	315.94
300.597	311.94
300.827	302.94
301.057	325.94
301.288	325.94
301.518	305.94
301.748	315.94
301.979	337.94
302.209	318.94
302.439	327.94
302.669	314.94
302.9	309.94
303.13	311.94
303.36	332.94
303.59	343.94
303.82	321.94
304.051	324.94
304.281	333.94
304.511	340.94
304.741	309.94
304.971	317.94
305.201	330.94
305.431	311.94
305.661	350.94
305.891	322.94
306.121	309.94
306.352	321.94
306.582	338.94
306.812	344.94
307.042	309.94
307.272	314.94
307.502	322.94
307.731	329.94
307.961	331.94
308.191	340.94
308.421	318.94
308.651	355.94
308.881	354.94
309.111	354.94
309.341	332.94
309.571	347.94
309.8	351.94
310.03	367.94
310.26	355.94
310.49	374.94
310.72	383.94
310.949	382.94
311.179	397.94
311.409	360.94
311.639	361.94
311.868	370.94
312.098	370.94
312.328	389.94
312.557	388.94
312.787	379.94
313.017	398.94
313.246	384.94
313.476	361.94
313.706	362.94
313.935	380.94
314.165	389.94
314.394	398.94
314.624	399.94
314.853	397.94
315.083	365.94
315.312	363.94
315.542	383.94
315.771	383.94
316.001	379.94
316.23	373.94
316.46	380.94
316.689	345.94
316.919	359.94
317.148	393.94
317.377	373.94
317.607	386.94
317.836	363.94
318.065	376.94
318.295	379.94
318.524	386.94
318.753	345.94
318.983	381.94
319.212	370.94
319.441	391.94
319.67	399.94
319.9	382.94
320.129	358.94
320.358	391.94
320.587	390.94
320.816	399.94
321.046	398.94
321.275	399.94
321.504	378.94
321.733	405.94
321.962	425.94
322.191	411.94
322.42	420.94
322.649	444.94
322.878	437.94
323.108	467.94
323.337	488.94
323.566	476.94
323.795	521.94
324.024	578.94
324.253	685.94
324.482	999.94
324.71	1554.94
324.939	2357.94
325.168	2047.94
325.397	1017.94
325.626	643.94
325.855	548.94
326.084	507.94
326.313	497.94
326.542	509.94
326.77	554.94
326.999	638.94
327.228	883.94
327.457	1409.94
327.686	1765.94
327.914	1122.94
328.143	690.94
328.372	626.94
328.6	574.94
328.829	559.94
329.058	571.94
329.287	580.94
329.515	548.94
329.744	504.94
329.972	493.94
330.201	517.94
330.43	519.94
330.658	573.94
330.887	614.94
331.115	599.94
331.344	526.94
331.572	511.94
331.801	487.94
332.03	475.94
332.258	477.94
332.486	467.94
332.715	452.94
332.943	462.94
333.172	444.94
333.4	446.94
333.629	470.94
333.857	507.94
334.085	474.94
334.314	504.94
334.542	526.94
334.771	548.94
334.999	499.94
335.227	473.94
335.455	461.94
335.684	475.94
335.912	449.94
336.14	464.94
336.369	462.94
336.597	458.94
336.825	452.94
337.053	429.94
337.281	441.94
337.51	441.94
337.738	450.94
337.966	439.94
338.194	454.94
338.422	437.94
338.65	437.94
338.878	417.94
339.106	438.94
339.334	427.94
339.562	423.94
339.79	405.94
340.018	445.94
340.246	434.94
340.474	445.94
340.702	456.94
340.93	442.94
341.158	429.94
341.386	437.94
341.614	425.94
341.842	431.94
342.07	425.94
342.298	430.94
342.526	439.94
342.754	431.94
342.981	440.94
343.209	437.94
343.437	443.94
343.665	432.94
343.893	429.94
344.12	429.94
344.348	449.94
344.576	457.94
344.804	456.94
345.031	470.94
345.259	438.94
345.487	478.94
345.714	433.94
345.942	431.94
346.17	417.94
346.397	419.94
346.625	422.94
346.853	437.94
347.08	411.94
347.308	428.94
347.535	439.94
347.763	427.94
347.99	428.94
348.218	439.94
348.445	437.94
348.673	437.94
348.9	423.94
349.128	415.94
349.355	408.94
349.583	423.94
349.81	397.94
350.037	418.94
350.265	403.94
350.492	403.94
350.72	413.94
350.947	408.94
351.174	418.94
351.402	451.94
351.629	422.94
351.856	427.94
352.083	445.94
352.311	439.94
352.538	434.94
352.765	440.94
352.992	417.94
353.22	428.94
353.447	423.94
353.674	418.94
353.901	413.94
354.128	396.94
354.355	402.94
354.583	391.94
354.81	392.94
355.037	399.94
355.264	390.94
355.491	401.94
355.718	403.94
355.945	387.94
356.172	398.94
356.399	399.94
356.626	399.94
356.853	390.94
357.08	417.94
357.307	395.94
357.534	405.94
357.761	395.94
357.988	405.94
358.215	409.94
358.441	412.94
358.668	418.94
358.895	417.94
359.122	407.94
359.349	411.94
359.576	426.94
359.802	437.94
360.029	485.94
360.256	490.94
360.483	447.94
360.709	401.94
360.936	426.94
361.163	437.94
361.39	426.94
361.616	435.94
361.843	419.94
362.07	434.94
362.296	422.94
362.523	413.94
362.749	416.94
362.976	431.94
363.203	413.94
363.429	405.94
363.656	399.94
363.882	419.94
364.109	413.94
364.335	425.94
364.562	397.94
364.788	412.94
365.015	409.94
365.241	433.94
365.468	433.94
365.694	416.94
365.92	419.94
366.147	416.94
366.373	417.94
366.599	407.94
366.826	414.94
367.052	409.94
367.278	408.94
367.505	405.94
367.731	417.94
367.957	408.94
368.184	417.94
368.41	399.94
368.636	441.94
368.862	420.94
369.089	427.94
369.315	405.94
369.541	428.94
369.767	410.94
369.993	414.94
370.219	419.94
370.445	415.94
370.672	402.94
370.898	424.94
371.124	399.94
371.35	414.94
371.576	418.94
371.802	410.94
372.028	403.94
372.254	408.94
372.48	419.94
372.706	424.94
372.932	418.94
373.158	425.94
373.384	421.94
373.61	440.94
373.835	435.94
374.061	437.94
374.287	420.94
374.513	441.94
374.739	443.94
374.965	427.94
375.191	418.94
375.416	420.94
375.642	424.94
375.868	438.94
376.094	409.94
376.319	433.94
376.545	444.94
376.771	437.94
376.997	414.94
377.222	439.94
377.448	391.94
377.674	399.94
377.899	414.94
378.125	419.94
378.35	428.94
378.576	409.94
378.802	411.94
379.027	428.94
379.253	409.94
379.478	415.94
379.704	403.94
379.929	414.94
380.155	423.94
380.38	402.94
380.606	421.94
380.831	411.94
381.057	415.94
381.282	420.94
381.507	431.94
381.733	429.94
381.958	435.94
382.184	427.94
382.409	425.94
382.634	427.94
382.86	437.94
383.085	441.94
383.31	426.94
383.535	449.94
383.761	420.94
383.986	435.94
384.211	449.94
384.436	444.94
384.662	448.94
384.887	426.94
385.112	462.94
385.337	448.94
385.562	483.94
385.787	457.94
386.013	462.94
386.238	479.94
386.463	478.94
386.688	466.94
386.913	460.94
387.138	465.94
387.363	467.94
387.588	466.94
387.813	462.94
388.038	461.94
388.263	460.94
388.488	469.94
388.713	481.94
388.938	475.94
389.163	472.94
389.387	475.94
389.612	467.94
389.837	471.94
390.062	476.94
390.287	473.94
390.512	475.94
390.736	481.94
390.961	460.94
391.186	477.94
391.411	475.94
391.636	461.94
391.86	479.94
392.085	511.94
392.31	473.94
392.534	490.94
392.759	481.94
392.984	479.94
393.208	473.94
393.433	478.94
393.658	491.94
393.882	487.94
394.107	471.94
394.331	482.94
394.556	478.94
394.78	482.94
395.005	487.94
395.229	492.94
395.454	494.94
395.678	493.94
395.903	517.94
396.127	530.94
396.352	531.94
396.576	492.94
396.801	503.94
397.025	499.94
397.249	510.94
397.474	486.94
397.698	512.94
397.922	531.94
398.147	534.94
398.371	531.94
398.595	537.94
398.82	524.94
399.044	559.94
399.268	574.94
399.492	601.94
399.717	589.94
399.941	674.94
400.165	669.94
400.389	693.94
400.613	614.94
400.837	582.94
401.062	567.94
401.286	578.94
401.51	555.94
401.734	550.94
401.958	548.94
402.182	553.94
402.406	548.94
402.63	554.94
402.854	565.94
403.078	558.94
403.302	545.94
403.526	581.94
403.75	573.94
403.974	573.94
404.198	575.94
404.422	555.94
404.645	577.94
404.869	576.94
405.093	600.94
405.317	642.94
405.541	702.94
405.765	636.94
405.988	614.94
406.212	603.94
406.436	629.94
406.66	657.94
406.883	633.94
407.107	645.94
407.331	678.94
407.555	775.94
407.778	786.94
408.002	673.94
408.226	641.94
408.449	636.94
408.673	637.94
408.896	678.94
409.12	715.94
409.344	663.94
409.567	598.94
409.791	603.94
410.014	587.94
410.238	571.94
410.461	585.94
410.685	564.94
410.908	592.94
411.132	601.94
411.355	661.94
411.578	637.94
411.802	578.94
412.025	567.94
412.249	583.94
412.472	590.94
412.695	650.94
412.919	645.94
413.142	591.94
413.365	551.94
413.589	552.94
413.812	553.94
414.035	521.94
414.258	547.94
414.482	564.94
414.705	551.94
414.928	557.94
415.151	553.94
415.374	530.94
415.597	552.94
415.821	528.94
416.044	554.94
416.267	540.94
416.49	550.94
416.713	526.94
416.936	535.94
417.159	534.94
417.382	532.94
417.605	543.94
417.828	563.94
418.051	572.94
418.274	546.94
418.497	538.94
418.72	531.94
418.943	532.94
419.166	566.94
419.389	585.94
419.611	581.94
419.834	561.94
420.057	578.94
420.28	574.94
420.503	564.94
420.726	566.94
420.948	577.94
421.171	609.94
421.394	665.94
421.617	579.94
421.839	554.94
422.062	565.94
422.285	581.94
422.507	621.94
422.73	710.94
422.953	691.94
423.175	628.94
423.398	583.94
423.621	589.94
423.843	588.94
424.066	592.94
424.288	610.94
424.511	639.94
424.733	665.94
424.956	786.94
425.178	712.94
425.401	727.94
425.623	765.94
425.846	653.94
426.068	605.94
426.291	576.94
426.513	604.94
426.735	612.94
426.958	647.94
427.18	732.94
427.402	885.94
427.625	976.94
427.847	855.94
428.069	747.94
428.292	647.94
428.514	617.94
428.736	586.94
428.958	583.94
429.181	553.94
429.403	562.94
429.625	578.94
429.847	602.94
430.069	676.94
430.292	677.94
430.514	578.94
430.736	545.94
430.958	545.94
431.18	523.94
431.402	537.94
431.624	531.94
431.846	534.94
432.068	538.94
432.29	525.94
432.512	525.94
432.734	548.94
432.956	554.94
433.178	546.94
433.4	566.94
433.622	535.94
433.844	543.94
434.066	561.94
434.287	528.94
434.509	543.94
434.731	551.94
434.953	554.94
435.175	564.94
435.397	569.94
435.618	608.94
435.84	638.94
436.062	757.94
436.284	844.94
436.505	681.94
436.727	602.94
436.949	583.94
437.17	569.94
437.392	545.94
437.614	568.94
437.835	612.94
438.057	701.94
438.278	803.94
438.5	802.94
438.721	931.94
438.943	885.94
439.165	671.94
439.386	589.94
439.608	608.94
439.829	618.94
440.05	651.94
440.272	696.94
440.493	645.94
440.715	587.94
440.936	573.94
441.158	569.94
441.379	541.94
441.6	609.94
441.822	600.94
442.043	641.94
442.264	729.94
442.486	792.94
442.707	678.94
442.928	623.94
443.149	621.94
443.371	641.94
443.592	691.94
443.813	783.94
444.034	854.94
444.255	720.94
444.476	626.94
444.698	625.94
444.919	581.94
445.14	685.94
445.361	681.94
445.582	648.94
445.803	719.94
446.024	840.94
446.245	837.94
446.466	773.94
446.687	655.94
446.908	636.94
447.129	587.94
447.35	564.94
447.571	545.94
447.792	549.94
448.013	538.94
448.234	577.94
448.455	629.94
448.675	756.94
448.896	902.94
449.117	755.94
449.338	727.94
449.559	823.94
449.779	978.94
450	750.94
450.221	606.94
450.442	574.94
450.662	546.94
450.883	537.94
451.104	552.94
451.324	525.94
451.545	530.94
451.766	538.94
451.986	495.94
452.207	494.94
452.428	512.94
452.648	482.94
452.869	493.94
453.089	524.94
453.31	520.94
453.53	487.94
453.751	520.94
453.971	511.94
454.192	515.94
454.412	500.94
454.633	504.94
454.853	489.94
455.073	475.94
455.294	517.94
455.514	590.94
455.734	586.94
455.955	492.94
456.175	470.94
456.395	482.94
456.616	457.94
456.836	486.94
457.056	479.94
457.276	459.94
457.497	467.94
457.717	481.94
457.937	492.94
458.157	470.94
458.377	499.94
458.598	534.94
458.818	558.94
459.038	656.94
459.258	711.94
459.478	572.94
459.698	561.94
459.918	555.94
460.138	545.94
460.358	546.94
460.578	539.94
460.798	537.94
461.018	554.94
461.238	537.94
461.458	549.94
461.678	544.94
461.898	553.94
462.118	552.94
462.338	563.94
462.558	575.94
462.777	559.94
462.997	603.94
463.217	592.94
463.437	620.94
463.657	599.94
463.876	604.94
464.096	584.94
464.316	577.94
464.536	590.94
464.755	593.94
464.975	583.94
465.195	633.94
465.414	655.94
465.634	625.94
465.854	570.94
466.073	563.94
466.293	557.94
466.512	521.94
466.732	528.94
466.951	534.94
467.171	502.94
467.391	532.94
467.61	547.94
467.829	547.94
468.049	542.94
468.268	513.94
468.488	532.94
468.707	515.94
468.927	507.94
469.146	494.94
469.365	488.94
469.585	478.94
469.804	508.94
470.023	521.94
470.243	546.94
470.462	516.94
470.681	563.94
470.901	557.94
471.12	544.94
471.339	538.94
471.558	525.94
471.777	526.94
471.997	522.94
472.216	519.94
472.435	540.94
472.654	565.94
472.873	529.94
473.092	518.94
473.311	523.94
473.53	512.94
473.749	536.94
473.968	565.94
474.187	675.94
474.406	675.94
474.625	589.94
474.844	534.94
475.063	542.94
475.282	534.94
475.501	515.94
475.72	537.94
475.939	529.94
476.158	542.94
476.377	546.94
476.596	517.94
476.814	549.94
477.033	558.94
477.252	548.94
477.471	556.94
477.69	571.94
477.908	553.94
478.127	566.94
478.346	550.94
478.564	593.94
478.783	581.94
479.002	592.94
479.22	571.94
479.439	613.94
479.658	617.94
479.876	665.94
480.095	633.94
480.313	670.94
480.532	634.94
480.751	625.94
480.969	645.94
481.188	696.94
481.406	709.94
481.624	657.94
481.843	638.94
482.061	629.94
482.28	598.94
482.498	616.94
482.717	612.94
482.935	616.94
483.153	613.94
483.372	594.94
483.59	591.94
483.808	606.94
484.027	645.94
484.245	637.94
484.463	630.94
484.681	637.94
484.9	610.94
485.118	610.94
485.336	609.94
485.554	615.94
485.772	622.94
485.99	638.94
486.209	639.94
486.427	647.94
486.645	648.94
486.863	669.94
487.081	679.94
487.299	654.94
487.517	660.94
487.735	643.94
487.953	659.94
488.171	641.94
488.389	649.94
488.607	664.94
488.825	665.94
489.043	664.94
489.261	685.94
489.479	677.94
489.696	667.94
489.914	683.94
490.132	677.94
490.35	678.94
490.568	686.94
490.786	687.94
491.003	685.94
491.221	707.94
491.439	705.94
491.657	738.94
491.874	704.94
492.092	734.94
492.31	723.94
492.527	727.94
492.745	741.94
492.963	742.94
493.18	758.94
493.398	765.94
493.615	749.94
493.833	755.94
494.05	742.94
494.268	757.94
494.485	755.94
494.703	759.94
494.92	759.94
495.138	745.94
495.355	764.94
495.573	762.94
495.79	742.94
496.008	772.94
496.225	779.94
496.442	764.94
496.66	776.94
496.877	767.94
497.094	784.94
497.312	802.94
497.529	796.94
497.746	825.94
497.963	828.94
498.181	855.94
498.398	865.94
498.615	859.94
498.832	887.94
499.049	904.94
499.267	925.94
499.484	972.94
499.701	993.94
499.918	1005.94
500.135	1073.94
500.352	1124.94
500.569	1113.94
500.786	1093.94
501.003	1104.94
501.22	1047.94
501.437	1057.94
501.654	1026.94
501.871	1014.94
