Data from 1978.PennyLincolnUp.Lamp.En5.5.200Scan.071719.P1_HRD10591_16-13-41-863.txt Node
Date: Thu Jul 18 16:13:41 EDT 2019
User: cochatt
Spectrometer: HR+D1059
Trigger mode: 1
Integration Time (sec): 1.000000E-1
Scans to average: 1
Electric dark correction enabled: true
Nonlinearity correction enabled: false
Boxcar width: 0
XAxis mode: Wavelengths
Number of Pixels in Spectrum: 2048
>>>>>Begin Spectral Data<<<<<
223.165	-8.62
223.4	-8.62
223.635	-8.62
223.869	-9.62
224.104	-27.62
224.338	-25.62
224.573	-8.62
224.808	-16.62
225.042	-9.62
225.277	-5.62
225.511	11.38
225.746	5.38
225.98	11.38
226.215	-6.62
226.449	15.38
226.683	28.38
226.918	11.38
227.152	35.38
227.387	25.38
227.621	47.38
227.856	38.38
228.09	43.38
228.324	56.38
228.559	56.38
228.793	66.38
229.027	84.38
229.262	93.38
229.496	123.38
229.73	129.38
229.964	138.38
230.199	128.38
230.433	108.38
230.667	105.38
230.901	116.38
231.136	105.38
231.37	95.38
231.604	121.38
231.838	116.38
232.072	112.38
232.306	112.38
232.541	115.38
232.775	121.38
233.009	123.38
233.243	110.38
233.477	117.38
233.711	124.38
233.945	121.38
234.179	128.38
234.413	118.38
234.647	113.38
234.881	108.38
235.115	102.38
235.349	114.38
235.583	126.38
235.817	127.38
236.051	138.38
236.285	126.38
236.519	115.38
236.753	134.38
236.987	141.38
237.221	171.38
237.455	232.38
237.689	184.38
237.922	137.38
238.156	133.38
238.39	128.38
238.624	133.38
238.858	130.38
239.091	133.38
239.325	128.38
239.559	118.38
239.793	108.38
240.027	125.38
240.26	137.38
240.494	156.38
240.728	144.38
240.961	161.38
241.195	129.38
241.429	155.38
241.662	124.38
241.896	139.38
242.13	119.38
242.363	120.38
242.597	131.38
242.83	124.38
243.064	133.38
243.298	149.38
243.531	139.38
243.765	142.38
243.998	140.38
244.232	133.38
244.465	134.38
244.699	143.38
244.932	142.38
245.166	140.38
245.399	137.38
245.633	151.38
245.866	137.38
246.099	143.38
246.333	151.38
246.566	137.38
246.8	148.38
247.033	157.38
247.266	148.38
247.5	151.38
247.733	158.38
247.966	161.38
248.2	149.38
248.433	159.38
248.666	168.38
248.899	173.38
249.133	195.38
249.366	195.38
249.599	189.38
249.832	173.38
250.066	167.38
250.299	168.38
250.532	191.38
250.765	201.38
250.998	221.38
251.231	212.38
251.465	186.38
251.698	192.38
251.931	201.38
252.164	185.38
252.397	186.38
252.63	198.38
252.863	199.38
253.096	194.38
253.329	209.38
253.562	215.38
253.795	190.38
254.028	191.38
254.261	203.38
254.494	208.38
254.727	210.38
254.96	262.38
255.193	271.38
255.426	226.38
255.659	209.38
255.892	207.38
256.124	209.38
256.357	211.38
256.59	209.38
256.823	207.38
257.056	191.38
257.289	198.38
257.521	203.38
257.754	194.38
257.987	219.38
258.22	194.38
258.452	196.38
258.685	199.38
258.918	196.38
259.151	197.38
259.383	205.38
259.616	222.38
259.849	203.38
260.081	203.38
260.314	239.38
260.547	220.38
260.779	226.38
261.012	227.38
261.244	221.38
261.477	216.38
261.71	219.38
261.942	210.38
262.175	230.38
262.407	221.38
262.64	207.38
262.872	208.38
263.105	236.38
263.337	203.38
263.57	204.38
263.802	216.38
264.035	192.38
264.267	190.38
264.499	198.38
264.732	215.38
264.964	208.38
265.197	208.38
265.429	213.38
265.661	204.38
265.894	211.38
266.126	203.38
266.358	195.38
266.591	206.38
266.823	217.38
267.055	218.38
267.287	225.38
267.52	221.38
267.752	207.38
267.984	197.38
268.216	229.38
268.448	225.38
268.681	212.38
268.913	233.38
269.145	232.38
269.377	264.38
269.609	264.38
269.841	264.38
270.073	233.38
270.306	268.38
270.538	286.38
270.77	271.38
271.002	277.38
271.234	274.38
271.466	273.38
271.698	289.38
271.93	299.38
272.162	304.38
272.394	303.38
272.626	278.38
272.858	259.38
273.09	245.38
273.322	276.38
273.553	266.38
273.785	244.38
274.017	264.38
274.249	263.38
274.481	281.38
274.713	244.38
274.945	235.38
275.176	255.38
275.408	252.38
275.64	249.38
275.872	249.38
276.104	251.38
276.335	245.38
276.567	267.38
276.799	285.38
277.031	274.38
277.262	298.38
277.494	317.38
277.726	291.38
277.957	288.38
278.189	284.38
278.421	268.38
278.652	258.38
278.884	260.38
279.115	261.38
279.347	258.38
279.579	267.38
279.81	262.38
280.042	267.38
280.273	246.38
280.505	247.38
280.736	264.38
280.968	248.38
281.199	272.38
281.431	272.38
281.662	265.38
281.894	265.38
282.125	252.38
282.356	286.38
282.588	295.38
282.819	303.38
283.051	288.38
283.282	269.38
283.513	267.38
283.745	271.38
283.976	273.38
284.207	278.38
284.439	275.38
284.67	270.38
284.901	273.38
285.132	261.38
285.364	281.38
285.595	278.38
285.826	269.38
286.057	252.38
286.288	267.38
286.52	272.38
286.751	272.38
286.982	285.38
287.213	273.38
287.444	279.38
287.675	279.38
287.906	295.38
288.138	289.38
288.369	311.38
288.6	273.38
288.831	271.38
289.062	280.38
289.293	287.38
289.524	293.38
289.755	278.38
289.986	273.38
290.217	265.38
290.448	267.38
290.679	279.38
290.91	288.38
291.141	284.38
291.371	282.38
291.602	278.38
291.833	297.38
292.064	287.38
292.295	265.38
292.526	293.38
292.757	287.38
292.987	285.38
293.218	265.38
293.449	287.38
293.68	286.38
293.91	288.38
294.141	284.38
294.372	295.38
294.603	279.38
294.833	266.38
295.064	289.38
295.295	294.38
295.525	293.38
295.756	298.38
295.987	309.38
296.217	315.38
296.448	322.38
296.679	320.38
296.909	297.38
297.14	293.38
297.37	294.38
297.601	283.38
297.831	284.38
298.062	293.38
298.292	304.38
298.523	300.38
298.753	308.38
298.984	319.38
299.214	303.38
299.445	291.38
299.675	308.38
299.905	306.38
300.136	313.38
300.366	298.38
300.597	311.38
300.827	319.38
301.057	312.38
301.288	329.38
301.518	331.38
301.748	292.38
301.979	295.38
302.209	312.38
302.439	299.38
302.669	319.38
302.9	312.38
303.13	314.38
303.36	324.38
303.59	325.38
303.82	331.38
304.051	328.38
304.281	310.38
304.511	317.38
304.741	315.38
304.971	313.38
305.201	320.38
305.431	321.38
305.661	334.38
305.891	312.38
306.121	323.38
306.352	332.38
306.582	334.38
306.812	320.38
307.042	329.38
307.272	314.38
307.502	324.38
307.731	336.38
307.961	319.38
308.191	339.38
308.421	301.38
308.651	316.38
308.881	327.38
309.111	334.38
309.341	363.38
309.571	346.38
309.8	337.38
310.03	355.38
310.26	363.38
310.49	348.38
310.72	376.38
310.949	371.38
311.179	387.38
311.409	374.38
311.639	374.38
311.868	361.38
312.098	356.38
312.328	369.38
312.557	382.38
312.787	399.38
313.017	392.38
313.246	363.38
313.476	373.38
313.706	353.38
313.935	387.38
314.165	383.38
314.394	376.38
314.624	387.38
314.853	381.38
315.083	370.38
315.312	390.38
315.542	383.38
315.771	348.38
316.001	364.38
316.23	348.38
316.46	377.38
316.689	353.38
316.919	368.38
317.148	368.38
317.377	369.38
317.607	373.38
317.836	391.38
318.065	381.38
318.295	381.38
318.524	364.38
318.753	379.38
318.983	376.38
319.212	379.38
319.441	381.38
319.67	370.38
319.9	377.38
320.129	379.38
320.358	369.38
320.587	377.38
320.816	387.38
321.046	384.38
321.275	400.38
321.504	387.38
321.733	410.38
321.962	385.38
322.191	403.38
322.42	407.38
322.649	439.38
322.878	448.38
323.108	452.38
323.337	477.38
323.566	479.38
323.795	503.38
324.024	561.38
324.253	662.38
324.482	976.38
324.71	1525.38
324.939	2263.38
325.168	1985.38
325.397	965.38
325.626	665.38
325.855	551.38
326.084	485.38
326.313	497.38
326.542	492.38
326.77	541.38
326.999	627.38
327.228	887.38
327.457	1337.38
327.686	1707.38
327.914	1095.38
328.143	697.38
328.372	628.38
328.6	564.38
328.829	541.38
329.058	558.38
329.287	571.38
329.515	539.38
329.744	494.38
329.972	504.38
330.201	535.38
330.43	555.38
330.658	576.38
330.887	595.38
331.115	568.38
331.344	493.38
331.572	482.38
331.801	484.38
332.03	476.38
332.258	483.38
332.486	441.38
332.715	459.38
332.943	448.38
333.172	455.38
333.4	442.38
333.629	457.38
333.857	446.38
334.085	487.38
334.314	520.38
334.542	509.38
334.771	530.38
334.999	487.38
335.227	471.38
335.455	457.38
335.684	459.38
335.912	464.38
336.14	450.38
336.369	457.38
336.597	455.38
336.825	461.38
337.053	446.38
337.281	444.38
337.51	455.38
337.738	455.38
337.966	448.38
338.194	426.38
338.422	439.38
338.65	445.38
338.878	444.38
339.106	409.38
339.334	440.38
339.562	413.38
339.79	430.38
340.018	437.38
340.246	439.38
340.474	423.38
340.702	435.38
340.93	440.38
341.158	420.38
341.386	449.38
341.614	451.38
341.842	426.38
342.07	422.38
342.298	416.38
342.526	425.38
342.754	403.38
342.981	397.38
343.209	430.38
343.437	421.38
343.665	402.38
343.893	424.38
344.12	451.38
344.348	441.38
344.576	437.38
344.804	447.38
345.031	467.38
345.259	462.38
345.487	435.38
345.714	435.38
345.942	420.38
346.17	414.38
346.397	434.38
346.625	408.38
346.853	407.38
347.08	422.38
347.308	431.38
347.535	421.38
347.763	420.38
347.99	422.38
348.218	424.38
348.445	446.38
348.673	429.38
348.9	407.38
349.128	416.38
349.355	420.38
349.583	411.38
349.81	414.38
350.037	449.38
350.265	417.38
350.492	410.38
350.72	403.38
350.947	420.38
351.174	433.38
351.402	428.38
351.629	413.38
351.856	414.38
352.083	419.38
352.311	427.38
352.538	423.38
352.765	467.38
352.992	411.38
353.22	417.38
353.447	417.38
353.674	428.38
353.901	406.38
354.128	406.38
354.355	393.38
354.583	397.38
354.81	386.38
355.037	409.38
355.264	407.38
355.491	398.38
355.718	398.38
355.945	399.38
356.172	380.38
356.399	381.38
356.626	398.38
356.853	386.38
357.08	416.38
357.307	381.38
357.534	401.38
357.761	415.38
357.988	401.38
358.215	396.38
358.441	417.38
358.668	409.38
358.895	428.38
359.122	402.38
359.349	413.38
359.576	430.38
359.802	440.38
360.029	470.38
360.256	474.38
360.483	467.38
360.709	436.38
360.936	434.38
361.163	417.38
361.39	429.38
361.616	436.38
361.843	429.38
362.07	421.38
362.296	423.38
362.523	409.38
362.749	431.38
362.976	431.38
363.203	422.38
363.429	393.38
363.656	405.38
363.882	413.38
364.109	424.38
364.335	403.38
364.562	412.38
364.788	399.38
365.015	398.38
365.241	413.38
365.468	411.38
365.694	420.38
365.92	399.38
366.147	391.38
366.373	406.38
366.599	413.38
366.826	411.38
367.052	400.38
367.278	410.38
367.505	401.38
367.731	410.38
367.957	401.38
368.184	405.38
368.41	410.38
368.636	398.38
368.862	409.38
369.089	421.38
369.315	416.38
369.541	396.38
369.767	414.38
369.993	419.38
370.219	398.38
370.445	413.38
370.672	415.38
370.898	432.38
371.124	407.38
371.35	420.38
371.576	426.38
371.802	423.38
372.028	425.38
372.254	419.38
372.48	426.38
372.706	419.38
372.932	414.38
373.158	421.38
373.384	427.38
373.61	440.38
373.835	396.38
374.061	405.38
374.287	413.38
374.513	420.38
374.739	442.38
374.965	407.38
375.191	424.38
375.416	423.38
375.642	408.38
375.868	402.38
376.094	437.38
376.319	401.38
376.545	445.38
376.771	413.38
376.997	406.38
377.222	421.38
377.448	413.38
377.674	394.38
377.899	405.38
378.125	415.38
378.35	399.38
378.576	411.38
378.802	403.38
379.027	422.38
379.253	429.38
379.478	441.38
379.704	436.38
379.929	401.38
380.155	417.38
380.38	403.38
380.606	426.38
380.831	409.38
381.057	405.38
381.282	433.38
381.507	417.38
381.733	437.38
381.958	418.38
382.184	420.38
382.409	427.38
382.634	426.38
382.86	429.38
383.085	441.38
383.31	407.38
383.535	437.38
383.761	445.38
383.986	439.38
384.211	434.38
384.436	408.38
384.662	433.38
384.887	439.38
385.112	448.38
385.337	474.38
385.562	435.38
385.787	464.38
386.013	451.38
386.238	476.38
386.463	465.38
386.688	459.38
386.913	463.38
387.138	466.38
387.363	470.38
387.588	457.38
387.813	443.38
388.038	466.38
388.263	460.38
388.488	472.38
388.713	487.38
388.938	462.38
389.163	472.38
389.387	488.38
389.612	461.38
389.837	447.38
390.062	474.38
390.287	452.38
390.512	453.38
390.736	473.38
390.961	489.38
391.186	458.38
391.411	462.38
391.636	470.38
391.86	481.38
392.085	500.38
392.31	480.38
392.534	479.38
392.759	489.38
392.984	456.38
393.208	462.38
393.433	463.38
393.658	475.38
393.882	469.38
394.107	459.38
394.331	465.38
394.556	471.38
394.78	473.38
395.005	470.38
395.229	473.38
395.454	500.38
395.678	487.38
395.903	511.38
396.127	511.38
396.352	520.38
396.576	517.38
396.801	494.38
397.025	499.38
397.249	497.38
397.474	508.38
397.698	495.38
397.922	499.38
398.147	505.38
398.371	555.38
398.595	533.38
398.82	525.38
399.044	516.38
399.268	568.38
399.492	591.38
399.717	624.38
399.941	617.38
400.165	662.38
400.389	659.38
400.613	615.38
400.837	592.38
401.062	561.38
401.286	581.38
401.51	552.38
401.734	550.38
401.958	548.38
402.182	543.38
402.406	540.38
402.63	563.38
402.854	554.38
403.078	564.38
403.302	549.38
403.526	567.38
403.75	558.38
403.974	577.38
404.198	553.38
404.422	556.38
404.645	561.38
404.869	580.38
405.093	611.38
405.317	651.38
405.541	685.38
405.765	602.38
405.988	585.38
406.212	611.38
406.436	593.38
406.66	608.38
406.883	603.38
407.107	635.38
407.331	700.38
407.555	761.38
407.778	751.38
408.002	666.38
408.226	650.38
408.449	635.38
408.673	637.38
408.896	662.38
409.12	688.38
409.344	663.38
409.567	604.38
409.791	573.38
410.014	561.38
410.238	571.38
410.461	573.38
410.685	571.38
410.908	588.38
411.132	621.38
411.355	648.38
411.578	629.38
411.802	565.38
412.025	552.38
412.249	563.38
412.472	610.38
412.695	632.38
412.919	616.38
413.142	567.38
413.365	548.38
413.589	548.38
413.812	564.38
414.035	529.38
414.258	530.38
414.482	543.38
414.705	534.38
414.928	540.38
415.151	521.38
415.374	539.38
415.597	537.38
415.821	550.38
416.044	548.38
416.267	533.38
416.49	533.38
416.713	519.38
416.936	532.38
417.159	515.38
417.382	533.38
417.605	539.38
417.828	553.38
418.051	545.38
418.274	551.38
418.497	527.38
418.72	525.38
418.943	519.38
419.166	543.38
419.389	579.38
419.611	583.38
419.834	591.38
420.057	572.38
420.28	578.38
420.503	555.38
420.726	547.38
420.948	580.38
421.171	604.38
421.394	639.38
421.617	571.38
421.839	563.38
422.062	564.38
422.285	581.38
422.507	644.38
422.73	688.38
422.953	696.38
423.175	586.38
423.398	589.38
423.621	577.38
423.843	588.38
424.066	598.38
424.288	611.38
424.511	590.38
424.733	668.38
424.956	764.38
425.178	724.38
425.401	728.38
425.623	739.38
425.846	632.38
426.068	611.38
426.291	593.38
426.513	593.38
426.735	610.38
426.958	656.38
427.18	736.38
427.402	889.38
427.625	986.38
427.847	835.38
428.069	742.38
428.292	651.38
428.514	579.38
428.736	558.38
428.958	571.38
429.181	550.38
429.403	544.38
429.625	559.38
429.847	622.38
430.069	649.38
430.292	639.38
430.514	592.38
430.736	555.38
430.958	519.38
431.18	540.38
431.402	539.38
431.624	529.38
431.846	515.38
432.068	526.38
432.29	494.38
432.512	523.38
432.734	541.38
432.956	530.38
433.178	543.38
433.4	548.38
433.622	529.38
433.844	536.38
434.066	531.38
434.287	539.38
434.509	531.38
434.731	531.38
434.953	541.38
435.175	565.38
435.397	591.38
435.618	603.38
435.84	627.38
436.062	757.38
436.284	821.38
436.505	700.38
436.727	602.38
436.949	579.38
437.17	567.38
437.392	550.38
437.614	560.38
437.835	591.38
438.057	715.38
438.278	791.38
438.5	811.38
438.721	883.38
438.943	853.38
439.165	680.38
439.386	622.38
439.608	588.38
439.829	606.38
440.05	629.38
440.272	709.38
440.493	641.38
440.715	607.38
440.936	573.38
441.158	537.38
441.379	571.38
441.6	576.38
441.822	598.38
442.043	644.38
442.264	755.38
442.486	747.38
442.707	661.38
442.928	604.38
443.149	631.38
443.371	632.38
443.592	667.38
443.813	805.38
444.034	867.38
444.255	708.38
444.476	637.38
444.698	612.38
444.919	618.38
445.14	703.38
445.361	637.38
445.582	646.38
445.803	713.38
446.024	830.38
446.245	859.38
446.466	759.38
446.687	640.38
446.908	602.38
447.129	567.38
447.35	574.38
447.571	561.38
447.792	538.38
448.013	559.38
448.234	574.38
448.455	643.38
448.675	739.38
448.896	874.38
449.117	721.38
449.338	675.38
449.559	786.38
449.779	915.38
450	731.38
450.221	610.38
450.442	586.38
450.662	550.38
450.883	549.38
451.104	584.38
451.324	533.38
451.545	516.38
451.766	520.38
451.986	509.38
452.207	518.38
452.428	492.38
452.648	483.38
452.869	506.38
453.089	488.38
453.31	496.38
453.53	496.38
453.751	502.38
453.971	503.38
454.192	519.38
454.412	503.38
454.633	500.38
454.853	501.38
455.073	478.38
455.294	503.38
455.514	594.38
455.734	585.38
455.955	502.38
456.175	478.38
456.395	465.38
456.616	462.38
456.836	459.38
457.056	454.38
457.276	480.38
457.497	465.38
457.717	480.38
457.937	512.38
458.157	480.38
458.377	489.38
458.598	508.38
458.818	569.38
459.038	650.38
459.258	677.38
459.478	579.38
459.698	535.38
459.918	528.38
460.138	529.38
460.358	541.38
460.578	533.38
460.798	536.38
461.018	529.38
461.238	532.38
461.458	555.38
461.678	539.38
461.898	548.38
462.118	533.38
462.338	554.38
462.558	564.38
462.777	576.38
462.997	600.38
463.217	609.38
463.437	595.38
463.657	571.38
463.876	581.38
464.096	593.38
464.316	573.38
464.536	584.38
464.755	599.38
464.975	581.38
465.195	615.38
465.414	662.38
465.634	607.38
465.854	582.38
466.073	546.38
466.293	561.38
466.512	537.38
466.732	518.38
466.951	507.38
467.171	523.38
467.391	526.38
467.61	516.38
467.829	534.38
468.049	535.38
468.268	516.38
468.488	497.38
468.707	510.38
468.927	506.38
469.146	502.38
469.365	502.38
469.585	494.38
469.804	515.38
470.023	518.38
470.243	518.38
470.462	513.38
470.681	541.38
470.901	535.38
471.12	507.38
471.339	490.38
471.558	528.38
471.777	512.38
471.997	505.38
472.216	519.38
472.435	560.38
472.654	527.38
472.873	521.38
473.092	510.38
473.311	511.38
473.53	518.38
473.749	546.38
473.968	549.38
474.187	653.38
474.406	688.38
474.625	576.38
474.844	529.38
475.063	537.38
475.282	501.38
475.501	535.38
475.72	529.38
475.939	532.38
476.158	537.38
476.377	550.38
476.596	536.38
476.814	538.38
477.033	539.38
477.252	541.38
477.471	568.38
477.69	551.38
477.908	567.38
478.127	562.38
478.346	546.38
478.564	580.38
478.783	585.38
479.002	567.38
479.22	607.38
479.439	615.38
479.658	591.38
479.876	616.38
480.095	613.38
480.313	670.38
480.532	649.38
480.751	633.38
480.969	655.38
481.188	700.38
481.406	718.38
481.624	647.38
481.843	647.38
482.061	623.38
482.28	605.38
482.498	609.38
482.717	623.38
482.935	597.38
483.153	611.38
483.372	613.38
483.59	606.38
483.808	573.38
484.027	593.38
484.245	621.38
484.463	608.38
484.681	613.38
484.9	608.38
485.118	622.38
485.336	607.38
485.554	643.38
485.772	624.38
485.99	634.38
486.209	634.38
486.427	640.38
486.645	649.38
486.863	663.38
487.081	650.38
487.299	651.38
487.517	639.38
487.735	629.38
487.953	649.38
488.171	658.38
488.389	635.38
488.607	652.38
488.825	647.38
489.043	643.38
489.261	634.38
489.479	639.38
489.696	644.38
489.914	658.38
490.132	670.38
490.35	659.38
490.568	658.38
490.786	710.38
491.003	700.38
491.221	715.38
491.439	710.38
491.657	728.38
491.874	729.38
492.092	717.38
492.31	720.38
492.527	688.38
492.745	715.38
492.963	731.38
493.18	718.38
493.398	759.38
493.615	750.38
493.833	721.38
494.05	755.38
494.268	732.38
494.485	744.38
494.703	744.38
494.92	741.38
495.138	758.38
495.355	773.38
495.573	781.38
495.79	740.38
496.008	747.38
496.225	764.38
496.442	771.38
496.66	760.38
496.877	783.38
497.094	784.38
497.312	800.38
497.529	801.38
497.746	826.38
497.963	841.38
498.181	831.38
498.398	868.38
498.615	872.38
498.832	888.38
499.049	931.38
499.267	891.38
499.484	931.38
499.701	968.38
499.918	1015.38
500.135	1061.38
500.352	1101.38
500.569	1089.38
500.786	1117.38
501.003	1088.38
501.22	1076.38
501.437	1034.38
501.654	1006.38
501.871	990.38
