Data from 1978.PennyLincolnUp.Lamp.En5.5.200Scan.071719.P1_HRD10591_16-14-34-865.txt Node
Date: Thu Jul 18 16:14:34 EDT 2019
User: cochatt
Spectrometer: HR+D1059
Trigger mode: 1
Integration Time (sec): 1.000000E-1
Scans to average: 1
Electric dark correction enabled: true
Nonlinearity correction enabled: false
Boxcar width: 0
XAxis mode: Wavelengths
Number of Pixels in Spectrum: 2048
>>>>>Begin Spectral Data<<<<<
223.165	-20.62
223.4	-20.62
223.635	-20.62
223.869	-16.62
224.104	-17.62
224.338	-14.62
224.573	-11.62
224.808	-8.62
225.042	-9.62
225.277	4.38
225.511	-4.62
225.746	-8.62
225.98	2.38
226.215	11.38
226.449	26.38
226.683	30.38
226.918	15.38
227.152	22.38
227.387	35.38
227.621	29.38
227.856	42.38
228.09	55.38
228.324	45.38
228.559	54.38
228.793	76.38
229.027	98.38
229.262	103.38
229.496	122.38
229.73	132.38
229.964	162.38
230.199	125.38
230.433	109.38
230.667	104.38
230.901	114.38
231.136	134.38
231.37	110.38
231.604	112.38
231.838	110.38
232.072	125.38
232.306	118.38
232.541	108.38
232.775	130.38
233.009	114.38
233.243	121.38
233.477	130.38
233.711	112.38
233.945	118.38
234.179	125.38
234.413	110.38
234.647	126.38
234.881	115.38
235.115	114.38
235.349	130.38
235.583	114.38
235.817	126.38
236.051	136.38
236.285	128.38
236.519	125.38
236.753	123.38
236.987	152.38
237.221	184.38
237.455	243.38
237.689	197.38
237.922	132.38
238.156	144.38
238.39	152.38
238.624	134.38
238.858	126.38
239.091	128.38
239.325	132.38
239.559	134.38
239.793	118.38
240.027	132.38
240.26	149.38
240.494	147.38
240.728	162.38
240.961	153.38
241.195	159.38
241.429	138.38
241.662	124.38
241.896	127.38
242.13	136.38
242.363	128.38
242.597	132.38
242.83	134.38
243.064	137.38
243.298	143.38
243.531	135.38
243.765	131.38
243.998	153.38
244.232	150.38
244.465	148.38
244.699	160.38
244.932	138.38
245.166	134.38
245.399	154.38
245.633	157.38
245.866	147.38
246.099	140.38
246.333	132.38
246.566	164.38
246.8	154.38
247.033	146.38
247.266	150.38
247.5	150.38
247.733	152.38
247.966	164.38
248.2	167.38
248.433	172.38
248.666	167.38
248.899	171.38
249.133	194.38
249.366	192.38
249.599	197.38
249.832	180.38
250.066	171.38
250.299	164.38
250.532	194.38
250.765	193.38
250.998	220.38
251.231	213.38
251.465	192.38
251.698	203.38
251.931	201.38
252.164	185.38
252.397	181.38
252.63	189.38
252.863	203.38
253.096	204.38
253.329	239.38
253.562	216.38
253.795	191.38
254.028	202.38
254.261	213.38
254.494	213.38
254.727	243.38
254.96	263.38
255.193	254.38
255.426	230.38
255.659	211.38
255.892	227.38
256.124	229.38
256.357	229.38
256.59	215.38
256.823	194.38
257.056	185.38
257.289	207.38
257.521	208.38
257.754	207.38
257.987	197.38
258.22	196.38
258.452	213.38
258.685	201.38
258.918	207.38
259.151	214.38
259.383	209.38
259.616	200.38
259.849	216.38
260.081	221.38
260.314	243.38
260.547	244.38
260.779	235.38
261.012	242.38
261.244	222.38
261.477	237.38
261.71	228.38
261.942	218.38
262.175	235.38
262.407	226.38
262.64	212.38
262.872	210.38
263.105	206.38
263.337	222.38
263.57	211.38
263.802	206.38
264.035	216.38
264.267	207.38
264.499	197.38
264.732	205.38
264.964	205.38
265.197	229.38
265.429	224.38
265.661	219.38
265.894	202.38
266.126	230.38
266.358	232.38
266.591	208.38
266.823	203.38
267.055	222.38
267.287	232.38
267.52	236.38
267.752	249.38
267.984	224.38
268.216	237.38
268.448	233.38
268.681	233.38
268.913	262.38
269.145	259.38
269.377	267.38
269.609	278.38
269.841	269.38
270.073	298.38
270.306	293.38
270.538	301.38
270.77	317.38
271.002	315.38
271.234	296.38
271.466	294.38
271.698	320.38
271.93	322.38
272.162	316.38
272.394	324.38
272.626	303.38
272.858	299.38
273.09	273.38
273.322	271.38
273.553	267.38
273.785	272.38
274.017	272.38
274.249	265.38
274.481	256.38
274.713	269.38
274.945	261.38
275.176	269.38
275.408	263.38
275.64	270.38
275.872	258.38
276.104	267.38
276.335	279.38
276.567	282.38
276.799	298.38
277.031	292.38
277.262	320.38
277.494	333.38
277.726	300.38
277.957	272.38
278.189	296.38
278.421	272.38
278.652	266.38
278.884	287.38
279.115	262.38
279.347	270.38
279.579	279.38
279.81	268.38
280.042	283.38
280.273	272.38
280.505	272.38
280.736	269.38
280.968	271.38
281.199	270.38
281.431	288.38
281.662	250.38
281.894	272.38
282.125	276.38
282.356	284.38
282.588	311.38
282.819	297.38
283.051	278.38
283.282	279.38
283.513	267.38
283.745	268.38
283.976	285.38
284.207	302.38
284.439	281.38
284.67	279.38
284.901	291.38
285.132	294.38
285.364	301.38
285.595	289.38
285.826	279.38
286.057	286.38
286.288	275.38
286.52	289.38
286.751	287.38
286.982	277.38
287.213	267.38
287.444	280.38
287.675	293.38
287.906	309.38
288.138	314.38
288.369	305.38
288.6	319.38
288.831	296.38
289.062	323.38
289.293	290.38
289.524	299.38
289.755	291.38
289.986	290.38
290.217	280.38
290.448	287.38
290.679	290.38
290.91	306.38
291.141	279.38
291.371	291.38
291.602	284.38
291.833	306.38
292.064	304.38
292.295	300.38
292.526	298.38
292.757	298.38
292.987	288.38
293.218	291.38
293.449	310.38
293.68	285.38
293.91	291.38
294.141	302.38
294.372	292.38
294.603	298.38
294.833	313.38
295.064	307.38
295.295	292.38
295.525	303.38
295.756	290.38
295.987	308.38
296.217	330.38
296.448	333.38
296.679	306.38
296.909	293.38
297.14	301.38
297.37	294.38
297.601	307.38
297.831	282.38
298.062	308.38
298.292	311.38
298.523	320.38
298.753	321.38
298.984	322.38
299.214	303.38
299.445	302.38
299.675	325.38
299.905	333.38
300.136	319.38
300.366	322.38
300.597	320.38
300.827	309.38
301.057	327.38
301.288	340.38
301.518	347.38
301.748	327.38
301.979	360.38
302.209	351.38
302.439	360.38
302.669	336.38
302.9	311.38
303.13	326.38
303.36	329.38
303.59	329.38
303.82	354.38
304.051	349.38
304.281	354.38
304.511	334.38
304.741	343.38
304.971	332.38
305.201	332.38
305.431	352.38
305.661	327.38
305.891	320.38
306.121	346.38
306.352	339.38
306.582	336.38
306.812	357.38
307.042	343.38
307.272	330.38
307.502	325.38
307.731	335.38
307.961	349.38
308.191	347.38
308.421	336.38
308.651	353.38
308.881	351.38
309.111	350.38
309.341	385.38
309.571	362.38
309.8	363.38
310.03	373.38
310.26	384.38
310.49	386.38
310.72	394.38
310.949	410.38
311.179	426.38
311.409	416.38
311.639	385.38
311.868	386.38
312.098	398.38
312.328	412.38
312.557	419.38
312.787	407.38
313.017	423.38
313.246	412.38
313.476	378.38
313.706	393.38
313.935	420.38
314.165	418.38
314.394	421.38
314.624	421.38
314.853	379.38
315.083	397.38
315.312	390.38
315.542	377.38
315.771	391.38
316.001	388.38
316.23	382.38
316.46	374.38
316.689	389.38
316.919	397.38
317.148	422.38
317.377	400.38
317.607	393.38
317.836	403.38
318.065	392.38
318.295	390.38
318.524	398.38
318.753	384.38
318.983	391.38
319.212	386.38
319.441	403.38
319.67	406.38
319.9	399.38
320.129	390.38
320.358	384.38
320.587	402.38
320.816	402.38
321.046	406.38
321.275	404.38
321.504	407.38
321.733	424.38
321.962	416.38
322.191	442.38
322.42	457.38
322.649	446.38
322.878	474.38
323.108	466.38
323.337	492.38
323.566	507.38
323.795	554.38
324.024	583.38
324.253	726.38
324.482	1060.38
324.71	1676.38
324.939	2583.38
325.168	2222.38
325.397	1046.38
325.626	698.38
325.855	582.38
326.084	542.38
326.313	537.38
326.542	545.38
326.77	585.38
326.999	706.38
327.228	955.38
327.457	1519.38
327.686	1922.38
327.914	1206.38
328.143	774.38
328.372	682.38
328.6	633.38
328.829	591.38
329.058	580.38
329.287	609.38
329.515	566.38
329.744	539.38
329.972	542.38
330.201	551.38
330.43	574.38
330.658	613.38
330.887	619.38
331.115	628.38
331.344	549.38
331.572	530.38
331.801	523.38
332.03	510.38
332.258	503.38
332.486	470.38
332.715	477.38
332.943	477.38
333.172	489.38
333.4	518.38
333.629	504.38
333.857	506.38
334.085	500.38
334.314	531.38
334.542	538.38
334.771	564.38
334.999	502.38
335.227	501.38
335.455	507.38
335.684	470.38
335.912	466.38
336.14	479.38
336.369	501.38
336.597	463.38
336.825	484.38
337.053	487.38
337.281	468.38
337.51	477.38
337.738	436.38
337.966	463.38
338.194	461.38
338.422	481.38
338.65	470.38
338.878	465.38
339.106	440.38
339.334	460.38
339.562	452.38
339.79	438.38
340.018	447.38
340.246	449.38
340.474	446.38
340.702	454.38
340.93	444.38
341.158	451.38
341.386	453.38
341.614	444.38
341.842	444.38
342.07	435.38
342.298	459.38
342.526	449.38
342.754	429.38
342.981	447.38
343.209	440.38
343.437	438.38
343.665	448.38
343.893	468.38
344.12	470.38
344.348	451.38
344.576	468.38
344.804	463.38
345.031	464.38
345.259	471.38
345.487	478.38
345.714	458.38
345.942	465.38
346.17	441.38
346.397	445.38
346.625	442.38
346.853	458.38
347.08	446.38
347.308	458.38
347.535	461.38
347.763	462.38
347.99	459.38
348.218	446.38
348.445	459.38
348.673	463.38
348.9	458.38
349.128	446.38
349.355	418.38
349.583	412.38
349.81	442.38
350.037	447.38
350.265	424.38
350.492	423.38
350.72	431.38
350.947	441.38
351.174	454.38
351.402	446.38
351.629	455.38
351.856	436.38
352.083	442.38
352.311	464.38
352.538	452.38
352.765	482.38
352.992	436.38
353.22	432.38
353.447	455.38
353.674	451.38
353.901	426.38
354.128	413.38
354.355	403.38
354.583	404.38
354.81	413.38
355.037	414.38
355.264	412.38
355.491	406.38
355.718	388.38
355.945	394.38
356.172	406.38
356.399	384.38
356.626	403.38
356.853	404.38
357.08	424.38
357.307	420.38
357.534	408.38
357.761	418.38
357.988	422.38
358.215	395.38
358.441	427.38
358.668	430.38
358.895	422.38
359.122	420.38
359.349	441.38
359.576	436.38
359.802	454.38
360.029	497.38
360.256	519.38
360.483	491.38
360.709	444.38
360.936	451.38
361.163	475.38
361.39	443.38
361.616	468.38
361.843	422.38
362.07	440.38
362.296	434.38
362.523	423.38
362.749	442.38
362.976	454.38
363.203	442.38
363.429	447.38
363.656	436.38
363.882	421.38
364.109	438.38
364.335	426.38
364.562	441.38
364.788	439.38
365.015	421.38
365.241	434.38
365.468	452.38
365.694	446.38
365.92	443.38
366.147	418.38
366.373	441.38
366.599	432.38
366.826	417.38
367.052	432.38
367.278	456.38
367.505	414.38
367.731	427.38
367.957	429.38
368.184	429.38
368.41	427.38
368.636	421.38
368.862	456.38
369.089	450.38
369.315	428.38
369.541	428.38
369.767	414.38
369.993	434.38
370.219	420.38
370.445	428.38
370.672	452.38
370.898	421.38
371.124	436.38
371.35	429.38
371.576	417.38
371.802	466.38
372.028	441.38
372.254	438.38
372.48	448.38
372.706	424.38
372.932	438.38
373.158	448.38
373.384	437.38
373.61	425.38
373.835	430.38
374.061	450.38
374.287	447.38
374.513	438.38
374.739	471.38
374.965	456.38
375.191	446.38
375.416	448.38
375.642	444.38
375.868	432.38
376.094	425.38
376.319	448.38
376.545	411.38
376.771	429.38
376.997	431.38
377.222	437.38
377.448	434.38
377.674	424.38
377.899	434.38
378.125	442.38
378.35	440.38
378.576	455.38
378.802	434.38
379.027	440.38
379.253	430.38
379.478	418.38
379.704	442.38
379.929	433.38
380.155	408.38
380.38	441.38
380.606	439.38
380.831	430.38
381.057	437.38
381.282	445.38
381.507	457.38
381.733	450.38
381.958	438.38
382.184	436.38
382.409	442.38
382.634	428.38
382.86	453.38
383.085	462.38
383.31	440.38
383.535	463.38
383.761	445.38
383.986	481.38
384.211	470.38
384.436	452.38
384.662	456.38
384.887	457.38
385.112	461.38
385.337	479.38
385.562	487.38
385.787	474.38
386.013	488.38
386.238	476.38
386.463	489.38
386.688	483.38
386.913	471.38
387.138	467.38
387.363	482.38
387.588	475.38
387.813	486.38
388.038	494.38
388.263	466.38
388.488	516.38
388.713	513.38
388.938	485.38
389.163	499.38
389.387	500.38
389.612	459.38
389.837	478.38
390.062	477.38
390.287	470.38
390.512	481.38
390.736	482.38
390.961	500.38
391.186	490.38
391.411	492.38
391.636	488.38
391.86	499.38
392.085	518.38
392.31	520.38
392.534	511.38
392.759	500.38
392.984	490.38
393.208	485.38
393.433	498.38
393.658	503.38
393.882	495.38
394.107	481.38
394.331	483.38
394.556	496.38
394.78	489.38
395.005	498.38
395.229	494.38
395.454	510.38
395.678	534.38
395.903	514.38
396.127	563.38
396.352	578.38
396.576	519.38
396.801	537.38
397.025	519.38
397.249	524.38
397.474	522.38
397.698	523.38
397.922	558.38
398.147	553.38
398.371	566.38
398.595	559.38
398.82	574.38
399.044	576.38
399.268	582.38
399.492	621.38
399.717	653.38
399.941	675.38
400.165	701.38
400.389	714.38
400.613	632.38
400.837	608.38
401.062	597.38
401.286	585.38
401.51	596.38
401.734	575.38
401.958	585.38
402.182	564.38
402.406	579.38
402.63	570.38
402.854	583.38
403.078	577.38
403.302	579.38
403.526	593.38
403.75	592.38
403.974	596.38
404.198	578.38
404.422	555.38
404.645	595.38
404.869	574.38
405.093	623.38
405.317	678.38
405.541	718.38
405.765	660.38
405.988	620.38
406.212	638.38
406.436	630.38
406.66	675.38
406.883	646.38
407.107	648.38
407.331	706.38
407.555	786.38
407.778	806.38
408.002	728.38
408.226	671.38
408.449	672.38
408.673	668.38
408.896	684.38
409.12	745.38
409.344	684.38
409.567	637.38
409.791	617.38
410.014	617.38
410.238	605.38
410.461	606.38
410.685	605.38
410.908	631.38
411.132	662.38
411.355	692.38
411.578	658.38
411.802	612.38
412.025	597.38
412.249	588.38
412.472	634.38
412.695	660.38
412.919	665.38
413.142	607.38
413.365	603.38
413.589	598.38
413.812	591.38
414.035	560.38
414.258	567.38
414.482	581.38
414.705	567.38
414.928	557.38
415.151	552.38
415.374	555.38
415.597	530.38
415.821	545.38
416.044	565.38
416.267	547.38
416.49	577.38
416.713	562.38
416.936	552.38
417.159	563.38
417.382	568.38
417.605	587.38
417.828	566.38
418.051	566.38
418.274	587.38
418.497	550.38
418.72	562.38
418.943	527.38
419.166	597.38
419.389	623.38
419.611	599.38
419.834	629.38
420.057	584.38
420.28	582.38
420.503	587.38
420.726	577.38
420.948	599.38
421.171	640.38
421.394	686.38
421.617	598.38
421.839	593.38
422.062	576.38
422.285	587.38
422.507	664.38
422.73	749.38
422.953	743.38
423.175	632.38
423.398	599.38
423.621	593.38
423.843	609.38
424.066	612.38
424.288	610.38
424.511	630.38
424.733	727.38
424.956	791.38
425.178	774.38
425.401	748.38
425.623	773.38
425.846	678.38
426.068	638.38
426.291	641.38
426.513	620.38
426.735	666.38
426.958	690.38
427.18	790.38
427.402	935.38
427.625	1058.38
427.847	875.38
428.069	773.38
428.292	676.38
428.514	617.38
428.736	608.38
428.958	597.38
429.181	588.38
429.403	564.38
429.625	583.38
429.847	631.38
430.069	718.38
430.292	726.38
430.514	618.38
430.736	571.38
430.958	594.38
431.18	568.38
431.402	538.38
431.624	566.38
431.846	542.38
432.068	546.38
432.29	564.38
432.512	543.38
432.734	580.38
432.956	565.38
433.178	556.38
433.4	573.38
433.622	567.38
433.844	567.38
434.066	563.38
434.287	557.38
434.509	562.38
434.731	550.38
434.953	565.38
435.175	590.38
435.397	618.38
435.618	628.38
435.84	664.38
436.062	790.38
436.284	900.38
436.505	724.38
436.727	648.38
436.949	590.38
437.17	553.38
437.392	603.38
437.614	585.38
437.835	634.38
438.057	710.38
438.278	846.38
438.5	858.38
438.721	947.38
438.943	900.38
439.165	713.38
439.386	673.38
439.608	638.38
439.829	630.38
440.05	675.38
440.272	727.38
440.493	685.38
440.715	629.38
440.936	593.38
441.158	584.38
441.379	586.38
441.6	611.38
441.822	630.38
442.043	674.38
442.264	759.38
442.486	848.38
442.707	688.38
442.928	634.38
443.149	645.38
443.371	680.38
443.592	727.38
443.813	834.38
444.034	933.38
444.255	762.38
444.476	678.38
444.698	642.38
444.919	644.38
445.14	721.38
445.361	690.38
445.582	709.38
445.803	767.38
446.024	884.38
446.245	928.38
446.466	817.38
446.687	674.38
446.908	632.38
447.129	585.38
447.35	602.38
447.571	595.38
447.792	560.38
448.013	577.38
448.234	604.38
448.455	660.38
448.675	799.38
448.896	946.38
449.117	750.38
449.338	729.38
449.559	850.38
449.779	1002.38
450	773.38
450.221	643.38
450.442	588.38
450.662	578.38
450.883	592.38
451.104	591.38
451.324	586.38
451.545	543.38
451.766	557.38
451.986	541.38
452.207	519.38
452.428	493.38
452.648	522.38
452.869	501.38
453.089	530.38
453.31	529.38
453.53	520.38
453.751	512.38
453.971	516.38
454.192	551.38
454.412	533.38
454.633	526.38
454.853	500.38
455.073	518.38
455.294	552.38
455.514	625.38
455.734	588.38
455.955	514.38
456.175	502.38
456.395	498.38
456.616	486.38
456.836	477.38
457.056	490.38
457.276	475.38
457.497	510.38
457.717	523.38
457.937	486.38
458.157	492.38
458.377	502.38
458.598	532.38
458.818	573.38
459.038	685.38
459.258	707.38
459.478	597.38
459.698	568.38
459.918	560.38
460.138	583.38
460.358	597.38
460.578	557.38
460.798	582.38
461.018	570.38
461.238	577.38
461.458	573.38
461.678	554.38
461.898	576.38
462.118	570.38
462.338	567.38
462.558	586.38
462.777	616.38
462.997	620.38
463.217	637.38
463.437	644.38
463.657	622.38
463.876	628.38
464.096	627.38
464.316	617.38
464.536	598.38
464.755	603.38
464.975	615.38
465.195	656.38
465.414	702.38
465.634	632.38
465.854	611.38
466.073	581.38
466.293	570.38
466.512	550.38
466.732	532.38
466.951	536.38
467.171	531.38
467.391	523.38
467.61	549.38
467.829	557.38
468.049	549.38
468.268	535.38
468.488	532.38
468.707	521.38
468.927	489.38
469.146	506.38
469.365	536.38
469.585	532.38
469.804	517.38
470.023	538.38
470.243	549.38
470.462	540.38
470.681	562.38
470.901	574.38
471.12	555.38
471.339	558.38
471.558	540.38
471.777	549.38
471.997	527.38
472.216	553.38
472.435	569.38
472.654	567.38
472.873	556.38
473.092	527.38
473.311	537.38
473.53	556.38
473.749	573.38
473.968	587.38
474.187	705.38
474.406	736.38
474.625	616.38
474.844	575.38
475.063	566.38
475.282	538.38
475.501	543.38
475.72	574.38
475.939	543.38
476.158	555.38
476.377	558.38
476.596	542.38
476.814	571.38
477.033	573.38
477.252	590.38
477.471	603.38
477.69	581.38
477.908	575.38
478.127	588.38
478.346	589.38
478.564	599.38
478.783	615.38
479.002	604.38
479.22	610.38
479.439	604.38
479.658	651.38
479.876	641.38
480.095	665.38
480.313	673.38
480.532	679.38
480.751	686.38
480.969	702.38
481.188	740.38
481.406	766.38
481.624	708.38
481.843	657.38
482.061	655.38
482.28	651.38
482.498	637.38
482.717	630.38
482.935	635.38
483.153	638.38
483.372	635.38
483.59	650.38
483.808	631.38
484.027	657.38
484.245	635.38
484.463	642.38
484.681	664.38
484.9	642.38
485.118	667.38
485.336	654.38
485.554	664.38
485.772	642.38
485.99	652.38
486.209	653.38
486.427	667.38
486.645	692.38
486.863	695.38
487.081	674.38
487.299	680.38
487.517	677.38
487.735	698.38
487.953	692.38
488.171	644.38
488.389	669.38
488.607	678.38
488.825	664.38
489.043	672.38
489.261	671.38
489.479	685.38
489.696	700.38
489.914	688.38
490.132	687.38
490.35	679.38
490.568	723.38
490.786	713.38
491.003	717.38
491.221	731.38
491.439	742.38
491.657	745.38
491.874	762.38
492.092	757.38
492.31	719.38
492.527	776.38
492.745	786.38
492.963	790.38
493.18	783.38
493.398	778.38
493.615	795.38
493.833	803.38
494.05	805.38
494.268	817.38
494.485	775.38
494.703	805.38
494.92	793.38
495.138	782.38
495.355	802.38
495.573	798.38
495.79	816.38
496.008	805.38
496.225	828.38
496.442	814.38
496.66	798.38
496.877	776.38
497.094	847.38
497.312	808.38
497.529	831.38
497.746	854.38
497.963	880.38
498.181	896.38
498.398	891.38
498.615	915.38
498.832	947.38
499.049	943.38
499.267	951.38
499.484	991.38
499.701	1036.38
499.918	1070.38
500.135	1098.38
500.352	1154.38
500.569	1180.38
500.786	1182.38
501.003	1168.38
501.22	1136.38
501.437	1105.38
501.654	1099.38
