Data from 1978.PennyLincolnUp.Lamp.En5.5.200Scan.071719.P1_HRD10591_16-13-53-864.txt Node
Date: Thu Jul 18 16:13:53 EDT 2019
User: cochatt
Spectrometer: HR+D1059
Trigger mode: 1
Integration Time (sec): 1.000000E-1
Scans to average: 1
Electric dark correction enabled: true
Nonlinearity correction enabled: false
Boxcar width: 0
XAxis mode: Wavelengths
Number of Pixels in Spectrum: 2048
>>>>>Begin Spectral Data<<<<<
223.165	-25.56
223.4	-25.56
223.635	-25.56
223.869	-19.56
224.104	-13.56
224.338	-14.56
224.573	-7.56
224.808	-10.56
225.042	-8.56
225.277	-16.56
225.511	-12.56
225.746	-3.56
225.98	17.44
226.215	21.44
226.449	20.44
226.683	27.44
226.918	14.44
227.152	31.44
227.387	35.44
227.621	35.44
227.856	47.44
228.09	38.44
228.324	58.44
228.559	43.44
228.793	58.44
229.027	76.44
229.262	120.44
229.496	116.44
229.73	137.44
229.964	154.44
230.199	133.44
230.433	104.44
230.667	103.44
230.901	118.44
231.136	106.44
231.37	127.44
231.604	119.44
231.838	114.44
232.072	103.44
232.306	104.44
232.541	123.44
232.775	121.44
233.009	125.44
233.243	104.44
233.477	126.44
233.711	133.44
233.945	121.44
234.179	129.44
234.413	129.44
234.647	126.44
234.881	111.44
235.115	113.44
235.349	122.44
235.583	122.44
235.817	128.44
236.051	111.44
236.285	121.44
236.519	124.44
236.753	113.44
236.987	130.44
237.221	177.44
237.455	246.44
237.689	179.44
237.922	135.44
238.156	124.44
238.39	133.44
238.624	120.44
238.858	133.44
239.091	127.44
239.325	125.44
239.559	126.44
239.793	129.44
240.027	139.44
240.26	141.44
240.494	150.44
240.728	127.44
240.961	151.44
241.195	139.44
241.429	133.44
241.662	143.44
241.896	135.44
242.13	116.44
242.363	133.44
242.597	141.44
242.83	134.44
243.064	137.44
243.298	151.44
243.531	131.44
243.765	129.44
243.998	137.44
244.232	140.44
244.465	151.44
244.699	142.44
244.932	131.44
245.166	142.44
245.399	153.44
245.633	151.44
245.866	162.44
246.099	140.44
246.333	133.44
246.566	145.44
246.8	151.44
247.033	151.44
247.266	147.44
247.5	162.44
247.733	155.44
247.966	159.44
248.2	157.44
248.433	161.44
248.666	173.44
248.899	183.44
249.133	195.44
249.366	197.44
249.599	191.44
249.832	173.44
250.066	160.44
250.299	180.44
250.532	195.44
250.765	195.44
250.998	210.44
251.231	210.44
251.465	196.44
251.698	212.44
251.931	193.44
252.164	192.44
252.397	178.44
252.63	189.44
252.863	173.44
253.096	215.44
253.329	219.44
253.562	230.44
253.795	205.44
254.028	208.44
254.261	198.44
254.494	212.44
254.727	239.44
254.96	277.44
255.193	268.44
255.426	241.44
255.659	232.44
255.892	232.44
256.124	205.44
256.357	215.44
256.59	214.44
256.823	208.44
257.056	206.44
257.289	198.44
257.521	196.44
257.754	211.44
257.987	201.44
258.22	217.44
258.452	206.44
258.685	207.44
258.918	201.44
259.151	203.44
259.383	213.44
259.616	213.44
259.849	215.44
260.081	216.44
260.314	231.44
260.547	234.44
260.779	243.44
261.012	232.44
261.244	201.44
261.477	215.44
261.71	214.44
261.942	227.44
262.175	234.44
262.407	225.44
262.64	210.44
262.872	190.44
263.105	218.44
263.337	204.44
263.57	212.44
263.802	197.44
264.035	214.44
264.267	193.44
264.499	205.44
264.732	205.44
264.964	208.44
265.197	212.44
265.429	210.44
265.661	208.44
265.894	213.44
266.126	235.44
266.358	194.44
266.591	200.44
266.823	219.44
267.055	211.44
267.287	252.44
267.52	210.44
267.752	224.44
267.984	222.44
268.216	234.44
268.448	214.44
268.681	253.44
268.913	228.44
269.145	234.44
269.377	256.44
269.609	258.44
269.841	247.44
270.073	264.44
270.306	281.44
270.538	283.44
270.77	302.44
271.002	283.44
271.234	289.44
271.466	269.44
271.698	307.44
271.93	301.44
272.162	308.44
272.394	305.44
272.626	291.44
272.858	277.44
273.09	253.44
273.322	284.44
273.553	245.44
273.785	251.44
274.017	247.44
274.249	285.44
274.481	268.44
274.713	250.44
274.945	250.44
275.176	271.44
275.408	251.44
275.64	279.44
275.872	255.44
276.104	259.44
276.335	279.44
276.567	271.44
276.799	266.44
277.031	296.44
277.262	316.44
277.494	313.44
277.726	292.44
277.957	298.44
278.189	277.44
278.421	274.44
278.652	251.44
278.884	248.44
279.115	281.44
279.347	247.44
279.579	236.44
279.81	262.44
280.042	260.44
280.273	263.44
280.505	271.44
280.736	275.44
280.968	261.44
281.199	267.44
281.431	258.44
281.662	251.44
281.894	255.44
282.125	289.44
282.356	294.44
282.588	316.44
282.819	301.44
283.051	288.44
283.282	280.44
283.513	272.44
283.745	269.44
283.976	270.44
284.207	267.44
284.439	291.44
284.67	298.44
284.901	287.44
285.132	287.44
285.364	263.44
285.595	272.44
285.826	281.44
286.057	291.44
286.288	275.44
286.52	287.44
286.751	300.44
286.982	273.44
287.213	279.44
287.444	289.44
287.675	281.44
287.906	276.44
288.138	285.44
288.369	283.44
288.6	286.44
288.831	294.44
289.062	297.44
289.293	287.44
289.524	298.44
289.755	290.44
289.986	282.44
290.217	275.44
290.448	292.44
290.679	279.44
290.91	289.44
291.141	301.44
291.371	308.44
291.602	286.44
291.833	282.44
292.064	272.44
292.295	281.44
292.526	291.44
292.757	297.44
292.987	290.44
293.218	295.44
293.449	299.44
293.68	290.44
293.91	278.44
294.141	271.44
294.372	282.44
294.603	290.44
294.833	275.44
295.064	293.44
295.295	292.44
295.525	299.44
295.756	300.44
295.987	299.44
296.217	317.44
296.448	332.44
296.679	297.44
296.909	300.44
297.14	297.44
297.37	301.44
297.601	302.44
297.831	308.44
298.062	294.44
298.292	310.44
298.523	303.44
298.753	319.44
298.984	318.44
299.214	312.44
299.445	311.44
299.675	321.44
299.905	298.44
300.136	324.44
300.366	319.44
300.597	314.44
300.827	333.44
301.057	333.44
301.288	324.44
301.518	317.44
301.748	332.44
301.979	328.44
302.209	350.44
302.439	336.44
302.669	328.44
302.9	327.44
303.13	323.44
303.36	321.44
303.59	333.44
303.82	322.44
304.051	336.44
304.281	335.44
304.511	322.44
304.741	343.44
304.971	324.44
305.201	326.44
305.431	317.44
305.661	325.44
305.891	318.44
306.121	328.44
306.352	341.44
306.582	329.44
306.812	350.44
307.042	323.44
307.272	321.44
307.502	346.44
307.731	328.44
307.961	312.44
308.191	320.44
308.421	341.44
308.651	330.44
308.881	361.44
309.111	356.44
309.341	333.44
309.571	350.44
309.8	365.44
310.03	364.44
310.26	382.44
310.49	377.44
310.72	366.44
310.949	372.44
311.179	397.44
311.409	361.44
311.639	382.44
311.868	383.44
312.098	367.44
312.328	382.44
312.557	409.44
312.787	398.44
313.017	391.44
313.246	391.44
313.476	370.44
313.706	361.44
313.935	375.44
314.165	384.44
314.394	393.44
314.624	392.44
314.853	394.44
315.083	399.44
315.312	389.44
315.542	374.44
315.771	377.44
316.001	383.44
316.23	362.44
316.46	379.44
316.689	383.44
316.919	376.44
317.148	390.44
317.377	371.44
317.607	391.44
317.836	381.44
318.065	381.44
318.295	380.44
318.524	382.44
318.753	370.44
318.983	374.44
319.212	385.44
319.441	410.44
319.67	386.44
319.9	374.44
320.129	374.44
320.358	368.44
320.587	378.44
320.816	402.44
321.046	408.44
321.275	413.44
321.504	392.44
321.733	383.44
321.962	402.44
322.191	417.44
322.42	424.44
322.649	443.44
322.878	427.44
323.108	452.44
323.337	470.44
323.566	504.44
323.795	530.44
324.024	582.44
324.253	674.44
324.482	997.44
324.71	1554.44
324.939	2329.44
325.168	2075.44
325.397	986.44
325.626	677.44
325.855	541.44
326.084	531.44
326.313	499.44
326.542	521.44
326.77	547.44
326.999	663.44
327.228	902.44
327.457	1403.44
327.686	1781.44
327.914	1129.44
328.143	705.44
328.372	622.44
328.6	579.44
328.829	563.44
329.058	566.44
329.287	603.44
329.515	545.44
329.744	539.44
329.972	493.44
330.201	526.44
330.43	558.44
330.658	609.44
330.887	595.44
331.115	577.44
331.344	544.44
331.572	483.44
331.801	491.44
332.03	501.44
332.258	471.44
332.486	482.44
332.715	468.44
332.943	451.44
333.172	464.44
333.4	474.44
333.629	495.44
333.857	482.44
334.085	485.44
334.314	512.44
334.542	536.44
334.771	545.44
334.999	478.44
335.227	476.44
335.455	470.44
335.684	466.44
335.912	461.44
336.14	476.44
336.369	453.44
336.597	471.44
336.825	467.44
337.053	464.44
337.281	453.44
337.51	445.44
337.738	453.44
337.966	449.44
338.194	448.44
338.422	451.44
338.65	444.44
338.878	440.44
339.106	441.44
339.334	452.44
339.562	443.44
339.79	430.44
340.018	409.44
340.246	430.44
340.474	449.44
340.702	429.44
340.93	456.44
341.158	433.44
341.386	452.44
341.614	453.44
341.842	455.44
342.07	425.44
342.298	438.44
342.526	425.44
342.754	433.44
342.981	409.44
343.209	427.44
343.437	429.44
343.665	451.44
343.893	456.44
344.12	452.44
344.348	449.44
344.576	445.44
344.804	455.44
345.031	465.44
345.259	450.44
345.487	461.44
345.714	454.44
345.942	420.44
346.17	428.44
346.397	441.44
346.625	448.44
346.853	411.44
347.08	440.44
347.308	420.44
347.535	456.44
347.763	443.44
347.99	444.44
348.218	435.44
348.445	414.44
348.673	429.44
348.9	415.44
349.128	424.44
349.355	423.44
349.583	451.44
349.81	413.44
350.037	419.44
350.265	422.44
350.492	408.44
350.72	423.44
350.947	433.44
351.174	439.44
351.402	451.44
351.629	428.44
351.856	452.44
352.083	442.44
352.311	428.44
352.538	437.44
352.765	433.44
352.992	439.44
353.22	428.44
353.447	425.44
353.674	407.44
353.901	425.44
354.128	402.44
354.355	403.44
354.583	403.44
354.81	414.44
355.037	421.44
355.264	379.44
355.491	397.44
355.718	408.44
355.945	416.44
356.172	418.44
356.399	386.44
356.626	393.44
356.853	413.44
357.08	410.44
357.307	407.44
357.534	425.44
357.761	381.44
357.988	379.44
358.215	413.44
358.441	414.44
358.668	408.44
358.895	421.44
359.122	425.44
359.349	441.44
359.576	433.44
359.802	450.44
360.029	463.44
360.256	474.44
360.483	470.44
360.709	426.44
360.936	438.44
361.163	435.44
361.39	452.44
361.616	435.44
361.843	415.44
362.07	434.44
362.296	440.44
362.523	416.44
362.749	403.44
362.976	407.44
363.203	408.44
363.429	424.44
363.656	404.44
363.882	429.44
364.109	412.44
364.335	418.44
364.562	427.44
364.788	423.44
365.015	413.44
365.241	415.44
365.468	419.44
365.694	404.44
365.92	445.44
366.147	417.44
366.373	425.44
366.599	408.44
366.826	404.44
367.052	418.44
367.278	410.44
367.505	412.44
367.731	428.44
367.957	403.44
368.184	427.44
368.41	422.44
368.636	434.44
368.862	449.44
369.089	420.44
369.315	416.44
369.541	427.44
369.767	432.44
369.993	423.44
370.219	437.44
370.445	411.44
370.672	413.44
370.898	415.44
371.124	426.44
371.35	425.44
371.576	423.44
371.802	415.44
372.028	431.44
372.254	424.44
372.48	421.44
372.706	429.44
372.932	433.44
373.158	433.44
373.384	407.44
373.61	441.44
373.835	443.44
374.061	425.44
374.287	435.44
374.513	436.44
374.739	444.44
374.965	429.44
375.191	435.44
375.416	439.44
375.642	449.44
375.868	428.44
376.094	444.44
376.319	417.44
376.545	429.44
376.771	435.44
376.997	411.44
377.222	430.44
377.448	399.44
377.674	425.44
377.899	434.44
378.125	412.44
378.35	439.44
378.576	427.44
378.802	405.44
379.027	411.44
379.253	436.44
379.478	423.44
379.704	431.44
379.929	440.44
380.155	425.44
380.38	400.44
380.606	441.44
380.831	427.44
381.057	430.44
381.282	399.44
381.507	435.44
381.733	420.44
381.958	427.44
382.184	452.44
382.409	436.44
382.634	449.44
382.86	435.44
383.085	445.44
383.31	450.44
383.535	449.44
383.761	425.44
383.986	446.44
384.211	457.44
384.436	459.44
384.662	446.44
384.887	451.44
385.112	461.44
385.337	469.44
385.562	473.44
385.787	455.44
386.013	478.44
386.238	457.44
386.463	475.44
386.688	488.44
386.913	475.44
387.138	458.44
387.363	473.44
387.588	463.44
387.813	465.44
388.038	468.44
388.263	485.44
388.488	474.44
388.713	485.44
388.938	484.44
389.163	482.44
389.387	471.44
389.612	480.44
389.837	477.44
390.062	463.44
390.287	471.44
390.512	462.44
390.736	474.44
390.961	486.44
391.186	486.44
391.411	471.44
391.636	494.44
391.86	483.44
392.085	499.44
392.31	510.44
392.534	504.44
392.759	481.44
392.984	473.44
393.208	472.44
393.433	486.44
393.658	499.44
393.882	482.44
394.107	505.44
394.331	474.44
394.556	494.44
394.78	475.44
395.005	497.44
395.229	485.44
395.454	490.44
395.678	513.44
395.903	527.44
396.127	523.44
396.352	532.44
396.576	511.44
396.801	497.44
397.025	520.44
397.249	498.44
397.474	505.44
397.698	482.44
397.922	537.44
398.147	571.44
398.371	561.44
398.595	534.44
398.82	545.44
399.044	563.44
399.268	565.44
399.492	619.44
399.717	633.44
399.941	662.44
400.165	683.44
400.389	692.44
400.613	667.44
400.837	602.44
401.062	571.44
401.286	558.44
401.51	552.44
401.734	566.44
401.958	557.44
402.182	565.44
402.406	568.44
402.63	584.44
402.854	564.44
403.078	561.44
403.302	552.44
403.526	587.44
403.75	563.44
403.974	578.44
404.198	574.44
404.422	594.44
404.645	588.44
404.869	598.44
405.093	628.44
405.317	673.44
405.541	726.44
405.765	640.44
405.988	614.44
406.212	603.44
406.436	619.44
406.66	654.44
406.883	641.44
407.107	660.44
407.331	707.44
407.555	794.44
407.778	762.44
408.002	662.44
408.226	637.44
408.449	662.44
408.673	653.44
408.896	665.44
409.12	723.44
409.344	698.44
409.567	592.44
409.791	593.44
410.014	578.44
410.238	582.44
410.461	584.44
410.685	586.44
410.908	589.44
411.132	650.44
411.355	673.44
411.578	659.44
411.802	582.44
412.025	577.44
412.249	582.44
412.472	615.44
412.695	659.44
412.919	641.44
413.142	604.44
413.365	591.44
413.589	569.44
413.812	562.44
414.035	558.44
414.258	550.44
414.482	555.44
414.705	546.44
414.928	554.44
415.151	551.44
415.374	550.44
415.597	558.44
415.821	572.44
416.044	542.44
416.267	535.44
416.49	540.44
416.713	524.44
416.936	551.44
417.159	543.44
417.382	570.44
417.605	554.44
417.828	561.44
418.051	570.44
418.274	562.44
418.497	528.44
418.72	537.44
418.943	550.44
419.166	571.44
419.389	589.44
419.611	603.44
419.834	583.44
420.057	596.44
420.28	587.44
420.503	563.44
420.726	601.44
420.948	577.44
421.171	613.44
421.394	654.44
421.617	590.44
421.839	569.44
422.062	578.44
422.285	557.44
422.507	635.44
422.73	726.44
422.953	706.44
423.175	629.44
423.398	592.44
423.621	589.44
423.843	621.44
424.066	604.44
424.288	613.44
424.511	614.44
424.733	695.44
424.956	774.44
425.178	734.44
425.401	723.44
425.623	778.44
425.846	646.44
426.068	629.44
426.291	610.44
426.513	597.44
426.735	627.44
426.958	660.44
427.18	749.44
427.402	925.44
427.625	1025.44
427.847	853.44
428.069	743.44
428.292	644.44
428.514	596.44
428.736	577.44
428.958	577.44
429.181	562.44
429.403	557.44
429.625	590.44
429.847	589.44
430.069	689.44
430.292	711.44
430.514	604.44
430.736	568.44
430.958	546.44
431.18	532.44
431.402	566.44
431.624	539.44
431.846	526.44
432.068	539.44
432.29	539.44
432.512	533.44
432.734	568.44
432.956	550.44
433.178	586.44
433.4	580.44
433.622	540.44
433.844	549.44
434.066	523.44
434.287	541.44
434.509	561.44
434.731	561.44
434.953	564.44
435.175	577.44
435.397	603.44
435.618	608.44
435.84	645.44
436.062	787.44
436.284	850.44
436.505	675.44
436.727	619.44
436.949	591.44
437.17	577.44
437.392	564.44
437.614	575.44
437.835	617.44
438.057	715.44
438.278	847.44
438.5	863.44
438.721	892.44
438.943	893.44
439.165	686.44
439.386	625.44
439.608	605.44
439.829	614.44
440.05	643.44
440.272	703.44
440.493	673.44
440.715	627.44
440.936	589.44
441.158	569.44
441.379	584.44
441.6	578.44
441.822	593.44
442.043	664.44
442.264	765.44
442.486	804.44
442.707	693.44
442.928	627.44
443.149	634.44
443.371	655.44
443.592	708.44
443.813	814.44
444.034	883.44
444.255	725.44
444.476	660.44
444.698	626.44
444.919	603.44
445.14	724.44
445.361	668.44
445.582	665.44
445.803	770.44
446.024	859.44
446.245	862.44
446.466	823.44
446.687	672.44
446.908	633.44
447.129	571.44
447.35	563.44
447.571	575.44
447.792	551.44
448.013	573.44
448.234	578.44
448.455	634.44
448.675	772.44
448.896	917.44
449.117	738.44
449.338	702.44
449.559	839.44
449.779	956.44
450	782.44
450.221	631.44
450.442	592.44
450.662	571.44
450.883	590.44
451.104	580.44
451.324	556.44
451.545	516.44
451.766	518.44
451.986	492.44
452.207	500.44
452.428	507.44
452.648	516.44
452.869	504.44
453.089	510.44
453.31	534.44
453.53	509.44
453.751	523.44
453.971	483.44
454.192	529.44
454.412	521.44
454.633	507.44
454.853	491.44
455.073	507.44
455.294	527.44
455.514	584.44
455.734	599.44
455.955	512.44
456.175	471.44
456.395	491.44
456.616	468.44
456.836	479.44
457.056	480.44
457.276	485.44
457.497	488.44
457.717	476.44
457.937	497.44
458.157	488.44
458.377	508.44
458.598	545.44
458.818	567.44
459.038	643.44
459.258	694.44
459.478	605.44
459.698	556.44
459.918	558.44
460.138	553.44
460.358	554.44
460.578	528.44
460.798	558.44
461.018	558.44
461.238	564.44
461.458	588.44
461.678	573.44
461.898	545.44
462.118	567.44
462.338	574.44
462.558	574.44
462.777	590.44
462.997	594.44
463.217	612.44
463.437	618.44
463.657	606.44
463.876	600.44
464.096	605.44
464.316	583.44
464.536	593.44
464.755	620.44
464.975	593.44
465.195	656.44
465.414	710.44
465.634	634.44
465.854	591.44
466.073	574.44
466.293	549.44
466.512	535.44
466.732	510.44
466.951	506.44
467.171	515.44
467.391	554.44
467.61	535.44
467.829	542.44
468.049	541.44
468.268	548.44
468.488	521.44
468.707	512.44
468.927	511.44
469.146	501.44
469.365	502.44
469.585	537.44
469.804	535.44
470.023	548.44
470.243	553.44
470.462	526.44
470.681	553.44
470.901	542.44
471.12	521.44
471.339	515.44
471.558	527.44
471.777	519.44
471.997	517.44
472.216	535.44
472.435	561.44
472.654	565.44
472.873	543.44
473.092	546.44
473.311	510.44
473.53	521.44
473.749	535.44
473.968	584.44
474.187	682.44
474.406	712.44
474.625	579.44
474.844	565.44
475.063	533.44
475.282	551.44
475.501	504.44
475.72	539.44
475.939	536.44
476.158	555.44
476.377	554.44
476.596	543.44
476.814	564.44
477.033	562.44
477.252	563.44
477.471	575.44
477.69	563.44
477.908	575.44
478.127	591.44
478.346	579.44
478.564	577.44
478.783	590.44
479.002	619.44
479.22	603.44
479.439	634.44
479.658	633.44
479.876	648.44
480.095	655.44
480.313	660.44
480.532	662.44
480.751	663.44
480.969	661.44
481.188	695.44
481.406	743.44
481.624	702.44
481.843	664.44
482.061	639.44
482.28	610.44
482.498	635.44
482.717	637.44
482.935	609.44
483.153	610.44
483.372	622.44
483.59	633.44
483.808	590.44
484.027	604.44
484.245	626.44
484.463	621.44
484.681	611.44
484.9	629.44
485.118	638.44
485.336	636.44
485.554	643.44
485.772	636.44
485.99	629.44
486.209	637.44
486.427	665.44
486.645	651.44
486.863	659.44
487.081	675.44
487.299	678.44
487.517	669.44
487.735	662.44
487.953	653.44
488.171	685.44
488.389	673.44
488.607	666.44
488.825	654.44
489.043	656.44
489.261	667.44
489.479	706.44
489.696	681.44
489.914	671.44
490.132	711.44
490.35	690.44
490.568	690.44
490.786	705.44
491.003	703.44
491.221	734.44
491.439	744.44
491.657	732.44
491.874	727.44
492.092	740.44
492.31	753.44
492.527	745.44
492.745	756.44
492.963	734.44
493.18	760.44
493.398	761.44
493.615	777.44
493.833	756.44
494.05	770.44
494.268	774.44
494.485	754.44
494.703	775.44
494.92	766.44
495.138	778.44
495.355	770.44
495.573	784.44
495.79	784.44
496.008	770.44
496.225	779.44
496.442	780.44
496.66	778.44
496.877	803.44
497.094	790.44
497.312	829.44
497.529	838.44
497.746	804.44
497.963	839.44
498.181	864.44
498.398	869.44
498.615	878.44
498.832	916.44
499.049	911.44
499.267	932.44
499.484	996.44
499.701	1010.44
499.918	1047.44
500.135	1081.44
500.352	1125.44
500.569	1150.44
500.786	1143.44
501.003	1128.44
501.22	1134.44
501.437	1049.44
501.654	1032.44
