Data from 1978.PennyLincolnUp.Lamp.En5.5.200Scan.071719.P1_HRD10591_16-14-00-864.txt Node
Date: Thu Jul 18 16:14:00 EDT 2019
User: cochatt
Spectrometer: HR+D1059
Trigger mode: 1
Integration Time (sec): 1.000000E-1
Scans to average: 1
Electric dark correction enabled: true
Nonlinearity correction enabled: false
Boxcar width: 0
XAxis mode: Wavelengths
Number of Pixels in Spectrum: 2048
>>>>>Begin Spectral Data<<<<<
223.165	-25.38
223.4	-25.38
223.635	-25.38
223.869	-17.38
224.104	-14.38
224.338	-18.38
224.573	-20.38
224.808	-4.38
225.042	-10.38
225.277	1.62
225.511	4.62
225.746	1.62
225.98	3.62
226.215	4.62
226.449	10.62
226.683	24.62
226.918	29.62
227.152	29.62
227.387	44.62
227.621	39.62
227.856	58.62
228.09	49.62
228.324	54.62
228.559	55.62
228.793	62.62
229.027	101.62
229.262	104.62
229.496	118.62
229.73	139.62
229.964	139.62
230.199	133.62
230.433	107.62
230.667	109.62
230.901	120.62
231.136	102.62
231.37	107.62
231.604	115.62
231.838	119.62
232.072	122.62
232.306	121.62
232.541	120.62
232.775	98.62
233.009	101.62
233.243	118.62
233.477	121.62
233.711	118.62
233.945	107.62
234.179	120.62
234.413	122.62
234.647	115.62
234.881	112.62
235.115	126.62
235.349	124.62
235.583	135.62
235.817	123.62
236.051	127.62
236.285	130.62
236.519	118.62
236.753	121.62
236.987	125.62
237.221	179.62
237.455	238.62
237.689	195.62
237.922	131.62
238.156	147.62
238.39	131.62
238.624	124.62
238.858	109.62
239.091	112.62
239.325	121.62
239.559	122.62
239.793	123.62
240.027	136.62
240.26	131.62
240.494	161.62
240.728	150.62
240.961	151.62
241.195	143.62
241.429	134.62
241.662	152.62
241.896	123.62
242.13	133.62
242.363	125.62
242.597	123.62
242.83	138.62
243.064	150.62
243.298	129.62
243.531	128.62
243.765	143.62
243.998	143.62
244.232	157.62
244.465	160.62
244.699	138.62
244.932	155.62
245.166	155.62
245.399	135.62
245.633	145.62
245.866	147.62
246.099	147.62
246.333	157.62
246.566	150.62
246.8	139.62
247.033	169.62
247.266	166.62
247.5	165.62
247.733	160.62
247.966	161.62
248.2	165.62
248.433	158.62
248.666	149.62
248.899	164.62
249.133	189.62
249.366	203.62
249.599	175.62
249.832	167.62
250.066	171.62
250.299	182.62
250.532	181.62
250.765	201.62
250.998	206.62
251.231	221.62
251.465	195.62
251.698	195.62
251.931	203.62
252.164	183.62
252.397	182.62
252.63	196.62
252.863	218.62
253.096	207.62
253.329	213.62
253.562	220.62
253.795	199.62
254.028	222.62
254.261	192.62
254.494	215.62
254.727	247.62
254.96	273.62
255.193	254.62
255.426	226.62
255.659	224.62
255.892	219.62
256.124	214.62
256.357	221.62
256.59	211.62
256.823	210.62
257.056	211.62
257.289	204.62
257.521	190.62
257.754	200.62
257.987	199.62
258.22	209.62
258.452	215.62
258.685	213.62
258.918	226.62
259.151	218.62
259.383	203.62
259.616	214.62
259.849	220.62
260.081	224.62
260.314	228.62
260.547	241.62
260.779	245.62
261.012	231.62
261.244	218.62
261.477	217.62
261.71	221.62
261.942	209.62
262.175	222.62
262.407	223.62
262.64	207.62
262.872	204.62
263.105	214.62
263.337	224.62
263.57	213.62
263.802	208.62
264.035	219.62
264.267	214.62
264.499	187.62
264.732	210.62
264.964	195.62
265.197	190.62
265.429	214.62
265.661	223.62
265.894	228.62
266.126	212.62
266.358	217.62
266.591	214.62
266.823	220.62
267.055	219.62
267.287	216.62
267.52	228.62
267.752	214.62
267.984	221.62
268.216	215.62
268.448	226.62
268.681	221.62
268.913	243.62
269.145	259.62
269.377	278.62
269.609	266.62
269.841	256.62
270.073	260.62
270.306	296.62
270.538	291.62
270.77	311.62
271.002	286.62
271.234	284.62
271.466	289.62
271.698	295.62
271.93	306.62
272.162	305.62
272.394	307.62
272.626	275.62
272.858	265.62
273.09	264.62
273.322	284.62
273.553	261.62
273.785	238.62
274.017	247.62
274.249	267.62
274.481	269.62
274.713	266.62
274.945	276.62
275.176	273.62
275.408	246.62
275.64	261.62
275.872	263.62
276.104	261.62
276.335	271.62
276.567	253.62
276.799	275.62
277.031	311.62
277.262	301.62
277.494	314.62
277.726	284.62
277.957	276.62
278.189	267.62
278.421	259.62
278.652	263.62
278.884	242.62
279.115	266.62
279.347	254.62
279.579	268.62
279.81	251.62
280.042	254.62
280.273	270.62
280.505	262.62
280.736	263.62
280.968	250.62
281.199	264.62
281.431	271.62
281.662	271.62
281.894	277.62
282.125	274.62
282.356	284.62
282.588	301.62
282.819	317.62
283.051	282.62
283.282	272.62
283.513	270.62
283.745	279.62
283.976	260.62
284.207	266.62
284.439	269.62
284.67	278.62
284.901	278.62
285.132	276.62
285.364	284.62
285.595	285.62
285.826	282.62
286.057	278.62
286.288	280.62
286.52	280.62
286.751	284.62
286.982	279.62
287.213	281.62
287.444	274.62
287.675	271.62
287.906	282.62
288.138	284.62
288.369	310.62
288.6	309.62
288.831	290.62
289.062	291.62
289.293	302.62
289.524	292.62
289.755	286.62
289.986	282.62
290.217	284.62
290.448	292.62
290.679	290.62
290.91	296.62
291.141	281.62
291.371	292.62
291.602	291.62
291.833	301.62
292.064	293.62
292.295	267.62
292.526	310.62
292.757	272.62
292.987	297.62
293.218	289.62
293.449	304.62
293.68	284.62
293.91	298.62
294.141	286.62
294.372	303.62
294.603	297.62
294.833	291.62
295.064	290.62
295.295	280.62
295.525	296.62
295.756	322.62
295.987	302.62
296.217	319.62
296.448	334.62
296.679	312.62
296.909	300.62
297.14	326.62
297.37	309.62
297.601	294.62
297.831	300.62
298.062	305.62
298.292	315.62
298.523	313.62
298.753	319.62
298.984	304.62
299.214	306.62
299.445	323.62
299.675	321.62
299.905	317.62
300.136	301.62
300.366	309.62
300.597	298.62
300.827	302.62
301.057	339.62
301.288	309.62
301.518	315.62
301.748	311.62
301.979	318.62
302.209	314.62
302.439	346.62
302.669	335.62
302.9	320.62
303.13	325.62
303.36	332.62
303.59	338.62
303.82	339.62
304.051	328.62
304.281	331.62
304.511	345.62
304.741	323.62
304.971	319.62
305.201	314.62
305.431	325.62
305.661	342.62
305.891	329.62
306.121	329.62
306.352	326.62
306.582	336.62
306.812	326.62
307.042	329.62
307.272	339.62
307.502	342.62
307.731	331.62
307.961	345.62
308.191	328.62
308.421	320.62
308.651	317.62
308.881	324.62
309.111	335.62
309.341	346.62
309.571	358.62
309.8	350.62
310.03	364.62
310.26	366.62
310.49	391.62
310.72	381.62
310.949	407.62
311.179	387.62
311.409	375.62
311.639	371.62
311.868	370.62
312.098	374.62
312.328	391.62
312.557	384.62
312.787	394.62
313.017	398.62
313.246	376.62
313.476	379.62
313.706	367.62
313.935	405.62
314.165	390.62
314.394	385.62
314.624	400.62
314.853	377.62
315.083	379.62
315.312	365.62
315.542	368.62
315.771	369.62
316.001	362.62
316.23	388.62
316.46	389.62
316.689	382.62
316.919	377.62
317.148	372.62
317.377	373.62
317.607	396.62
317.836	369.62
318.065	371.62
318.295	385.62
318.524	368.62
318.753	383.62
318.983	377.62
319.212	391.62
319.441	394.62
319.67	390.62
319.9	379.62
320.129	377.62
320.358	385.62
320.587	380.62
320.816	374.62
321.046	390.62
321.275	404.62
321.504	391.62
321.733	397.62
321.962	408.62
322.191	418.62
322.42	432.62
322.649	439.62
322.878	430.62
323.108	461.62
323.337	473.62
323.566	487.62
323.795	528.62
324.024	579.62
324.253	694.62
324.482	995.62
324.71	1578.62
324.939	2345.62
325.168	2024.62
325.397	968.62
325.626	636.62
325.855	563.62
326.084	519.62
326.313	488.62
326.542	505.62
326.77	535.62
326.999	650.62
327.228	893.62
327.457	1393.62
327.686	1754.62
327.914	1139.62
328.143	706.62
328.372	629.62
328.6	578.62
328.829	549.62
329.058	578.62
329.287	565.62
329.515	528.62
329.744	519.62
329.972	490.62
330.201	510.62
330.43	557.62
330.658	563.62
330.887	599.62
331.115	577.62
331.344	537.62
331.572	487.62
331.801	499.62
332.03	492.62
332.258	469.62
332.486	464.62
332.715	469.62
332.943	472.62
333.172	459.62
333.4	453.62
333.629	466.62
333.857	476.62
334.085	493.62
334.314	519.62
334.542	532.62
334.771	550.62
334.999	513.62
335.227	492.62
335.455	463.62
335.684	456.62
335.912	438.62
336.14	458.62
336.369	453.62
336.597	467.62
336.825	471.62
337.053	451.62
337.281	457.62
337.51	447.62
337.738	452.62
337.966	435.62
338.194	466.62
338.422	467.62
338.65	429.62
338.878	427.62
339.106	422.62
339.334	451.62
339.562	453.62
339.79	441.62
340.018	442.62
340.246	435.62
340.474	435.62
340.702	450.62
340.93	445.62
341.158	427.62
341.386	442.62
341.614	451.62
341.842	439.62
342.07	455.62
342.298	447.62
342.526	413.62
342.754	428.62
342.981	427.62
343.209	439.62
343.437	446.62
343.665	456.62
343.893	446.62
344.12	476.62
344.348	453.62
344.576	438.62
344.804	449.62
345.031	464.62
345.259	475.62
345.487	463.62
345.714	450.62
345.942	441.62
346.17	436.62
346.397	426.62
346.625	417.62
346.853	427.62
347.08	428.62
347.308	448.62
347.535	441.62
347.763	442.62
347.99	435.62
348.218	425.62
348.445	453.62
348.673	444.62
348.9	428.62
349.128	411.62
349.355	405.62
349.583	417.62
349.81	428.62
350.037	423.62
350.265	437.62
350.492	420.62
350.72	421.62
350.947	429.62
351.174	433.62
351.402	424.62
351.629	425.62
351.856	418.62
352.083	433.62
352.311	441.62
352.538	453.62
352.765	456.62
352.992	405.62
353.22	436.62
353.447	423.62
353.674	434.62
353.901	389.62
354.128	417.62
354.355	402.62
354.583	406.62
354.81	413.62
355.037	425.62
355.264	401.62
355.491	397.62
355.718	407.62
355.945	391.62
356.172	408.62
356.399	398.62
356.626	403.62
356.853	411.62
357.08	410.62
357.307	403.62
357.534	410.62
357.761	417.62
357.988	415.62
358.215	403.62
358.441	420.62
358.668	408.62
358.895	406.62
359.122	411.62
359.349	406.62
359.576	426.62
359.802	437.62
360.029	469.62
360.256	493.62
360.483	476.62
360.709	425.62
360.936	426.62
361.163	427.62
361.39	431.62
361.616	439.62
361.843	439.62
362.07	426.62
362.296	435.62
362.523	445.62
362.749	421.62
362.976	429.62
363.203	438.62
363.429	407.62
363.656	427.62
363.882	416.62
364.109	418.62
364.335	419.62
364.562	403.62
364.788	403.62
365.015	419.62
365.241	421.62
365.468	390.62
365.694	414.62
365.92	409.62
366.147	431.62
366.373	417.62
366.599	435.62
366.826	418.62
367.052	403.62
367.278	419.62
367.505	430.62
367.731	428.62
367.957	421.62
368.184	418.62
368.41	417.62
368.636	436.62
368.862	438.62
369.089	427.62
369.315	425.62
369.541	424.62
369.767	431.62
369.993	422.62
370.219	431.62
370.445	404.62
370.672	411.62
370.898	451.62
371.124	432.62
371.35	425.62
371.576	427.62
371.802	412.62
372.028	438.62
372.254	404.62
372.48	407.62
372.706	427.62
372.932	423.62
373.158	422.62
373.384	412.62
373.61	417.62
373.835	425.62
374.061	433.62
374.287	429.62
374.513	429.62
374.739	434.62
374.965	430.62
375.191	437.62
375.416	437.62
375.642	429.62
375.868	428.62
376.094	428.62
376.319	426.62
376.545	407.62
376.771	412.62
376.997	434.62
377.222	443.62
377.448	426.62
377.674	407.62
377.899	407.62
378.125	427.62
378.35	417.62
378.576	414.62
378.802	411.62
379.027	409.62
379.253	418.62
379.478	414.62
379.704	424.62
379.929	444.62
380.155	412.62
380.38	413.62
380.606	414.62
380.831	414.62
381.057	431.62
381.282	424.62
381.507	426.62
381.733	443.62
381.958	435.62
382.184	419.62
382.409	411.62
382.634	450.62
382.86	443.62
383.085	448.62
383.31	432.62
383.535	433.62
383.761	437.62
383.986	440.62
384.211	437.62
384.436	444.62
384.662	434.62
384.887	450.62
385.112	466.62
385.337	466.62
385.562	451.62
385.787	452.62
386.013	478.62
386.238	487.62
386.463	494.62
386.688	495.62
386.913	480.62
387.138	484.62
387.363	476.62
387.588	473.62
387.813	479.62
388.038	462.62
388.263	470.62
388.488	481.62
388.713	484.62
388.938	478.62
389.163	477.62
389.387	492.62
389.612	468.62
389.837	449.62
390.062	470.62
390.287	466.62
390.512	475.62
390.736	467.62
390.961	472.62
391.186	498.62
391.411	486.62
391.636	490.62
391.86	472.62
392.085	459.62
392.31	479.62
392.534	488.62
392.759	485.62
392.984	483.62
393.208	488.62
393.433	484.62
393.658	467.62
393.882	486.62
394.107	501.62
394.331	505.62
394.556	503.62
394.78	479.62
395.005	486.62
395.229	499.62
395.454	498.62
395.678	493.62
395.903	501.62
396.127	529.62
396.352	516.62
396.576	508.62
396.801	502.62
397.025	506.62
397.249	517.62
397.474	509.62
397.698	498.62
397.922	532.62
398.147	554.62
398.371	546.62
398.595	534.62
398.82	535.62
399.044	566.62
399.268	570.62
399.492	605.62
399.717	626.62
399.941	654.62
400.165	700.62
400.389	679.62
400.613	641.62
400.837	586.62
401.062	563.62
401.286	578.62
401.51	581.62
401.734	533.62
401.958	562.62
402.182	535.62
402.406	572.62
402.63	565.62
402.854	566.62
403.078	586.62
403.302	590.62
403.526	582.62
403.75	580.62
403.974	578.62
404.198	553.62
404.422	593.62
404.645	577.62
404.869	604.62
405.093	607.62
405.317	669.62
405.541	674.62
405.765	640.62
405.988	603.62
406.212	634.62
406.436	658.62
406.66	645.62
406.883	647.62
407.107	636.62
407.331	683.62
407.555	762.62
407.778	776.62
408.002	710.62
408.226	656.62
408.449	614.62
408.673	637.62
408.896	682.62
409.12	717.62
409.344	665.62
409.567	619.62
409.791	601.62
410.014	566.62
410.238	582.62
410.461	593.62
410.685	581.62
410.908	605.62
411.132	622.62
411.355	689.62
411.578	641.62
411.802	570.62
412.025	590.62
412.249	590.62
412.472	601.62
412.695	663.62
412.919	658.62
413.142	612.62
413.365	583.62
413.589	559.62
413.812	540.62
414.035	569.62
414.258	563.62
414.482	555.62
414.705	558.62
414.928	552.62
415.151	532.62
415.374	548.62
415.597	525.62
415.821	545.62
416.044	563.62
416.267	556.62
416.49	531.62
416.713	538.62
416.936	522.62
417.159	554.62
417.382	557.62
417.605	542.62
417.828	561.62
418.051	582.62
418.274	553.62
418.497	547.62
418.72	538.62
418.943	536.62
419.166	547.62
419.389	585.62
419.611	589.62
419.834	570.62
420.057	577.62
420.28	575.62
420.503	566.62
420.726	557.62
420.948	563.62
421.171	621.62
421.394	641.62
421.617	587.62
421.839	568.62
422.062	567.62
422.285	590.62
422.507	629.62
422.73	763.62
422.953	676.62
423.175	625.62
423.398	612.62
423.621	596.62
423.843	621.62
424.066	606.62
424.288	604.62
424.511	617.62
424.733	687.62
424.956	804.62
425.178	733.62
425.401	718.62
425.623	788.62
425.846	649.62
426.068	603.62
426.291	611.62
426.513	611.62
426.735	607.62
426.958	662.62
427.18	755.62
427.402	912.62
427.625	984.62
427.847	869.62
428.069	746.62
428.292	636.62
428.514	594.62
428.736	593.62
428.958	578.62
429.181	546.62
429.403	549.62
429.625	567.62
429.847	592.62
430.069	685.62
430.292	690.62
430.514	583.62
430.736	575.62
430.958	577.62
431.18	541.62
431.402	545.62
431.624	532.62
431.846	555.62
432.068	548.62
432.29	548.62
432.512	542.62
432.734	523.62
432.956	548.62
433.178	557.62
433.4	562.62
433.622	563.62
433.844	536.62
434.066	547.62
434.287	539.62
434.509	572.62
434.731	555.62
434.953	559.62
435.175	565.62
435.397	585.62
435.618	613.62
435.84	654.62
436.062	765.62
436.284	848.62
436.505	706.62
436.727	605.62
436.949	579.62
437.17	560.62
437.392	561.62
437.614	584.62
437.835	574.62
438.057	712.62
438.278	837.62
438.5	841.62
438.721	926.62
438.943	890.62
439.165	681.62
439.386	629.62
439.608	603.62
439.829	582.62
440.05	659.62
440.272	683.62
440.493	651.62
440.715	611.62
440.936	549.62
441.158	574.62
441.379	562.62
441.6	580.62
441.822	594.62
442.043	642.62
442.264	734.62
442.486	785.62
442.707	670.62
442.928	625.62
443.149	603.62
443.371	645.62
443.592	701.62
443.813	809.62
444.034	881.62
444.255	722.62
444.476	640.62
444.698	612.62
444.919	621.62
445.14	704.62
445.361	659.62
445.582	667.62
445.803	725.62
446.024	879.62
446.245	849.62
446.466	760.62
446.687	665.62
446.908	609.62
447.129	574.62
447.35	574.62
447.571	580.62
447.792	550.62
448.013	564.62
448.234	577.62
448.455	610.62
448.675	731.62
448.896	897.62
449.117	723.62
449.338	710.62
449.559	799.62
449.779	940.62
450	741.62
450.221	628.62
450.442	572.62
450.662	555.62
450.883	554.62
451.104	577.62
451.324	547.62
451.545	554.62
451.766	503.62
451.986	499.62
452.207	476.62
452.428	498.62
452.648	515.62
452.869	519.62
453.089	524.62
453.31	539.62
453.53	515.62
453.751	509.62
453.971	530.62
454.192	535.62
454.412	507.62
454.633	526.62
454.853	526.62
455.073	477.62
455.294	523.62
455.514	601.62
455.734	579.62
455.955	535.62
456.175	501.62
456.395	492.62
456.616	478.62
456.836	485.62
457.056	479.62
457.276	466.62
457.497	507.62
457.717	483.62
457.937	490.62
458.157	482.62
458.377	505.62
458.598	522.62
458.818	579.62
459.038	653.62
459.258	673.62
459.478	580.62
459.698	537.62
459.918	544.62
460.138	547.62
460.358	543.62
460.578	538.62
460.798	564.62
461.018	571.62
461.238	555.62
461.458	534.62
461.678	546.62
461.898	562.62
462.118	549.62
462.338	569.62
462.558	553.62
462.777	571.62
462.997	595.62
463.217	615.62
463.437	594.62
463.657	610.62
463.876	590.62
464.096	611.62
464.316	596.62
464.536	566.62
464.755	574.62
464.975	597.62
465.195	635.62
465.414	686.62
465.634	646.62
465.854	578.62
466.073	549.62
466.293	529.62
466.512	527.62
466.732	518.62
466.951	512.62
467.171	522.62
467.391	535.62
467.61	539.62
467.829	522.62
468.049	538.62
468.268	526.62
468.488	533.62
468.707	503.62
468.927	519.62
469.146	520.62
469.365	500.62
469.585	515.62
469.804	533.62
470.023	539.62
470.243	536.62
470.462	539.62
470.681	530.62
470.901	541.62
471.12	553.62
471.339	524.62
471.558	522.62
471.777	527.62
471.997	517.62
472.216	513.62
472.435	556.62
472.654	541.62
472.873	547.62
473.092	527.62
473.311	526.62
473.53	539.62
473.749	548.62
473.968	569.62
474.187	689.62
474.406	716.62
474.625	591.62
474.844	553.62
475.063	539.62
475.282	547.62
475.501	562.62
475.72	525.62
475.939	559.62
476.158	504.62
476.377	557.62
476.596	546.62
476.814	566.62
477.033	547.62
477.252	576.62
477.471	573.62
477.69	580.62
477.908	591.62
478.127	575.62
478.346	599.62
478.564	588.62
478.783	571.62
479.002	601.62
479.22	583.62
479.439	594.62
479.658	644.62
479.876	643.62
480.095	655.62
480.313	666.62
480.532	666.62
480.751	653.62
480.969	644.62
481.188	693.62
481.406	766.62
481.624	669.62
481.843	654.62
482.061	641.62
482.28	620.62
482.498	613.62
482.717	603.62
482.935	638.62
483.153	609.62
483.372	635.62
483.59	625.62
483.808	612.62
484.027	616.62
484.245	630.62
484.463	617.62
484.681	641.62
484.9	623.62
485.118	635.62
485.336	622.62
485.554	630.62
485.772	629.62
485.99	645.62
486.209	630.62
486.427	646.62
486.645	647.62
486.863	678.62
487.081	686.62
487.299	681.62
487.517	654.62
487.735	662.62
487.953	659.62
488.171	652.62
488.389	664.62
488.607	637.62
488.825	636.62
489.043	671.62
489.261	670.62
489.479	681.62
489.696	654.62
489.914	682.62
490.132	682.62
490.35	707.62
490.568	676.62
490.786	696.62
491.003	703.62
491.221	721.62
491.439	746.62
491.657	710.62
491.874	738.62
492.092	727.62
492.31	736.62
492.527	734.62
492.745	723.62
492.963	726.62
493.18	754.62
493.398	746.62
493.615	759.62
493.833	781.62
494.05	766.62
494.268	781.62
494.485	746.62
494.703	761.62
494.92	785.62
495.138	760.62
495.355	790.62
495.573	760.62
495.79	773.62
496.008	781.62
496.225	778.62
496.442	757.62
496.66	777.62
496.877	777.62
497.094	810.62
497.312	806.62
497.529	801.62
497.746	838.62
497.963	828.62
498.181	837.62
498.398	887.62
498.615	841.62
498.832	908.62
499.049	927.62
499.267	935.62
499.484	957.62
499.701	1011.62
499.918	1052.62
500.135	1087.62
500.352	1113.62
500.569	1124.62
500.786	1145.62
501.003	1139.62
501.22	1088.62
501.437	1047.62
501.654	1066.62
501.871	1025.62
