Data from 1978.PennyLincolnUp.Lamp.En5.5.200Scan.071719.P1_HRD10591_16-12-57-863.txt Node
Date: Thu Jul 18 16:12:57 EDT 2019
User: cochatt
Spectrometer: HR+D1059
Trigger mode: 1
Integration Time (sec): 1.000000E-1
Scans to average: 1
Electric dark correction enabled: true
Nonlinearity correction enabled: false
Boxcar width: 0
XAxis mode: Wavelengths
Number of Pixels in Spectrum: 2048
>>>>>Begin Spectral Data<<<<<
223.165	-26.12
223.4	-26.12
223.635	-26.12
223.869	-21.12
224.104	-20.12
224.338	-30.12
224.573	4.88
224.808	-10.12
225.042	-10.12
225.277	3.88
225.511	0.88
225.746	-6.12
225.98	1.88
226.215	12.88
226.449	15.88
226.683	16.88
226.918	24.88
227.152	41.88
227.387	24.88
227.621	16.88
227.856	41.88
228.09	54.88
228.324	59.88
228.559	45.88
228.793	73.88
229.027	92.88
229.262	114.88
229.496	108.88
229.73	124.88
229.964	146.88
230.199	120.88
230.433	123.88
230.667	123.88
230.901	119.88
231.136	98.88
231.37	103.88
231.604	116.88
231.838	110.88
232.072	112.88
232.306	107.88
232.541	102.88
232.775	107.88
233.009	101.88
233.243	112.88
233.477	106.88
233.711	115.88
233.945	116.88
234.179	102.88
234.413	120.88
234.647	113.88
234.881	108.88
235.115	110.88
235.349	108.88
235.583	122.88
235.817	111.88
236.051	104.88
236.285	128.88
236.519	118.88
236.753	128.88
236.987	130.88
237.221	164.88
237.455	222.88
237.689	171.88
237.922	121.88
238.156	137.88
238.39	120.88
238.624	112.88
238.858	139.88
239.091	108.88
239.325	115.88
239.559	121.88
239.793	127.88
240.027	141.88
240.26	139.88
240.494	154.88
240.728	147.88
240.961	145.88
241.195	133.88
241.429	134.88
241.662	128.88
241.896	136.88
242.13	120.88
242.363	136.88
242.597	134.88
242.83	138.88
243.064	127.88
243.298	128.88
243.531	140.88
243.765	135.88
243.998	138.88
244.232	128.88
244.465	130.88
244.699	157.88
244.932	128.88
245.166	127.88
245.399	147.88
245.633	127.88
245.866	140.88
246.099	146.88
246.333	152.88
246.566	144.88
246.8	140.88
247.033	141.88
247.266	145.88
247.5	152.88
247.733	167.88
247.966	188.88
248.2	156.88
248.433	152.88
248.666	164.88
248.899	166.88
249.133	183.88
249.366	177.88
249.599	184.88
249.832	157.88
250.066	173.88
250.299	167.88
250.532	164.88
250.765	183.88
250.998	184.88
251.231	207.88
251.465	198.88
251.698	181.88
251.931	176.88
252.164	155.88
252.397	174.88
252.63	187.88
252.863	191.88
253.096	208.88
253.329	194.88
253.562	205.88
253.795	182.88
254.028	186.88
254.261	200.88
254.494	204.88
254.727	222.88
254.96	249.88
255.193	254.88
255.426	238.88
255.659	222.88
255.892	213.88
256.124	199.88
256.357	207.88
256.59	218.88
256.823	196.88
257.056	199.88
257.289	207.88
257.521	192.88
257.754	185.88
257.987	189.88
258.22	192.88
258.452	186.88
258.685	191.88
258.918	202.88
259.151	202.88
259.383	201.88
259.616	221.88
259.849	203.88
260.081	215.88
260.314	229.88
260.547	230.88
260.779	212.88
261.012	223.88
261.244	213.88
261.477	205.88
261.71	210.88
261.942	210.88
262.175	216.88
262.407	205.88
262.64	197.88
262.872	204.88
263.105	203.88
263.337	216.88
263.57	209.88
263.802	198.88
264.035	209.88
264.267	209.88
264.499	184.88
264.732	202.88
264.964	206.88
265.197	207.88
265.429	204.88
265.661	201.88
265.894	207.88
266.126	198.88
266.358	197.88
266.591	211.88
266.823	215.88
267.055	204.88
267.287	213.88
267.52	214.88
267.752	210.88
267.984	212.88
268.216	218.88
268.448	213.88
268.681	232.88
268.913	210.88
269.145	231.88
269.377	246.88
269.609	254.88
269.841	257.88
270.073	258.88
270.306	265.88
270.538	277.88
270.77	283.88
271.002	273.88
271.234	264.88
271.466	264.88
271.698	270.88
271.93	287.88
272.162	269.88
272.394	287.88
272.626	279.88
272.858	262.88
273.09	257.88
273.322	258.88
273.553	239.88
273.785	243.88
274.017	242.88
274.249	247.88
274.481	263.88
274.713	260.88
274.945	268.88
275.176	246.88
275.408	255.88
275.64	247.88
275.872	257.88
276.104	239.88
276.335	230.88
276.567	244.88
276.799	258.88
277.031	277.88
277.262	287.88
277.494	298.88
277.726	287.88
277.957	262.88
278.189	247.88
278.421	248.88
278.652	247.88
278.884	276.88
279.115	269.88
279.347	264.88
279.579	249.88
279.81	249.88
280.042	252.88
280.273	257.88
280.505	259.88
280.736	259.88
280.968	266.88
281.199	265.88
281.431	268.88
281.662	246.88
281.894	275.88
282.125	253.88
282.356	264.88
282.588	281.88
282.819	288.88
283.051	290.88
283.282	261.88
283.513	260.88
283.745	262.88
283.976	282.88
284.207	262.88
284.439	256.88
284.67	263.88
284.901	272.88
285.132	263.88
285.364	264.88
285.595	248.88
285.826	258.88
286.057	258.88
286.288	251.88
286.52	274.88
286.751	262.88
286.982	268.88
287.213	267.88
287.444	262.88
287.675	281.88
287.906	291.88
288.138	297.88
288.369	288.88
288.6	291.88
288.831	272.88
289.062	263.88
289.293	280.88
289.524	262.88
289.755	267.88
289.986	272.88
290.217	287.88
290.448	277.88
290.679	272.88
290.91	287.88
291.141	264.88
291.371	274.88
291.602	274.88
291.833	274.88
292.064	284.88
292.295	262.88
292.526	275.88
292.757	281.88
292.987	272.88
293.218	283.88
293.449	287.88
293.68	294.88
293.91	292.88
294.141	289.88
294.372	276.88
294.603	281.88
294.833	303.88
295.064	276.88
295.295	288.88
295.525	276.88
295.756	289.88
295.987	291.88
296.217	309.88
296.448	319.88
296.679	286.88
296.909	287.88
297.14	282.88
297.37	295.88
297.601	290.88
297.831	276.88
298.062	296.88
298.292	287.88
298.523	288.88
298.753	307.88
298.984	289.88
299.214	308.88
299.445	292.88
299.675	296.88
299.905	292.88
300.136	298.88
300.366	299.88
300.597	303.88
300.827	311.88
301.057	293.88
301.288	294.88
301.518	311.88
301.748	305.88
301.979	308.88
302.209	326.88
302.439	320.88
302.669	304.88
302.9	308.88
303.13	317.88
303.36	326.88
303.59	315.88
303.82	311.88
304.051	329.88
304.281	313.88
304.511	315.88
304.741	325.88
304.971	301.88
305.201	304.88
305.431	293.88
305.661	312.88
305.891	324.88
306.121	312.88
306.352	330.88
306.582	323.88
306.812	297.88
307.042	330.88
307.272	334.88
307.502	310.88
307.731	294.88
307.961	325.88
308.191	305.88
308.421	328.88
308.651	318.88
308.881	316.88
309.111	332.88
309.341	337.88
309.571	336.88
309.8	344.88
310.03	336.88
310.26	349.88
310.49	349.88
310.72	364.88
310.949	372.88
311.179	370.88
311.409	362.88
311.639	356.88
311.868	356.88
312.098	362.88
312.328	359.88
312.557	383.88
312.787	378.88
313.017	385.88
313.246	371.88
313.476	345.88
313.706	347.88
313.935	334.88
314.165	378.88
314.394	393.88
314.624	386.88
314.853	362.88
315.083	360.88
315.312	356.88
315.542	352.88
315.771	352.88
316.001	348.88
316.23	371.88
316.46	350.88
316.689	348.88
316.919	372.88
317.148	390.88
317.377	367.88
317.607	355.88
317.836	368.88
318.065	360.88
318.295	355.88
318.524	364.88
318.753	367.88
318.983	378.88
319.212	373.88
319.441	374.88
319.67	384.88
319.9	377.88
320.129	354.88
320.358	359.88
320.587	368.88
320.816	374.88
321.046	379.88
321.275	402.88
321.504	384.88
321.733	388.88
321.962	387.88
322.191	392.88
322.42	433.88
322.649	400.88
322.878	422.88
323.108	428.88
323.337	439.88
323.566	468.88
323.795	507.88
324.024	548.88
324.253	648.88
324.482	904.88
324.71	1440.88
324.939	2160.88
325.168	1880.88
325.397	943.88
325.626	626.88
325.855	520.88
326.084	486.88
326.313	479.88
326.542	477.88
326.77	520.88
326.999	602.88
327.228	830.88
327.457	1303.88
327.686	1611.88
327.914	1039.88
328.143	664.88
328.372	590.88
328.6	538.88
328.829	535.88
329.058	553.88
329.287	559.88
329.515	546.88
329.744	488.88
329.972	466.88
330.201	508.88
330.43	543.88
330.658	534.88
330.887	580.88
331.115	553.88
331.344	499.88
331.572	472.88
331.801	456.88
332.03	455.88
332.258	438.88
332.486	454.88
332.715	434.88
332.943	440.88
333.172	414.88
333.4	432.88
333.629	463.88
333.857	449.88
334.085	459.88
334.314	459.88
334.542	531.88
334.771	522.88
334.999	500.88
335.227	464.88
335.455	461.88
335.684	457.88
335.912	446.88
336.14	420.88
336.369	438.88
336.597	439.88
336.825	461.88
337.053	449.88
337.281	450.88
337.51	447.88
337.738	443.88
337.966	439.88
338.194	418.88
338.422	420.88
338.65	430.88
338.878	439.88
339.106	420.88
339.334	448.88
339.562	422.88
339.79	424.88
340.018	424.88
340.246	413.88
340.474	418.88
340.702	431.88
340.93	402.88
341.158	432.88
341.386	420.88
341.614	438.88
341.842	414.88
342.07	441.88
342.298	421.88
342.526	410.88
342.754	410.88
342.981	397.88
343.209	400.88
343.437	425.88
343.665	412.88
343.893	410.88
344.12	425.88
344.348	449.88
344.576	468.88
344.804	437.88
345.031	455.88
345.259	463.88
345.487	434.88
345.714	431.88
345.942	414.88
346.17	408.88
346.397	409.88
346.625	439.88
346.853	419.88
347.08	394.88
347.308	426.88
347.535	423.88
347.763	423.88
347.99	407.88
348.218	416.88
348.445	411.88
348.673	427.88
348.9	390.88
349.128	403.88
349.355	384.88
349.583	391.88
349.81	401.88
350.037	396.88
350.265	377.88
350.492	404.88
350.72	402.88
350.947	421.88
351.174	416.88
351.402	408.88
351.629	393.88
351.856	422.88
352.083	405.88
352.311	436.88
352.538	438.88
352.765	421.88
352.992	427.88
353.22	447.88
353.447	416.88
353.674	408.88
353.901	397.88
354.128	386.88
354.355	406.88
354.583	388.88
354.81	390.88
355.037	388.88
355.264	378.88
355.491	405.88
355.718	399.88
355.945	374.88
356.172	381.88
356.399	374.88
356.626	378.88
356.853	373.88
357.08	375.88
357.307	385.88
357.534	378.88
357.761	384.88
357.988	379.88
358.215	387.88
358.441	384.88
358.668	410.88
358.895	405.88
359.122	407.88
359.349	395.88
359.576	405.88
359.802	422.88
360.029	448.88
360.256	446.88
360.483	460.88
360.709	402.88
360.936	444.88
361.163	433.88
361.39	407.88
361.616	411.88
361.843	403.88
362.07	398.88
362.296	419.88
362.523	422.88
362.749	396.88
362.976	441.88
363.203	414.88
363.429	378.88
363.656	376.88
363.882	399.88
364.109	384.88
364.335	391.88
364.562	394.88
364.788	399.88
365.015	396.88
365.241	396.88
365.468	395.88
365.694	379.88
365.92	388.88
366.147	411.88
366.373	380.88
366.599	401.88
366.826	388.88
367.052	386.88
367.278	375.88
367.505	384.88
367.731	405.88
367.957	406.88
368.184	386.88
368.41	405.88
368.636	401.88
368.862	431.88
369.089	420.88
369.315	386.88
369.541	383.88
369.767	384.88
369.993	405.88
370.219	401.88
370.445	408.88
370.672	384.88
370.898	386.88
371.124	402.88
371.35	404.88
371.576	404.88
371.802	416.88
372.028	409.88
372.254	402.88
372.48	402.88
372.706	422.88
372.932	408.88
373.158	421.88
373.384	408.88
373.61	407.88
373.835	415.88
374.061	407.88
374.287	426.88
374.513	410.88
374.739	388.88
374.965	414.88
375.191	399.88
375.416	428.88
375.642	424.88
375.868	411.88
376.094	407.88
376.319	408.88
376.545	423.88
376.771	409.88
376.997	418.88
377.222	419.88
377.448	408.88
377.674	395.88
377.899	397.88
378.125	402.88
378.35	424.88
378.576	410.88
378.802	404.88
379.027	418.88
379.253	417.88
379.478	409.88
379.704	402.88
379.929	407.88
380.155	394.88
380.38	409.88
380.606	407.88
380.831	389.88
381.057	411.88
381.282	406.88
381.507	416.88
381.733	403.88
381.958	425.88
382.184	403.88
382.409	412.88
382.634	393.88
382.86	405.88
383.085	417.88
383.31	418.88
383.535	426.88
383.761	417.88
383.986	423.88
384.211	431.88
384.436	431.88
384.662	439.88
384.887	430.88
385.112	433.88
385.337	456.88
385.562	432.88
385.787	454.88
386.013	461.88
386.238	458.88
386.463	458.88
386.688	459.88
386.913	420.88
387.138	435.88
387.363	438.88
387.588	454.88
387.813	464.88
388.038	456.88
388.263	460.88
388.488	463.88
388.713	456.88
388.938	438.88
389.163	448.88
389.387	454.88
389.612	435.88
389.837	441.88
390.062	467.88
390.287	442.88
390.512	466.88
390.736	469.88
390.961	462.88
391.186	464.88
391.411	456.88
391.636	476.88
391.86	479.88
392.085	471.88
392.31	454.88
392.534	456.88
392.759	465.88
392.984	450.88
393.208	468.88
393.433	464.88
393.658	465.88
393.882	459.88
394.107	466.88
394.331	449.88
394.556	475.88
394.78	457.88
395.005	457.88
395.229	434.88
395.454	475.88
395.678	499.88
395.903	506.88
396.127	486.88
396.352	524.88
396.576	461.88
396.801	461.88
397.025	485.88
397.249	502.88
397.474	474.88
397.698	474.88
397.922	503.88
398.147	513.88
398.371	530.88
398.595	530.88
398.82	521.88
399.044	541.88
399.268	534.88
399.492	546.88
399.717	594.88
399.941	633.88
400.165	649.88
400.389	655.88
400.613	596.88
400.837	575.88
401.062	551.88
401.286	542.88
401.51	541.88
401.734	535.88
401.958	562.88
402.182	550.88
402.406	532.88
402.63	539.88
402.854	526.88
403.078	542.88
403.302	565.88
403.526	567.88
403.75	547.88
403.974	539.88
404.198	547.88
404.422	539.88
404.645	561.88
404.869	579.88
405.093	606.88
405.317	618.88
405.541	663.88
405.765	603.88
405.988	594.88
406.212	610.88
406.436	603.88
406.66	617.88
406.883	606.88
407.107	600.88
407.331	631.88
407.555	742.88
407.778	730.88
408.002	682.88
408.226	626.88
408.449	613.88
408.673	611.88
408.896	628.88
409.12	690.88
409.344	658.88
409.567	561.88
409.791	576.88
410.014	562.88
410.238	558.88
410.461	560.88
410.685	561.88
410.908	589.88
411.132	607.88
411.355	661.88
411.578	614.88
411.802	592.88
412.025	557.88
412.249	547.88
412.472	556.88
412.695	631.88
412.919	584.88
413.142	568.88
413.365	577.88
413.589	543.88
413.812	558.88
414.035	545.88
414.258	515.88
414.482	545.88
414.705	546.88
414.928	521.88
415.151	506.88
415.374	546.88
415.597	514.88
415.821	524.88
416.044	514.88
416.267	525.88
416.49	538.88
416.713	517.88
416.936	512.88
417.159	521.88
417.382	512.88
417.605	518.88
417.828	527.88
418.051	541.88
418.274	552.88
418.497	499.88
418.72	522.88
418.943	522.88
419.166	520.88
419.389	552.88
419.611	574.88
419.834	565.88
420.057	549.88
420.28	531.88
420.503	547.88
420.726	550.88
420.948	560.88
421.171	586.88
421.394	638.88
421.617	562.88
421.839	547.88
422.062	547.88
422.285	545.88
422.507	615.88
422.73	692.88
422.953	663.88
423.175	614.88
423.398	567.88
423.621	562.88
423.843	595.88
424.066	586.88
424.288	574.88
424.511	608.88
424.733	650.88
424.956	726.88
425.178	712.88
425.401	701.88
425.623	760.88
425.846	637.88
426.068	594.88
426.291	565.88
426.513	550.88
426.735	589.88
426.958	611.88
427.18	705.88
427.402	854.88
427.625	912.88
427.847	806.88
428.069	708.88
428.292	606.88
428.514	590.88
428.736	548.88
428.958	545.88
429.181	550.88
429.403	543.88
429.625	556.88
429.847	578.88
430.069	652.88
430.292	663.88
430.514	562.88
430.736	570.88
430.958	523.88
431.18	512.88
431.402	534.88
431.624	520.88
431.846	503.88
432.068	510.88
432.29	503.88
432.512	526.88
432.734	513.88
432.956	512.88
433.178	523.88
433.4	548.88
433.622	524.88
433.844	543.88
434.066	506.88
434.287	514.88
434.509	523.88
434.731	542.88
434.953	533.88
435.175	560.88
435.397	584.88
435.618	582.88
435.84	614.88
436.062	746.88
436.284	785.88
436.505	654.88
436.727	600.88
436.949	559.88
437.17	546.88
437.392	531.88
437.614	552.88
437.835	571.88
438.057	675.88
438.278	795.88
438.5	798.88
438.721	845.88
438.943	848.88
439.165	671.88
439.386	599.88
439.608	572.88
439.829	587.88
440.05	607.88
440.272	658.88
440.493	623.88
440.715	549.88
440.936	552.88
441.158	522.88
441.379	548.88
441.6	565.88
441.822	585.88
442.043	609.88
442.264	696.88
442.486	772.88
442.707	652.88
442.928	593.88
443.149	614.88
443.371	625.88
443.592	675.88
443.813	783.88
444.034	817.88
444.255	690.88
444.476	609.88
444.698	584.88
444.919	585.88
445.14	708.88
445.361	661.88
445.582	627.88
445.803	690.88
446.024	815.88
446.245	798.88
446.466	743.88
446.687	591.88
446.908	607.88
447.129	537.88
447.35	532.88
447.571	536.88
447.792	525.88
448.013	542.88
448.234	540.88
448.455	604.88
448.675	728.88
448.896	870.88
449.117	700.88
449.338	657.88
449.559	778.88
449.779	912.88
450	711.88
450.221	600.88
450.442	547.88
450.662	520.88
450.883	524.88
451.104	523.88
451.324	528.88
451.545	530.88
451.766	491.88
451.986	475.88
452.207	475.88
452.428	468.88
452.648	468.88
452.869	479.88
453.089	464.88
453.31	502.88
453.53	499.88
453.751	489.88
453.971	470.88
454.192	489.88
454.412	471.88
454.633	472.88
454.853	465.88
455.073	486.88
455.294	497.88
455.514	539.88
455.734	532.88
455.955	481.88
456.175	454.88
456.395	453.88
456.616	467.88
456.836	480.88
457.056	470.88
457.276	441.88
457.497	447.88
457.717	448.88
457.937	471.88
458.157	471.88
458.377	473.88
458.598	495.88
458.818	558.88
459.038	623.88
459.258	653.88
459.478	557.88
459.698	525.88
459.918	515.88
460.138	494.88
460.358	503.88
460.578	512.88
460.798	526.88
461.018	523.88
461.238	531.88
461.458	538.88
461.678	512.88
461.898	547.88
462.118	539.88
462.338	540.88
462.558	557.88
462.777	575.88
462.997	593.88
463.217	575.88
463.437	577.88
463.657	559.88
463.876	553.88
464.096	579.88
464.316	559.88
464.536	570.88
464.755	571.88
464.975	568.88
465.195	594.88
465.414	660.88
465.634	598.88
465.854	558.88
466.073	534.88
466.293	530.88
466.512	513.88
466.732	504.88
466.951	481.88
467.171	512.88
467.391	532.88
467.61	520.88
467.829	520.88
468.049	513.88
468.268	527.88
468.488	506.88
468.707	504.88
468.927	487.88
469.146	478.88
469.365	479.88
469.585	475.88
469.804	497.88
470.023	514.88
470.243	490.88
470.462	496.88
470.681	515.88
470.901	520.88
471.12	487.88
471.339	494.88
471.558	528.88
471.777	520.88
471.997	491.88
472.216	496.88
472.435	544.88
472.654	519.88
472.873	512.88
473.092	508.88
473.311	513.88
473.53	500.88
473.749	512.88
473.968	544.88
474.187	631.88
474.406	667.88
474.625	570.88
474.844	508.88
475.063	511.88
475.282	499.88
475.501	522.88
475.72	494.88
475.939	510.88
476.158	512.88
476.377	537.88
476.596	524.88
476.814	512.88
477.033	533.88
477.252	536.88
477.471	537.88
477.69	561.88
477.908	546.88
478.127	575.88
478.346	581.88
478.564	566.88
478.783	580.88
479.002	566.88
479.22	560.88
479.439	575.88
479.658	614.88
479.876	601.88
480.095	607.88
480.313	631.88
480.532	634.88
480.751	642.88
480.969	629.88
481.188	676.88
481.406	694.88
481.624	632.88
481.843	604.88
482.061	597.88
482.28	596.88
482.498	616.88
482.717	602.88
482.935	599.88
483.153	612.88
483.372	590.88
483.59	567.88
483.808	579.88
484.027	578.88
484.245	615.88
484.463	603.88
484.681	596.88
484.9	585.88
485.118	600.88
485.336	613.88
485.554	590.88
485.772	614.88
485.99	596.88
486.209	609.88
486.427	608.88
486.645	616.88
486.863	629.88
487.081	612.88
487.299	626.88
487.517	636.88
487.735	634.88
487.953	611.88
488.171	636.88
488.389	628.88
488.607	623.88
488.825	634.88
489.043	633.88
489.261	642.88
489.479	649.88
489.696	644.88
489.914	633.88
490.132	636.88
490.35	643.88
490.568	656.88
490.786	675.88
491.003	660.88
491.221	667.88
491.439	706.88
491.657	678.88
491.874	681.88
492.092	678.88
492.31	698.88
492.527	704.88
492.745	690.88
492.963	734.88
493.18	731.88
493.398	714.88
493.615	735.88
493.833	727.88
494.05	726.88
494.268	724.88
494.485	729.88
494.703	723.88
494.92	720.88
495.138	752.88
495.355	736.88
495.573	738.88
495.79	724.88
496.008	755.88
496.225	744.88
496.442	746.88
496.66	739.88
496.877	766.88
497.094	738.88
497.312	764.88
497.529	792.88
497.746	772.88
497.963	784.88
498.181	807.88
498.398	808.88
498.615	836.88
498.832	869.88
499.049	864.88
499.267	870.88
499.484	936.88
499.701	936.88
499.918	1010.88
500.135	1011.88
500.352	1082.88
500.569	1110.88
500.786	1095.88
501.003	1082.88
501.22	1062.88
501.437	998.88
501.654	993.88
501.871	962.88
