Data from 1978.PennyLincolnUp.Lamp.En5.5.200Scan.071719.P1_HRD10591_16-12-17-865.txt Node
Date: Thu Jul 18 16:12:17 EDT 2019
User: cochatt
Spectrometer: HR+D1059
Trigger mode: 1
Integration Time (sec): 1.000000E-1
Scans to average: 1
Electric dark correction enabled: true
Nonlinearity correction enabled: false
Boxcar width: 0
XAxis mode: Wavelengths
Number of Pixels in Spectrum: 2048
>>>>>Begin Spectral Data<<<<<
223.165	-6.19
223.4	-6.19
223.635	-6.19
223.869	-13.19
224.104	-22.19
224.338	-23.19
224.573	-10.19
224.808	-3.19
225.042	-5.19
225.277	-13.19
225.511	-9.19
225.746	-1.19
225.98	7.81
226.215	15.81
226.449	9.81
226.683	23.81
226.918	11.81
227.152	37.81
227.387	29.81
227.621	42.81
227.856	56.81
228.09	45.81
228.324	56.81
228.559	52.81
228.793	55.81
229.027	90.81
229.262	103.81
229.496	95.81
229.73	130.81
229.964	138.81
230.199	120.81
230.433	114.81
230.667	102.81
230.901	111.81
231.136	107.81
231.37	116.81
231.604	91.81
231.838	114.81
232.072	101.81
232.306	112.81
232.541	99.81
232.775	114.81
233.009	121.81
233.243	118.81
233.477	97.81
233.711	104.81
233.945	101.81
234.179	104.81
234.413	116.81
234.647	111.81
234.881	109.81
235.115	110.81
235.349	104.81
235.583	103.81
235.817	112.81
236.051	122.81
236.285	109.81
236.519	120.81
236.753	120.81
236.987	127.81
237.221	155.81
237.455	188.81
237.689	160.81
237.922	135.81
238.156	128.81
238.39	115.81
238.624	116.81
238.858	124.81
239.091	103.81
239.325	122.81
239.559	118.81
239.793	116.81
240.027	133.81
240.26	130.81
240.494	147.81
240.728	166.81
240.961	126.81
241.195	125.81
241.429	127.81
241.662	140.81
241.896	127.81
242.13	116.81
242.363	130.81
242.597	117.81
242.83	122.81
243.064	116.81
243.298	123.81
243.531	145.81
243.765	123.81
243.998	112.81
244.232	128.81
244.465	130.81
244.699	162.81
244.932	133.81
245.166	147.81
245.399	132.81
245.633	142.81
245.866	141.81
246.099	142.81
246.333	142.81
246.566	147.81
246.8	140.81
247.033	134.81
247.266	125.81
247.5	167.81
247.733	144.81
247.966	157.81
248.2	156.81
248.433	150.81
248.666	142.81
248.899	167.81
249.133	164.81
249.366	166.81
249.599	179.81
249.832	154.81
250.066	161.81
250.299	151.81
250.532	175.81
250.765	182.81
250.998	184.81
251.231	183.81
251.465	182.81
251.698	182.81
251.931	176.81
252.164	178.81
252.397	168.81
252.63	190.81
252.863	173.81
253.096	184.81
253.329	198.81
253.562	194.81
253.795	185.81
254.028	184.81
254.261	180.81
254.494	198.81
254.727	215.81
254.96	234.81
255.193	229.81
255.426	211.81
255.659	182.81
255.892	201.81
256.124	197.81
256.357	191.81
256.59	209.81
256.823	170.81
257.056	191.81
257.289	186.81
257.521	206.81
257.754	186.81
257.987	171.81
258.22	171.81
258.452	172.81
258.685	175.81
258.918	207.81
259.151	189.81
259.383	195.81
259.616	183.81
259.849	202.81
260.081	206.81
260.314	208.81
260.547	215.81
260.779	214.81
261.012	204.81
261.244	198.81
261.477	207.81
261.71	200.81
261.942	204.81
262.175	220.81
262.407	205.81
262.64	210.81
262.872	182.81
263.105	197.81
263.337	175.81
263.57	194.81
263.802	181.81
264.035	210.81
264.267	198.81
264.499	198.81
264.732	191.81
264.964	182.81
265.197	206.81
265.429	214.81
265.661	201.81
265.894	195.81
266.126	192.81
266.358	196.81
266.591	201.81
266.823	197.81
267.055	202.81
267.287	224.81
267.52	188.81
267.752	207.81
267.984	202.81
268.216	211.81
268.448	224.81
268.681	210.81
268.913	227.81
269.145	236.81
269.377	229.81
269.609	227.81
269.841	230.81
270.073	238.81
270.306	237.81
270.538	262.81
270.77	260.81
271.002	243.81
271.234	244.81
271.466	265.81
271.698	260.81
271.93	262.81
272.162	260.81
272.394	268.81
272.626	251.81
272.858	243.81
273.09	249.81
273.322	232.81
273.553	232.81
273.785	243.81
274.017	262.81
274.249	236.81
274.481	230.81
274.713	245.81
274.945	255.81
275.176	245.81
275.408	255.81
275.64	240.81
275.872	229.81
276.104	248.81
276.335	239.81
276.567	251.81
276.799	258.81
277.031	278.81
277.262	293.81
277.494	267.81
277.726	274.81
277.957	248.81
278.189	251.81
278.421	245.81
278.652	262.81
278.884	239.81
279.115	239.81
279.347	244.81
279.579	248.81
279.81	238.81
280.042	262.81
280.273	232.81
280.505	242.81
280.736	235.81
280.968	245.81
281.199	252.81
281.431	233.81
281.662	247.81
281.894	262.81
282.125	252.81
282.356	269.81
282.588	271.81
282.819	278.81
283.051	264.81
283.282	251.81
283.513	256.81
283.745	254.81
283.976	263.81
284.207	279.81
284.439	250.81
284.67	269.81
284.901	278.81
285.132	269.81
285.364	276.81
285.595	260.81
285.826	266.81
286.057	267.81
286.288	266.81
286.52	247.81
286.751	272.81
286.982	259.81
287.213	246.81
287.444	266.81
287.675	264.81
287.906	281.81
288.138	279.81
288.369	267.81
288.6	270.81
288.831	285.81
289.062	282.81
289.293	281.81
289.524	268.81
289.755	254.81
289.986	259.81
290.217	264.81
290.448	270.81
290.679	262.81
290.91	266.81
291.141	270.81
291.371	266.81
291.602	258.81
291.833	258.81
292.064	265.81
292.295	272.81
292.526	276.81
292.757	284.81
292.987	272.81
293.218	281.81
293.449	265.81
293.68	260.81
293.91	264.81
294.141	277.81
294.372	258.81
294.603	282.81
294.833	262.81
295.064	270.81
295.295	255.81
295.525	288.81
295.756	293.81
295.987	283.81
296.217	312.81
296.448	299.81
296.679	303.81
296.909	285.81
297.14	282.81
297.37	281.81
297.601	292.81
297.831	281.81
298.062	275.81
298.292	281.81
298.523	303.81
298.753	291.81
298.984	283.81
299.214	269.81
299.445	282.81
299.675	295.81
299.905	298.81
300.136	294.81
300.366	295.81
300.597	306.81
300.827	290.81
301.057	303.81
301.288	306.81
301.518	306.81
301.748	295.81
301.979	297.81
302.209	317.81
302.439	311.81
302.669	323.81
302.9	311.81
303.13	303.81
303.36	306.81
303.59	326.81
303.82	315.81
304.051	327.81
304.281	326.81
304.511	307.81
304.741	312.81
304.971	302.81
305.201	310.81
305.431	310.81
305.661	310.81
305.891	298.81
306.121	306.81
306.352	299.81
306.582	317.81
306.812	315.81
307.042	310.81
307.272	298.81
307.502	301.81
307.731	312.81
307.961	313.81
308.191	308.81
308.421	314.81
308.651	300.81
308.881	322.81
309.111	304.81
309.341	324.81
309.571	328.81
309.8	336.81
310.03	336.81
310.26	333.81
310.49	335.81
310.72	333.81
310.949	351.81
311.179	347.81
311.409	342.81
311.639	334.81
311.868	349.81
312.098	347.81
312.328	361.81
312.557	352.81
312.787	359.81
313.017	361.81
313.246	354.81
313.476	354.81
313.706	328.81
313.935	342.81
314.165	355.81
314.394	355.81
314.624	377.81
314.853	346.81
315.083	332.81
315.312	340.81
315.542	344.81
315.771	324.81
316.001	349.81
316.23	335.81
316.46	339.81
316.689	374.81
316.919	338.81
317.148	354.81
317.377	361.81
317.607	340.81
317.836	365.81
318.065	357.81
318.295	356.81
318.524	346.81
318.753	350.81
318.983	359.81
319.212	357.81
319.441	371.81
319.67	362.81
319.9	351.81
320.129	337.81
320.358	363.81
320.587	350.81
320.816	344.81
321.046	357.81
321.275	383.81
321.504	375.81
321.733	371.81
321.962	376.81
322.191	383.81
322.42	402.81
322.649	382.81
322.878	392.81
323.108	424.81
323.337	439.81
323.566	426.81
323.795	466.81
324.024	506.81
324.253	588.81
324.482	827.81
324.71	1271.81
324.939	1871.81
325.168	1632.81
325.397	833.81
325.626	560.81
325.855	498.81
326.084	455.81
326.313	440.81
326.542	463.81
326.77	478.81
326.999	556.81
327.228	748.81
327.457	1156.81
327.686	1399.81
327.914	948.81
328.143	599.81
328.372	534.81
328.6	493.81
328.829	473.81
329.058	496.81
329.287	521.81
329.515	464.81
329.744	453.81
329.972	465.81
330.201	464.81
330.43	478.81
330.658	492.81
330.887	525.81
331.115	494.81
331.344	464.81
331.572	439.81
331.801	435.81
332.03	450.81
332.258	415.81
332.486	421.81
332.715	430.81
332.943	442.81
333.172	422.81
333.4	416.81
333.629	434.81
333.857	454.81
334.085	444.81
334.314	471.81
334.542	481.81
334.771	471.81
334.999	464.81
335.227	436.81
335.455	443.81
335.684	423.81
335.912	446.81
336.14	435.81
336.369	419.81
336.597	424.81
336.825	400.81
337.053	428.81
337.281	423.81
337.51	422.81
337.738	412.81
337.966	404.81
338.194	421.81
338.422	410.81
338.65	424.81
338.878	418.81
339.106	406.81
339.334	407.81
339.562	400.81
339.79	408.81
340.018	404.81
340.246	418.81
340.474	426.81
340.702	398.81
340.93	401.81
341.158	398.81
341.386	404.81
341.614	407.81
341.842	408.81
342.07	418.81
342.298	388.81
342.526	407.81
342.754	421.81
342.981	419.81
343.209	397.81
343.437	413.81
343.665	394.81
343.893	420.81
344.12	423.81
344.348	410.81
344.576	443.81
344.804	422.81
345.031	405.81
345.259	419.81
345.487	412.81
345.714	411.81
345.942	417.81
346.17	380.81
346.397	417.81
346.625	400.81
346.853	397.81
347.08	408.81
347.308	399.81
347.535	400.81
347.763	406.81
347.99	422.81
348.218	402.81
348.445	403.81
348.673	437.81
348.9	402.81
349.128	399.81
349.355	394.81
349.583	374.81
349.81	410.81
350.037	400.81
350.265	386.81
350.492	384.81
350.72	402.81
350.947	393.81
351.174	382.81
351.402	421.81
351.629	404.81
351.856	408.81
352.083	403.81
352.311	411.81
352.538	423.81
352.765	407.81
352.992	411.81
353.22	396.81
353.447	397.81
353.674	391.81
353.901	398.81
354.128	397.81
354.355	389.81
354.583	393.81
354.81	378.81
355.037	361.81
355.264	376.81
355.491	374.81
355.718	391.81
355.945	375.81
356.172	364.81
356.399	396.81
356.626	378.81
356.853	386.81
357.08	387.81
357.307	376.81
357.534	383.81
357.761	377.81
357.988	377.81
358.215	383.81
358.441	373.81
358.668	382.81
358.895	388.81
359.122	390.81
359.349	391.81
359.576	401.81
359.802	405.81
360.029	411.81
360.256	455.81
360.483	439.81
360.709	409.81
360.936	398.81
361.163	422.81
361.39	421.81
361.616	395.81
361.843	388.81
362.07	414.81
362.296	406.81
362.523	373.81
362.749	403.81
362.976	379.81
363.203	390.81
363.429	374.81
363.656	400.81
363.882	403.81
364.109	391.81
364.335	384.81
364.562	379.81
364.788	397.81
365.015	393.81
365.241	400.81
365.468	390.81
365.694	384.81
365.92	401.81
366.147	383.81
366.373	389.81
366.599	398.81
366.826	392.81
367.052	373.81
367.278	384.81
367.505	383.81
367.731	400.81
367.957	403.81
368.184	390.81
368.41	400.81
368.636	403.81
368.862	418.81
369.089	412.81
369.315	399.81
369.541	402.81
369.767	398.81
369.993	391.81
370.219	380.81
370.445	403.81
370.672	404.81
370.898	413.81
371.124	410.81
371.35	426.81
371.576	427.81
371.802	404.81
372.028	376.81
372.254	395.81
372.48	390.81
372.706	398.81
372.932	411.81
373.158	408.81
373.384	398.81
373.61	418.81
373.835	414.81
374.061	398.81
374.287	408.81
374.513	416.81
374.739	390.81
374.965	415.81
375.191	431.81
375.416	428.81
375.642	403.81
375.868	404.81
376.094	421.81
376.319	418.81
376.545	404.81
376.771	388.81
376.997	410.81
377.222	421.81
377.448	413.81
377.674	397.81
377.899	406.81
378.125	377.81
378.35	415.81
378.576	391.81
378.802	399.81
379.027	399.81
379.253	396.81
379.478	409.81
379.704	397.81
379.929	408.81
380.155	392.81
380.38	399.81
380.606	412.81
380.831	400.81
381.057	417.81
381.282	408.81
381.507	404.81
381.733	415.81
381.958	418.81
382.184	423.81
382.409	410.81
382.634	414.81
382.86	419.81
383.085	409.81
383.31	412.81
383.535	414.81
383.761	432.81
383.986	454.81
384.211	438.81
384.436	411.81
384.662	439.81
384.887	432.81
385.112	427.81
385.337	440.81
385.562	439.81
385.787	444.81
386.013	446.81
386.238	458.81
386.463	439.81
386.688	459.81
386.913	437.81
387.138	469.81
387.363	451.81
387.588	435.81
387.813	448.81
388.038	455.81
388.263	453.81
388.488	461.81
388.713	448.81
388.938	448.81
389.163	469.81
389.387	446.81
389.612	457.81
389.837	442.81
390.062	463.81
390.287	460.81
390.512	465.81
390.736	452.81
390.961	470.81
391.186	451.81
391.411	456.81
391.636	469.81
391.86	475.81
392.085	457.81
392.31	463.81
392.534	476.81
392.759	485.81
392.984	472.81
393.208	464.81
393.433	470.81
393.658	466.81
393.882	480.81
394.107	450.81
394.331	447.81
394.556	464.81
394.78	447.81
395.005	466.81
395.229	464.81
395.454	476.81
395.678	476.81
395.903	487.81
396.127	508.81
396.352	493.81
396.576	484.81
396.801	468.81
397.025	491.81
397.249	487.81
397.474	486.81
397.698	503.81
397.922	520.81
398.147	519.81
398.371	531.81
398.595	523.81
398.82	518.81
399.044	523.81
399.268	533.81
399.492	598.81
399.717	612.81
399.941	644.81
400.165	639.81
400.389	653.81
400.613	610.81
400.837	562.81
401.062	545.81
401.286	568.81
401.51	534.81
401.734	512.81
401.958	546.81
402.182	516.81
402.406	549.81
402.63	527.81
402.854	545.81
403.078	546.81
403.302	555.81
403.526	553.81
403.75	548.81
403.974	540.81
404.198	567.81
404.422	542.81
404.645	530.81
404.869	544.81
405.093	592.81
405.317	628.81
405.541	652.81
405.765	610.81
405.988	575.81
406.212	580.81
406.436	617.81
406.66	623.81
406.883	580.81
407.107	602.81
407.331	663.81
407.555	719.81
407.778	735.81
408.002	615.81
408.226	632.81
408.449	619.81
408.673	591.81
408.896	628.81
409.12	695.81
409.344	644.81
409.567	566.81
409.791	566.81
410.014	567.81
410.238	564.81
410.461	551.81
410.685	549.81
410.908	565.81
411.132	605.81
411.355	646.81
411.578	619.81
411.802	581.81
412.025	535.81
412.249	555.81
412.472	574.81
412.695	607.81
412.919	604.81
413.142	557.81
413.365	562.81
413.589	568.81
413.812	526.81
414.035	520.81
414.258	523.81
414.482	515.81
414.705	520.81
414.928	507.81
415.151	548.81
415.374	534.81
415.597	514.81
415.821	532.81
416.044	504.81
416.267	518.81
416.49	529.81
416.713	525.81
416.936	512.81
417.159	536.81
417.382	533.81
417.605	516.81
417.828	506.81
418.051	531.81
418.274	533.81
418.497	495.81
418.72	519.81
418.943	533.81
419.166	516.81
419.389	557.81
419.611	557.81
419.834	558.81
420.057	538.81
420.28	546.81
420.503	547.81
420.726	546.81
420.948	552.81
421.171	592.81
421.394	591.81
421.617	545.81
421.839	526.81
422.062	551.81
422.285	538.81
422.507	614.81
422.73	666.81
422.953	644.81
423.175	566.81
423.398	555.81
423.621	541.81
423.843	596.81
424.066	564.81
424.288	571.81
424.511	587.81
424.733	638.81
424.956	715.81
425.178	675.81
425.401	652.81
425.623	710.81
425.846	607.81
426.068	579.81
426.291	556.81
426.513	557.81
426.735	562.81
426.958	606.81
427.18	668.81
427.402	822.81
427.625	902.81
427.847	751.81
428.069	680.81
428.292	617.81
428.514	546.81
428.736	525.81
428.958	515.81
429.181	513.81
429.403	505.81
429.625	527.81
429.847	554.81
430.069	586.81
430.292	615.81
430.514	549.81
430.736	529.81
430.958	523.81
431.18	500.81
431.402	502.81
431.624	508.81
431.846	516.81
432.068	485.81
432.29	494.81
432.512	510.81
432.734	508.81
432.956	502.81
433.178	540.81
433.4	522.81
433.622	518.81
433.844	491.81
434.066	494.81
434.287	503.81
434.509	508.81
434.731	533.81
434.953	522.81
435.175	547.81
435.397	572.81
435.618	563.81
435.84	606.81
436.062	715.81
436.284	751.81
436.505	654.81
436.727	575.81
436.949	540.81
437.17	549.81
437.392	514.81
437.614	534.81
437.835	544.81
438.057	618.81
438.278	737.81
438.5	763.81
438.721	808.81
438.943	789.81
439.165	616.81
439.386	593.81
439.608	575.81
439.829	549.81
440.05	587.81
440.272	649.81
440.493	593.81
440.715	548.81
440.936	543.81
441.158	546.81
441.379	518.81
441.6	567.81
441.822	557.81
442.043	605.81
442.264	673.81
442.486	727.81
442.707	618.81
442.928	589.81
443.149	580.81
443.371	596.81
443.592	646.81
443.813	736.81
444.034	806.81
444.255	655.81
444.476	592.81
444.698	591.81
444.919	584.81
445.14	650.81
445.361	635.81
445.582	620.81
445.803	661.81
446.024	754.81
446.245	766.81
446.466	696.81
446.687	611.81
446.908	559.81
447.129	525.81
447.35	533.81
447.571	528.81
447.792	504.81
448.013	532.81
448.234	549.81
448.455	574.81
448.675	684.81
448.896	798.81
449.117	676.81
449.338	626.81
449.559	741.81
449.779	868.81
450	690.81
450.221	584.81
450.442	526.81
450.662	496.81
450.883	537.81
451.104	528.81
451.324	515.81
451.545	479.81
451.766	495.81
451.986	471.81
452.207	465.81
452.428	475.81
452.648	455.81
452.869	463.81
453.089	464.81
453.31	483.81
453.53	472.81
453.751	470.81
453.971	493.81
454.192	475.81
454.412	478.81
454.633	454.81
454.853	460.81
455.073	454.81
455.294	486.81
455.514	544.81
455.734	527.81
455.955	484.81
456.175	470.81
456.395	460.81
456.616	441.81
456.836	471.81
457.056	440.81
457.276	448.81
457.497	462.81
457.717	473.81
457.937	453.81
458.157	465.81
458.377	458.81
458.598	483.81
458.818	543.81
459.038	582.81
459.258	617.81
459.478	556.81
459.698	514.81
459.918	510.81
460.138	500.81
460.358	516.81
460.578	534.81
460.798	530.81
461.018	534.81
461.238	532.81
461.458	523.81
461.678	524.81
461.898	504.81
462.118	571.81
462.338	566.81
462.558	551.81
462.777	548.81
462.997	567.81
463.217	572.81
463.437	576.81
463.657	596.81
463.876	580.81
464.096	554.81
464.316	569.81
464.536	550.81
464.755	552.81
464.975	569.81
465.195	584.81
465.414	619.81
465.634	578.81
465.854	559.81
466.073	522.81
466.293	527.81
466.512	515.81
466.732	484.81
466.951	504.81
467.171	480.81
467.391	499.81
467.61	502.81
467.829	504.81
468.049	511.81
468.268	498.81
468.488	486.81
468.707	475.81
468.927	476.81
469.146	460.81
469.365	489.81
469.585	499.81
469.804	503.81
470.023	502.81
470.243	493.81
470.462	506.81
470.681	517.81
470.901	488.81
471.12	494.81
471.339	492.81
471.558	482.81
471.777	495.81
471.997	489.81
472.216	521.81
472.435	527.81
472.654	488.81
472.873	482.81
473.092	483.81
473.311	492.81
473.53	495.81
473.749	506.81
473.968	532.81
474.187	622.81
474.406	623.81
474.625	532.81
474.844	523.81
475.063	516.81
475.282	504.81
475.501	499.81
475.72	508.81
475.939	512.81
476.158	533.81
476.377	526.81
476.596	523.81
476.814	535.81
477.033	529.81
477.252	543.81
477.471	521.81
477.69	554.81
477.908	552.81
478.127	535.81
478.346	574.81
478.564	562.81
478.783	578.81
479.002	566.81
479.22	583.81
479.439	588.81
479.658	588.81
479.876	594.81
480.095	615.81
480.313	639.81
480.532	634.81
480.751	614.81
480.969	607.81
481.188	640.81
481.406	666.81
481.624	630.81
481.843	586.81
482.061	586.81
482.28	595.81
482.498	578.81
482.717	557.81
482.935	601.81
483.153	582.81
483.372	576.81
483.59	585.81
483.808	575.81
484.027	594.81
484.245	582.81
484.463	602.81
484.681	606.81
484.9	589.81
485.118	587.81
485.336	597.81
485.554	592.81
485.772	602.81
485.99	592.81
486.209	595.81
486.427	615.81
486.645	611.81
486.863	636.81
487.081	620.81
487.299	635.81
487.517	618.81
487.735	627.81
487.953	629.81
488.171	620.81
488.389	617.81
488.607	611.81
488.825	601.81
489.043	631.81
489.261	618.81
489.479	634.81
489.696	609.81
489.914	631.81
490.132	647.81
490.35	643.81
490.568	633.81
490.786	636.81
491.003	660.81
491.221	685.81
491.439	652.81
491.657	669.81
491.874	690.81
492.092	676.81
492.31	680.81
492.527	687.81
492.745	672.81
492.963	708.81
493.18	702.81
493.398	700.81
493.615	703.81
493.833	720.81
494.05	702.81
494.268	700.81
494.485	688.81
494.703	692.81
494.92	714.81
495.138	734.81
495.355	702.81
495.573	727.81
495.79	725.81
496.008	724.81
496.225	730.81
496.442	735.81
496.66	732.81
496.877	713.81
497.094	733.81
497.312	770.81
497.529	761.81
497.746	783.81
497.963	791.81
498.181	815.81
498.398	803.81
498.615	847.81
498.832	855.81
499.049	861.81
499.267	866.81
499.484	925.81
499.701	955.81
499.918	972.81
500.135	1029.81
500.352	1030.81
500.569	1078.81
500.786	1078.81
501.003	1067.81
501.22	1029.81
501.437	1010.81
501.654	975.81
501.871	964.81
