Data from 1978.PennyLincolnUp.Lamp.En5.5.200Scan.071719.P1_HRD10591_16-13-10-864.txt Node
Date: Thu Jul 18 16:13:10 EDT 2019
User: cochatt
Spectrometer: HR+D1059
Trigger mode: 1
Integration Time (sec): 1.000000E-1
Scans to average: 1
Electric dark correction enabled: true
Nonlinearity correction enabled: false
Boxcar width: 0
XAxis mode: Wavelengths
Number of Pixels in Spectrum: 2048
>>>>>Begin Spectral Data<<<<<
223.165	-9.38
223.4	-9.38
223.635	-9.38
223.869	1.62
224.104	-19.38
224.338	-3.38
224.573	-26.38
224.808	-17.38
225.042	-0.38
225.277	-1.38
225.511	-11.38
225.746	3.62
225.98	7.62
226.215	5.62
226.449	10.62
226.683	18.62
226.918	16.62
227.152	24.62
227.387	44.62
227.621	28.62
227.856	49.62
228.09	39.62
228.324	32.62
228.559	64.62
228.793	70.62
229.027	96.62
229.262	102.62
229.496	101.62
229.73	117.62
229.964	155.62
230.199	121.62
230.433	119.62
230.667	118.62
230.901	112.62
231.136	111.62
231.37	118.62
231.604	111.62
231.838	109.62
232.072	100.62
232.306	111.62
232.541	133.62
232.775	131.62
233.009	126.62
233.243	120.62
233.477	126.62
233.711	113.62
233.945	125.62
234.179	113.62
234.413	131.62
234.647	124.62
234.881	110.62
235.115	119.62
235.349	127.62
235.583	125.62
235.817	120.62
236.051	123.62
236.285	127.62
236.519	118.62
236.753	115.62
236.987	159.62
237.221	174.62
237.455	254.62
237.689	184.62
237.922	147.62
238.156	137.62
238.39	118.62
238.624	120.62
238.858	120.62
239.091	125.62
239.325	129.62
239.559	117.62
239.793	127.62
240.027	129.62
240.26	155.62
240.494	155.62
240.728	157.62
240.961	148.62
241.195	142.62
241.429	137.62
241.662	136.62
241.896	148.62
242.13	121.62
242.363	137.62
242.597	136.62
242.83	141.62
243.064	136.62
243.298	147.62
243.531	127.62
243.765	145.62
243.998	136.62
244.232	145.62
244.465	127.62
244.699	150.62
244.932	156.62
245.166	137.62
245.399	139.62
245.633	127.62
245.866	157.62
246.099	152.62
246.333	156.62
246.566	161.62
246.8	154.62
247.033	147.62
247.266	151.62
247.5	166.62
247.733	169.62
247.966	171.62
248.2	151.62
248.433	152.62
248.666	161.62
248.899	189.62
249.133	183.62
249.366	197.62
249.599	192.62
249.832	183.62
250.066	179.62
250.299	165.62
250.532	180.62
250.765	195.62
250.998	208.62
251.231	212.62
251.465	208.62
251.698	199.62
251.931	191.62
252.164	183.62
252.397	180.62
252.63	191.62
252.863	200.62
253.096	202.62
253.329	225.62
253.562	218.62
253.795	199.62
254.028	214.62
254.261	190.62
254.494	213.62
254.727	239.62
254.96	247.62
255.193	265.62
255.426	231.62
255.659	218.62
255.892	230.62
256.124	222.62
256.357	222.62
256.59	208.62
256.823	202.62
257.056	213.62
257.289	203.62
257.521	204.62
257.754	214.62
257.987	200.62
258.22	213.62
258.452	203.62
258.685	189.62
258.918	206.62
259.151	197.62
259.383	200.62
259.616	207.62
259.849	224.62
260.081	229.62
260.314	230.62
260.547	240.62
260.779	243.62
261.012	228.62
261.244	226.62
261.477	212.62
261.71	213.62
261.942	215.62
262.175	225.62
262.407	214.62
262.64	201.62
262.872	203.62
263.105	204.62
263.337	210.62
263.57	218.62
263.802	208.62
264.035	201.62
264.267	214.62
264.499	215.62
264.732	230.62
264.964	215.62
265.197	201.62
265.429	215.62
265.661	202.62
265.894	205.62
266.126	217.62
266.358	229.62
266.591	215.62
266.823	226.62
267.055	213.62
267.287	237.62
267.52	239.62
267.752	214.62
267.984	223.62
268.216	222.62
268.448	210.62
268.681	230.62
268.913	223.62
269.145	276.62
269.377	267.62
269.609	263.62
269.841	256.62
270.073	255.62
270.306	274.62
270.538	291.62
270.77	287.62
271.002	284.62
271.234	279.62
271.466	287.62
271.698	288.62
271.93	307.62
272.162	302.62
272.394	310.62
272.626	288.62
272.858	265.62
273.09	270.62
273.322	270.62
273.553	252.62
273.785	270.62
274.017	263.62
274.249	263.62
274.481	257.62
274.713	254.62
274.945	265.62
275.176	282.62
275.408	267.62
275.64	267.62
275.872	245.62
276.104	261.62
276.335	255.62
276.567	267.62
276.799	275.62
277.031	283.62
277.262	293.62
277.494	301.62
277.726	286.62
277.957	286.62
278.189	263.62
278.421	254.62
278.652	286.62
278.884	283.62
279.115	227.62
279.347	263.62
279.579	247.62
279.81	260.62
280.042	245.62
280.273	276.62
280.505	265.62
280.736	267.62
280.968	265.62
281.199	271.62
281.431	271.62
281.662	268.62
281.894	250.62
282.125	287.62
282.356	304.62
282.588	296.62
282.819	314.62
283.051	267.62
283.282	270.62
283.513	275.62
283.745	277.62
283.976	271.62
284.207	268.62
284.439	277.62
284.67	277.62
284.901	287.62
285.132	272.62
285.364	263.62
285.595	257.62
285.826	278.62
286.057	264.62
286.288	269.62
286.52	272.62
286.751	281.62
286.982	279.62
287.213	280.62
287.444	302.62
287.675	280.62
287.906	296.62
288.138	300.62
288.369	307.62
288.6	307.62
288.831	294.62
289.062	287.62
289.293	292.62
289.524	281.62
289.755	288.62
289.986	279.62
290.217	291.62
290.448	292.62
290.679	283.62
290.91	296.62
291.141	305.62
291.371	299.62
291.602	287.62
291.833	275.62
292.064	299.62
292.295	301.62
292.526	287.62
292.757	277.62
292.987	280.62
293.218	272.62
293.449	297.62
293.68	319.62
293.91	310.62
294.141	286.62
294.372	273.62
294.603	291.62
294.833	300.62
295.064	295.62
295.295	297.62
295.525	294.62
295.756	297.62
295.987	300.62
296.217	317.62
296.448	313.62
296.679	300.62
296.909	299.62
297.14	311.62
297.37	307.62
297.601	293.62
297.831	285.62
298.062	304.62
298.292	294.62
298.523	305.62
298.753	307.62
298.984	315.62
299.214	317.62
299.445	295.62
299.675	323.62
299.905	313.62
300.136	314.62
300.366	306.62
300.597	326.62
300.827	314.62
301.057	310.62
301.288	324.62
301.518	319.62
301.748	328.62
301.979	323.62
302.209	332.62
302.439	320.62
302.669	338.62
302.9	324.62
303.13	325.62
303.36	318.62
303.59	327.62
303.82	355.62
304.051	317.62
304.281	323.62
304.511	321.62
304.741	325.62
304.971	339.62
305.201	341.62
305.431	327.62
305.661	333.62
305.891	336.62
306.121	334.62
306.352	335.62
306.582	332.62
306.812	319.62
307.042	324.62
307.272	324.62
307.502	326.62
307.731	340.62
307.961	322.62
308.191	340.62
308.421	329.62
308.651	338.62
308.881	340.62
309.111	363.62
309.341	353.62
309.571	351.62
309.8	340.62
310.03	359.62
310.26	348.62
310.49	382.62
310.72	377.62
310.949	379.62
311.179	380.62
311.409	378.62
311.639	371.62
311.868	372.62
312.098	375.62
312.328	381.62
312.557	381.62
312.787	386.62
313.017	403.62
313.246	391.62
313.476	370.62
313.706	378.62
313.935	399.62
314.165	399.62
314.394	396.62
314.624	384.62
314.853	385.62
315.083	386.62
315.312	398.62
315.542	388.62
315.771	358.62
316.001	381.62
316.23	366.62
316.46	384.62
316.689	364.62
316.919	377.62
317.148	401.62
317.377	372.62
317.607	399.62
317.836	378.62
318.065	365.62
318.295	380.62
318.524	365.62
318.753	396.62
318.983	383.62
319.212	371.62
319.441	364.62
319.67	383.62
319.9	374.62
320.129	359.62
320.358	377.62
320.587	369.62
320.816	398.62
321.046	417.62
321.275	416.62
321.504	399.62
321.733	393.62
321.962	388.62
322.191	426.62
322.42	424.62
322.649	438.62
322.878	463.62
323.108	459.62
323.337	482.62
323.566	496.62
323.795	497.62
324.024	585.62
324.253	658.62
324.482	959.62
324.71	1500.62
324.939	2304.62
325.168	2013.62
325.397	979.62
325.626	668.62
325.855	543.62
326.084	510.62
326.313	515.62
326.542	505.62
326.77	550.62
326.999	621.62
327.228	853.62
327.457	1336.62
327.686	1709.62
327.914	1099.62
328.143	693.62
328.372	610.62
328.6	575.62
328.829	548.62
329.058	554.62
329.287	560.62
329.515	550.62
329.744	495.62
329.972	505.62
330.201	505.62
330.43	553.62
330.658	563.62
330.887	594.62
331.115	584.62
331.344	523.62
331.572	505.62
331.801	502.62
332.03	480.62
332.258	478.62
332.486	454.62
332.715	460.62
332.943	460.62
333.172	451.62
333.4	461.62
333.629	463.62
333.857	483.62
334.085	495.62
334.314	504.62
334.542	541.62
334.771	537.62
334.999	528.62
335.227	475.62
335.455	485.62
335.684	460.62
335.912	457.62
336.14	449.62
336.369	449.62
336.597	460.62
336.825	472.62
337.053	439.62
337.281	458.62
337.51	430.62
337.738	448.62
337.966	452.62
338.194	448.62
338.422	474.62
338.65	431.62
338.878	453.62
339.106	432.62
339.334	443.62
339.562	439.62
339.79	433.62
340.018	433.62
340.246	416.62
340.474	425.62
340.702	447.62
340.93	421.62
341.158	439.62
341.386	441.62
341.614	459.62
341.842	432.62
342.07	443.62
342.298	435.62
342.526	441.62
342.754	423.62
342.981	424.62
343.209	442.62
343.437	424.62
343.665	431.62
343.893	442.62
344.12	440.62
344.348	455.62
344.576	446.62
344.804	450.62
345.031	454.62
345.259	473.62
345.487	455.62
345.714	432.62
345.942	463.62
346.17	416.62
346.397	422.62
346.625	452.62
346.853	435.62
347.08	414.62
347.308	427.62
347.535	436.62
347.763	431.62
347.99	453.62
348.218	435.62
348.445	453.62
348.673	435.62
348.9	430.62
349.128	421.62
349.355	411.62
349.583	411.62
349.81	400.62
350.037	421.62
350.265	415.62
350.492	415.62
350.72	415.62
350.947	424.62
351.174	425.62
351.402	448.62
351.629	462.62
351.856	430.62
352.083	437.62
352.311	451.62
352.538	419.62
352.765	437.62
352.992	437.62
353.22	410.62
353.447	418.62
353.674	423.62
353.901	416.62
354.128	381.62
354.355	405.62
354.583	409.62
354.81	411.62
355.037	403.62
355.264	407.62
355.491	406.62
355.718	388.62
355.945	395.62
356.172	412.62
356.399	385.62
356.626	395.62
356.853	402.62
357.08	393.62
357.307	404.62
357.534	424.62
357.761	412.62
357.988	421.62
358.215	416.62
358.441	415.62
358.668	413.62
358.895	435.62
359.122	405.62
359.349	416.62
359.576	437.62
359.802	465.62
360.029	478.62
360.256	483.62
360.483	456.62
360.709	431.62
360.936	454.62
361.163	424.62
361.39	432.62
361.616	431.62
361.843	425.62
362.07	428.62
362.296	445.62
362.523	416.62
362.749	406.62
362.976	407.62
363.203	425.62
363.429	416.62
363.656	419.62
363.882	410.62
364.109	423.62
364.335	423.62
364.562	411.62
364.788	421.62
365.015	420.62
365.241	413.62
365.468	437.62
365.694	450.62
365.92	431.62
366.147	433.62
366.373	415.62
366.599	426.62
366.826	399.62
367.052	396.62
367.278	425.62
367.505	437.62
367.731	409.62
367.957	398.62
368.184	414.62
368.41	435.62
368.636	445.62
368.862	423.62
369.089	432.62
369.315	407.62
369.541	416.62
369.767	419.62
369.993	412.62
370.219	437.62
370.445	424.62
370.672	432.62
370.898	415.62
371.124	412.62
371.35	416.62
371.576	439.62
371.802	426.62
372.028	427.62
372.254	440.62
372.48	433.62
372.706	423.62
372.932	425.62
373.158	429.62
373.384	428.62
373.61	418.62
373.835	430.62
374.061	436.62
374.287	419.62
374.513	432.62
374.739	426.62
374.965	443.62
375.191	432.62
375.416	442.62
375.642	441.62
375.868	431.62
376.094	445.62
376.319	439.62
376.545	416.62
376.771	443.62
376.997	411.62
377.222	422.62
377.448	389.62
377.674	422.62
377.899	419.62
378.125	434.62
378.35	409.62
378.576	411.62
378.802	430.62
379.027	444.62
379.253	414.62
379.478	415.62
379.704	423.62
379.929	419.62
380.155	431.62
380.38	423.62
380.606	452.62
380.831	431.62
381.057	443.62
381.282	420.62
381.507	449.62
381.733	445.62
381.958	431.62
382.184	441.62
382.409	432.62
382.634	436.62
382.86	419.62
383.085	464.62
383.31	431.62
383.535	444.62
383.761	438.62
383.986	463.62
384.211	465.62
384.436	438.62
384.662	454.62
384.887	465.62
385.112	429.62
385.337	464.62
385.562	464.62
385.787	469.62
386.013	471.62
386.238	474.62
386.463	477.62
386.688	482.62
386.913	466.62
387.138	487.62
387.363	461.62
387.588	479.62
387.813	478.62
388.038	498.62
388.263	481.62
388.488	461.62
388.713	482.62
388.938	470.62
389.163	479.62
389.387	468.62
389.612	462.62
389.837	474.62
390.062	473.62
390.287	473.62
390.512	468.62
390.736	488.62
390.961	483.62
391.186	461.62
391.411	469.62
391.636	487.62
391.86	486.62
392.085	499.62
392.31	492.62
392.534	485.62
392.759	486.62
392.984	500.62
393.208	484.62
393.433	475.62
393.658	462.62
393.882	477.62
394.107	480.62
394.331	505.62
394.556	462.62
394.78	483.62
395.005	497.62
395.229	480.62
395.454	497.62
395.678	520.62
395.903	522.62
396.127	541.62
396.352	519.62
396.576	492.62
396.801	507.62
397.025	513.62
397.249	505.62
397.474	532.62
397.698	516.62
397.922	547.62
398.147	509.62
398.371	544.62
398.595	538.62
398.82	556.62
399.044	565.62
399.268	567.62
399.492	590.62
399.717	640.62
399.941	647.62
400.165	695.62
400.389	671.62
400.613	628.62
400.837	591.62
401.062	575.62
401.286	574.62
401.51	561.62
401.734	553.62
401.958	564.62
402.182	574.62
402.406	569.62
402.63	571.62
402.854	570.62
403.078	577.62
403.302	564.62
403.526	589.62
403.75	572.62
403.974	565.62
404.198	552.62
404.422	556.62
404.645	568.62
404.869	590.62
405.093	625.62
405.317	641.62
405.541	687.62
405.765	634.62
405.988	597.62
406.212	625.62
406.436	623.62
406.66	623.62
406.883	598.62
407.107	627.62
407.331	704.62
407.555	776.62
407.778	773.62
408.002	699.62
408.226	661.62
408.449	644.62
408.673	651.62
408.896	691.62
409.12	739.62
409.344	680.62
409.567	605.62
409.791	611.62
410.014	597.62
410.238	599.62
410.461	584.62
410.685	587.62
410.908	606.62
411.132	633.62
411.355	672.62
411.578	647.62
411.802	595.62
412.025	576.62
412.249	570.62
412.472	634.62
412.695	650.62
412.919	641.62
413.142	582.62
413.365	581.62
413.589	570.62
413.812	539.62
414.035	533.62
414.258	561.62
414.482	553.62
414.705	553.62
414.928	540.62
415.151	548.62
415.374	545.62
415.597	542.62
415.821	533.62
416.044	517.62
416.267	547.62
416.49	553.62
416.713	540.62
416.936	540.62
417.159	536.62
417.382	550.62
417.605	546.62
417.828	553.62
418.051	593.62
418.274	560.62
418.497	538.62
418.72	538.62
418.943	520.62
419.166	582.62
419.389	593.62
419.611	602.62
419.834	571.62
420.057	582.62
420.28	574.62
420.503	575.62
420.726	544.62
420.948	581.62
421.171	592.62
421.394	675.62
421.617	605.62
421.839	557.62
422.062	569.62
422.285	558.62
422.507	654.62
422.73	692.62
422.953	720.62
423.175	627.62
423.398	595.62
423.621	580.62
423.843	593.62
424.066	621.62
424.288	612.62
424.511	620.62
424.733	683.62
424.956	802.62
425.178	734.62
425.401	736.62
425.623	763.62
425.846	658.62
426.068	588.62
426.291	593.62
426.513	611.62
426.735	602.62
426.958	663.62
427.18	740.62
427.402	897.62
427.625	992.62
427.847	856.62
428.069	736.62
428.292	648.62
428.514	603.62
428.736	583.62
428.958	551.62
429.181	555.62
429.403	540.62
429.625	583.62
429.847	606.62
430.069	680.62
430.292	709.62
430.514	589.62
430.736	575.62
430.958	563.62
431.18	553.62
431.402	548.62
431.624	515.62
431.846	530.62
432.068	544.62
432.29	561.62
432.512	537.62
432.734	548.62
432.956	520.62
433.178	542.62
433.4	549.62
433.622	558.62
433.844	538.62
434.066	526.62
434.287	528.62
434.509	543.62
434.731	566.62
434.953	573.62
435.175	583.62
435.397	602.62
435.618	592.62
435.84	668.62
436.062	747.62
436.284	833.62
436.505	694.62
436.727	617.62
436.949	571.62
437.17	584.62
437.392	568.62
437.614	570.62
437.835	589.62
438.057	692.62
438.278	821.62
438.5	803.62
438.721	901.62
438.943	854.62
439.165	676.62
439.386	628.62
439.608	615.62
439.829	622.62
440.05	640.62
440.272	706.62
440.493	663.62
440.715	595.62
440.936	577.62
441.158	593.62
441.379	554.62
441.6	611.62
441.822	606.62
442.043	654.62
442.264	756.62
442.486	816.62
442.707	659.62
442.928	647.62
443.149	651.62
443.371	665.62
443.592	696.62
443.813	792.62
444.034	845.62
444.255	721.62
444.476	640.62
444.698	621.62
444.919	645.62
445.14	735.62
445.361	679.62
445.582	672.62
445.803	749.62
446.024	845.62
446.245	838.62
446.466	785.62
446.687	677.62
446.908	601.62
447.129	584.62
447.35	563.62
447.571	563.62
447.792	559.62
448.013	546.62
448.234	551.62
448.455	607.62
448.675	749.62
448.896	875.62
449.117	726.62
449.338	701.62
449.559	800.62
449.779	942.62
450	737.62
450.221	595.62
450.442	570.62
450.662	554.62
450.883	573.62
451.104	577.62
451.324	565.62
451.545	524.62
451.766	512.62
451.986	499.62
452.207	523.62
452.428	507.62
452.648	495.62
452.869	493.62
453.089	527.62
453.31	513.62
453.53	506.62
453.751	498.62
453.971	523.62
454.192	527.62
454.412	512.62
454.633	532.62
454.853	517.62
455.073	503.62
455.294	507.62
455.514	609.62
455.734	591.62
455.955	509.62
456.175	503.62
456.395	469.62
456.616	486.62
456.836	495.62
457.056	468.62
457.276	474.62
457.497	500.62
457.717	487.62
457.937	492.62
458.157	509.62
458.377	515.62
458.598	515.62
458.818	570.62
459.038	663.62
459.258	688.62
459.478	591.62
459.698	554.62
459.918	537.62
460.138	547.62
460.358	553.62
460.578	553.62
460.798	560.62
461.018	567.62
461.238	573.62
461.458	559.62
461.678	568.62
461.898	569.62
462.118	576.62
462.338	566.62
462.558	564.62
462.777	565.62
462.997	599.62
463.217	611.62
463.437	624.62
463.657	607.62
463.876	588.62
464.096	598.62
464.316	587.62
464.536	599.62
464.755	584.62
464.975	619.62
465.195	636.62
465.414	683.62
465.634	623.62
465.854	593.62
466.073	547.62
466.293	545.62
466.512	567.62
466.732	535.62
466.951	515.62
467.171	540.62
467.391	539.62
467.61	547.62
467.829	541.62
468.049	538.62
468.268	535.62
468.488	514.62
468.707	504.62
468.927	491.62
469.146	501.62
469.365	490.62
469.585	511.62
469.804	528.62
470.023	524.62
470.243	550.62
470.462	539.62
470.681	550.62
470.901	527.62
471.12	513.62
471.339	535.62
471.558	528.62
471.777	508.62
471.997	531.62
472.216	533.62
472.435	550.62
472.654	550.62
472.873	531.62
473.092	531.62
473.311	524.62
473.53	501.62
473.749	535.62
473.968	561.62
474.187	669.62
474.406	725.62
474.625	587.62
474.844	550.62
475.063	523.62
475.282	537.62
475.501	529.62
475.72	532.62
475.939	541.62
476.158	553.62
476.377	545.62
476.596	540.62
476.814	551.62
477.033	569.62
477.252	563.62
477.471	566.62
477.69	588.62
477.908	586.62
478.127	588.62
478.346	586.62
478.564	584.62
478.783	610.62
479.002	604.62
479.22	593.62
479.439	600.62
479.658	645.62
479.876	650.62
480.095	646.62
480.313	700.62
480.532	659.62
480.751	641.62
480.969	629.62
481.188	700.62
481.406	716.62
481.624	690.62
481.843	646.62
482.061	615.62
482.28	625.62
482.498	617.62
482.717	605.62
482.935	611.62
483.153	616.62
483.372	616.62
483.59	632.62
483.808	621.62
484.027	605.62
484.245	617.62
484.463	653.62
484.681	612.62
484.9	647.62
485.118	632.62
485.336	612.62
485.554	617.62
485.772	637.62
485.99	645.62
486.209	646.62
486.427	668.62
486.645	651.62
486.863	651.62
487.081	649.62
487.299	666.62
487.517	674.62
487.735	633.62
487.953	669.62
488.171	662.62
488.389	657.62
488.607	674.62
488.825	643.62
489.043	663.62
489.261	645.62
489.479	657.62
489.696	678.62
489.914	657.62
490.132	681.62
490.35	701.62
490.568	700.62
490.786	686.62
491.003	695.62
491.221	712.62
491.439	727.62
491.657	741.62
491.874	747.62
492.092	731.62
492.31	749.62
492.527	747.62
492.745	737.62
492.963	757.62
493.18	764.62
493.398	748.62
493.615	775.62
493.833	777.62
494.05	788.62
494.268	784.62
494.485	771.62
494.703	776.62
494.92	745.62
495.138	760.62
495.355	804.62
495.573	771.62
495.79	770.62
496.008	775.62
496.225	752.62
496.442	785.62
496.66	784.62
496.877	785.62
497.094	775.62
497.312	783.62
497.529	808.62
497.746	840.62
497.963	821.62
498.181	875.62
498.398	876.62
498.615	872.62
498.832	927.62
499.049	928.62
499.267	924.62
499.484	965.62
499.701	1001.62
499.918	1007.62
500.135	1059.62
500.352	1107.62
500.569	1122.62
500.786	1121.62
501.003	1111.62
501.22	1093.62
501.437	1066.62
501.654	1039.62
501.871	1013.62
