Data from 1978.PennyLincolnUp.Lamp.En5.5.200Scan.071719.P1_HRD10591_16-14-42-863.txt Node
Date: Thu Jul 18 16:14:42 EDT 2019
User: cochatt
Spectrometer: HR+D1059
Trigger mode: 1
Integration Time (sec): 1.000000E-1
Scans to average: 1
Electric dark correction enabled: true
Nonlinearity correction enabled: false
Boxcar width: 0
XAxis mode: Wavelengths
Number of Pixels in Spectrum: 2048
>>>>>Begin Spectral Data<<<<<
223.165	-9.25
223.4	-9.25
223.635	-9.25
223.869	-13.25
224.104	-10.25
224.338	-22.25
224.573	-18.25
224.808	-22.25
225.042	-8.25
225.277	-9.25
225.511	11.75
225.746	-8.25
225.98	6.75
226.215	2.75
226.449	12.75
226.683	25.75
226.918	23.75
227.152	37.75
227.387	26.75
227.621	38.75
227.856	55.75
228.09	46.75
228.324	58.75
228.559	66.75
228.793	54.75
229.027	90.75
229.262	111.75
229.496	123.75
229.73	126.75
229.964	169.75
230.199	132.75
230.433	115.75
230.667	122.75
230.901	111.75
231.136	109.75
231.37	115.75
231.604	100.75
231.838	112.75
232.072	109.75
232.306	106.75
232.541	115.75
232.775	116.75
233.009	128.75
233.243	117.75
233.477	120.75
233.711	114.75
233.945	126.75
234.179	117.75
234.413	108.75
234.647	108.75
234.881	125.75
235.115	126.75
235.349	118.75
235.583	123.75
235.817	119.75
236.051	126.75
236.285	134.75
236.519	128.75
236.753	136.75
236.987	143.75
237.221	181.75
237.455	232.75
237.689	192.75
237.922	140.75
238.156	152.75
238.39	135.75
238.624	123.75
238.858	117.75
239.091	138.75
239.325	120.75
239.559	122.75
239.793	131.75
240.027	127.75
240.26	144.75
240.494	150.75
240.728	148.75
240.961	139.75
241.195	145.75
241.429	126.75
241.662	130.75
241.896	145.75
242.13	130.75
242.363	143.75
242.597	128.75
242.83	143.75
243.064	126.75
243.298	127.75
243.531	145.75
243.765	146.75
243.998	139.75
244.232	133.75
244.465	143.75
244.699	148.75
244.932	143.75
245.166	141.75
245.399	149.75
245.633	138.75
245.866	140.75
246.099	150.75
246.333	140.75
246.566	132.75
246.8	145.75
247.033	152.75
247.266	145.75
247.5	142.75
247.733	161.75
247.966	172.75
248.2	176.75
248.433	173.75
248.666	180.75
248.899	180.75
249.133	187.75
249.366	206.75
249.599	182.75
249.832	174.75
250.066	172.75
250.299	155.75
250.532	174.75
250.765	197.75
250.998	221.75
251.231	224.75
251.465	212.75
251.698	199.75
251.931	192.75
252.164	175.75
252.397	182.75
252.63	192.75
252.863	199.75
253.096	189.75
253.329	219.75
253.562	214.75
253.795	208.75
254.028	221.75
254.261	216.75
254.494	208.75
254.727	246.75
254.96	262.75
255.193	247.75
255.426	237.75
255.659	207.75
255.892	235.75
256.124	211.75
256.357	228.75
256.59	205.75
256.823	205.75
257.056	208.75
257.289	203.75
257.521	198.75
257.754	199.75
257.987	195.75
258.22	202.75
258.452	214.75
258.685	182.75
258.918	196.75
259.151	214.75
259.383	204.75
259.616	217.75
259.849	206.75
260.081	239.75
260.314	244.75
260.547	250.75
260.779	219.75
261.012	226.75
261.244	234.75
261.477	222.75
261.71	228.75
261.942	231.75
262.175	221.75
262.407	234.75
262.64	213.75
262.872	202.75
263.105	213.75
263.337	214.75
263.57	209.75
263.802	200.75
264.035	203.75
264.267	211.75
264.499	211.75
264.732	197.75
264.964	201.75
265.197	204.75
265.429	212.75
265.661	210.75
265.894	212.75
266.126	228.75
266.358	210.75
266.591	219.75
266.823	220.75
267.055	234.75
267.287	221.75
267.52	194.75
267.752	210.75
267.984	215.75
268.216	230.75
268.448	224.75
268.681	228.75
268.913	253.75
269.145	264.75
269.377	267.75
269.609	273.75
269.841	274.75
270.073	269.75
270.306	271.75
270.538	297.75
270.77	290.75
271.002	297.75
271.234	278.75
271.466	288.75
271.698	272.75
271.93	294.75
272.162	291.75
272.394	300.75
272.626	294.75
272.858	266.75
273.09	263.75
273.322	278.75
273.553	265.75
273.785	274.75
274.017	278.75
274.249	253.75
274.481	262.75
274.713	267.75
274.945	271.75
275.176	270.75
275.408	247.75
275.64	245.75
275.872	271.75
276.104	262.75
276.335	242.75
276.567	267.75
276.799	283.75
277.031	293.75
277.262	284.75
277.494	316.75
277.726	284.75
277.957	278.75
278.189	272.75
278.421	260.75
278.652	265.75
278.884	264.75
279.115	280.75
279.347	249.75
279.579	263.75
279.81	255.75
280.042	270.75
280.273	255.75
280.505	251.75
280.736	268.75
280.968	273.75
281.199	273.75
281.431	266.75
281.662	259.75
281.894	264.75
282.125	263.75
282.356	278.75
282.588	303.75
282.819	284.75
283.051	257.75
283.282	265.75
283.513	261.75
283.745	282.75
283.976	278.75
284.207	271.75
284.439	284.75
284.67	285.75
284.901	261.75
285.132	277.75
285.364	271.75
285.595	291.75
285.826	270.75
286.057	277.75
286.288	261.75
286.52	276.75
286.751	262.75
286.982	278.75
287.213	306.75
287.444	287.75
287.675	299.75
287.906	300.75
288.138	290.75
288.369	287.75
288.6	306.75
288.831	289.75
289.062	293.75
289.293	289.75
289.524	285.75
289.755	301.75
289.986	288.75
290.217	278.75
290.448	272.75
290.679	276.75
290.91	289.75
291.141	279.75
291.371	302.75
291.602	288.75
291.833	293.75
292.064	287.75
292.295	278.75
292.526	299.75
292.757	274.75
292.987	270.75
293.218	295.75
293.449	307.75
293.68	294.75
293.91	288.75
294.141	274.75
294.372	289.75
294.603	284.75
294.833	291.75
295.064	282.75
295.295	286.75
295.525	296.75
295.756	304.75
295.987	290.75
296.217	324.75
296.448	341.75
296.679	308.75
296.909	295.75
297.14	297.75
297.37	299.75
297.601	295.75
297.831	289.75
298.062	303.75
298.292	299.75
298.523	315.75
298.753	300.75
298.984	304.75
299.214	302.75
299.445	303.75
299.675	312.75
299.905	318.75
300.136	320.75
300.366	311.75
300.597	321.75
300.827	338.75
301.057	330.75
301.288	319.75
301.518	325.75
301.748	328.75
301.979	314.75
302.209	323.75
302.439	314.75
302.669	342.75
302.9	325.75
303.13	318.75
303.36	333.75
303.59	328.75
303.82	330.75
304.051	321.75
304.281	325.75
304.511	322.75
304.741	317.75
304.971	351.75
305.201	338.75
305.431	320.75
305.661	332.75
305.891	324.75
306.121	324.75
306.352	323.75
306.582	319.75
306.812	334.75
307.042	335.75
307.272	328.75
307.502	351.75
307.731	334.75
307.961	318.75
308.191	343.75
308.421	338.75
308.651	326.75
308.881	347.75
309.111	340.75
309.341	329.75
309.571	354.75
309.8	359.75
310.03	358.75
310.26	361.75
310.49	372.75
310.72	374.75
310.949	395.75
311.179	392.75
311.409	379.75
311.639	360.75
311.868	384.75
312.098	374.75
312.328	375.75
312.557	388.75
312.787	387.75
313.017	390.75
313.246	396.75
313.476	384.75
313.706	359.75
313.935	376.75
314.165	392.75
314.394	396.75
314.624	390.75
314.853	379.75
315.083	397.75
315.312	350.75
315.542	377.75
315.771	372.75
316.001	364.75
316.23	350.75
316.46	358.75
316.689	366.75
316.919	398.75
317.148	392.75
317.377	397.75
317.607	397.75
317.836	379.75
318.065	379.75
318.295	395.75
318.524	389.75
318.753	386.75
318.983	381.75
319.212	392.75
319.441	401.75
319.67	372.75
319.9	377.75
320.129	359.75
320.358	364.75
320.587	392.75
320.816	407.75
321.046	398.75
321.275	405.75
321.504	404.75
321.733	396.75
321.962	410.75
322.191	416.75
322.42	418.75
322.649	451.75
322.878	474.75
323.108	447.75
323.337	476.75
323.566	493.75
323.795	527.75
324.024	563.75
324.253	698.75
324.482	1021.75
324.71	1578.75
324.939	2490.75
325.168	2128.75
325.397	996.75
325.626	663.75
325.855	557.75
326.084	516.75
326.313	515.75
326.542	505.75
326.77	537.75
326.999	662.75
327.228	922.75
327.457	1493.75
327.686	1834.75
327.914	1167.75
328.143	738.75
328.372	618.75
328.6	584.75
328.829	548.75
329.058	574.75
329.287	600.75
329.515	557.75
329.744	500.75
329.972	519.75
330.201	532.75
330.43	565.75
330.658	599.75
330.887	596.75
331.115	593.75
331.344	510.75
331.572	491.75
331.801	506.75
332.03	494.75
332.258	491.75
332.486	470.75
332.715	448.75
332.943	461.75
333.172	459.75
333.4	459.75
333.629	493.75
333.857	485.75
334.085	494.75
334.314	524.75
334.542	534.75
334.771	533.75
334.999	522.75
335.227	491.75
335.455	464.75
335.684	478.75
335.912	465.75
336.14	468.75
336.369	447.75
336.597	465.75
336.825	471.75
337.053	479.75
337.281	438.75
337.51	447.75
337.738	446.75
337.966	467.75
338.194	436.75
338.422	453.75
338.65	434.75
338.878	433.75
339.106	446.75
339.334	431.75
339.562	408.75
339.79	434.75
340.018	416.75
340.246	442.75
340.474	445.75
340.702	438.75
340.93	428.75
341.158	439.75
341.386	431.75
341.614	455.75
341.842	451.75
342.07	448.75
342.298	429.75
342.526	420.75
342.754	431.75
342.981	425.75
343.209	429.75
343.437	435.75
343.665	420.75
343.893	450.75
344.12	461.75
344.348	431.75
344.576	447.75
344.804	455.75
345.031	457.75
345.259	477.75
345.487	446.75
345.714	454.75
345.942	442.75
346.17	420.75
346.397	433.75
346.625	424.75
346.853	422.75
347.08	419.75
347.308	437.75
347.535	445.75
347.763	416.75
347.99	443.75
348.218	444.75
348.445	453.75
348.673	463.75
348.9	431.75
349.128	451.75
349.355	430.75
349.583	399.75
349.81	428.75
350.037	397.75
350.265	420.75
350.492	429.75
350.72	419.75
350.947	424.75
351.174	460.75
351.402	437.75
351.629	436.75
351.856	434.75
352.083	448.75
352.311	431.75
352.538	428.75
352.765	459.75
352.992	438.75
353.22	418.75
353.447	428.75
353.674	430.75
353.901	424.75
354.128	417.75
354.355	412.75
354.583	426.75
354.81	406.75
355.037	423.75
355.264	420.75
355.491	391.75
355.718	391.75
355.945	402.75
356.172	392.75
356.399	395.75
356.626	403.75
356.853	401.75
357.08	389.75
357.307	386.75
357.534	384.75
357.761	424.75
357.988	412.75
358.215	421.75
358.441	404.75
358.668	414.75
358.895	401.75
359.122	413.75
359.349	401.75
359.576	438.75
359.802	443.75
360.029	457.75
360.256	460.75
360.483	463.75
360.709	446.75
360.936	428.75
361.163	431.75
361.39	453.75
361.616	430.75
361.843	422.75
362.07	451.75
362.296	434.75
362.523	447.75
362.749	430.75
362.976	421.75
363.203	415.75
363.429	402.75
363.656	412.75
363.882	410.75
364.109	414.75
364.335	432.75
364.562	428.75
364.788	417.75
365.015	412.75
365.241	401.75
365.468	408.75
365.694	438.75
365.92	423.75
366.147	422.75
366.373	427.75
366.599	409.75
366.826	412.75
367.052	422.75
367.278	414.75
367.505	431.75
367.731	431.75
367.957	436.75
368.184	416.75
368.41	404.75
368.636	421.75
368.862	449.75
369.089	429.75
369.315	424.75
369.541	417.75
369.767	425.75
369.993	420.75
370.219	421.75
370.445	408.75
370.672	442.75
370.898	425.75
371.124	415.75
371.35	410.75
371.576	424.75
371.802	440.75
372.028	430.75
372.254	414.75
372.48	436.75
372.706	423.75
372.932	432.75
373.158	436.75
373.384	408.75
373.61	411.75
373.835	429.75
374.061	391.75
374.287	428.75
374.513	426.75
374.739	431.75
374.965	457.75
375.191	430.75
375.416	398.75
375.642	424.75
375.868	424.75
376.094	430.75
376.319	432.75
376.545	415.75
376.771	424.75
376.997	413.75
377.222	430.75
377.448	437.75
377.674	404.75
377.899	420.75
378.125	415.75
378.35	418.75
378.576	414.75
378.802	413.75
379.027	415.75
379.253	423.75
379.478	426.75
379.704	424.75
379.929	416.75
380.155	428.75
380.38	395.75
380.606	419.75
380.831	422.75
381.057	446.75
381.282	438.75
381.507	431.75
381.733	429.75
381.958	426.75
382.184	417.75
382.409	427.75
382.634	433.75
382.86	437.75
383.085	445.75
383.31	426.75
383.535	447.75
383.761	464.75
383.986	428.75
384.211	462.75
384.436	434.75
384.662	467.75
384.887	468.75
385.112	450.75
385.337	458.75
385.562	472.75
385.787	474.75
386.013	498.75
386.238	468.75
386.463	471.75
386.688	480.75
386.913	483.75
387.138	460.75
387.363	470.75
387.588	475.75
387.813	472.75
388.038	481.75
388.263	471.75
388.488	473.75
388.713	470.75
388.938	471.75
389.163	485.75
389.387	472.75
389.612	455.75
389.837	471.75
390.062	454.75
390.287	466.75
390.512	447.75
390.736	470.75
390.961	484.75
391.186	474.75
391.411	479.75
391.636	479.75
391.86	484.75
392.085	483.75
392.31	470.75
392.534	501.75
392.759	502.75
392.984	475.75
393.208	494.75
393.433	462.75
393.658	482.75
393.882	513.75
394.107	488.75
394.331	474.75
394.556	511.75
394.78	486.75
395.005	488.75
395.229	481.75
395.454	495.75
395.678	499.75
395.903	524.75
396.127	516.75
396.352	519.75
396.576	499.75
396.801	483.75
397.025	503.75
397.249	502.75
397.474	506.75
397.698	495.75
397.922	526.75
398.147	559.75
398.371	541.75
398.595	536.75
398.82	538.75
399.044	551.75
399.268	564.75
399.492	595.75
399.717	647.75
399.941	665.75
400.165	669.75
400.389	693.75
400.613	628.75
400.837	580.75
401.062	558.75
401.286	566.75
401.51	571.75
401.734	553.75
401.958	534.75
402.182	541.75
402.406	568.75
402.63	588.75
402.854	575.75
403.078	576.75
403.302	573.75
403.526	582.75
403.75	571.75
403.974	578.75
404.198	589.75
404.422	571.75
404.645	571.75
404.869	599.75
405.093	629.75
405.317	662.75
405.541	706.75
405.765	628.75
405.988	608.75
406.212	610.75
406.436	614.75
406.66	643.75
406.883	613.75
407.107	638.75
407.331	666.75
407.555	755.75
407.778	768.75
408.002	711.75
408.226	624.75
408.449	631.75
408.673	639.75
408.896	678.75
409.12	722.75
409.344	673.75
409.567	623.75
409.791	594.75
410.014	572.75
410.238	570.75
410.461	583.75
410.685	574.75
410.908	600.75
411.132	637.75
411.355	648.75
411.578	678.75
411.802	589.75
412.025	586.75
412.249	578.75
412.472	616.75
412.695	671.75
412.919	652.75
413.142	591.75
413.365	560.75
413.589	562.75
413.812	565.75
414.035	551.75
414.258	554.75
414.482	525.75
414.705	549.75
414.928	559.75
415.151	548.75
415.374	548.75
415.597	535.75
415.821	531.75
416.044	546.75
416.267	541.75
416.49	519.75
416.713	505.75
416.936	535.75
417.159	549.75
417.382	535.75
417.605	558.75
417.828	546.75
418.051	553.75
418.274	565.75
418.497	540.75
418.72	537.75
418.943	528.75
419.166	549.75
419.389	596.75
419.611	563.75
419.834	580.75
420.057	568.75
420.28	569.75
420.503	572.75
420.726	544.75
420.948	572.75
421.171	647.75
421.394	683.75
421.617	575.75
421.839	553.75
422.062	575.75
422.285	586.75
422.507	644.75
422.73	726.75
422.953	692.75
423.175	615.75
423.398	580.75
423.621	576.75
423.843	630.75
424.066	629.75
424.288	586.75
424.511	614.75
424.733	669.75
424.956	766.75
425.178	738.75
425.401	735.75
425.623	778.75
425.846	666.75
426.068	604.75
426.291	606.75
426.513	606.75
426.735	592.75
426.958	654.75
427.18	735.75
427.402	879.75
427.625	997.75
427.847	872.75
428.069	738.75
428.292	646.75
428.514	618.75
428.736	587.75
428.958	599.75
429.181	566.75
429.403	546.75
429.625	577.75
429.847	608.75
430.069	694.75
430.292	673.75
430.514	582.75
430.736	584.75
430.958	558.75
431.18	554.75
431.402	521.75
431.624	523.75
431.846	517.75
432.068	542.75
432.29	549.75
432.512	542.75
432.734	544.75
432.956	539.75
433.178	557.75
433.4	565.75
433.622	531.75
433.844	554.75
434.066	541.75
434.287	541.75
434.509	543.75
434.731	565.75
434.953	553.75
435.175	570.75
435.397	609.75
435.618	624.75
435.84	645.75
436.062	755.75
436.284	867.75
436.505	695.75
436.727	628.75
436.949	588.75
437.17	574.75
437.392	550.75
437.614	569.75
437.835	617.75
438.057	722.75
438.278	864.75
438.5	814.75
438.721	926.75
438.943	864.75
439.165	682.75
439.386	613.75
439.608	626.75
439.829	631.75
440.05	642.75
440.272	692.75
440.493	659.75
440.715	604.75
440.936	590.75
441.158	558.75
441.379	583.75
441.6	601.75
441.822	610.75
442.043	637.75
442.264	752.75
442.486	793.75
442.707	666.75
442.928	622.75
443.149	634.75
443.371	656.75
443.592	691.75
443.813	840.75
444.034	896.75
444.255	721.75
444.476	646.75
444.698	632.75
444.919	626.75
445.14	690.75
445.361	675.75
445.582	650.75
445.803	713.75
446.024	862.75
446.245	859.75
446.466	774.75
446.687	678.75
446.908	614.75
447.129	569.75
447.35	558.75
447.571	561.75
447.792	554.75
448.013	568.75
448.234	599.75
448.455	635.75
448.675	764.75
448.896	906.75
449.117	739.75
449.338	714.75
449.559	829.75
449.779	975.75
450	754.75
450.221	638.75
450.442	556.75
450.662	539.75
450.883	566.75
451.104	558.75
451.324	550.75
451.545	539.75
451.766	540.75
451.986	493.75
452.207	506.75
452.428	520.75
452.648	520.75
452.869	510.75
453.089	520.75
453.31	525.75
453.53	514.75
453.751	497.75
453.971	509.75
454.192	526.75
454.412	528.75
454.633	491.75
454.853	490.75
455.073	495.75
455.294	535.75
455.514	604.75
455.734	576.75
455.955	475.75
456.175	475.75
456.395	473.75
456.616	458.75
456.836	494.75
457.056	471.75
457.276	460.75
457.497	463.75
457.717	499.75
457.937	496.75
458.157	510.75
458.377	503.75
458.598	531.75
458.818	589.75
459.038	650.75
459.258	674.75
459.478	584.75
459.698	545.75
459.918	548.75
460.138	549.75
460.358	552.75
460.578	555.75
460.798	578.75
461.018	548.75
461.238	569.75
461.458	554.75
461.678	537.75
461.898	567.75
462.118	570.75
462.338	579.75
462.558	588.75
462.777	590.75
462.997	615.75
463.217	612.75
463.437	628.75
463.657	576.75
463.876	591.75
464.096	571.75
464.316	582.75
464.536	598.75
464.755	585.75
464.975	614.75
465.195	631.75
465.414	685.75
465.634	615.75
465.854	598.75
466.073	575.75
466.293	538.75
466.512	511.75
466.732	514.75
466.951	528.75
467.171	552.75
467.391	506.75
467.61	530.75
467.829	533.75
468.049	544.75
468.268	548.75
468.488	514.75
468.707	513.75
468.927	511.75
469.146	510.75
469.365	539.75
469.585	502.75
469.804	523.75
470.023	526.75
470.243	511.75
470.462	523.75
470.681	520.75
470.901	535.75
471.12	517.75
471.339	538.75
471.558	535.75
471.777	537.75
471.997	522.75
472.216	526.75
472.435	576.75
472.654	569.75
472.873	526.75
473.092	539.75
473.311	533.75
473.53	516.75
473.749	540.75
473.968	570.75
474.187	671.75
474.406	730.75
474.625	599.75
474.844	532.75
475.063	521.75
475.282	547.75
475.501	540.75
475.72	520.75
475.939	524.75
476.158	550.75
476.377	528.75
476.596	544.75
476.814	548.75
477.033	554.75
477.252	566.75
477.471	549.75
477.69	549.75
477.908	557.75
478.127	566.75
478.346	557.75
478.564	598.75
478.783	564.75
479.002	600.75
479.22	618.75
479.439	633.75
479.658	633.75
479.876	645.75
480.095	648.75
480.313	654.75
480.532	636.75
480.751	642.75
480.969	642.75
481.188	719.75
481.406	737.75
481.624	670.75
481.843	683.75
482.061	639.75
482.28	629.75
482.498	635.75
482.717	629.75
482.935	614.75
483.153	613.75
483.372	614.75
483.59	634.75
483.808	611.75
484.027	624.75
484.245	613.75
484.463	623.75
484.681	631.75
484.9	626.75
485.118	652.75
485.336	617.75
485.554	629.75
485.772	634.75
485.99	647.75
486.209	658.75
486.427	632.75
486.645	652.75
486.863	647.75
487.081	651.75
487.299	655.75
487.517	658.75
487.735	646.75
487.953	657.75
488.171	657.75
488.389	648.75
488.607	628.75
488.825	650.75
489.043	648.75
489.261	664.75
489.479	677.75
489.696	696.75
489.914	668.75
490.132	684.75
490.35	671.75
490.568	671.75
490.786	700.75
491.003	694.75
491.221	734.75
491.439	721.75
491.657	735.75
491.874	713.75
492.092	729.75
492.31	738.75
492.527	750.75
492.745	745.75
492.963	762.75
493.18	744.75
493.398	748.75
493.615	773.75
493.833	756.75
494.05	744.75
494.268	756.75
494.485	745.75
494.703	768.75
494.92	754.75
495.138	759.75
495.355	772.75
495.573	784.75
495.79	805.75
496.008	794.75
496.225	782.75
496.442	760.75
496.66	767.75
496.877	799.75
497.094	805.75
497.312	808.75
497.529	811.75
497.746	807.75
497.963	844.75
498.181	847.75
498.398	849.75
498.615	886.75
498.832	895.75
499.049	910.75
499.267	882.75
499.484	971.75
499.701	1000.75
499.918	1005.75
500.135	1047.75
500.352	1090.75
500.569	1122.75
500.786	1153.75
501.003	1150.75
501.22	1074.75
501.437	1064.75
501.654	1044.75
501.871	985.75
