Data from 1978.PennyLincolnUp.Lamp.En5.5.200Scan.071719.P1_HRD10591_16-12-31-864.txt Node
Date: Thu Jul 18 16:12:31 EDT 2019
User: cochatt
Spectrometer: HR+D1059
Trigger mode: 1
Integration Time (sec): 1.000000E-1
Scans to average: 1
Electric dark correction enabled: true
Nonlinearity correction enabled: false
Boxcar width: 0
XAxis mode: Wavelengths
Number of Pixels in Spectrum: 2048
>>>>>Begin Spectral Data<<<<<
223.165	1.12
223.4	1.12
223.635	1.12
223.869	-20.88
224.104	-13.88
224.338	-12.88
224.573	-14.88
224.808	-12.88
225.042	-7.88
225.277	-7.88
225.511	-3.88
225.746	0.12
225.98	-7.88
226.215	14.12
226.449	18.12
226.683	24.12
226.918	24.12
227.152	21.12
227.387	38.12
227.621	39.12
227.856	48.12
228.09	44.12
228.324	43.12
228.559	46.12
228.793	79.12
229.027	82.12
229.262	92.12
229.496	99.12
229.73	130.12
229.964	128.12
230.199	115.12
230.433	114.12
230.667	100.12
230.901	108.12
231.136	109.12
231.37	107.12
231.604	110.12
231.838	110.12
232.072	97.12
232.306	109.12
232.541	107.12
232.775	114.12
233.009	100.12
233.243	107.12
233.477	121.12
233.711	104.12
233.945	106.12
234.179	106.12
234.413	106.12
234.647	112.12
234.881	115.12
235.115	112.12
235.349	101.12
235.583	117.12
235.817	120.12
236.051	96.12
236.285	124.12
236.519	118.12
236.753	121.12
236.987	137.12
237.221	168.12
237.455	201.12
237.689	168.12
237.922	133.12
238.156	129.12
238.39	136.12
238.624	104.12
238.858	123.12
239.091	125.12
239.325	117.12
239.559	114.12
239.793	122.12
240.027	126.12
240.26	105.12
240.494	141.12
240.728	152.12
240.961	140.12
241.195	137.12
241.429	132.12
241.662	128.12
241.896	129.12
242.13	129.12
242.363	139.12
242.597	131.12
242.83	139.12
243.064	125.12
243.298	133.12
243.531	136.12
243.765	132.12
243.998	141.12
244.232	126.12
244.465	112.12
244.699	133.12
244.932	144.12
245.166	143.12
245.399	141.12
245.633	135.12
245.866	133.12
246.099	134.12
246.333	145.12
246.566	155.12
246.8	152.12
247.033	141.12
247.266	153.12
247.5	130.12
247.733	157.12
247.966	166.12
248.2	166.12
248.433	172.12
248.666	169.12
248.899	159.12
249.133	177.12
249.366	191.12
249.599	176.12
249.832	181.12
250.066	172.12
250.299	169.12
250.532	182.12
250.765	188.12
250.998	197.12
251.231	205.12
251.465	187.12
251.698	190.12
251.931	162.12
252.164	165.12
252.397	181.12
252.63	181.12
252.863	183.12
253.096	188.12
253.329	194.12
253.562	193.12
253.795	200.12
254.028	188.12
254.261	196.12
254.494	206.12
254.727	217.12
254.96	244.12
255.193	261.12
255.426	225.12
255.659	202.12
255.892	208.12
256.124	212.12
256.357	201.12
256.59	202.12
256.823	180.12
257.056	187.12
257.289	201.12
257.521	202.12
257.754	198.12
257.987	190.12
258.22	186.12
258.452	188.12
258.685	202.12
258.918	181.12
259.151	203.12
259.383	208.12
259.616	204.12
259.849	200.12
260.081	204.12
260.314	230.12
260.547	251.12
260.779	217.12
261.012	224.12
261.244	206.12
261.477	216.12
261.71	210.12
261.942	206.12
262.175	208.12
262.407	197.12
262.64	208.12
262.872	201.12
263.105	196.12
263.337	196.12
263.57	214.12
263.802	210.12
264.035	201.12
264.267	205.12
264.499	204.12
264.732	203.12
264.964	201.12
265.197	195.12
265.429	196.12
265.661	211.12
265.894	190.12
266.126	217.12
266.358	198.12
266.591	214.12
266.823	182.12
267.055	221.12
267.287	209.12
267.52	205.12
267.752	210.12
267.984	227.12
268.216	204.12
268.448	211.12
268.681	228.12
268.913	241.12
269.145	237.12
269.377	256.12
269.609	242.12
269.841	252.12
270.073	236.12
270.306	263.12
270.538	268.12
270.77	266.12
271.002	258.12
271.234	261.12
271.466	254.12
271.698	293.12
271.93	271.12
272.162	280.12
272.394	293.12
272.626	261.12
272.858	265.12
273.09	261.12
273.322	257.12
273.553	246.12
273.785	247.12
274.017	240.12
274.249	236.12
274.481	228.12
274.713	244.12
274.945	236.12
275.176	253.12
275.408	251.12
275.64	230.12
275.872	245.12
276.104	244.12
276.335	235.12
276.567	256.12
276.799	245.12
277.031	276.12
277.262	294.12
277.494	270.12
277.726	272.12
277.957	255.12
278.189	244.12
278.421	267.12
278.652	257.12
278.884	248.12
279.115	259.12
279.347	250.12
279.579	252.12
279.81	239.12
280.042	260.12
280.273	253.12
280.505	270.12
280.736	257.12
280.968	256.12
281.199	263.12
281.431	248.12
281.662	266.12
281.894	237.12
282.125	262.12
282.356	266.12
282.588	280.12
282.819	285.12
283.051	259.12
283.282	260.12
283.513	261.12
283.745	274.12
283.976	264.12
284.207	264.12
284.439	260.12
284.67	275.12
284.901	275.12
285.132	256.12
285.364	256.12
285.595	267.12
285.826	268.12
286.057	261.12
286.288	280.12
286.52	275.12
286.751	269.12
286.982	279.12
287.213	284.12
287.444	269.12
287.675	271.12
287.906	283.12
288.138	289.12
288.369	275.12
288.6	285.12
288.831	279.12
289.062	252.12
289.293	282.12
289.524	279.12
289.755	278.12
289.986	274.12
290.217	279.12
290.448	279.12
290.679	260.12
290.91	281.12
291.141	267.12
291.371	275.12
291.602	274.12
291.833	277.12
292.064	288.12
292.295	266.12
292.526	284.12
292.757	292.12
292.987	285.12
293.218	262.12
293.449	283.12
293.68	285.12
293.91	276.12
294.141	276.12
294.372	292.12
294.603	274.12
294.833	278.12
295.064	284.12
295.295	270.12
295.525	286.12
295.756	294.12
295.987	299.12
296.217	300.12
296.448	310.12
296.679	294.12
296.909	293.12
297.14	300.12
297.37	300.12
297.601	292.12
297.831	288.12
298.062	297.12
298.292	292.12
298.523	304.12
298.753	300.12
298.984	289.12
299.214	288.12
299.445	295.12
299.675	281.12
299.905	292.12
300.136	316.12
300.366	304.12
300.597	287.12
300.827	308.12
301.057	312.12
301.288	311.12
301.518	314.12
301.748	319.12
301.979	309.12
302.209	309.12
302.439	325.12
302.669	310.12
302.9	305.12
303.13	313.12
303.36	322.12
303.59	327.12
303.82	317.12
304.051	323.12
304.281	332.12
304.511	315.12
304.741	307.12
304.971	302.12
305.201	320.12
305.431	312.12
305.661	321.12
305.891	322.12
306.121	319.12
306.352	320.12
306.582	301.12
306.812	321.12
307.042	313.12
307.272	329.12
307.502	313.12
307.731	313.12
307.961	307.12
308.191	318.12
308.421	313.12
308.651	322.12
308.881	307.12
309.111	324.12
309.341	325.12
309.571	333.12
309.8	346.12
310.03	362.12
310.26	364.12
310.49	333.12
310.72	348.12
310.949	368.12
311.179	380.12
311.409	370.12
311.639	348.12
311.868	351.12
312.098	345.12
312.328	373.12
312.557	388.12
312.787	377.12
313.017	363.12
313.246	374.12
313.476	370.12
313.706	349.12
313.935	370.12
314.165	378.12
314.394	366.12
314.624	366.12
314.853	371.12
315.083	363.12
315.312	356.12
315.542	356.12
315.771	361.12
316.001	344.12
316.23	338.12
316.46	363.12
316.689	375.12
316.919	356.12
317.148	386.12
317.377	396.12
317.607	369.12
317.836	346.12
318.065	349.12
318.295	336.12
318.524	348.12
318.753	365.12
318.983	363.12
319.212	347.12
319.441	357.12
319.67	352.12
319.9	374.12
320.129	380.12
320.358	373.12
320.587	359.12
320.816	361.12
321.046	386.12
321.275	403.12
321.504	373.12
321.733	371.12
321.962	400.12
322.191	382.12
322.42	382.12
322.649	416.12
322.878	422.12
323.108	435.12
323.337	434.12
323.566	461.12
323.795	489.12
324.024	522.12
324.253	611.12
324.482	876.12
324.71	1359.12
324.939	2033.12
325.168	1791.12
325.397	861.12
325.626	608.12
325.855	523.12
326.084	480.12
326.313	469.12
326.542	484.12
326.77	528.12
326.999	577.12
327.228	787.12
327.457	1205.12
327.686	1549.12
327.914	1008.12
328.143	658.12
328.372	573.12
328.6	551.12
328.829	506.12
329.058	522.12
329.287	540.12
329.515	499.12
329.744	460.12
329.972	476.12
330.201	474.12
330.43	520.12
330.658	515.12
330.887	569.12
331.115	539.12
331.344	486.12
331.572	452.12
331.801	463.12
332.03	464.12
332.258	443.12
332.486	435.12
332.715	441.12
332.943	450.12
333.172	438.12
333.4	439.12
333.629	461.12
333.857	468.12
334.085	480.12
334.314	469.12
334.542	461.12
334.771	524.12
334.999	477.12
335.227	466.12
335.455	454.12
335.684	454.12
335.912	453.12
336.14	441.12
336.369	440.12
336.597	450.12
336.825	433.12
337.053	422.12
337.281	423.12
337.51	425.12
337.738	427.12
337.966	439.12
338.194	415.12
338.422	425.12
338.65	413.12
338.878	420.12
339.106	425.12
339.334	426.12
339.562	421.12
339.79	412.12
340.018	431.12
340.246	400.12
340.474	409.12
340.702	426.12
340.93	412.12
341.158	428.12
341.386	423.12
341.614	420.12
341.842	429.12
342.07	420.12
342.298	429.12
342.526	416.12
342.754	406.12
342.981	425.12
343.209	427.12
343.437	405.12
343.665	418.12
343.893	456.12
344.12	451.12
344.348	438.12
344.576	453.12
344.804	447.12
345.031	441.12
345.259	449.12
345.487	438.12
345.714	422.12
345.942	429.12
346.17	406.12
346.397	426.12
346.625	410.12
346.853	426.12
347.08	410.12
347.308	415.12
347.535	407.12
347.763	446.12
347.99	426.12
348.218	432.12
348.445	430.12
348.673	416.12
348.9	402.12
349.128	390.12
349.355	416.12
349.583	422.12
349.81	376.12
350.037	390.12
350.265	392.12
350.492	410.12
350.72	398.12
350.947	393.12
351.174	423.12
351.402	424.12
351.629	397.12
351.856	399.12
352.083	418.12
352.311	418.12
352.538	439.12
352.765	430.12
352.992	423.12
353.22	408.12
353.447	411.12
353.674	413.12
353.901	393.12
354.128	392.12
354.355	389.12
354.583	404.12
354.81	380.12
355.037	397.12
355.264	369.12
355.491	388.12
355.718	382.12
355.945	378.12
356.172	384.12
356.399	384.12
356.626	383.12
356.853	395.12
357.08	377.12
357.307	399.12
357.534	384.12
357.761	377.12
357.988	398.12
358.215	385.12
358.441	397.12
358.668	392.12
358.895	409.12
359.122	407.12
359.349	386.12
359.576	420.12
359.802	421.12
360.029	435.12
360.256	461.12
360.483	469.12
360.709	432.12
360.936	404.12
361.163	417.12
361.39	436.12
361.616	422.12
361.843	412.12
362.07	422.12
362.296	406.12
362.523	410.12
362.749	413.12
362.976	404.12
363.203	397.12
363.429	394.12
363.656	411.12
363.882	406.12
364.109	405.12
364.335	402.12
364.562	403.12
364.788	397.12
365.015	394.12
365.241	396.12
365.468	407.12
365.694	423.12
365.92	414.12
366.147	401.12
366.373	391.12
366.599	396.12
366.826	391.12
367.052	400.12
367.278	384.12
367.505	408.12
367.731	413.12
367.957	406.12
368.184	408.12
368.41	410.12
368.636	409.12
368.862	394.12
369.089	411.12
369.315	402.12
369.541	406.12
369.767	413.12
369.993	394.12
370.219	403.12
370.445	427.12
370.672	411.12
370.898	412.12
371.124	411.12
371.35	405.12
371.576	404.12
371.802	409.12
372.028	413.12
372.254	416.12
372.48	392.12
372.706	434.12
372.932	418.12
373.158	416.12
373.384	400.12
373.61	424.12
373.835	408.12
374.061	403.12
374.287	405.12
374.513	413.12
374.739	421.12
374.965	419.12
375.191	419.12
375.416	443.12
375.642	421.12
375.868	391.12
376.094	389.12
376.319	431.12
376.545	414.12
376.771	407.12
376.997	414.12
377.222	400.12
377.448	413.12
377.674	404.12
377.899	409.12
378.125	427.12
378.35	430.12
378.576	399.12
378.802	387.12
379.027	417.12
379.253	414.12
379.478	409.12
379.704	408.12
379.929	414.12
380.155	398.12
380.38	401.12
380.606	421.12
380.831	405.12
381.057	405.12
381.282	419.12
381.507	395.12
381.733	424.12
381.958	425.12
382.184	395.12
382.409	427.12
382.634	417.12
382.86	406.12
383.085	424.12
383.31	422.12
383.535	422.12
383.761	423.12
383.986	404.12
384.211	430.12
384.436	434.12
384.662	456.12
384.887	448.12
385.112	447.12
385.337	440.12
385.562	465.12
385.787	439.12
386.013	467.12
386.238	468.12
386.463	467.12
386.688	461.12
386.913	444.12
387.138	448.12
387.363	470.12
387.588	463.12
387.813	465.12
388.038	440.12
388.263	467.12
388.488	467.12
388.713	452.12
388.938	448.12
389.163	461.12
389.387	464.12
389.612	456.12
389.837	474.12
390.062	456.12
390.287	465.12
390.512	457.12
390.736	450.12
390.961	459.12
391.186	472.12
391.411	459.12
391.636	475.12
391.86	464.12
392.085	477.12
392.31	484.12
392.534	479.12
392.759	482.12
392.984	458.12
393.208	462.12
393.433	448.12
393.658	451.12
393.882	480.12
394.107	500.12
394.331	479.12
394.556	472.12
394.78	501.12
395.005	479.12
395.229	446.12
395.454	485.12
395.678	472.12
395.903	492.12
396.127	494.12
396.352	514.12
396.576	512.12
396.801	473.12
397.025	482.12
397.249	509.12
397.474	500.12
397.698	489.12
397.922	508.12
398.147	531.12
398.371	537.12
398.595	527.12
398.82	530.12
399.044	531.12
399.268	574.12
399.492	572.12
399.717	620.12
399.941	636.12
400.165	677.12
400.389	661.12
400.613	588.12
400.837	575.12
401.062	561.12
401.286	560.12
401.51	528.12
401.734	546.12
401.958	541.12
402.182	524.12
402.406	553.12
402.63	561.12
402.854	562.12
403.078	549.12
403.302	556.12
403.526	542.12
403.75	563.12
403.974	546.12
404.198	553.12
404.422	550.12
404.645	554.12
404.869	574.12
405.093	598.12
405.317	648.12
405.541	644.12
405.765	620.12
405.988	578.12
406.212	581.12
406.436	604.12
406.66	637.12
406.883	593.12
407.107	630.12
407.331	659.12
407.555	748.12
407.778	729.12
408.002	656.12
408.226	641.12
408.449	617.12
408.673	611.12
408.896	634.12
409.12	692.12
409.344	664.12
409.567	564.12
409.791	581.12
410.014	584.12
410.238	588.12
410.461	570.12
410.685	558.12
410.908	586.12
411.132	600.12
411.355	642.12
411.578	587.12
411.802	551.12
412.025	552.12
412.249	548.12
412.472	572.12
412.695	608.12
412.919	596.12
413.142	575.12
413.365	552.12
413.589	547.12
413.812	550.12
414.035	539.12
414.258	519.12
414.482	549.12
414.705	525.12
414.928	546.12
415.151	541.12
415.374	522.12
415.597	532.12
415.821	493.12
416.044	532.12
416.267	514.12
416.49	519.12
416.713	526.12
416.936	512.12
417.159	532.12
417.382	525.12
417.605	527.12
417.828	555.12
418.051	575.12
418.274	544.12
418.497	540.12
418.72	534.12
418.943	503.12
419.166	555.12
419.389	562.12
419.611	567.12
419.834	570.12
420.057	563.12
420.28	553.12
420.503	536.12
420.726	548.12
420.948	560.12
421.171	584.12
421.394	616.12
421.617	575.12
421.839	553.12
422.062	557.12
422.285	585.12
422.507	608.12
422.73	682.12
422.953	699.12
423.175	589.12
423.398	591.12
423.621	566.12
423.843	589.12
424.066	596.12
424.288	572.12
424.511	582.12
424.733	648.12
424.956	719.12
425.178	700.12
425.401	682.12
425.623	721.12
425.846	623.12
426.068	587.12
426.291	545.12
426.513	577.12
426.735	595.12
426.958	609.12
427.18	670.12
427.402	850.12
427.625	913.12
427.847	792.12
428.069	709.12
428.292	608.12
428.514	577.12
428.736	547.12
428.958	556.12
429.181	517.12
429.403	545.12
429.625	532.12
429.847	585.12
430.069	642.12
430.292	650.12
430.514	562.12
430.736	553.12
430.958	526.12
431.18	527.12
431.402	500.12
431.624	512.12
431.846	500.12
432.068	526.12
432.29	540.12
432.512	542.12
432.734	535.12
432.956	520.12
433.178	505.12
433.4	547.12
433.622	516.12
433.844	519.12
434.066	516.12
434.287	517.12
434.509	514.12
434.731	538.12
434.953	552.12
435.175	557.12
435.397	569.12
435.618	604.12
435.84	634.12
436.062	714.12
436.284	794.12
436.505	672.12
436.727	579.12
436.949	580.12
437.17	533.12
437.392	534.12
437.614	539.12
437.835	555.12
438.057	676.12
438.278	762.12
438.5	745.12
438.721	861.12
438.943	828.12
439.165	633.12
439.386	604.12
439.608	580.12
439.829	594.12
440.05	596.12
440.272	640.12
440.493	626.12
440.715	587.12
440.936	538.12
441.158	561.12
441.379	551.12
441.6	565.12
441.822	588.12
442.043	627.12
442.264	681.12
442.486	738.12
442.707	643.12
442.928	593.12
443.149	597.12
443.371	624.12
443.592	656.12
443.813	772.12
444.034	820.12
444.255	690.12
444.476	602.12
444.698	604.12
444.919	587.12
445.14	695.12
445.361	632.12
445.582	628.12
445.803	697.12
446.024	779.12
446.245	809.12
446.466	709.12
446.687	622.12
446.908	570.12
447.129	564.12
447.35	563.12
447.571	527.12
447.792	513.12
448.013	544.12
448.234	566.12
448.455	594.12
448.675	700.12
448.896	830.12
449.117	710.12
449.338	671.12
449.559	763.12
449.779	905.12
450	705.12
450.221	559.12
450.442	541.12
450.662	514.12
450.883	529.12
451.104	553.12
451.324	534.12
451.545	520.12
451.766	495.12
451.986	483.12
452.207	482.12
452.428	476.12
452.648	496.12
452.869	483.12
453.089	500.12
453.31	515.12
453.53	484.12
453.751	446.12
453.971	469.12
454.192	504.12
454.412	484.12
454.633	501.12
454.853	489.12
455.073	476.12
455.294	505.12
455.514	548.12
455.734	566.12
455.955	484.12
456.175	453.12
456.395	452.12
456.616	449.12
456.836	459.12
457.056	449.12
457.276	456.12
457.497	471.12
457.717	462.12
457.937	474.12
458.157	482.12
458.377	470.12
458.598	494.12
458.818	544.12
459.038	644.12
459.258	653.12
459.478	549.12
459.698	536.12
459.918	554.12
460.138	504.12
460.358	521.12
460.578	543.12
460.798	542.12
461.018	538.12
461.238	547.12
461.458	556.12
461.678	547.12
461.898	540.12
462.118	528.12
462.338	576.12
462.558	581.12
462.777	568.12
462.997	580.12
463.217	589.12
463.437	587.12
463.657	594.12
463.876	583.12
464.096	580.12
464.316	594.12
464.536	582.12
464.755	578.12
464.975	587.12
465.195	578.12
465.414	660.12
465.634	589.12
465.854	564.12
466.073	524.12
466.293	527.12
466.512	532.12
466.732	520.12
466.951	500.12
467.171	499.12
467.391	526.12
467.61	504.12
467.829	530.12
468.049	519.12
468.268	507.12
468.488	513.12
468.707	493.12
468.927	482.12
469.146	476.12
469.365	512.12
469.585	513.12
469.804	494.12
470.023	524.12
470.243	516.12
470.462	499.12
470.681	517.12
470.901	523.12
471.12	491.12
471.339	519.12
471.558	522.12
471.777	506.12
471.997	508.12
472.216	507.12
472.435	541.12
472.654	515.12
472.873	508.12
473.092	524.12
473.311	503.12
473.53	497.12
473.749	498.12
473.968	540.12
474.187	633.12
474.406	650.12
474.625	568.12
474.844	508.12
475.063	504.12
475.282	491.12
475.501	512.12
475.72	540.12
475.939	516.12
476.158	522.12
476.377	539.12
476.596	499.12
476.814	529.12
477.033	540.12
477.252	556.12
477.471	549.12
477.69	523.12
477.908	559.12
478.127	575.12
478.346	549.12
478.564	580.12
478.783	589.12
479.002	563.12
479.22	585.12
479.439	609.12
479.658	627.12
479.876	606.12
480.095	600.12
480.313	654.12
480.532	636.12
480.751	637.12
480.969	641.12
481.188	658.12
481.406	694.12
481.624	663.12
481.843	618.12
482.061	607.12
482.28	613.12
482.498	581.12
482.717	567.12
482.935	602.12
483.153	568.12
483.372	600.12
483.59	592.12
483.808	614.12
484.027	600.12
484.245	593.12
484.463	591.12
484.681	604.12
484.9	610.12
485.118	621.12
485.336	594.12
485.554	603.12
485.772	642.12
485.99	598.12
486.209	623.12
486.427	610.12
486.645	634.12
486.863	634.12
487.081	636.12
487.299	625.12
487.517	587.12
487.735	626.12
487.953	625.12
488.171	621.12
488.389	640.12
488.607	620.12
488.825	646.12
489.043	615.12
489.261	671.12
489.479	648.12
489.696	637.12
489.914	668.12
490.132	649.12
490.35	641.12
490.568	656.12
490.786	668.12
491.003	675.12
491.221	682.12
491.439	692.12
491.657	713.12
491.874	692.12
492.092	698.12
492.31	708.12
492.527	697.12
492.745	694.12
492.963	697.12
493.18	726.12
493.398	702.12
493.615	717.12
493.833	726.12
494.05	728.12
494.268	714.12
494.485	702.12
494.703	727.12
494.92	731.12
495.138	744.12
495.355	742.12
495.573	748.12
495.79	749.12
496.008	759.12
496.225	708.12
496.442	758.12
496.66	763.12
496.877	763.12
497.094	770.12
497.312	779.12
497.529	748.12
497.746	775.12
497.963	803.12
498.181	841.12
498.398	834.12
498.615	844.12
498.832	845.12
499.049	881.12
499.267	893.12
499.484	936.12
499.701	954.12
499.918	1017.12
500.135	1056.12
500.352	1119.12
500.569	1120.12
500.786	1087.12
501.003	1108.12
501.22	1062.12
501.437	1013.12
501.654	1002.12
501.871	998.12
