Data from 1978.PennyLincolnUp.Lamp.En5.5.200Scan.071719.P1_HRD10591_16-11-49-872.txt Node
Date: Thu Jul 18 16:11:49 EDT 2019
User: cochatt
Spectrometer: HR+D1059
Trigger mode: 1
Integration Time (sec): 1.000000E-1
Scans to average: 1
Electric dark correction enabled: true
Nonlinearity correction enabled: false
Boxcar width: 0
XAxis mode: Wavelengths
Number of Pixels in Spectrum: 2048
>>>>>Begin Spectral Data<<<<<
223.165	-23.19
223.4	-23.19
223.635	-23.19
223.869	-17.19
224.104	-12.19
224.338	-19.19
224.573	-14.19
224.808	-8.19
225.042	0.81
225.277	8.81
225.511	-10.19
225.746	2.81
225.98	-1.19
226.215	-7.19
226.449	19.81
226.683	26.81
226.918	30.81
227.152	22.81
227.387	34.81
227.621	41.81
227.856	48.81
228.09	56.81
228.324	56.81
228.559	50.81
228.793	61.81
229.027	89.81
229.262	111.81
229.496	93.81
229.73	116.81
229.964	128.81
230.199	102.81
230.433	101.81
230.667	108.81
230.901	103.81
231.136	100.81
231.37	113.81
231.604	109.81
231.838	91.81
232.072	102.81
232.306	105.81
232.541	110.81
232.775	106.81
233.009	106.81
233.243	120.81
233.477	114.81
233.711	113.81
233.945	117.81
234.179	121.81
234.413	112.81
234.647	125.81
234.881	106.81
235.115	101.81
235.349	100.81
235.583	109.81
235.817	103.81
236.051	117.81
236.285	116.81
236.519	127.81
236.753	109.81
236.987	124.81
237.221	152.81
237.455	190.81
237.689	161.81
237.922	126.81
238.156	118.81
238.39	118.81
238.624	119.81
238.858	110.81
239.091	117.81
239.325	114.81
239.559	126.81
239.793	122.81
240.027	128.81
240.26	122.81
240.494	137.81
240.728	143.81
240.961	133.81
241.195	142.81
241.429	141.81
241.662	105.81
241.896	127.81
242.13	129.81
242.363	133.81
242.597	121.81
242.83	118.81
243.064	133.81
243.298	132.81
243.531	135.81
243.765	128.81
243.998	126.81
244.232	120.81
244.465	144.81
244.699	130.81
244.932	137.81
245.166	137.81
245.399	127.81
245.633	138.81
245.866	130.81
246.099	116.81
246.333	135.81
246.566	136.81
246.8	144.81
247.033	133.81
247.266	126.81
247.5	124.81
247.733	152.81
247.966	152.81
248.2	154.81
248.433	144.81
248.666	148.81
248.899	143.81
249.133	166.81
249.366	168.81
249.599	158.81
249.832	146.81
250.066	160.81
250.299	146.81
250.532	147.81
250.765	154.81
250.998	192.81
251.231	176.81
251.465	173.81
251.698	169.81
251.931	169.81
252.164	172.81
252.397	168.81
252.63	160.81
252.863	174.81
253.096	169.81
253.329	183.81
253.562	195.81
253.795	186.81
254.028	183.81
254.261	174.81
254.494	176.81
254.727	209.81
254.96	192.81
255.193	188.81
255.426	201.81
255.659	191.81
255.892	198.81
256.124	186.81
256.357	189.81
256.59	190.81
256.823	194.81
257.056	178.81
257.289	186.81
257.521	167.81
257.754	202.81
257.987	175.81
258.22	171.81
258.452	181.81
258.685	180.81
258.918	179.81
259.151	185.81
259.383	189.81
259.616	184.81
259.849	183.81
260.081	197.81
260.314	218.81
260.547	208.81
260.779	196.81
261.012	206.81
261.244	182.81
261.477	199.81
261.71	193.81
261.942	186.81
262.175	178.81
262.407	186.81
262.64	194.81
262.872	191.81
263.105	187.81
263.337	185.81
263.57	183.81
263.802	186.81
264.035	180.81
264.267	198.81
264.499	189.81
264.732	191.81
264.964	188.81
265.197	214.81
265.429	180.81
265.661	187.81
265.894	171.81
266.126	171.81
266.358	178.81
266.591	175.81
266.823	193.81
267.055	190.81
267.287	186.81
267.52	197.81
267.752	192.81
267.984	184.81
268.216	181.81
268.448	202.81
268.681	209.81
268.913	217.81
269.145	226.81
269.377	226.81
269.609	224.81
269.841	212.81
270.073	215.81
270.306	228.81
270.538	245.81
270.77	237.81
271.002	220.81
271.234	213.81
271.466	265.81
271.698	246.81
271.93	245.81
272.162	262.81
272.394	250.81
272.626	218.81
272.858	238.81
273.09	230.81
273.322	236.81
273.553	237.81
273.785	231.81
274.017	217.81
274.249	219.81
274.481	222.81
274.713	234.81
274.945	224.81
275.176	232.81
275.408	209.81
275.64	219.81
275.872	216.81
276.104	238.81
276.335	219.81
276.567	215.81
276.799	230.81
277.031	242.81
277.262	242.81
277.494	245.81
277.726	230.81
277.957	244.81
278.189	238.81
278.421	231.81
278.652	214.81
278.884	231.81
279.115	246.81
279.347	229.81
279.579	240.81
279.81	224.81
280.042	246.81
280.273	246.81
280.505	237.81
280.736	218.81
280.968	219.81
281.199	241.81
281.431	227.81
281.662	233.81
281.894	233.81
282.125	233.81
282.356	246.81
282.588	254.81
282.819	250.81
283.051	259.81
283.282	237.81
283.513	242.81
283.745	241.81
283.976	238.81
284.207	254.81
284.439	241.81
284.67	243.81
284.901	236.81
285.132	248.81
285.364	235.81
285.595	241.81
285.826	252.81
286.057	258.81
286.288	246.81
286.52	248.81
286.751	239.81
286.982	231.81
287.213	240.81
287.444	259.81
287.675	233.81
287.906	259.81
288.138	244.81
288.369	256.81
288.6	272.81
288.831	242.81
289.062	248.81
289.293	259.81
289.524	247.81
289.755	250.81
289.986	241.81
290.217	244.81
290.448	259.81
290.679	239.81
290.91	258.81
291.141	257.81
291.371	272.81
291.602	270.81
291.833	256.81
292.064	253.81
292.295	255.81
292.526	260.81
292.757	276.81
292.987	244.81
293.218	266.81
293.449	265.81
293.68	247.81
293.91	261.81
294.141	260.81
294.372	245.81
294.603	267.81
294.833	275.81
295.064	264.81
295.295	272.81
295.525	271.81
295.756	273.81
295.987	275.81
296.217	271.81
296.448	274.81
296.679	273.81
296.909	275.81
297.14	264.81
297.37	288.81
297.601	264.81
297.831	289.81
298.062	280.81
298.292	262.81
298.523	272.81
298.753	269.81
298.984	248.81
299.214	284.81
299.445	279.81
299.675	266.81
299.905	278.81
300.136	266.81
300.366	287.81
300.597	293.81
300.827	289.81
301.057	284.81
301.288	296.81
301.518	284.81
301.748	297.81
301.979	299.81
302.209	297.81
302.439	304.81
302.669	304.81
302.9	302.81
303.13	281.81
303.36	277.81
303.59	297.81
303.82	301.81
304.051	287.81
304.281	304.81
304.511	294.81
304.741	293.81
304.971	301.81
305.201	277.81
305.431	286.81
305.661	285.81
305.891	287.81
306.121	316.81
306.352	294.81
306.582	301.81
306.812	281.81
307.042	275.81
307.272	299.81
307.502	276.81
307.731	281.81
307.961	299.81
308.191	296.81
308.421	284.81
308.651	298.81
308.881	282.81
309.111	299.81
309.341	293.81
309.571	293.81
309.8	299.81
310.03	313.81
310.26	321.81
310.49	296.81
310.72	318.81
310.949	328.81
311.179	330.81
311.409	314.81
311.639	316.81
311.868	315.81
312.098	318.81
312.328	322.81
312.557	340.81
312.787	331.81
313.017	334.81
313.246	339.81
313.476	310.81
313.706	328.81
313.935	325.81
314.165	330.81
314.394	345.81
314.624	336.81
314.853	343.81
315.083	337.81
315.312	310.81
315.542	328.81
315.771	302.81
316.001	326.81
316.23	310.81
316.46	330.81
316.689	332.81
316.919	323.81
317.148	350.81
317.377	334.81
317.607	321.81
317.836	326.81
318.065	334.81
318.295	331.81
318.524	336.81
318.753	331.81
318.983	325.81
319.212	318.81
319.441	334.81
319.67	321.81
319.9	332.81
320.129	336.81
320.358	328.81
320.587	322.81
320.816	337.81
321.046	330.81
321.275	356.81
321.504	330.81
321.733	346.81
321.962	337.81
322.191	335.81
322.42	352.81
322.649	347.81
322.878	360.81
323.108	376.81
323.337	385.81
323.566	390.81
323.795	411.81
324.024	427.81
324.253	482.81
324.482	664.81
324.71	948.81
324.939	1428.81
325.168	1264.81
325.397	629.81
325.626	454.81
325.855	408.81
326.084	416.81
326.313	372.81
326.542	382.81
326.77	418.81
326.999	479.81
327.228	631.81
327.457	900.81
327.686	1123.81
327.914	725.81
328.143	488.81
328.372	453.81
328.6	439.81
328.829	426.81
329.058	440.81
329.287	426.81
329.515	421.81
329.744	384.81
329.972	414.81
330.201	398.81
330.43	420.81
330.658	414.81
330.887	457.81
331.115	452.81
331.344	422.81
331.572	400.81
331.801	395.81
332.03	416.81
332.258	382.81
332.486	404.81
332.715	391.81
332.943	386.81
333.172	384.81
333.4	396.81
333.629	404.81
333.857	415.81
334.085	418.81
334.314	405.81
334.542	421.81
334.771	425.81
334.999	407.81
335.227	402.81
335.455	406.81
335.684	391.81
335.912	393.81
336.14	384.81
336.369	392.81
336.597	393.81
336.825	400.81
337.053	411.81
337.281	366.81
337.51	410.81
337.738	395.81
337.966	401.81
338.194	383.81
338.422	397.81
338.65	390.81
338.878	380.81
339.106	377.81
339.334	373.81
339.562	388.81
339.79	377.81
340.018	386.81
340.246	391.81
340.474	373.81
340.702	388.81
340.93	374.81
341.158	384.81
341.386	369.81
341.614	363.81
341.842	382.81
342.07	366.81
342.298	358.81
342.526	369.81
342.754	398.81
342.981	365.81
343.209	375.81
343.437	382.81
343.665	371.81
343.893	370.81
344.12	385.81
344.348	397.81
344.576	395.81
344.804	401.81
345.031	401.81
345.259	400.81
345.487	390.81
345.714	383.81
345.942	372.81
346.17	368.81
346.397	352.81
346.625	370.81
346.853	381.81
347.08	378.81
347.308	368.81
347.535	379.81
347.763	372.81
347.99	374.81
348.218	367.81
348.445	358.81
348.673	366.81
348.9	381.81
349.128	358.81
349.355	370.81
349.583	359.81
349.81	361.81
350.037	362.81
350.265	348.81
350.492	365.81
350.72	359.81
350.947	364.81
351.174	367.81
351.402	386.81
351.629	368.81
351.856	376.81
352.083	368.81
352.311	366.81
352.538	367.81
352.765	392.81
352.992	381.81
353.22	379.81
353.447	356.81
353.674	354.81
353.901	374.81
354.128	377.81
354.355	348.81
354.583	372.81
354.81	348.81
355.037	368.81
355.264	358.81
355.491	366.81
355.718	359.81
355.945	349.81
356.172	367.81
356.399	364.81
356.626	366.81
356.853	346.81
357.08	368.81
357.307	354.81
357.534	352.81
357.761	360.81
357.988	373.81
358.215	357.81
358.441	354.81
358.668	356.81
358.895	372.81
359.122	388.81
359.349	359.81
359.576	385.81
359.802	384.81
360.029	396.81
360.256	384.81
360.483	379.81
360.709	364.81
360.936	372.81
361.163	394.81
361.39	374.81
361.616	385.81
361.843	366.81
362.07	348.81
362.296	380.81
362.523	362.81
362.749	380.81
362.976	368.81
363.203	384.81
363.429	374.81
363.656	368.81
363.882	360.81
364.109	364.81
364.335	391.81
364.562	360.81
364.788	366.81
365.015	386.81
365.241	361.81
365.468	351.81
365.694	334.81
365.92	344.81
366.147	362.81
366.373	376.81
366.599	372.81
366.826	367.81
367.052	342.81
367.278	367.81
367.505	372.81
367.731	373.81
367.957	376.81
368.184	376.81
368.41	375.81
368.636	367.81
368.862	377.81
369.089	375.81
369.315	377.81
369.541	378.81
369.767	384.81
369.993	377.81
370.219	377.81
370.445	373.81
370.672	370.81
370.898	374.81
371.124	362.81
371.35	383.81
371.576	370.81
371.802	398.81
372.028	392.81
372.254	368.81
372.48	380.81
372.706	388.81
372.932	377.81
373.158	393.81
373.384	403.81
373.61	378.81
373.835	380.81
374.061	376.81
374.287	399.81
374.513	385.81
374.739	384.81
374.965	393.81
375.191	389.81
375.416	411.81
375.642	398.81
375.868	398.81
376.094	383.81
376.319	364.81
376.545	392.81
376.771	382.81
376.997	378.81
377.222	370.81
377.448	374.81
377.674	376.81
377.899	385.81
378.125	380.81
378.35	383.81
378.576	373.81
378.802	372.81
379.027	381.81
379.253	385.81
379.478	367.81
379.704	384.81
379.929	376.81
380.155	372.81
380.38	381.81
380.606	374.81
380.831	379.81
381.057	388.81
381.282	389.81
381.507	393.81
381.733	385.81
381.958	393.81
382.184	398.81
382.409	396.81
382.634	394.81
382.86	399.81
383.085	390.81
383.31	395.81
383.535	401.81
383.761	413.81
383.986	406.81
384.211	410.81
384.436	406.81
384.662	397.81
384.887	414.81
385.112	405.81
385.337	420.81
385.562	433.81
385.787	422.81
386.013	438.81
386.238	433.81
386.463	428.81
386.688	417.81
386.913	416.81
387.138	449.81
387.363	423.81
387.588	415.81
387.813	440.81
388.038	431.81
388.263	423.81
388.488	431.81
388.713	431.81
388.938	454.81
389.163	435.81
389.387	431.81
389.612	424.81
389.837	411.81
390.062	428.81
390.287	447.81
390.512	418.81
390.736	435.81
390.961	440.81
391.186	432.81
391.411	434.81
391.636	452.81
391.86	444.81
392.085	459.81
392.31	444.81
392.534	453.81
392.759	429.81
392.984	440.81
393.208	433.81
393.433	464.81
393.658	428.81
393.882	462.81
394.107	434.81
394.331	423.81
394.556	437.81
394.78	436.81
395.005	455.81
395.229	437.81
395.454	469.81
395.678	445.81
395.903	452.81
396.127	464.81
396.352	471.81
396.576	480.81
396.801	465.81
397.025	468.81
397.249	454.81
397.474	480.81
397.698	463.81
397.922	463.81
398.147	484.81
398.371	489.81
398.595	489.81
398.82	510.81
399.044	524.81
399.268	520.81
399.492	542.81
399.717	569.81
399.941	583.81
400.165	596.81
400.389	634.81
400.613	566.81
400.837	523.81
401.062	542.81
401.286	522.81
401.51	522.81
401.734	506.81
401.958	505.81
402.182	511.81
402.406	493.81
402.63	514.81
402.854	522.81
403.078	507.81
403.302	507.81
403.526	529.81
403.75	519.81
403.974	525.81
404.198	490.81
404.422	533.81
404.645	530.81
404.869	500.81
405.093	524.81
405.317	543.81
405.541	590.81
405.765	552.81
405.988	535.81
406.212	543.81
406.436	543.81
406.66	552.81
406.883	548.81
407.107	587.81
407.331	607.81
407.555	641.81
407.778	658.81
408.002	608.81
408.226	566.81
408.449	557.81
408.673	583.81
408.896	594.81
409.12	617.81
409.344	616.81
409.567	558.81
409.791	518.81
410.014	522.81
410.238	507.81
410.461	514.81
410.685	531.81
410.908	556.81
411.132	573.81
411.355	598.81
411.578	579.81
411.802	524.81
412.025	530.81
412.249	534.81
412.472	534.81
412.695	592.81
412.919	544.81
413.142	515.81
413.365	509.81
413.589	524.81
413.812	525.81
414.035	476.81
414.258	481.81
414.482	503.81
414.705	509.81
414.928	493.81
415.151	511.81
415.374	514.81
415.597	489.81
415.821	509.81
416.044	490.81
416.267	508.81
416.49	470.81
416.713	477.81
416.936	500.81
417.159	489.81
417.382	505.81
417.605	472.81
417.828	493.81
418.051	500.81
418.274	495.81
418.497	474.81
418.72	501.81
418.943	490.81
419.166	512.81
419.389	548.81
419.611	543.81
419.834	514.81
420.057	524.81
420.28	517.81
420.503	490.81
420.726	502.81
420.948	494.81
421.171	532.81
421.394	552.81
421.617	539.81
421.839	497.81
422.062	500.81
422.285	518.81
422.507	557.81
422.73	601.81
422.953	589.81
423.175	531.81
423.398	518.81
423.621	518.81
423.843	517.81
424.066	520.81
424.288	510.81
424.511	529.81
424.733	575.81
424.956	655.81
425.178	637.81
425.401	640.81
425.623	633.81
425.846	542.81
426.068	505.81
426.291	533.81
426.513	503.81
426.735	518.81
426.958	561.81
427.18	616.81
427.402	741.81
427.625	786.81
427.847	650.81
428.069	593.81
428.292	552.81
428.514	510.81
428.736	480.81
428.958	493.81
429.181	474.81
429.403	483.81
429.625	498.81
429.847	527.81
430.069	559.81
430.292	569.81
430.514	504.81
430.736	475.81
430.958	478.81
431.18	474.81
431.402	490.81
431.624	490.81
431.846	494.81
432.068	492.81
432.29	471.81
432.512	468.81
432.734	481.81
432.956	476.81
433.178	478.81
433.4	465.81
433.622	472.81
433.844	496.81
434.066	485.81
434.287	475.81
434.509	495.81
434.731	504.81
434.953	480.81
435.175	486.81
435.397	518.81
435.618	524.81
435.84	528.81
436.062	625.81
436.284	687.81
436.505	569.81
436.727	531.81
436.949	502.81
437.17	489.81
437.392	495.81
437.614	492.81
437.835	501.81
438.057	588.81
438.278	654.81
438.5	638.81
438.721	735.81
438.943	729.81
439.165	573.81
439.386	525.81
439.608	531.81
439.829	521.81
440.05	538.81
440.272	593.81
440.493	530.81
440.715	504.81
440.936	498.81
441.158	491.81
441.379	509.81
441.6	507.81
441.822	503.81
442.043	555.81
442.264	610.81
442.486	625.81
442.707	567.81
442.928	521.81
443.149	548.81
443.371	545.81
443.592	576.81
443.813	663.81
444.034	709.81
444.255	594.81
444.476	569.81
444.698	544.81
444.919	545.81
445.14	670.81
445.361	576.81
445.582	553.81
445.803	589.81
446.024	685.81
446.245	657.81
446.466	634.81
446.687	556.81
446.908	528.81
447.129	494.81
447.35	502.81
447.571	489.81
447.792	468.81
448.013	478.81
448.234	487.81
448.455	520.81
448.675	622.81
448.896	711.81
449.117	623.81
449.338	577.81
449.559	669.81
449.779	753.81
450	605.81
450.221	531.81
450.442	478.81
450.662	456.81
450.883	469.81
451.104	473.81
451.324	480.81
451.545	463.81
451.766	453.81
451.986	448.81
452.207	430.81
452.428	432.81
452.648	436.81
452.869	430.81
453.089	450.81
453.31	470.81
453.53	452.81
453.751	438.81
453.971	457.81
454.192	443.81
454.412	446.81
454.633	428.81
454.853	458.81
455.073	442.81
455.294	468.81
455.514	496.81
455.734	515.81
455.955	448.81
456.175	418.81
456.395	423.81
456.616	412.81
456.836	440.81
457.056	420.81
457.276	420.81
457.497	421.81
457.717	418.81
457.937	456.81
458.157	430.81
458.377	465.81
458.598	448.81
458.818	491.81
459.038	514.81
459.258	548.81
459.478	518.81
459.698	481.81
459.918	483.81
460.138	480.81
460.358	475.81
460.578	494.81
460.798	488.81
461.018	489.81
461.238	487.81
461.458	502.81
461.678	495.81
461.898	498.81
462.118	517.81
462.338	529.81
462.558	539.81
462.777	527.81
462.997	549.81
463.217	569.81
463.437	589.81
463.657	560.81
463.876	555.81
464.096	571.81
464.316	543.81
464.536	533.81
464.755	528.81
464.975	532.81
465.195	566.81
465.414	574.81
465.634	550.81
465.854	515.81
466.073	516.81
466.293	480.81
466.512	479.81
466.732	459.81
466.951	467.81
467.171	463.81
467.391	474.81
467.61	450.81
467.829	479.81
468.049	479.81
468.268	479.81
468.488	460.81
468.707	457.81
468.927	444.81
469.146	463.81
469.365	456.81
469.585	451.81
469.804	444.81
470.023	462.81
470.243	462.81
470.462	463.81
470.681	483.81
470.901	486.81
471.12	482.81
471.339	476.81
471.558	473.81
471.777	478.81
471.997	470.81
472.216	470.81
472.435	487.81
472.654	467.81
472.873	453.81
473.092	466.81
473.311	444.81
473.53	479.81
473.749	465.81
473.968	490.81
474.187	585.81
474.406	590.81
474.625	523.81
474.844	471.81
475.063	465.81
475.282	493.81
475.501	454.81
475.72	470.81
475.939	469.81
476.158	493.81
476.377	477.81
476.596	493.81
476.814	490.81
477.033	498.81
477.252	508.81
477.471	503.81
477.69	507.81
477.908	508.81
478.127	519.81
478.346	522.81
478.564	529.81
478.783	534.81
479.002	540.81
479.22	538.81
479.439	550.81
479.658	547.81
479.876	572.81
480.095	556.81
480.313	626.81
480.532	586.81
480.751	578.81
480.969	581.81
481.188	599.81
481.406	611.81
481.624	574.81
481.843	562.81
482.061	539.81
482.28	539.81
482.498	543.81
482.717	565.81
482.935	542.81
483.153	550.81
483.372	550.81
483.59	546.81
483.808	561.81
484.027	567.81
484.245	575.81
484.463	575.81
484.681	559.81
484.9	571.81
485.118	570.81
485.336	561.81
485.554	574.81
485.772	580.81
485.99	560.81
486.209	561.81
486.427	590.81
486.645	572.81
486.863	590.81
487.081	581.81
487.299	556.81
487.517	625.81
487.735	588.81
487.953	611.81
488.171	593.81
488.389	590.81
488.607	606.81
488.825	587.81
489.043	578.81
489.261	594.81
489.479	598.81
489.696	598.81
489.914	603.81
490.132	588.81
490.35	598.81
490.568	613.81
490.786	612.81
491.003	618.81
491.221	635.81
491.439	640.81
491.657	646.81
491.874	636.81
492.092	636.81
492.31	610.81
492.527	621.81
492.745	649.81
492.963	642.81
493.18	652.81
493.398	643.81
493.615	669.81
493.833	658.81
494.05	647.81
494.268	656.81
494.485	658.81
494.703	640.81
494.92	671.81
495.138	670.81
495.355	674.81
495.573	674.81
495.79	669.81
496.008	672.81
496.225	656.81
496.442	679.81
496.66	679.81
496.877	687.81
497.094	709.81
497.312	684.81
497.529	713.81
497.746	724.81
497.963	744.81
498.181	743.81
498.398	771.81
498.615	780.81
498.832	783.81
499.049	810.81
499.267	842.81
499.484	840.81
499.701	885.81
499.918	920.81
500.135	973.81
500.352	1026.81
500.569	1028.81
500.786	1018.81
501.003	1012.81
501.22	981.81
501.437	964.81
501.654	921.81
501.871	885.81
