Data from 1978.PennyLincolnUp.Lamp.En5.5.200Scan.071719.P1_HRD10591_16-13-08-863.txt Node
Date: Thu Jul 18 16:13:08 EDT 2019
User: cochatt
Spectrometer: HR+D1059
Trigger mode: 1
Integration Time (sec): 1.000000E-1
Scans to average: 1
Electric dark correction enabled: true
Nonlinearity correction enabled: false
Boxcar width: 0
XAxis mode: Wavelengths
Number of Pixels in Spectrum: 2048
>>>>>Begin Spectral Data<<<<<
223.165	-15.88
223.4	-15.88
223.635	-15.88
223.869	-13.88
224.104	-22.88
224.338	-5.88
224.573	-19.88
224.808	-13.88
225.042	-16.88
225.277	1.12
225.511	-3.88
225.746	-7.88
225.98	21.12
226.215	3.12
226.449	10.12
226.683	28.12
226.918	19.12
227.152	38.12
227.387	22.12
227.621	40.12
227.856	29.12
228.09	50.12
228.324	51.12
228.559	59.12
228.793	74.12
229.027	105.12
229.262	92.12
229.496	96.12
229.73	118.12
229.964	149.12
230.199	126.12
230.433	119.12
230.667	123.12
230.901	119.12
231.136	123.12
231.37	108.12
231.604	117.12
231.838	120.12
232.072	106.12
232.306	103.12
232.541	111.12
232.775	109.12
233.009	121.12
233.243	106.12
233.477	110.12
233.711	121.12
233.945	113.12
234.179	111.12
234.413	123.12
234.647	127.12
234.881	123.12
235.115	114.12
235.349	120.12
235.583	119.12
235.817	127.12
236.051	123.12
236.285	128.12
236.519	121.12
236.753	130.12
236.987	135.12
237.221	182.12
237.455	228.12
237.689	167.12
237.922	128.12
238.156	124.12
238.39	117.12
238.624	129.12
238.858	127.12
239.091	125.12
239.325	130.12
239.559	109.12
239.793	136.12
240.027	118.12
240.26	146.12
240.494	139.12
240.728	129.12
240.961	143.12
241.195	132.12
241.429	127.12
241.662	134.12
241.896	128.12
242.13	134.12
242.363	119.12
242.597	114.12
242.83	121.12
243.064	132.12
243.298	121.12
243.531	111.12
243.765	133.12
243.998	143.12
244.232	137.12
244.465	132.12
244.699	142.12
244.932	125.12
245.166	127.12
245.399	141.12
245.633	124.12
245.866	153.12
246.099	145.12
246.333	125.12
246.566	141.12
246.8	156.12
247.033	148.12
247.266	157.12
247.5	148.12
247.733	159.12
247.966	144.12
248.2	161.12
248.433	159.12
248.666	151.12
248.899	165.12
249.133	175.12
249.366	195.12
249.599	191.12
249.832	183.12
250.066	168.12
250.299	164.12
250.532	183.12
250.765	182.12
250.998	196.12
251.231	218.12
251.465	205.12
251.698	199.12
251.931	191.12
252.164	190.12
252.397	185.12
252.63	172.12
252.863	200.12
253.096	198.12
253.329	211.12
253.562	207.12
253.795	202.12
254.028	212.12
254.261	212.12
254.494	207.12
254.727	232.12
254.96	242.12
255.193	236.12
255.426	232.12
255.659	208.12
255.892	217.12
256.124	218.12
256.357	227.12
256.59	210.12
256.823	201.12
257.056	200.12
257.289	211.12
257.521	200.12
257.754	215.12
257.987	184.12
258.22	193.12
258.452	192.12
258.685	196.12
258.918	205.12
259.151	203.12
259.383	217.12
259.616	187.12
259.849	212.12
260.081	213.12
260.314	231.12
260.547	243.12
260.779	225.12
261.012	212.12
261.244	213.12
261.477	226.12
261.71	212.12
261.942	212.12
262.175	223.12
262.407	219.12
262.64	197.12
262.872	203.12
263.105	211.12
263.337	199.12
263.57	207.12
263.802	200.12
264.035	209.12
264.267	202.12
264.499	222.12
264.732	209.12
264.964	212.12
265.197	200.12
265.429	219.12
265.661	212.12
265.894	195.12
266.126	207.12
266.358	199.12
266.591	196.12
266.823	211.12
267.055	230.12
267.287	217.12
267.52	217.12
267.752	216.12
267.984	202.12
268.216	212.12
268.448	228.12
268.681	211.12
268.913	212.12
269.145	246.12
269.377	257.12
269.609	255.12
269.841	256.12
270.073	259.12
270.306	259.12
270.538	276.12
270.77	307.12
271.002	276.12
271.234	280.12
271.466	256.12
271.698	279.12
271.93	275.12
272.162	300.12
272.394	291.12
272.626	282.12
272.858	246.12
273.09	257.12
273.322	250.12
273.553	254.12
273.785	243.12
274.017	273.12
274.249	245.12
274.481	246.12
274.713	257.12
274.945	250.12
275.176	237.12
275.408	254.12
275.64	239.12
275.872	241.12
276.104	223.12
276.335	248.12
276.567	265.12
276.799	261.12
277.031	271.12
277.262	295.12
277.494	291.12
277.726	263.12
277.957	261.12
278.189	272.12
278.421	265.12
278.652	250.12
278.884	255.12
279.115	273.12
279.347	266.12
279.579	255.12
279.81	249.12
280.042	247.12
280.273	256.12
280.505	264.12
280.736	267.12
280.968	263.12
281.199	258.12
281.431	268.12
281.662	268.12
281.894	263.12
282.125	253.12
282.356	269.12
282.588	299.12
282.819	314.12
283.051	289.12
283.282	271.12
283.513	258.12
283.745	269.12
283.976	286.12
284.207	277.12
284.439	272.12
284.67	260.12
284.901	260.12
285.132	293.12
285.364	278.12
285.595	285.12
285.826	274.12
286.057	243.12
286.288	265.12
286.52	280.12
286.751	275.12
286.982	287.12
287.213	256.12
287.444	283.12
287.675	277.12
287.906	288.12
288.138	294.12
288.369	275.12
288.6	295.12
288.831	286.12
289.062	290.12
289.293	295.12
289.524	286.12
289.755	283.12
289.986	275.12
290.217	292.12
290.448	279.12
290.679	272.12
290.91	268.12
291.141	284.12
291.371	267.12
291.602	279.12
291.833	275.12
292.064	259.12
292.295	281.12
292.526	278.12
292.757	276.12
292.987	281.12
293.218	267.12
293.449	288.12
293.68	275.12
293.91	276.12
294.141	273.12
294.372	283.12
294.603	275.12
294.833	268.12
295.064	298.12
295.295	279.12
295.525	290.12
295.756	294.12
295.987	309.12
296.217	316.12
296.448	312.12
296.679	318.12
296.909	307.12
297.14	315.12
297.37	298.12
297.601	309.12
297.831	277.12
298.062	289.12
298.292	315.12
298.523	322.12
298.753	303.12
298.984	317.12
299.214	300.12
299.445	307.12
299.675	293.12
299.905	303.12
300.136	313.12
300.366	306.12
300.597	319.12
300.827	305.12
301.057	330.12
301.288	322.12
301.518	316.12
301.748	320.12
301.979	324.12
302.209	333.12
302.439	326.12
302.669	323.12
302.9	308.12
303.13	330.12
303.36	319.12
303.59	342.12
303.82	331.12
304.051	296.12
304.281	321.12
304.511	329.12
304.741	321.12
304.971	338.12
305.201	308.12
305.431	325.12
305.661	326.12
305.891	322.12
306.121	306.12
306.352	336.12
306.582	327.12
306.812	326.12
307.042	316.12
307.272	328.12
307.502	312.12
307.731	319.12
307.961	327.12
308.191	312.12
308.421	314.12
308.651	329.12
308.881	340.12
309.111	339.12
309.341	332.12
309.571	332.12
309.8	353.12
310.03	345.12
310.26	364.12
310.49	319.12
310.72	367.12
310.949	378.12
311.179	356.12
311.409	373.12
311.639	356.12
311.868	355.12
312.098	367.12
312.328	373.12
312.557	379.12
312.787	386.12
313.017	399.12
313.246	372.12
313.476	367.12
313.706	371.12
313.935	374.12
314.165	385.12
314.394	391.12
314.624	373.12
314.853	391.12
315.083	375.12
315.312	380.12
315.542	372.12
315.771	345.12
316.001	373.12
316.23	371.12
316.46	381.12
316.689	369.12
316.919	370.12
317.148	374.12
317.377	377.12
317.607	373.12
317.836	348.12
318.065	362.12
318.295	375.12
318.524	367.12
318.753	358.12
318.983	366.12
319.212	339.12
319.441	368.12
319.67	383.12
319.9	378.12
320.129	390.12
320.358	392.12
320.587	372.12
320.816	380.12
321.046	370.12
321.275	397.12
321.504	389.12
321.733	392.12
321.962	420.12
322.191	395.12
322.42	420.12
322.649	412.12
322.878	450.12
323.108	437.12
323.337	460.12
323.566	479.12
323.795	496.12
324.024	551.12
324.253	664.12
324.482	919.12
324.71	1455.12
324.939	2231.12
325.168	1922.12
325.397	931.12
325.626	626.12
325.855	538.12
326.084	485.12
326.313	472.12
326.542	511.12
326.77	523.12
326.999	611.12
327.228	869.12
327.457	1332.12
327.686	1691.12
327.914	1094.12
328.143	663.12
328.372	599.12
328.6	567.12
328.829	521.12
329.058	538.12
329.287	572.12
329.515	529.12
329.744	502.12
329.972	480.12
330.201	502.12
330.43	543.12
330.658	541.12
330.887	605.12
331.115	593.12
331.344	507.12
331.572	477.12
331.801	499.12
332.03	484.12
332.258	461.12
332.486	430.12
332.715	449.12
332.943	462.12
333.172	474.12
333.4	450.12
333.629	465.12
333.857	487.12
334.085	497.12
334.314	487.12
334.542	516.12
334.771	526.12
334.999	477.12
335.227	460.12
335.455	464.12
335.684	463.12
335.912	451.12
336.14	440.12
336.369	447.12
336.597	455.12
336.825	448.12
337.053	451.12
337.281	441.12
337.51	432.12
337.738	458.12
337.966	440.12
338.194	450.12
338.422	461.12
338.65	440.12
338.878	430.12
339.106	423.12
339.334	448.12
339.562	423.12
339.79	417.12
340.018	427.12
340.246	437.12
340.474	441.12
340.702	447.12
340.93	438.12
341.158	452.12
341.386	432.12
341.614	447.12
341.842	421.12
342.07	419.12
342.298	421.12
342.526	414.12
342.754	436.12
342.981	419.12
343.209	413.12
343.437	427.12
343.665	426.12
343.893	451.12
344.12	436.12
344.348	451.12
344.576	428.12
344.804	443.12
345.031	430.12
345.259	456.12
345.487	425.12
345.714	441.12
345.942	449.12
346.17	425.12
346.397	412.12
346.625	439.12
346.853	438.12
347.08	417.12
347.308	441.12
347.535	423.12
347.763	401.12
347.99	425.12
348.218	456.12
348.445	416.12
348.673	441.12
348.9	428.12
349.128	403.12
349.355	389.12
349.583	415.12
349.81	417.12
350.037	410.12
350.265	388.12
350.492	378.12
350.72	409.12
350.947	421.12
351.174	428.12
351.402	444.12
351.629	416.12
351.856	436.12
352.083	440.12
352.311	419.12
352.538	426.12
352.765	409.12
352.992	413.12
353.22	416.12
353.447	426.12
353.674	399.12
353.901	398.12
354.128	411.12
354.355	414.12
354.583	403.12
354.81	404.12
355.037	399.12
355.264	385.12
355.491	383.12
355.718	382.12
355.945	394.12
356.172	398.12
356.399	389.12
356.626	408.12
356.853	410.12
357.08	402.12
357.307	389.12
357.534	411.12
357.761	396.12
357.988	403.12
358.215	391.12
358.441	382.12
358.668	392.12
358.895	399.12
359.122	401.12
359.349	419.12
359.576	421.12
359.802	456.12
360.029	464.12
360.256	459.12
360.483	440.12
360.709	422.12
360.936	410.12
361.163	406.12
361.39	425.12
361.616	427.12
361.843	407.12
362.07	419.12
362.296	413.12
362.523	426.12
362.749	408.12
362.976	421.12
363.203	415.12
363.429	412.12
363.656	395.12
363.882	399.12
364.109	409.12
364.335	402.12
364.562	412.12
364.788	425.12
365.015	419.12
365.241	421.12
365.468	420.12
365.694	413.12
365.92	444.12
366.147	405.12
366.373	412.12
366.599	401.12
366.826	405.12
367.052	406.12
367.278	409.12
367.505	420.12
367.731	433.12
367.957	403.12
368.184	404.12
368.41	406.12
368.636	426.12
368.862	421.12
369.089	436.12
369.315	412.12
369.541	425.12
369.767	388.12
369.993	411.12
370.219	395.12
370.445	421.12
370.672	416.12
370.898	420.12
371.124	408.12
371.35	436.12
371.576	408.12
371.802	405.12
372.028	409.12
372.254	408.12
372.48	425.12
372.706	400.12
372.932	419.12
373.158	405.12
373.384	436.12
373.61	416.12
373.835	429.12
374.061	417.12
374.287	419.12
374.513	408.12
374.739	424.12
374.965	427.12
375.191	422.12
375.416	423.12
375.642	445.12
375.868	436.12
376.094	405.12
376.319	415.12
376.545	410.12
376.771	424.12
376.997	418.12
377.222	401.12
377.448	424.12
377.674	416.12
377.899	421.12
378.125	413.12
378.35	419.12
378.576	432.12
378.802	415.12
379.027	422.12
379.253	437.12
379.478	416.12
379.704	423.12
379.929	402.12
380.155	417.12
380.38	394.12
380.606	417.12
380.831	418.12
381.057	428.12
381.282	413.12
381.507	431.12
381.733	425.12
381.958	434.12
382.184	421.12
382.409	435.12
382.634	443.12
382.86	436.12
383.085	440.12
383.31	440.12
383.535	449.12
383.761	435.12
383.986	436.12
384.211	425.12
384.436	454.12
384.662	447.12
384.887	458.12
385.112	455.12
385.337	448.12
385.562	469.12
385.787	477.12
386.013	469.12
386.238	486.12
386.463	469.12
386.688	464.12
386.913	466.12
387.138	475.12
387.363	450.12
387.588	452.12
387.813	467.12
388.038	468.12
388.263	470.12
388.488	457.12
388.713	475.12
388.938	463.12
389.163	465.12
389.387	471.12
389.612	471.12
389.837	463.12
390.062	465.12
390.287	448.12
390.512	447.12
390.736	465.12
390.961	467.12
391.186	484.12
391.411	478.12
391.636	474.12
391.86	468.12
392.085	486.12
392.31	491.12
392.534	493.12
392.759	482.12
392.984	491.12
393.208	472.12
393.433	466.12
393.658	480.12
393.882	463.12
394.107	473.12
394.331	493.12
394.556	464.12
394.78	473.12
395.005	485.12
395.229	474.12
395.454	470.12
395.678	501.12
395.903	508.12
396.127	522.12
396.352	505.12
396.576	501.12
396.801	500.12
397.025	500.12
397.249	485.12
397.474	505.12
397.698	511.12
397.922	519.12
398.147	536.12
398.371	552.12
398.595	547.12
398.82	546.12
399.044	567.12
399.268	561.12
399.492	585.12
399.717	620.12
399.941	635.12
400.165	672.12
400.389	681.12
400.613	649.12
400.837	598.12
401.062	538.12
401.286	556.12
401.51	541.12
401.734	533.12
401.958	543.12
402.182	565.12
402.406	567.12
402.63	541.12
402.854	538.12
403.078	547.12
403.302	574.12
403.526	577.12
403.75	581.12
403.974	562.12
404.198	567.12
404.422	551.12
404.645	575.12
404.869	576.12
405.093	629.12
405.317	643.12
405.541	677.12
405.765	616.12
405.988	596.12
406.212	585.12
406.436	611.12
406.66	636.12
406.883	616.12
407.107	632.12
407.331	708.12
407.555	771.12
407.778	736.12
408.002	685.12
408.226	637.12
408.449	631.12
408.673	624.12
408.896	656.12
409.12	701.12
409.344	673.12
409.567	586.12
409.791	598.12
410.014	589.12
410.238	560.12
410.461	569.12
410.685	595.12
410.908	584.12
411.132	651.12
411.355	683.12
411.578	628.12
411.802	581.12
412.025	572.12
412.249	569.12
412.472	608.12
412.695	645.12
412.919	629.12
413.142	579.12
413.365	565.12
413.589	566.12
413.812	551.12
414.035	557.12
414.258	554.12
414.482	566.12
414.705	542.12
414.928	530.12
415.151	551.12
415.374	545.12
415.597	537.12
415.821	525.12
416.044	541.12
416.267	544.12
416.49	555.12
416.713	517.12
416.936	531.12
417.159	544.12
417.382	533.12
417.605	549.12
417.828	534.12
418.051	554.12
418.274	546.12
418.497	532.12
418.72	554.12
418.943	533.12
419.166	548.12
419.389	585.12
419.611	593.12
419.834	563.12
420.057	586.12
420.28	559.12
420.503	537.12
420.726	549.12
420.948	575.12
421.171	602.12
421.394	642.12
421.617	586.12
421.839	571.12
422.062	564.12
422.285	578.12
422.507	630.12
422.73	709.12
422.953	693.12
423.175	619.12
423.398	573.12
423.621	567.12
423.843	617.12
424.066	580.12
424.288	586.12
424.511	626.12
424.733	663.12
424.956	772.12
425.178	751.12
425.401	727.12
425.623	747.12
425.846	631.12
426.068	611.12
426.291	606.12
426.513	589.12
426.735	586.12
426.958	634.12
427.18	720.12
427.402	894.12
427.625	955.12
427.847	836.12
428.069	719.12
428.292	639.12
428.514	586.12
428.736	567.12
428.958	564.12
429.181	567.12
429.403	554.12
429.625	569.12
429.847	596.12
430.069	667.12
430.292	679.12
430.514	569.12
430.736	567.12
430.958	541.12
431.18	519.12
431.402	537.12
431.624	537.12
431.846	516.12
432.068	531.12
432.29	526.12
432.512	517.12
432.734	548.12
432.956	532.12
433.178	554.12
433.4	539.12
433.622	543.12
433.844	536.12
434.066	530.12
434.287	529.12
434.509	556.12
434.731	555.12
434.953	532.12
435.175	559.12
435.397	599.12
435.618	603.12
435.84	645.12
436.062	765.12
436.284	837.12
436.505	698.12
436.727	615.12
436.949	593.12
437.17	568.12
437.392	542.12
437.614	576.12
437.835	597.12
438.057	694.12
438.278	817.12
438.5	794.12
438.721	866.12
438.943	853.12
439.165	649.12
439.386	611.12
439.608	599.12
439.829	609.12
440.05	620.12
440.272	690.12
440.493	633.12
440.715	577.12
440.936	547.12
441.158	567.12
441.379	571.12
441.6	553.12
441.822	589.12
442.043	608.12
442.264	696.12
442.486	793.12
442.707	673.12
442.928	601.12
443.149	595.12
443.371	643.12
443.592	682.12
443.813	786.12
444.034	885.12
444.255	727.12
444.476	619.12
444.698	613.12
444.919	606.12
445.14	709.12
445.361	663.12
445.582	659.12
445.803	721.12
446.024	809.12
446.245	845.12
446.466	745.12
446.687	635.12
446.908	616.12
447.129	589.12
447.35	554.12
447.571	568.12
447.792	543.12
448.013	555.12
448.234	558.12
448.455	618.12
448.675	729.12
448.896	865.12
449.117	728.12
449.338	673.12
449.559	805.12
449.779	931.12
450	743.12
450.221	625.12
450.442	545.12
450.662	535.12
450.883	542.12
451.104	535.12
451.324	546.12
451.545	528.12
451.766	528.12
451.986	524.12
452.207	495.12
452.428	492.12
452.648	503.12
452.869	475.12
453.089	509.12
453.31	509.12
453.53	510.12
453.751	519.12
453.971	503.12
454.192	527.12
454.412	497.12
454.633	513.12
454.853	472.12
455.073	482.12
455.294	536.12
455.514	580.12
455.734	583.12
455.955	497.12
456.175	492.12
456.395	453.12
456.616	457.12
456.836	462.12
457.056	448.12
457.276	449.12
457.497	476.12
457.717	472.12
457.937	464.12
458.157	482.12
458.377	490.12
458.598	500.12
458.818	564.12
459.038	638.12
459.258	667.12
459.478	586.12
459.698	539.12
459.918	533.12
460.138	549.12
460.358	558.12
460.578	541.12
460.798	557.12
461.018	545.12
461.238	559.12
461.458	557.12
461.678	533.12
461.898	539.12
462.118	559.12
462.338	548.12
462.558	577.12
462.777	590.12
462.997	588.12
463.217	599.12
463.437	614.12
463.657	596.12
463.876	571.12
464.096	581.12
464.316	588.12
464.536	590.12
464.755	596.12
464.975	610.12
465.195	610.12
465.414	673.12
465.634	588.12
465.854	571.12
466.073	543.12
466.293	529.12
466.512	522.12
466.732	507.12
466.951	519.12
467.171	529.12
467.391	520.12
467.61	515.12
467.829	522.12
468.049	538.12
468.268	512.12
468.488	493.12
468.707	489.12
468.927	501.12
469.146	508.12
469.365	525.12
469.585	511.12
469.804	512.12
470.023	534.12
470.243	513.12
470.462	526.12
470.681	509.12
470.901	521.12
471.12	534.12
471.339	541.12
471.558	516.12
471.777	523.12
471.997	531.12
472.216	525.12
472.435	556.12
472.654	541.12
472.873	518.12
473.092	512.12
473.311	549.12
473.53	531.12
473.749	524.12
473.968	578.12
474.187	673.12
474.406	682.12
474.625	566.12
474.844	529.12
475.063	531.12
475.282	543.12
475.501	540.12
475.72	538.12
475.939	524.12
476.158	518.12
476.377	543.12
476.596	547.12
476.814	561.12
477.033	550.12
477.252	557.12
477.471	567.12
477.69	573.12
477.908	570.12
478.127	567.12
478.346	564.12
478.564	584.12
478.783	583.12
479.002	600.12
479.22	577.12
479.439	609.12
479.658	592.12
479.876	627.12
480.095	639.12
480.313	644.12
480.532	663.12
480.751	631.12
480.969	633.12
481.188	664.12
481.406	703.12
481.624	667.12
481.843	657.12
482.061	623.12
482.28	627.12
482.498	609.12
482.717	596.12
482.935	589.12
483.153	595.12
483.372	618.12
483.59	592.12
483.808	634.12
484.027	605.12
484.245	616.12
484.463	613.12
484.681	611.12
484.9	618.12
485.118	636.12
485.336	624.12
485.554	620.12
485.772	619.12
485.99	637.12
486.209	657.12
486.427	639.12
486.645	624.12
486.863	636.12
487.081	670.12
487.299	645.12
487.517	667.12
487.735	647.12
487.953	652.12
488.171	645.12
488.389	634.12
488.607	647.12
488.825	671.12
489.043	652.12
489.261	647.12
489.479	640.12
489.696	642.12
489.914	636.12
490.132	675.12
490.35	671.12
490.568	698.12
490.786	697.12
491.003	700.12
491.221	697.12
491.439	708.12
491.657	713.12
491.874	707.12
492.092	700.12
492.31	732.12
492.527	732.12
492.745	739.12
492.963	752.12
493.18	736.12
493.398	727.12
493.615	738.12
493.833	745.12
494.05	735.12
494.268	750.12
494.485	781.12
494.703	737.12
494.92	754.12
495.138	744.12
495.355	740.12
495.573	773.12
495.79	787.12
496.008	780.12
496.225	771.12
496.442	772.12
496.66	738.12
496.877	772.12
497.094	770.12
497.312	767.12
497.529	788.12
497.746	797.12
497.963	832.12
498.181	873.12
498.398	849.12
498.615	871.12
498.832	885.12
499.049	924.12
499.267	930.12
499.484	953.12
499.701	995.12
499.918	1007.12
500.135	1084.12
500.352	1095.12
500.569	1125.12
500.786	1098.12
501.003	1091.12
501.22	1111.12
501.437	1066.12
501.654	1025.12
501.871	1000.12
