Data from 1978.PennyLincolnUp.Lamp.En5.5.200Scan.071719.P1_HRD10591_16-13-40-865.txt Node
Date: Thu Jul 18 16:13:40 EDT 2019
User: cochatt
Spectrometer: HR+D1059
Trigger mode: 1
Integration Time (sec): 1.000000E-1
Scans to average: 1
Electric dark correction enabled: true
Nonlinearity correction enabled: false
Boxcar width: 0
XAxis mode: Wavelengths
Number of Pixels in Spectrum: 2048
>>>>>Begin Spectral Data<<<<<
223.165	-4.38
223.4	-4.38
223.635	-4.38
223.869	-20.38
224.104	-26.38
224.338	-5.38
224.573	-21.38
224.808	-13.38
225.042	-20.38
225.277	-1.38
225.511	-5.38
225.746	-0.38
225.98	20.62
226.215	19.62
226.449	22.62
226.683	14.62
226.918	13.62
227.152	27.62
227.387	24.62
227.621	40.62
227.856	42.62
228.09	34.62
228.324	53.62
228.559	58.62
228.793	62.62
229.027	101.62
229.262	104.62
229.496	115.62
229.73	123.62
229.964	159.62
230.199	123.62
230.433	120.62
230.667	121.62
230.901	106.62
231.136	128.62
231.37	110.62
231.604	112.62
231.838	107.62
232.072	122.62
232.306	109.62
232.541	120.62
232.775	115.62
233.009	117.62
233.243	117.62
233.477	101.62
233.711	107.62
233.945	111.62
234.179	131.62
234.413	118.62
234.647	111.62
234.881	122.62
235.115	130.62
235.349	120.62
235.583	128.62
235.817	121.62
236.051	115.62
236.285	120.62
236.519	122.62
236.753	119.62
236.987	150.62
237.221	179.62
237.455	231.62
237.689	174.62
237.922	135.62
238.156	124.62
238.39	126.62
238.624	119.62
238.858	117.62
239.091	111.62
239.325	137.62
239.559	128.62
239.793	121.62
240.027	125.62
240.26	135.62
240.494	156.62
240.728	136.62
240.961	144.62
241.195	144.62
241.429	128.62
241.662	126.62
241.896	132.62
242.13	124.62
242.363	137.62
242.597	127.62
242.83	128.62
243.064	125.62
243.298	127.62
243.531	128.62
243.765	135.62
243.998	144.62
244.232	130.62
244.465	154.62
244.699	129.62
244.932	138.62
245.166	130.62
245.399	140.62
245.633	135.62
245.866	140.62
246.099	135.62
246.333	137.62
246.566	148.62
246.8	154.62
247.033	148.62
247.266	159.62
247.5	154.62
247.733	170.62
247.966	165.62
248.2	160.62
248.433	168.62
248.666	173.62
248.899	184.62
249.133	186.62
249.366	187.62
249.599	182.62
249.832	167.62
250.066	168.62
250.299	177.62
250.532	176.62
250.765	206.62
250.998	199.62
251.231	210.62
251.465	203.62
251.698	208.62
251.931	206.62
252.164	174.62
252.397	186.62
252.63	187.62
252.863	186.62
253.096	201.62
253.329	213.62
253.562	206.62
253.795	205.62
254.028	213.62
254.261	212.62
254.494	214.62
254.727	226.62
254.96	254.62
255.193	255.62
255.426	232.62
255.659	216.62
255.892	205.62
256.124	201.62
256.357	200.62
256.59	223.62
256.823	190.62
257.056	202.62
257.289	198.62
257.521	198.62
257.754	206.62
257.987	197.62
258.22	201.62
258.452	212.62
258.685	191.62
258.918	180.62
259.151	189.62
259.383	194.62
259.616	212.62
259.849	213.62
260.081	211.62
260.314	245.62
260.547	251.62
260.779	230.62
261.012	220.62
261.244	204.62
261.477	215.62
261.71	211.62
261.942	194.62
262.175	237.62
262.407	226.62
262.64	211.62
262.872	227.62
263.105	210.62
263.337	207.62
263.57	195.62
263.802	211.62
264.035	211.62
264.267	200.62
264.499	213.62
264.732	206.62
264.964	212.62
265.197	192.62
265.429	208.62
265.661	212.62
265.894	208.62
266.126	226.62
266.358	195.62
266.591	202.62
266.823	212.62
267.055	222.62
267.287	198.62
267.52	200.62
267.752	223.62
267.984	215.62
268.216	223.62
268.448	232.62
268.681	239.62
268.913	233.62
269.145	251.62
269.377	280.62
269.609	248.62
269.841	255.62
270.073	251.62
270.306	256.62
270.538	295.62
270.77	285.62
271.002	278.62
271.234	259.62
271.466	281.62
271.698	290.62
271.93	292.62
272.162	293.62
272.394	306.62
272.626	278.62
272.858	258.62
273.09	278.62
273.322	252.62
273.553	247.62
273.785	258.62
274.017	248.62
274.249	246.62
274.481	255.62
274.713	232.62
274.945	257.62
275.176	252.62
275.408	247.62
275.64	280.62
275.872	258.62
276.104	277.62
276.335	242.62
276.567	284.62
276.799	257.62
277.031	283.62
277.262	291.62
277.494	295.62
277.726	276.62
277.957	274.62
278.189	267.62
278.421	267.62
278.652	274.62
278.884	250.62
279.115	268.62
279.347	260.62
279.579	262.62
279.81	269.62
280.042	279.62
280.273	238.62
280.505	262.62
280.736	270.62
280.968	244.62
281.199	256.62
281.431	258.62
281.662	252.62
281.894	264.62
282.125	254.62
282.356	270.62
282.588	285.62
282.819	303.62
283.051	261.62
283.282	273.62
283.513	257.62
283.745	270.62
283.976	276.62
284.207	294.62
284.439	270.62
284.67	275.62
284.901	263.62
285.132	265.62
285.364	266.62
285.595	282.62
285.826	272.62
286.057	268.62
286.288	280.62
286.52	281.62
286.751	292.62
286.982	283.62
287.213	266.62
287.444	282.62
287.675	285.62
287.906	276.62
288.138	280.62
288.369	287.62
288.6	296.62
288.831	287.62
289.062	288.62
289.293	295.62
289.524	280.62
289.755	284.62
289.986	280.62
290.217	276.62
290.448	258.62
290.679	277.62
290.91	260.62
291.141	288.62
291.371	272.62
291.602	261.62
291.833	275.62
292.064	276.62
292.295	283.62
292.526	294.62
292.757	304.62
292.987	283.62
293.218	280.62
293.449	288.62
293.68	277.62
293.91	269.62
294.141	277.62
294.372	287.62
294.603	279.62
294.833	264.62
295.064	293.62
295.295	278.62
295.525	288.62
295.756	274.62
295.987	299.62
296.217	309.62
296.448	331.62
296.679	298.62
296.909	292.62
297.14	297.62
297.37	307.62
297.601	306.62
297.831	286.62
298.062	291.62
298.292	307.62
298.523	297.62
298.753	308.62
298.984	299.62
299.214	286.62
299.445	290.62
299.675	308.62
299.905	315.62
300.136	290.62
300.366	299.62
300.597	308.62
300.827	328.62
301.057	308.62
301.288	316.62
301.518	310.62
301.748	317.62
301.979	317.62
302.209	333.62
302.439	331.62
302.669	314.62
302.9	303.62
303.13	296.62
303.36	327.62
303.59	327.62
303.82	342.62
304.051	317.62
304.281	314.62
304.511	308.62
304.741	308.62
304.971	323.62
305.201	322.62
305.431	316.62
305.661	322.62
305.891	324.62
306.121	321.62
306.352	317.62
306.582	325.62
306.812	310.62
307.042	333.62
307.272	324.62
307.502	298.62
307.731	322.62
307.961	326.62
308.191	322.62
308.421	331.62
308.651	332.62
308.881	314.62
309.111	325.62
309.341	314.62
309.571	342.62
309.8	334.62
310.03	348.62
310.26	360.62
310.49	363.62
310.72	380.62
310.949	366.62
311.179	397.62
311.409	355.62
311.639	366.62
311.868	380.62
312.098	383.62
312.328	356.62
312.557	372.62
312.787	404.62
313.017	402.62
313.246	382.62
313.476	357.62
313.706	349.62
313.935	372.62
314.165	372.62
314.394	375.62
314.624	402.62
314.853	401.62
315.083	388.62
315.312	368.62
315.542	394.62
315.771	366.62
316.001	367.62
316.23	370.62
316.46	356.62
316.689	395.62
316.919	371.62
317.148	370.62
317.377	375.62
317.607	378.62
317.836	367.62
318.065	370.62
318.295	358.62
318.524	364.62
318.753	346.62
318.983	368.62
319.212	371.62
319.441	384.62
319.67	399.62
319.9	372.62
320.129	383.62
320.358	354.62
320.587	380.62
320.816	384.62
321.046	378.62
321.275	384.62
321.504	397.62
321.733	399.62
321.962	386.62
322.191	401.62
322.42	398.62
322.649	439.62
322.878	428.62
323.108	426.62
323.337	470.62
323.566	475.62
323.795	499.62
324.024	550.62
324.253	655.62
324.482	943.62
324.71	1484.62
324.939	2272.62
325.168	1963.62
325.397	962.62
325.626	636.62
325.855	536.62
326.084	497.62
326.313	493.62
326.542	498.62
326.77	534.62
326.999	627.62
327.228	869.62
327.457	1311.62
327.686	1663.62
327.914	1111.62
328.143	692.62
328.372	590.62
328.6	565.62
328.829	542.62
329.058	559.62
329.287	555.62
329.515	526.62
329.744	492.62
329.972	490.62
330.201	524.62
330.43	536.62
330.658	592.62
330.887	598.62
331.115	580.62
331.344	490.62
331.572	478.62
331.801	463.62
332.03	478.62
332.258	440.62
332.486	445.62
332.715	461.62
332.943	443.62
333.172	444.62
333.4	458.62
333.629	477.62
333.857	474.62
334.085	471.62
334.314	473.62
334.542	497.62
334.771	549.62
334.999	502.62
335.227	473.62
335.455	448.62
335.684	444.62
335.912	453.62
336.14	436.62
336.369	430.62
336.597	432.62
336.825	428.62
337.053	476.62
337.281	434.62
337.51	411.62
337.738	445.62
337.966	427.62
338.194	444.62
338.422	452.62
338.65	454.62
338.878	426.62
339.106	416.62
339.334	436.62
339.562	426.62
339.79	437.62
340.018	432.62
340.246	440.62
340.474	425.62
340.702	405.62
340.93	428.62
341.158	418.62
341.386	433.62
341.614	424.62
341.842	404.62
342.07	410.62
342.298	414.62
342.526	421.62
342.754	410.62
342.981	403.62
343.209	418.62
343.437	404.62
343.665	427.62
343.893	411.62
344.12	447.62
344.348	450.62
344.576	430.62
344.804	442.62
345.031	448.62
345.259	455.62
345.487	435.62
345.714	438.62
345.942	438.62
346.17	401.62
346.397	416.62
346.625	407.62
346.853	396.62
347.08	417.62
347.308	414.62
347.535	430.62
347.763	431.62
347.99	427.62
348.218	435.62
348.445	421.62
348.673	420.62
348.9	411.62
349.128	420.62
349.355	421.62
349.583	412.62
349.81	390.62
350.037	378.62
350.265	412.62
350.492	401.62
350.72	385.62
350.947	411.62
351.174	424.62
351.402	428.62
351.629	431.62
351.856	421.62
352.083	417.62
352.311	429.62
352.538	407.62
352.765	434.62
352.992	414.62
353.22	415.62
353.447	413.62
353.674	401.62
353.901	413.62
354.128	411.62
354.355	407.62
354.583	398.62
354.81	408.62
355.037	388.62
355.264	382.62
355.491	380.62
355.718	395.62
355.945	385.62
356.172	405.62
356.399	405.62
356.626	395.62
356.853	383.62
357.08	378.62
357.307	388.62
357.534	373.62
357.761	383.62
357.988	384.62
358.215	396.62
358.441	383.62
358.668	386.62
358.895	412.62
359.122	401.62
359.349	423.62
359.576	404.62
359.802	426.62
360.029	456.62
360.256	457.62
360.483	450.62
360.709	429.62
360.936	437.62
361.163	410.62
361.39	424.62
361.616	425.62
361.843	427.62
362.07	405.62
362.296	442.62
362.523	422.62
362.749	413.62
362.976	406.62
363.203	412.62
363.429	394.62
363.656	419.62
363.882	400.62
364.109	398.62
364.335	377.62
364.562	418.62
364.788	417.62
365.015	388.62
365.241	431.62
365.468	400.62
365.694	419.62
365.92	411.62
366.147	402.62
366.373	416.62
366.599	395.62
366.826	400.62
367.052	400.62
367.278	414.62
367.505	402.62
367.731	415.62
367.957	406.62
368.184	416.62
368.41	400.62
368.636	415.62
368.862	424.62
369.089	419.62
369.315	420.62
369.541	406.62
369.767	411.62
369.993	396.62
370.219	403.62
370.445	404.62
370.672	404.62
370.898	408.62
371.124	411.62
371.35	414.62
371.576	404.62
371.802	416.62
372.028	411.62
372.254	415.62
372.48	411.62
372.706	399.62
372.932	427.62
373.158	411.62
373.384	405.62
373.61	428.62
373.835	427.62
374.061	422.62
374.287	439.62
374.513	426.62
374.739	408.62
374.965	392.62
375.191	433.62
375.416	422.62
375.642	411.62
375.868	416.62
376.094	405.62
376.319	393.62
376.545	405.62
376.771	398.62
376.997	410.62
377.222	391.62
377.448	424.62
377.674	424.62
377.899	399.62
378.125	424.62
378.35	401.62
378.576	408.62
378.802	395.62
379.027	414.62
379.253	408.62
379.478	394.62
379.704	402.62
379.929	432.62
380.155	401.62
380.38	412.62
380.606	419.62
380.831	396.62
381.057	410.62
381.282	435.62
381.507	420.62
381.733	418.62
381.958	418.62
382.184	419.62
382.409	428.62
382.634	424.62
382.86	429.62
383.085	423.62
383.31	421.62
383.535	432.62
383.761	414.62
383.986	425.62
384.211	438.62
384.436	429.62
384.662	452.62
384.887	435.62
385.112	453.62
385.337	442.62
385.562	441.62
385.787	440.62
386.013	474.62
386.238	462.62
386.463	455.62
386.688	467.62
386.913	446.62
387.138	436.62
387.363	455.62
387.588	444.62
387.813	456.62
388.038	466.62
388.263	445.62
388.488	456.62
388.713	472.62
388.938	442.62
389.163	472.62
389.387	455.62
389.612	452.62
389.837	466.62
390.062	453.62
390.287	465.62
390.512	461.62
390.736	440.62
390.961	470.62
391.186	448.62
391.411	459.62
391.636	451.62
391.86	490.62
392.085	485.62
392.31	479.62
392.534	492.62
392.759	475.62
392.984	457.62
393.208	452.62
393.433	464.62
393.658	465.62
393.882	471.62
394.107	464.62
394.331	484.62
394.556	467.62
394.78	460.62
395.005	459.62
395.229	470.62
395.454	487.62
395.678	456.62
395.903	489.62
396.127	529.62
396.352	530.62
396.576	484.62
396.801	492.62
397.025	495.62
397.249	487.62
397.474	479.62
397.698	500.62
397.922	516.62
398.147	530.62
398.371	527.62
398.595	526.62
398.82	521.62
399.044	520.62
399.268	564.62
399.492	587.62
399.717	610.62
399.941	652.62
400.165	651.62
400.389	672.62
400.613	616.62
400.837	562.62
401.062	569.62
401.286	549.62
401.51	555.62
401.734	516.62
401.958	553.62
402.182	538.62
402.406	572.62
402.63	555.62
402.854	558.62
403.078	549.62
403.302	561.62
403.526	569.62
403.75	547.62
403.974	551.62
404.198	557.62
404.422	551.62
404.645	570.62
404.869	562.62
405.093	587.62
405.317	660.62
405.541	676.62
405.765	608.62
405.988	603.62
406.212	606.62
406.436	612.62
406.66	623.62
406.883	598.62
407.107	617.62
407.331	683.62
407.555	716.62
407.778	740.62
408.002	697.62
408.226	634.62
408.449	598.62
408.673	594.62
408.896	652.62
409.12	694.62
409.344	665.62
409.567	579.62
409.791	591.62
410.014	591.62
410.238	570.62
410.461	558.62
410.685	596.62
410.908	595.62
411.132	639.62
411.355	673.62
411.578	607.62
411.802	575.62
412.025	558.62
412.249	533.62
412.472	584.62
412.695	642.62
412.919	617.62
413.142	572.62
413.365	549.62
413.589	564.62
413.812	550.62
414.035	545.62
414.258	533.62
414.482	521.62
414.705	535.62
414.928	523.62
415.151	518.62
415.374	526.62
415.597	541.62
415.821	518.62
416.044	523.62
416.267	536.62
416.49	508.62
416.713	512.62
416.936	541.62
417.159	526.62
417.382	547.62
417.605	534.62
417.828	527.62
418.051	569.62
418.274	545.62
418.497	524.62
418.72	512.62
418.943	532.62
419.166	563.62
419.389	588.62
419.611	581.62
419.834	540.62
420.057	554.62
420.28	549.62
420.503	535.62
420.726	554.62
420.948	526.62
421.171	572.62
421.394	622.62
421.617	583.62
421.839	561.62
422.062	556.62
422.285	548.62
422.507	623.62
422.73	718.62
422.953	715.62
423.175	607.62
423.398	570.62
423.621	555.62
423.843	610.62
424.066	566.62
424.288	580.62
424.511	610.62
424.733	650.62
424.956	747.62
425.178	736.62
425.401	702.62
425.623	731.62
425.846	650.62
426.068	567.62
426.291	606.62
426.513	599.62
426.735	579.62
426.958	652.62
427.18	727.62
427.402	879.62
427.625	975.62
427.847	845.62
428.069	726.62
428.292	655.62
428.514	586.62
428.736	562.62
428.958	573.62
429.181	556.62
429.403	534.62
429.625	559.62
429.847	575.62
430.069	641.62
430.292	650.62
430.514	592.62
430.736	558.62
430.958	523.62
431.18	507.62
431.402	518.62
431.624	504.62
431.846	520.62
432.068	504.62
432.29	515.62
432.512	527.62
432.734	536.62
432.956	530.62
433.178	533.62
433.4	559.62
433.622	527.62
433.844	529.62
434.066	518.62
434.287	522.62
434.509	526.62
434.731	562.62
434.953	522.62
435.175	537.62
435.397	583.62
435.618	590.62
435.84	629.62
436.062	730.62
436.284	804.62
436.505	688.62
436.727	610.62
436.949	568.62
437.17	552.62
437.392	560.62
437.614	556.62
437.835	586.62
438.057	683.62
438.278	805.62
438.5	822.62
438.721	896.62
438.943	846.62
439.165	676.62
439.386	608.62
439.608	613.62
439.829	610.62
440.05	635.62
440.272	681.62
440.493	640.62
440.715	566.62
440.936	584.62
441.158	538.62
441.379	542.62
441.6	572.62
441.822	606.62
442.043	629.62
442.264	743.62
442.486	796.62
442.707	652.62
442.928	604.62
443.149	622.62
443.371	634.62
443.592	676.62
443.813	775.62
444.034	884.62
444.255	690.62
444.476	629.62
444.698	601.62
444.919	597.62
445.14	679.62
445.361	604.62
445.582	651.62
445.803	698.62
446.024	824.62
446.245	823.62
446.466	751.62
446.687	664.62
446.908	582.62
447.129	565.62
447.35	556.62
447.571	526.62
447.792	538.62
448.013	551.62
448.234	571.62
448.455	632.62
448.675	757.62
448.896	883.62
449.117	746.62
449.338	696.62
449.559	815.62
449.779	934.62
450	716.62
450.221	612.62
450.442	551.62
450.662	517.62
450.883	536.62
451.104	550.62
451.324	530.62
451.545	491.62
451.766	501.62
451.986	499.62
452.207	507.62
452.428	488.62
452.648	476.62
452.869	460.62
453.089	513.62
453.31	518.62
453.53	494.62
453.751	497.62
453.971	489.62
454.192	504.62
454.412	500.62
454.633	491.62
454.853	507.62
455.073	480.62
455.294	501.62
455.514	573.62
455.734	593.62
455.955	499.62
456.175	492.62
456.395	456.62
456.616	457.62
456.836	477.62
457.056	475.62
457.276	455.62
457.497	485.62
457.717	478.62
457.937	473.62
458.157	458.62
458.377	475.62
458.598	486.62
458.818	582.62
459.038	635.62
459.258	650.62
459.478	569.62
459.698	528.62
459.918	543.62
460.138	531.62
460.358	523.62
460.578	539.62
460.798	546.62
461.018	552.62
461.238	555.62
461.458	531.62
461.678	539.62
461.898	548.62
462.118	548.62
462.338	554.62
462.558	543.62
462.777	562.62
462.997	580.62
463.217	610.62
463.437	575.62
463.657	600.62
463.876	580.62
464.096	599.62
464.316	586.62
464.536	574.62
464.755	567.62
464.975	577.62
465.195	613.62
465.414	645.62
465.634	599.62
465.854	552.62
466.073	538.62
466.293	536.62
466.512	547.62
466.732	516.62
466.951	519.62
467.171	489.62
467.391	534.62
467.61	527.62
467.829	532.62
468.049	506.62
468.268	493.62
468.488	510.62
468.707	513.62
468.927	482.62
469.146	468.62
469.365	515.62
469.585	490.62
469.804	490.62
470.023	530.62
470.243	510.62
470.462	515.62
470.681	520.62
470.901	535.62
471.12	505.62
471.339	521.62
471.558	535.62
471.777	524.62
471.997	500.62
472.216	514.62
472.435	543.62
472.654	542.62
472.873	522.62
473.092	495.62
473.311	502.62
473.53	495.62
473.749	510.62
473.968	543.62
474.187	664.62
474.406	682.62
474.625	582.62
474.844	547.62
475.063	541.62
475.282	531.62
475.501	518.62
475.72	537.62
475.939	512.62
476.158	530.62
476.377	540.62
476.596	542.62
476.814	520.62
477.033	553.62
477.252	566.62
477.471	545.62
477.69	538.62
477.908	546.62
478.127	541.62
478.346	547.62
478.564	587.62
478.783	567.62
479.002	597.62
479.22	585.62
479.439	613.62
479.658	603.62
479.876	604.62
480.095	654.62
480.313	639.62
480.532	650.62
480.751	629.62
480.969	627.62
481.188	673.62
481.406	715.62
481.624	638.62
481.843	614.62
482.061	612.62
482.28	618.62
482.498	605.62
482.717	593.62
482.935	601.62
483.153	604.62
483.372	599.62
483.59	601.62
483.808	621.62
484.027	602.62
484.245	611.62
484.463	603.62
484.681	622.62
484.9	608.62
485.118	612.62
485.336	613.62
485.554	631.62
485.772	619.62
485.99	611.62
486.209	636.62
486.427	631.62
486.645	638.62
486.863	659.62
487.081	652.62
487.299	623.62
487.517	637.62
487.735	666.62
487.953	671.62
488.171	616.62
488.389	660.62
488.607	617.62
488.825	650.62
489.043	660.62
489.261	601.62
489.479	670.62
489.696	672.62
489.914	661.62
490.132	646.62
490.35	684.62
490.568	657.62
490.786	671.62
491.003	690.62
491.221	689.62
491.439	719.62
491.657	709.62
491.874	723.62
492.092	707.62
492.31	710.62
492.527	727.62
492.745	721.62
492.963	728.62
493.18	733.62
493.398	716.62
493.615	713.62
493.833	734.62
494.05	740.62
494.268	750.62
494.485	767.62
494.703	762.62
494.92	742.62
495.138	743.62
495.355	716.62
495.573	730.62
495.79	755.62
496.008	754.62
496.225	768.62
496.442	775.62
496.66	766.62
496.877	743.62
497.094	774.62
497.312	790.62
497.529	763.62
497.746	800.62
497.963	804.62
498.181	846.62
498.398	848.62
498.615	857.62
498.832	834.62
499.049	882.62
499.267	919.62
499.484	951.62
499.701	962.62
499.918	986.62
500.135	1029.62
500.352	1102.62
500.569	1062.62
500.786	1099.62
501.003	1092.62
501.22	1055.62
501.437	1019.62
501.654	1023.62
501.871	959.62
