Data from 1978.PennyLincolnUp.Lamp.En5.5.200Scan.071719.P1_HRD10591_16-14-51-863.txt Node
Date: Thu Jul 18 16:14:51 EDT 2019
User: cochatt
Spectrometer: HR+D1059
Trigger mode: 1
Integration Time (sec): 1.000000E-1
Scans to average: 1
Electric dark correction enabled: true
Nonlinearity correction enabled: false
Boxcar width: 0
XAxis mode: Wavelengths
Number of Pixels in Spectrum: 2048
>>>>>Begin Spectral Data<<<<<
223.165	-20.06
223.4	-20.06
223.635	-20.06
223.869	-15.06
224.104	-10.06
224.338	-9.06
224.573	-18.06
224.808	2.94
225.042	-5.06
225.277	-17.06
225.511	-13.06
225.746	10.94
225.98	-12.06
226.215	5.94
226.449	22.94
226.683	15.94
226.918	22.94
227.152	37.94
227.387	44.94
227.621	37.94
227.856	47.94
228.09	49.94
228.324	53.94
228.559	62.94
228.793	72.94
229.027	87.94
229.262	100.94
229.496	111.94
229.73	120.94
229.964	152.94
230.199	145.94
230.433	106.94
230.667	129.94
230.901	116.94
231.136	126.94
231.37	125.94
231.604	108.94
231.838	112.94
232.072	118.94
232.306	124.94
232.541	106.94
232.775	113.94
233.009	119.94
233.243	121.94
233.477	125.94
233.711	117.94
233.945	121.94
234.179	128.94
234.413	132.94
234.647	123.94
234.881	129.94
235.115	121.94
235.349	135.94
235.583	123.94
235.817	119.94
236.051	128.94
236.285	127.94
236.519	120.94
236.753	131.94
236.987	130.94
237.221	177.94
237.455	232.94
237.689	176.94
237.922	133.94
238.156	142.94
238.39	136.94
238.624	134.94
238.858	124.94
239.091	133.94
239.325	125.94
239.559	123.94
239.793	122.94
240.027	137.94
240.26	136.94
240.494	161.94
240.728	144.94
240.961	164.94
241.195	145.94
241.429	151.94
241.662	132.94
241.896	117.94
242.13	134.94
242.363	150.94
242.597	141.94
242.83	137.94
243.064	141.94
243.298	147.94
243.531	154.94
243.765	132.94
243.998	132.94
244.232	142.94
244.465	141.94
244.699	156.94
244.932	142.94
245.166	147.94
245.399	146.94
245.633	161.94
245.866	145.94
246.099	154.94
246.333	155.94
246.566	150.94
246.8	168.94
247.033	145.94
247.266	146.94
247.5	162.94
247.733	166.94
247.966	181.94
248.2	176.94
248.433	172.94
248.666	177.94
248.899	191.94
249.133	205.94
249.366	210.94
249.599	194.94
249.832	190.94
250.066	170.94
250.299	180.94
250.532	180.94
250.765	203.94
250.998	211.94
251.231	213.94
251.465	194.94
251.698	191.94
251.931	191.94
252.164	183.94
252.397	206.94
252.63	199.94
252.863	209.94
253.096	203.94
253.329	238.94
253.562	217.94
253.795	214.94
254.028	225.94
254.261	201.94
254.494	214.94
254.727	241.94
254.96	275.94
255.193	278.94
255.426	244.94
255.659	230.94
255.892	227.94
256.124	232.94
256.357	216.94
256.59	229.94
256.823	207.94
257.056	206.94
257.289	215.94
257.521	204.94
257.754	211.94
257.987	190.94
258.22	204.94
258.452	210.94
258.685	203.94
258.918	188.94
259.151	207.94
259.383	212.94
259.616	219.94
259.849	225.94
260.081	220.94
260.314	237.94
260.547	233.94
260.779	230.94
261.012	231.94
261.244	223.94
261.477	227.94
261.71	215.94
261.942	229.94
262.175	248.94
262.407	230.94
262.64	232.94
262.872	223.94
263.105	213.94
263.337	205.94
263.57	207.94
263.802	214.94
264.035	216.94
264.267	211.94
264.499	208.94
264.732	219.94
264.964	224.94
265.197	211.94
265.429	230.94
265.661	214.94
265.894	205.94
266.126	213.94
266.358	214.94
266.591	217.94
266.823	233.94
267.055	217.94
267.287	218.94
267.52	227.94
267.752	224.94
267.984	229.94
268.216	241.94
268.448	242.94
268.681	228.94
268.913	232.94
269.145	269.94
269.377	273.94
269.609	257.94
269.841	258.94
270.073	274.94
270.306	285.94
270.538	331.94
270.77	298.94
271.002	299.94
271.234	276.94
271.466	281.94
271.698	303.94
271.93	301.94
272.162	303.94
272.394	289.94
272.626	292.94
272.858	283.94
273.09	272.94
273.322	271.94
273.553	261.94
273.785	281.94
274.017	264.94
274.249	260.94
274.481	239.94
274.713	249.94
274.945	262.94
275.176	273.94
275.408	264.94
275.64	277.94
275.872	282.94
276.104	277.94
276.335	265.94
276.567	259.94
276.799	294.94
277.031	313.94
277.262	313.94
277.494	313.94
277.726	295.94
277.957	273.94
278.189	289.94
278.421	257.94
278.652	270.94
278.884	273.94
279.115	258.94
279.347	261.94
279.579	260.94
279.81	247.94
280.042	257.94
280.273	280.94
280.505	267.94
280.736	272.94
280.968	266.94
281.199	274.94
281.431	272.94
281.662	257.94
281.894	271.94
282.125	290.94
282.356	317.94
282.588	308.94
282.819	296.94
283.051	298.94
283.282	284.94
283.513	298.94
283.745	272.94
283.976	282.94
284.207	280.94
284.439	281.94
284.67	294.94
284.901	292.94
285.132	275.94
285.364	278.94
285.595	288.94
285.826	278.94
286.057	301.94
286.288	275.94
286.52	269.94
286.751	294.94
286.982	302.94
287.213	276.94
287.444	269.94
287.675	292.94
287.906	284.94
288.138	303.94
288.369	278.94
288.6	302.94
288.831	307.94
289.062	291.94
289.293	306.94
289.524	293.94
289.755	269.94
289.986	300.94
290.217	288.94
290.448	283.94
290.679	290.94
290.91	328.94
291.141	301.94
291.371	296.94
291.602	297.94
291.833	307.94
292.064	290.94
292.295	284.94
292.526	310.94
292.757	309.94
292.987	301.94
293.218	288.94
293.449	273.94
293.68	275.94
293.91	303.94
294.141	305.94
294.372	304.94
294.603	303.94
294.833	305.94
295.064	291.94
295.295	295.94
295.525	289.94
295.756	308.94
295.987	308.94
296.217	332.94
296.448	321.94
296.679	318.94
296.909	302.94
297.14	289.94
297.37	321.94
297.601	317.94
297.831	300.94
298.062	328.94
298.292	321.94
298.523	317.94
298.753	320.94
298.984	315.94
299.214	301.94
299.445	309.94
299.675	311.94
299.905	312.94
300.136	329.94
300.366	314.94
300.597	312.94
300.827	327.94
301.057	326.94
301.288	328.94
301.518	333.94
301.748	333.94
301.979	345.94
302.209	332.94
302.439	318.94
302.669	327.94
302.9	341.94
303.13	324.94
303.36	337.94
303.59	344.94
303.82	330.94
304.051	335.94
304.281	316.94
304.511	321.94
304.741	314.94
304.971	321.94
305.201	330.94
305.431	335.94
305.661	329.94
305.891	336.94
306.121	344.94
306.352	349.94
306.582	333.94
306.812	345.94
307.042	324.94
307.272	338.94
307.502	325.94
307.731	337.94
307.961	366.94
308.191	337.94
308.421	327.94
308.651	338.94
308.881	356.94
309.111	341.94
309.341	350.94
309.571	345.94
309.8	372.94
310.03	363.94
310.26	374.94
310.49	376.94
310.72	397.94
310.949	388.94
311.179	385.94
311.409	398.94
311.639	380.94
311.868	389.94
312.098	395.94
312.328	380.94
312.557	400.94
312.787	427.94
313.017	413.94
313.246	398.94
313.476	388.94
313.706	382.94
313.935	381.94
314.165	401.94
314.394	423.94
314.624	415.94
314.853	370.94
315.083	372.94
315.312	380.94
315.542	386.94
315.771	387.94
316.001	386.94
316.23	370.94
316.46	384.94
316.689	378.94
316.919	385.94
317.148	406.94
317.377	414.94
317.607	407.94
317.836	389.94
318.065	387.94
318.295	391.94
318.524	383.94
318.753	365.94
318.983	377.94
319.212	388.94
319.441	385.94
319.67	390.94
319.9	392.94
320.129	373.94
320.358	400.94
320.587	401.94
320.816	392.94
321.046	397.94
321.275	406.94
321.504	395.94
321.733	408.94
321.962	408.94
322.191	431.94
322.42	454.94
322.649	445.94
322.878	450.94
323.108	476.94
323.337	508.94
323.566	516.94
323.795	541.94
324.024	570.94
324.253	709.94
324.482	1048.94
324.71	1652.94
324.939	2528.94
325.168	2136.94
325.397	1012.94
325.626	674.94
325.855	582.94
326.084	545.94
326.313	526.94
326.542	509.94
326.77	581.94
326.999	670.94
327.228	928.94
327.457	1486.94
327.686	1899.94
327.914	1195.94
328.143	714.94
328.372	660.94
328.6	615.94
328.829	574.94
329.058	572.94
329.287	612.94
329.515	550.94
329.744	520.94
329.972	490.94
330.201	525.94
330.43	580.94
330.658	572.94
330.887	611.94
331.115	608.94
331.344	537.94
331.572	500.94
331.801	497.94
332.03	486.94
332.258	497.94
332.486	461.94
332.715	465.94
332.943	472.94
333.172	470.94
333.4	447.94
333.629	467.94
333.857	475.94
334.085	503.94
334.314	532.94
334.542	555.94
334.771	580.94
334.999	508.94
335.227	475.94
335.455	493.94
335.684	491.94
335.912	461.94
336.14	462.94
336.369	467.94
336.597	477.94
336.825	455.94
337.053	468.94
337.281	471.94
337.51	462.94
337.738	464.94
337.966	452.94
338.194	459.94
338.422	453.94
338.65	452.94
338.878	454.94
339.106	444.94
339.334	442.94
339.562	439.94
339.79	449.94
340.018	446.94
340.246	434.94
340.474	444.94
340.702	448.94
340.93	444.94
341.158	449.94
341.386	452.94
341.614	459.94
341.842	441.94
342.07	433.94
342.298	449.94
342.526	425.94
342.754	440.94
342.981	414.94
343.209	442.94
343.437	443.94
343.665	441.94
343.893	446.94
344.12	479.94
344.348	445.94
344.576	453.94
344.804	474.94
345.031	465.94
345.259	483.94
345.487	467.94
345.714	460.94
345.942	463.94
346.17	443.94
346.397	431.94
346.625	444.94
346.853	462.94
347.08	423.94
347.308	448.94
347.535	433.94
347.763	457.94
347.99	470.94
348.218	459.94
348.445	477.94
348.673	451.94
348.9	438.94
349.128	452.94
349.355	417.94
349.583	424.94
349.81	417.94
350.037	431.94
350.265	440.94
350.492	417.94
350.72	420.94
350.947	410.94
351.174	442.94
351.402	432.94
351.629	447.94
351.856	448.94
352.083	433.94
352.311	441.94
352.538	459.94
352.765	461.94
352.992	461.94
353.22	432.94
353.447	447.94
353.674	426.94
353.901	429.94
354.128	428.94
354.355	432.94
354.583	431.94
354.81	414.94
355.037	398.94
355.264	425.94
355.491	412.94
355.718	390.94
355.945	412.94
356.172	422.94
356.399	422.94
356.626	408.94
356.853	414.94
357.08	409.94
357.307	404.94
357.534	415.94
357.761	425.94
357.988	414.94
358.215	412.94
358.441	417.94
358.668	429.94
358.895	424.94
359.122	418.94
359.349	432.94
359.576	441.94
359.802	474.94
360.029	482.94
360.256	498.94
360.483	490.94
360.709	442.94
360.936	449.94
361.163	430.94
361.39	438.94
361.616	444.94
361.843	454.94
362.07	463.94
362.296	433.94
362.523	433.94
362.749	439.94
362.976	423.94
363.203	438.94
363.429	426.94
363.656	402.94
363.882	436.94
364.109	430.94
364.335	444.94
364.562	450.94
364.788	423.94
365.015	413.94
365.241	430.94
365.468	448.94
365.694	430.94
365.92	425.94
366.147	430.94
366.373	429.94
366.599	421.94
366.826	422.94
367.052	400.94
367.278	423.94
367.505	399.94
367.731	409.94
367.957	435.94
368.184	412.94
368.41	434.94
368.636	438.94
368.862	424.94
369.089	445.94
369.315	415.94
369.541	441.94
369.767	401.94
369.993	432.94
370.219	431.94
370.445	422.94
370.672	440.94
370.898	408.94
371.124	416.94
371.35	429.94
371.576	426.94
371.802	427.94
372.028	423.94
372.254	408.94
372.48	419.94
372.706	415.94
372.932	446.94
373.158	450.94
373.384	442.94
373.61	448.94
373.835	459.94
374.061	440.94
374.287	435.94
374.513	420.94
374.739	437.94
374.965	423.94
375.191	446.94
375.416	428.94
375.642	440.94
375.868	442.94
376.094	435.94
376.319	442.94
376.545	428.94
376.771	433.94
376.997	436.94
377.222	442.94
377.448	438.94
377.674	424.94
377.899	424.94
378.125	427.94
378.35	424.94
378.576	426.94
378.802	436.94
379.027	419.94
379.253	433.94
379.478	422.94
379.704	427.94
379.929	442.94
380.155	446.94
380.38	408.94
380.606	442.94
380.831	434.94
381.057	442.94
381.282	426.94
381.507	434.94
381.733	447.94
381.958	435.94
382.184	434.94
382.409	439.94
382.634	443.94
382.86	437.94
383.085	453.94
383.31	445.94
383.535	449.94
383.761	451.94
383.986	461.94
384.211	465.94
384.436	452.94
384.662	464.94
384.887	471.94
385.112	471.94
385.337	462.94
385.562	452.94
385.787	472.94
386.013	502.94
386.238	484.94
386.463	466.94
386.688	488.94
386.913	453.94
387.138	470.94
387.363	478.94
387.588	457.94
387.813	473.94
388.038	476.94
388.263	479.94
388.488	472.94
388.713	494.94
388.938	501.94
389.163	485.94
389.387	473.94
389.612	492.94
389.837	486.94
390.062	495.94
390.287	485.94
390.512	472.94
390.736	493.94
390.961	490.94
391.186	466.94
391.411	480.94
391.636	503.94
391.86	484.94
392.085	496.94
392.31	504.94
392.534	476.94
392.759	507.94
392.984	490.94
393.208	465.94
393.433	486.94
393.658	509.94
393.882	496.94
394.107	495.94
394.331	486.94
394.556	494.94
394.78	489.94
395.005	495.94
395.229	496.94
395.454	539.94
395.678	511.94
395.903	530.94
396.127	533.94
396.352	550.94
396.576	508.94
396.801	519.94
397.025	524.94
397.249	510.94
397.474	504.94
397.698	540.94
397.922	539.94
398.147	541.94
398.371	547.94
398.595	554.94
398.82	569.94
399.044	571.94
399.268	586.94
399.492	609.94
399.717	646.94
399.941	673.94
400.165	702.94
400.389	716.94
400.613	650.94
400.837	561.94
401.062	586.94
401.286	564.94
401.51	529.94
401.734	586.94
401.958	557.94
402.182	565.94
402.406	575.94
402.63	574.94
402.854	569.94
403.078	579.94
403.302	588.94
403.526	575.94
403.75	577.94
403.974	584.94
404.198	569.94
404.422	594.94
404.645	570.94
404.869	606.94
405.093	617.94
405.317	683.94
405.541	687.94
405.765	673.94
405.988	606.94
406.212	634.94
406.436	623.94
406.66	640.94
406.883	642.94
407.107	664.94
407.331	701.94
407.555	787.94
407.778	785.94
408.002	716.94
408.226	662.94
408.449	680.94
408.673	653.94
408.896	702.94
409.12	746.94
409.344	680.94
409.567	645.94
409.791	603.94
410.014	586.94
410.238	584.94
410.461	601.94
410.685	578.94
410.908	623.94
411.132	634.94
411.355	678.94
411.578	646.94
411.802	620.94
412.025	591.94
412.249	586.94
412.472	637.94
412.695	652.94
412.919	639.94
413.142	589.94
413.365	569.94
413.589	582.94
413.812	570.94
414.035	554.94
414.258	587.94
414.482	560.94
414.705	574.94
414.928	569.94
415.151	592.94
415.374	548.94
415.597	544.94
415.821	537.94
416.044	572.94
416.267	537.94
416.49	577.94
416.713	536.94
416.936	555.94
417.159	570.94
417.382	567.94
417.605	561.94
417.828	552.94
418.051	577.94
418.274	569.94
418.497	549.94
418.72	560.94
418.943	541.94
419.166	577.94
419.389	618.94
419.611	593.94
419.834	585.94
420.057	582.94
420.28	602.94
420.503	575.94
420.726	564.94
420.948	600.94
421.171	629.94
421.394	685.94
421.617	601.94
421.839	560.94
422.062	587.94
422.285	591.94
422.507	649.94
422.73	733.94
422.953	710.94
423.175	626.94
423.398	600.94
423.621	583.94
423.843	606.94
424.066	614.94
424.288	626.94
424.511	652.94
424.733	677.94
424.956	766.94
425.178	758.94
425.401	762.94
425.623	791.94
425.846	687.94
426.068	606.94
426.291	600.94
426.513	594.94
426.735	635.94
426.958	671.94
427.18	752.94
427.402	922.94
427.625	1021.94
427.847	869.94
428.069	762.94
428.292	667.94
428.514	611.94
428.736	614.94
428.958	597.94
429.181	565.94
429.403	570.94
429.625	568.94
429.847	625.94
430.069	700.94
430.292	700.94
430.514	604.94
430.736	575.94
430.958	576.94
431.18	545.94
431.402	552.94
431.624	545.94
431.846	541.94
432.068	569.94
432.29	556.94
432.512	562.94
432.734	554.94
432.956	538.94
433.178	573.94
433.4	566.94
433.622	546.94
433.844	582.94
434.066	557.94
434.287	561.94
434.509	537.94
434.731	549.94
434.953	553.94
435.175	578.94
435.397	613.94
435.618	619.94
435.84	662.94
436.062	784.94
436.284	852.94
436.505	678.94
436.727	639.94
436.949	592.94
437.17	572.94
437.392	561.94
437.614	588.94
437.835	605.94
438.057	751.94
438.278	849.94
438.5	841.94
438.721	947.94
438.943	892.94
439.165	710.94
439.386	640.94
439.608	636.94
439.829	628.94
440.05	656.94
440.272	711.94
440.493	647.94
440.715	614.94
440.936	583.94
441.158	559.94
441.379	568.94
441.6	602.94
441.822	618.94
442.043	664.94
442.264	750.94
442.486	806.94
442.707	684.94
442.928	631.94
443.149	633.94
443.371	667.94
443.592	704.94
443.813	842.94
444.034	867.94
444.255	742.94
444.476	645.94
444.698	635.94
444.919	603.94
445.14	706.94
445.361	673.94
445.582	644.94
445.803	741.94
446.024	865.94
446.245	857.94
446.466	794.94
446.687	668.94
446.908	626.94
447.129	613.94
447.35	572.94
447.571	568.94
447.792	571.94
448.013	565.94
448.234	599.94
448.455	638.94
448.675	777.94
448.896	904.94
449.117	765.94
449.338	722.94
449.559	859.94
449.779	987.94
450	745.94
450.221	634.94
450.442	580.94
450.662	582.94
450.883	571.94
451.104	568.94
451.324	573.94
451.545	544.94
451.766	518.94
451.986	494.94
452.207	539.94
452.428	504.94
452.648	523.94
452.869	514.94
453.089	545.94
453.31	534.94
453.53	503.94
453.751	509.94
453.971	509.94
454.192	547.94
454.412	535.94
454.633	526.94
454.853	534.94
455.073	505.94
455.294	549.94
455.514	624.94
455.734	612.94
455.955	520.94
456.175	491.94
456.395	497.94
456.616	488.94
456.836	489.94
457.056	493.94
457.276	474.94
457.497	473.94
457.717	508.94
457.937	494.94
458.157	506.94
458.377	512.94
458.598	525.94
458.818	581.94
459.038	662.94
459.258	708.94
459.478	633.94
459.698	574.94
459.918	554.94
460.138	541.94
460.358	551.94
460.578	539.94
460.798	549.94
461.018	584.94
461.238	565.94
461.458	561.94
461.678	538.94
461.898	557.94
462.118	561.94
462.338	587.94
462.558	584.94
462.777	576.94
462.997	594.94
463.217	611.94
463.437	605.94
463.657	613.94
463.876	595.94
464.096	605.94
464.316	629.94
464.536	599.94
464.755	591.94
464.975	596.94
465.195	610.94
465.414	712.94
465.634	644.94
465.854	576.94
466.073	566.94
466.293	565.94
466.512	526.94
466.732	543.94
466.951	526.94
467.171	543.94
467.391	539.94
467.61	528.94
467.829	561.94
468.049	566.94
468.268	524.94
468.488	531.94
468.707	508.94
468.927	516.94
469.146	521.94
469.365	521.94
469.585	495.94
469.804	524.94
470.023	531.94
470.243	556.94
470.462	537.94
470.681	543.94
470.901	557.94
471.12	559.94
471.339	550.94
471.558	528.94
471.777	552.94
471.997	501.94
472.216	528.94
472.435	574.94
472.654	557.94
472.873	546.94
473.092	542.94
473.311	535.94
473.53	536.94
473.749	543.94
473.968	587.94
474.187	697.94
474.406	720.94
474.625	609.94
474.844	559.94
475.063	536.94
475.282	564.94
475.501	545.94
475.72	534.94
475.939	550.94
476.158	561.94
476.377	571.94
476.596	550.94
476.814	580.94
477.033	573.94
477.252	559.94
477.471	578.94
477.69	562.94
477.908	585.94
478.127	577.94
478.346	583.94
478.564	581.94
478.783	588.94
479.002	617.94
479.22	590.94
479.439	620.94
479.658	645.94
479.876	636.94
480.095	640.94
480.313	664.94
480.532	653.94
480.751	645.94
480.969	670.94
481.188	704.94
481.406	745.94
481.624	699.94
481.843	657.94
482.061	628.94
482.28	648.94
482.498	614.94
482.717	636.94
482.935	628.94
483.153	602.94
483.372	632.94
483.59	652.94
483.808	629.94
484.027	622.94
484.245	612.94
484.463	622.94
484.681	633.94
484.9	617.94
485.118	624.94
485.336	661.94
485.554	644.94
485.772	652.94
485.99	649.94
486.209	649.94
486.427	651.94
486.645	659.94
486.863	678.94
487.081	649.94
487.299	672.94
487.517	684.94
487.735	667.94
487.953	664.94
488.171	662.94
488.389	681.94
488.607	661.94
488.825	646.94
489.043	678.94
489.261	679.94
489.479	666.94
489.696	684.94
489.914	700.94
490.132	678.94
490.35	682.94
490.568	686.94
490.786	700.94
491.003	704.94
491.221	721.94
491.439	717.94
491.657	751.94
491.874	767.94
492.092	746.94
492.31	740.94
492.527	748.94
492.745	759.94
492.963	762.94
493.18	765.94
493.398	782.94
493.615	759.94
493.833	789.94
494.05	772.94
494.268	786.94
494.485	745.94
494.703	800.94
494.92	800.94
495.138	777.94
495.355	782.94
495.573	780.94
495.79	786.94
496.008	801.94
496.225	804.94
496.442	790.94
496.66	834.94
496.877	790.94
497.094	787.94
497.312	820.94
497.529	824.94
497.746	824.94
497.963	836.94
498.181	884.94
498.398	863.94
498.615	866.94
498.832	924.94
499.049	913.94
499.267	948.94
499.484	990.94
499.701	1015.94
499.918	1028.94
500.135	1097.94
500.352	1109.94
500.569	1132.94
500.786	1119.94
501.003	1132.94
501.22	1124.94
501.437	1048.94
501.654	1052.94
