Data from 1978.PennyLincolnUp.Lamp.En5.5.200Scan.071719.P1_HRD10591_16-11-36-865.txt Node
Date: Thu Jul 18 16:11:36 EDT 2019
User: cochatt
Spectrometer: HR+D1059
Trigger mode: 1
Integration Time (sec): 1.000000E-1
Scans to average: 1
Electric dark correction enabled: true
Nonlinearity correction enabled: false
Boxcar width: 0
XAxis mode: Wavelengths
Number of Pixels in Spectrum: 2048
>>>>>Begin Spectral Data<<<<<
223.165	-23.75
223.4	-23.75
223.635	-23.75
223.869	-17.75
224.104	-13.75
224.338	-16.75
224.573	-9.75
224.808	-25.75
225.042	-7.75
225.277	2.25
225.511	-7.75
225.746	10.25
225.98	11.25
226.215	8.25
226.449	29.25
226.683	14.25
226.918	20.25
227.152	27.25
227.387	35.25
227.621	35.25
227.856	53.25
228.09	42.25
228.324	63.25
228.559	62.25
228.793	74.25
229.027	76.25
229.262	92.25
229.496	96.25
229.73	112.25
229.964	131.25
230.199	115.25
230.433	118.25
230.667	121.25
230.901	100.25
231.136	99.25
231.37	99.25
231.604	113.25
231.838	99.25
232.072	118.25
232.306	111.25
232.541	104.25
232.775	116.25
233.009	97.25
233.243	108.25
233.477	122.25
233.711	99.25
233.945	104.25
234.179	124.25
234.413	104.25
234.647	117.25
234.881	94.25
235.115	118.25
235.349	115.25
235.583	118.25
235.817	118.25
236.051	118.25
236.285	106.25
236.519	107.25
236.753	115.25
236.987	128.25
237.221	146.25
237.455	187.25
237.689	140.25
237.922	122.25
238.156	111.25
238.39	106.25
238.624	106.25
238.858	113.25
239.091	119.25
239.325	127.25
239.559	111.25
239.793	118.25
240.027	130.25
240.26	134.25
240.494	123.25
240.728	126.25
240.961	119.25
241.195	124.25
241.429	129.25
241.662	117.25
241.896	125.25
242.13	114.25
242.363	120.25
242.597	126.25
242.83	131.25
243.064	123.25
243.298	124.25
243.531	124.25
243.765	131.25
243.998	127.25
244.232	120.25
244.465	126.25
244.699	131.25
244.932	120.25
245.166	139.25
245.399	134.25
245.633	113.25
245.866	130.25
246.099	122.25
246.333	133.25
246.566	131.25
246.8	142.25
247.033	131.25
247.266	146.25
247.5	148.25
247.733	153.25
247.966	166.25
248.2	146.25
248.433	136.25
248.666	130.25
248.899	144.25
249.133	151.25
249.366	173.25
249.599	156.25
249.832	152.25
250.066	154.25
250.299	160.25
250.532	158.25
250.765	147.25
250.998	156.25
251.231	152.25
251.465	173.25
251.698	140.25
251.931	159.25
252.164	157.25
252.397	154.25
252.63	158.25
252.863	172.25
253.096	156.25
253.329	172.25
253.562	183.25
253.795	170.25
254.028	182.25
254.261	174.25
254.494	151.25
254.727	188.25
254.96	182.25
255.193	182.25
255.426	196.25
255.659	186.25
255.892	180.25
256.124	189.25
256.357	179.25
256.59	170.25
256.823	185.25
257.056	182.25
257.289	173.25
257.521	172.25
257.754	179.25
257.987	183.25
258.22	166.25
258.452	188.25
258.685	166.25
258.918	167.25
259.151	174.25
259.383	167.25
259.616	164.25
259.849	190.25
260.081	184.25
260.314	191.25
260.547	203.25
260.779	195.25
261.012	173.25
261.244	192.25
261.477	202.25
261.71	173.25
261.942	168.25
262.175	175.25
262.407	171.25
262.64	170.25
262.872	174.25
263.105	173.25
263.337	188.25
263.57	179.25
263.802	188.25
264.035	178.25
264.267	179.25
264.499	171.25
264.732	187.25
264.964	185.25
265.197	196.25
265.429	188.25
265.661	190.25
265.894	188.25
266.126	184.25
266.358	186.25
266.591	194.25
266.823	194.25
267.055	175.25
267.287	184.25
267.52	192.25
267.752	186.25
267.984	208.25
268.216	189.25
268.448	204.25
268.681	187.25
268.913	188.25
269.145	221.25
269.377	201.25
269.609	207.25
269.841	215.25
270.073	202.25
270.306	216.25
270.538	230.25
270.77	215.25
271.002	219.25
271.234	212.25
271.466	215.25
271.698	228.25
271.93	238.25
272.162	225.25
272.394	232.25
272.626	210.25
272.858	211.25
273.09	230.25
273.322	224.25
273.553	195.25
273.785	214.25
274.017	227.25
274.249	226.25
274.481	207.25
274.713	208.25
274.945	220.25
275.176	232.25
275.408	211.25
275.64	228.25
275.872	212.25
276.104	219.25
276.335	202.25
276.567	206.25
276.799	224.25
277.031	233.25
277.262	246.25
277.494	246.25
277.726	237.25
277.957	225.25
278.189	221.25
278.421	219.25
278.652	212.25
278.884	213.25
279.115	232.25
279.347	222.25
279.579	222.25
279.81	238.25
280.042	239.25
280.273	232.25
280.505	219.25
280.736	218.25
280.968	226.25
281.199	226.25
281.431	224.25
281.662	220.25
281.894	215.25
282.125	208.25
282.356	235.25
282.588	228.25
282.819	252.25
283.051	233.25
283.282	233.25
283.513	247.25
283.745	231.25
283.976	239.25
284.207	246.25
284.439	232.25
284.67	221.25
284.901	237.25
285.132	233.25
285.364	251.25
285.595	236.25
285.826	242.25
286.057	226.25
286.288	233.25
286.52	240.25
286.751	240.25
286.982	243.25
287.213	243.25
287.444	250.25
287.675	267.25
287.906	240.25
288.138	257.25
288.369	250.25
288.6	242.25
288.831	246.25
289.062	250.25
289.293	250.25
289.524	255.25
289.755	241.25
289.986	236.25
290.217	241.25
290.448	243.25
290.679	238.25
290.91	236.25
291.141	250.25
291.371	237.25
291.602	256.25
291.833	239.25
292.064	242.25
292.295	235.25
292.526	248.25
292.757	254.25
292.987	236.25
293.218	254.25
293.449	243.25
293.68	246.25
293.91	254.25
294.141	252.25
294.372	237.25
294.603	254.25
294.833	250.25
295.064	254.25
295.295	243.25
295.525	263.25
295.756	248.25
295.987	272.25
296.217	269.25
296.448	266.25
296.679	270.25
296.909	253.25
297.14	269.25
297.37	263.25
297.601	271.25
297.831	262.25
298.062	268.25
298.292	270.25
298.523	264.25
298.753	249.25
298.984	241.25
299.214	270.25
299.445	266.25
299.675	249.25
299.905	277.25
300.136	271.25
300.366	260.25
300.597	267.25
300.827	278.25
301.057	270.25
301.288	272.25
301.518	283.25
301.748	289.25
301.979	279.25
302.209	279.25
302.439	275.25
302.669	281.25
302.9	285.25
303.13	282.25
303.36	280.25
303.59	288.25
303.82	300.25
304.051	292.25
304.281	285.25
304.511	300.25
304.741	275.25
304.971	288.25
305.201	294.25
305.431	287.25
305.661	290.25
305.891	273.25
306.121	273.25
306.352	281.25
306.582	271.25
306.812	284.25
307.042	300.25
307.272	294.25
307.502	279.25
307.731	299.25
307.961	293.25
308.191	294.25
308.421	290.25
308.651	278.25
308.881	271.25
309.111	287.25
309.341	276.25
309.571	294.25
309.8	297.25
310.03	297.25
310.26	280.25
310.49	297.25
310.72	304.25
310.949	305.25
311.179	297.25
311.409	311.25
311.639	322.25
311.868	319.25
312.098	299.25
312.328	312.25
312.557	287.25
312.787	304.25
313.017	316.25
313.246	326.25
313.476	315.25
313.706	316.25
313.935	321.25
314.165	320.25
314.394	322.25
314.624	326.25
314.853	317.25
315.083	307.25
315.312	324.25
315.542	312.25
315.771	327.25
316.001	330.25
316.23	306.25
316.46	315.25
316.689	305.25
316.919	320.25
317.148	324.25
317.377	307.25
317.607	321.25
317.836	326.25
318.065	322.25
318.295	328.25
318.524	300.25
318.753	311.25
318.983	322.25
319.212	312.25
319.441	325.25
319.67	313.25
319.9	318.25
320.129	306.25
320.358	323.25
320.587	319.25
320.816	313.25
321.046	314.25
321.275	328.25
321.504	336.25
321.733	342.25
321.962	340.25
322.191	320.25
322.42	336.25
322.649	335.25
322.878	345.25
323.108	331.25
323.337	363.25
323.566	366.25
323.795	386.25
324.024	373.25
324.253	427.25
324.482	567.25
324.71	801.25
324.939	1148.25
325.168	994.25
325.397	554.25
325.626	412.25
325.855	368.25
326.084	350.25
326.313	379.25
326.542	359.25
326.77	380.25
326.999	425.25
327.228	536.25
327.457	728.25
327.686	900.25
327.914	611.25
328.143	426.25
328.372	418.25
328.6	393.25
328.829	379.25
329.058	384.25
329.287	386.25
329.515	394.25
329.744	375.25
329.972	376.25
330.201	379.25
330.43	392.25
330.658	398.25
330.887	412.25
331.115	403.25
331.344	364.25
331.572	367.25
331.801	377.25
332.03	380.25
332.258	398.25
332.486	403.25
332.715	354.25
332.943	386.25
333.172	370.25
333.4	370.25
333.629	386.25
333.857	411.25
334.085	415.25
334.314	390.25
334.542	398.25
334.771	418.25
334.999	406.25
335.227	408.25
335.455	387.25
335.684	381.25
335.912	387.25
336.14	385.25
336.369	362.25
336.597	372.25
336.825	368.25
337.053	397.25
337.281	390.25
337.51	371.25
337.738	377.25
337.966	377.25
338.194	371.25
338.422	391.25
338.65	361.25
338.878	358.25
339.106	372.25
339.334	375.25
339.562	365.25
339.79	356.25
340.018	363.25
340.246	372.25
340.474	354.25
340.702	382.25
340.93	377.25
341.158	350.25
341.386	374.25
341.614	366.25
341.842	381.25
342.07	362.25
342.298	370.25
342.526	369.25
342.754	348.25
342.981	350.25
343.209	374.25
343.437	364.25
343.665	362.25
343.893	384.25
344.12	398.25
344.348	376.25
344.576	378.25
344.804	389.25
345.031	371.25
345.259	381.25
345.487	382.25
345.714	378.25
345.942	369.25
346.17	370.25
346.397	370.25
346.625	362.25
346.853	358.25
347.08	346.25
347.308	371.25
347.535	358.25
347.763	370.25
347.99	380.25
348.218	364.25
348.445	359.25
348.673	374.25
348.9	374.25
349.128	355.25
349.355	344.25
349.583	358.25
349.81	356.25
350.037	340.25
350.265	345.25
350.492	334.25
350.72	341.25
350.947	362.25
351.174	347.25
351.402	337.25
351.629	353.25
351.856	362.25
352.083	335.25
352.311	359.25
352.538	356.25
352.765	368.25
352.992	353.25
353.22	359.25
353.447	348.25
353.674	361.25
353.901	351.25
354.128	354.25
354.355	348.25
354.583	347.25
354.81	332.25
355.037	339.25
355.264	335.25
355.491	349.25
355.718	342.25
355.945	344.25
356.172	356.25
356.399	351.25
356.626	355.25
356.853	357.25
357.08	355.25
357.307	368.25
357.534	342.25
357.761	349.25
357.988	361.25
358.215	365.25
358.441	346.25
358.668	359.25
358.895	370.25
359.122	356.25
359.349	358.25
359.576	348.25
359.802	383.25
360.029	363.25
360.256	355.25
360.483	336.25
360.709	340.25
360.936	355.25
361.163	367.25
361.39	363.25
361.616	364.25
361.843	342.25
362.07	332.25
362.296	364.25
362.523	362.25
362.749	367.25
362.976	367.25
363.203	365.25
363.429	362.25
363.656	382.25
363.882	358.25
364.109	350.25
364.335	346.25
364.562	362.25
364.788	363.25
365.015	356.25
365.241	364.25
365.468	364.25
365.694	363.25
365.92	360.25
366.147	356.25
366.373	355.25
366.599	366.25
366.826	359.25
367.052	352.25
367.278	354.25
367.505	361.25
367.731	370.25
367.957	369.25
368.184	378.25
368.41	382.25
368.636	354.25
368.862	355.25
369.089	365.25
369.315	384.25
369.541	376.25
369.767	383.25
369.993	374.25
370.219	396.25
370.445	378.25
370.672	382.25
370.898	358.25
371.124	357.25
371.35	375.25
371.576	378.25
371.802	371.25
372.028	378.25
372.254	380.25
372.48	373.25
372.706	356.25
372.932	382.25
373.158	395.25
373.384	369.25
373.61	400.25
373.835	394.25
374.061	382.25
374.287	389.25
374.513	379.25
374.739	400.25
374.965	393.25
375.191	386.25
375.416	403.25
375.642	380.25
375.868	382.25
376.094	371.25
376.319	371.25
376.545	374.25
376.771	385.25
376.997	376.25
377.222	383.25
377.448	395.25
377.674	401.25
377.899	378.25
378.125	378.25
378.35	391.25
378.576	390.25
378.802	363.25
379.027	366.25
379.253	386.25
379.478	371.25
379.704	382.25
379.929	369.25
380.155	367.25
380.38	380.25
380.606	371.25
380.831	388.25
381.057	382.25
381.282	370.25
381.507	396.25
381.733	400.25
381.958	384.25
382.184	410.25
382.409	374.25
382.634	393.25
382.86	382.25
383.085	403.25
383.31	418.25
383.535	403.25
383.761	414.25
383.986	403.25
384.211	404.25
384.436	406.25
384.662	405.25
384.887	408.25
385.112	411.25
385.337	419.25
385.562	449.25
385.787	424.25
386.013	435.25
386.238	459.25
386.463	418.25
386.688	425.25
386.913	435.25
387.138	435.25
387.363	442.25
387.588	442.25
387.813	442.25
388.038	425.25
388.263	444.25
388.488	430.25
388.713	423.25
388.938	422.25
389.163	426.25
389.387	435.25
389.612	428.25
389.837	423.25
390.062	420.25
390.287	421.25
390.512	422.25
390.736	425.25
390.961	431.25
391.186	417.25
391.411	434.25
391.636	412.25
391.86	444.25
392.085	445.25
392.31	440.25
392.534	448.25
392.759	450.25
392.984	425.25
393.208	438.25
393.433	445.25
393.658	446.25
393.882	442.25
394.107	432.25
394.331	432.25
394.556	431.25
394.78	431.25
395.005	427.25
395.229	435.25
395.454	435.25
395.678	460.25
395.903	463.25
396.127	470.25
396.352	467.25
396.576	464.25
396.801	459.25
397.025	489.25
397.249	452.25
397.474	474.25
397.698	477.25
397.922	464.25
398.147	475.25
398.371	475.25
398.595	466.25
398.82	486.25
399.044	494.25
399.268	536.25
399.492	529.25
399.717	594.25
399.941	576.25
400.165	592.25
400.389	601.25
400.613	544.25
400.837	534.25
401.062	494.25
401.286	503.25
401.51	511.25
401.734	515.25
401.958	495.25
402.182	487.25
402.406	494.25
402.63	495.25
402.854	504.25
403.078	485.25
403.302	519.25
403.526	529.25
403.75	489.25
403.974	538.25
404.198	506.25
404.422	523.25
404.645	516.25
404.869	509.25
405.093	536.25
405.317	557.25
405.541	575.25
405.765	534.25
405.988	521.25
406.212	544.25
406.436	534.25
406.66	547.25
406.883	503.25
407.107	547.25
407.331	601.25
407.555	633.25
407.778	635.25
408.002	588.25
408.226	566.25
408.449	553.25
408.673	530.25
408.896	559.25
409.12	584.25
409.344	548.25
409.567	538.25
409.791	546.25
410.014	531.25
410.238	524.25
410.461	543.25
410.685	512.25
410.908	514.25
411.132	548.25
411.355	569.25
411.578	547.25
411.802	517.25
412.025	536.25
412.249	518.25
412.472	543.25
412.695	520.25
412.919	543.25
413.142	516.25
413.365	477.25
413.589	516.25
413.812	494.25
414.035	492.25
414.258	502.25
414.482	480.25
414.705	495.25
414.928	494.25
415.151	487.25
415.374	483.25
415.597	482.25
415.821	486.25
416.044	479.25
416.267	475.25
416.49	486.25
416.713	457.25
416.936	479.25
417.159	468.25
417.382	480.25
417.605	466.25
417.828	492.25
418.051	505.25
418.274	487.25
418.497	462.25
418.72	461.25
418.943	459.25
419.166	478.25
419.389	529.25
419.611	532.25
419.834	514.25
420.057	518.25
420.28	498.25
420.503	497.25
420.726	514.25
420.948	524.25
421.171	507.25
421.394	535.25
421.617	487.25
421.839	489.25
422.062	483.25
422.285	491.25
422.507	527.25
422.73	607.25
422.953	587.25
423.175	519.25
423.398	508.25
423.621	529.25
423.843	520.25
424.066	520.25
424.288	499.25
424.511	524.25
424.733	576.25
424.956	593.25
425.178	587.25
425.401	593.25
425.623	600.25
425.846	531.25
426.068	500.25
426.291	502.25
426.513	475.25
426.735	500.25
426.958	544.25
427.18	572.25
427.402	664.25
427.625	738.25
427.847	623.25
428.069	562.25
428.292	540.25
428.514	488.25
428.736	485.25
428.958	483.25
429.181	469.25
429.403	452.25
429.625	470.25
429.847	480.25
430.069	538.25
430.292	553.25
430.514	482.25
430.736	485.25
430.958	467.25
431.18	471.25
431.402	466.25
431.624	459.25
431.846	458.25
432.068	447.25
432.29	459.25
432.512	446.25
432.734	488.25
432.956	474.25
433.178	480.25
433.4	483.25
433.622	466.25
433.844	475.25
434.066	472.25
434.287	450.25
434.509	493.25
434.731	482.25
434.953	480.25
435.175	494.25
435.397	508.25
435.618	494.25
435.84	538.25
436.062	602.25
436.284	655.25
436.505	552.25
436.727	530.25
436.949	492.25
437.17	491.25
437.392	479.25
437.614	510.25
437.835	487.25
438.057	544.25
438.278	612.25
438.5	628.25
438.721	685.25
438.943	658.25
439.165	490.25
439.386	495.25
439.608	499.25
439.829	504.25
440.05	518.25
440.272	530.25
440.493	502.25
440.715	502.25
440.936	509.25
441.158	486.25
441.379	480.25
441.6	494.25
441.822	513.25
442.043	523.25
442.264	566.25
442.486	625.25
442.707	555.25
442.928	516.25
443.149	523.25
443.371	508.25
443.592	557.25
443.813	618.25
444.034	662.25
444.255	574.25
444.476	526.25
444.698	525.25
444.919	524.25
445.14	668.25
445.361	573.25
445.582	559.25
445.803	574.25
446.024	629.25
446.245	622.25
446.466	578.25
446.687	510.25
446.908	493.25
447.129	468.25
447.35	468.25
447.571	483.25
447.792	470.25
448.013	467.25
448.234	484.25
448.455	525.25
448.675	570.25
448.896	666.25
449.117	582.25
449.338	552.25
449.559	640.25
449.779	720.25
450	587.25
450.221	495.25
450.442	461.25
450.662	461.25
450.883	462.25
451.104	451.25
451.324	419.25
451.545	434.25
451.766	423.25
451.986	416.25
452.207	452.25
452.428	439.25
452.648	408.25
452.869	422.25
453.089	420.25
453.31	447.25
453.53	436.25
453.751	418.25
453.971	411.25
454.192	442.25
454.412	418.25
454.633	438.25
454.853	428.25
455.073	430.25
455.294	441.25
455.514	481.25
455.734	475.25
455.955	423.25
456.175	411.25
456.395	412.25
456.616	405.25
456.836	448.25
457.056	424.25
457.276	412.25
457.497	425.25
457.717	419.25
457.937	424.25
458.157	440.25
458.377	426.25
458.598	459.25
458.818	485.25
459.038	517.25
459.258	520.25
459.478	474.25
459.698	476.25
459.918	479.25
460.138	496.25
460.358	468.25
460.578	502.25
460.798	509.25
461.018	495.25
461.238	493.25
461.458	496.25
461.678	491.25
461.898	512.25
462.118	528.25
462.338	512.25
462.558	538.25
462.777	530.25
462.997	554.25
463.217	575.25
463.437	576.25
463.657	552.25
463.876	535.25
464.096	538.25
464.316	531.25
464.536	535.25
464.755	534.25
464.975	531.25
465.195	532.25
465.414	554.25
465.634	504.25
465.854	505.25
466.073	512.25
466.293	487.25
466.512	472.25
466.732	455.25
466.951	447.25
467.171	447.25
467.391	459.25
467.61	467.25
467.829	467.25
468.049	465.25
468.268	445.25
468.488	448.25
468.707	459.25
468.927	442.25
469.146	456.25
469.365	425.25
469.585	450.25
469.804	466.25
470.023	444.25
470.243	447.25
470.462	474.25
470.681	460.25
470.901	475.25
471.12	468.25
471.339	464.25
471.558	474.25
471.777	478.25
471.997	461.25
472.216	481.25
472.435	464.25
472.654	483.25
472.873	464.25
473.092	446.25
473.311	450.25
473.53	465.25
473.749	448.25
473.968	486.25
474.187	518.25
474.406	552.25
474.625	495.25
474.844	482.25
475.063	475.25
475.282	475.25
475.501	468.25
475.72	465.25
475.939	453.25
476.158	470.25
476.377	480.25
476.596	490.25
476.814	497.25
477.033	514.25
477.252	502.25
477.471	497.25
477.69	494.25
477.908	482.25
478.127	539.25
478.346	526.25
478.564	514.25
478.783	534.25
479.002	528.25
479.22	543.25
479.439	518.25
479.658	541.25
479.876	555.25
480.095	558.25
480.313	578.25
480.532	590.25
480.751	579.25
480.969	545.25
481.188	573.25
481.406	588.25
481.624	564.25
481.843	553.25
482.061	566.25
482.28	554.25
482.498	529.25
482.717	532.25
482.935	536.25
483.153	560.25
483.372	574.25
483.59	537.25
483.808	540.25
484.027	550.25
484.245	552.25
484.463	542.25
484.681	570.25
484.9	534.25
485.118	532.25
485.336	589.25
485.554	560.25
485.772	547.25
485.99	550.25
486.209	544.25
486.427	569.25
486.645	563.25
486.863	563.25
487.081	574.25
487.299	579.25
487.517	598.25
487.735	569.25
487.953	568.25
488.171	578.25
488.389	560.25
488.607	582.25
488.825	582.25
489.043	588.25
489.261	558.25
489.479	598.25
489.696	586.25
489.914	583.25
490.132	593.25
490.35	602.25
490.568	588.25
490.786	582.25
491.003	588.25
491.221	591.25
491.439	640.25
491.657	607.25
491.874	624.25
492.092	619.25
492.31	611.25
492.527	630.25
492.745	609.25
492.963	634.25
493.18	624.25
493.398	634.25
493.615	650.25
493.833	647.25
494.05	631.25
494.268	656.25
494.485	659.25
494.703	625.25
494.92	633.25
495.138	643.25
495.355	636.25
495.573	648.25
495.79	643.25
496.008	676.25
496.225	663.25
496.442	670.25
496.66	674.25
496.877	668.25
497.094	689.25
497.312	668.25
497.529	680.25
497.746	749.25
497.963	716.25
498.181	721.25
498.398	714.25
498.615	785.25
498.832	803.25
499.049	803.25
499.267	835.25
499.484	859.25
499.701	880.25
499.918	947.25
500.135	953.25
500.352	1024.25
500.569	1032.25
500.786	1080.25
501.003	1035.25
501.22	968.25
501.437	962.25
501.654	947.25
501.871	868.25
502.088	831.25
