Data from 1978.PennyLincolnUp.Lamp.En5.5.200Scan.071719.P1_HRD10591_16-12-22-865.txt Node
Date: Thu Jul 18 16:12:22 EDT 2019
User: cochatt
Spectrometer: HR+D1059
Trigger mode: 1
Integration Time (sec): 1.000000E-1
Scans to average: 1
Electric dark correction enabled: true
Nonlinearity correction enabled: false
Boxcar width: 0
XAxis mode: Wavelengths
Number of Pixels in Spectrum: 2048
>>>>>Begin Spectral Data<<<<<
223.165	-12.94
223.4	-12.94
223.635	-12.94
223.869	-20.94
224.104	-4.94
224.338	-18.94
224.573	-7.94
224.808	-16.94
225.042	-9.94
225.277	-7.94
225.511	-4.94
225.746	11.06
225.98	10.06
226.215	10.06
226.449	-6.94
226.683	30.06
226.918	15.06
227.152	36.06
227.387	38.06
227.621	40.06
227.856	39.06
228.09	36.06
228.324	44.06
228.559	63.06
228.793	60.06
229.027	89.06
229.262	92.06
229.496	108.06
229.73	119.06
229.964	143.06
230.199	105.06
230.433	107.06
230.667	115.06
230.901	107.06
231.136	109.06
231.37	112.06
231.604	119.06
231.838	102.06
232.072	101.06
232.306	103.06
232.541	118.06
232.775	109.06
233.009	85.06
233.243	110.06
233.477	119.06
233.711	125.06
233.945	118.06
234.179	127.06
234.413	112.06
234.647	118.06
234.881	111.06
235.115	121.06
235.349	117.06
235.583	112.06
235.817	110.06
236.051	120.06
236.285	126.06
236.519	127.06
236.753	109.06
236.987	141.06
237.221	176.06
237.455	213.06
237.689	177.06
237.922	143.06
238.156	116.06
238.39	115.06
238.624	124.06
238.858	127.06
239.091	121.06
239.325	110.06
239.559	108.06
239.793	128.06
240.027	139.06
240.26	135.06
240.494	148.06
240.728	135.06
240.961	126.06
241.195	136.06
241.429	138.06
241.662	128.06
241.896	122.06
242.13	121.06
242.363	136.06
242.597	140.06
242.83	130.06
243.064	119.06
243.298	142.06
243.531	135.06
243.765	139.06
243.998	128.06
244.232	130.06
244.465	143.06
244.699	161.06
244.932	143.06
245.166	144.06
245.399	141.06
245.633	138.06
245.866	144.06
246.099	150.06
246.333	129.06
246.566	149.06
246.8	150.06
247.033	158.06
247.266	147.06
247.5	167.06
247.733	161.06
247.966	166.06
248.2	137.06
248.433	162.06
248.666	161.06
248.899	168.06
249.133	183.06
249.366	189.06
249.599	178.06
249.832	188.06
250.066	179.06
250.299	162.06
250.532	176.06
250.765	176.06
250.998	184.06
251.231	197.06
251.465	195.06
251.698	205.06
251.931	190.06
252.164	199.06
252.397	200.06
252.63	170.06
252.863	187.06
253.096	189.06
253.329	204.06
253.562	206.06
253.795	192.06
254.028	196.06
254.261	188.06
254.494	202.06
254.727	212.06
254.96	232.06
255.193	243.06
255.426	220.06
255.659	187.06
255.892	205.06
256.124	193.06
256.357	200.06
256.59	206.06
256.823	193.06
257.056	204.06
257.289	197.06
257.521	185.06
257.754	180.06
257.987	190.06
258.22	198.06
258.452	191.06
258.685	174.06
258.918	187.06
259.151	185.06
259.383	211.06
259.616	168.06
259.849	201.06
260.081	217.06
260.314	223.06
260.547	228.06
260.779	227.06
261.012	216.06
261.244	209.06
261.477	187.06
261.71	207.06
261.942	214.06
262.175	237.06
262.407	202.06
262.64	200.06
262.872	179.06
263.105	198.06
263.337	200.06
263.57	203.06
263.802	195.06
264.035	208.06
264.267	191.06
264.499	212.06
264.732	189.06
264.964	187.06
265.197	197.06
265.429	193.06
265.661	208.06
265.894	210.06
266.126	213.06
266.358	203.06
266.591	224.06
266.823	223.06
267.055	216.06
267.287	223.06
267.52	196.06
267.752	210.06
267.984	219.06
268.216	209.06
268.448	201.06
268.681	229.06
268.913	240.06
269.145	237.06
269.377	260.06
269.609	250.06
269.841	247.06
270.073	247.06
270.306	270.06
270.538	269.06
270.77	275.06
271.002	261.06
271.234	267.06
271.466	285.06
271.698	279.06
271.93	287.06
272.162	268.06
272.394	266.06
272.626	258.06
272.858	247.06
273.09	231.06
273.322	256.06
273.553	245.06
273.785	250.06
274.017	264.06
274.249	249.06
274.481	260.06
274.713	234.06
274.945	256.06
275.176	251.06
275.408	243.06
275.64	255.06
275.872	262.06
276.104	262.06
276.335	260.06
276.567	264.06
276.799	274.06
277.031	279.06
277.262	279.06
277.494	292.06
277.726	288.06
277.957	280.06
278.189	273.06
278.421	261.06
278.652	251.06
278.884	249.06
279.115	242.06
279.347	254.06
279.579	259.06
279.81	246.06
280.042	248.06
280.273	249.06
280.505	241.06
280.736	289.06
280.968	236.06
281.199	263.06
281.431	240.06
281.662	277.06
281.894	256.06
282.125	259.06
282.356	272.06
282.588	293.06
282.819	291.06
283.051	273.06
283.282	257.06
283.513	282.06
283.745	259.06
283.976	281.06
284.207	267.06
284.439	275.06
284.67	267.06
284.901	260.06
285.132	263.06
285.364	278.06
285.595	267.06
285.826	265.06
286.057	273.06
286.288	273.06
286.52	276.06
286.751	259.06
286.982	266.06
287.213	285.06
287.444	267.06
287.675	281.06
287.906	285.06
288.138	280.06
288.369	288.06
288.6	294.06
288.831	286.06
289.062	290.06
289.293	277.06
289.524	268.06
289.755	294.06
289.986	265.06
290.217	272.06
290.448	265.06
290.679	265.06
290.91	268.06
291.141	283.06
291.371	275.06
291.602	270.06
291.833	280.06
292.064	281.06
292.295	290.06
292.526	271.06
292.757	288.06
292.987	283.06
293.218	295.06
293.449	278.06
293.68	289.06
293.91	271.06
294.141	295.06
294.372	285.06
294.603	286.06
294.833	290.06
295.064	279.06
295.295	300.06
295.525	278.06
295.756	283.06
295.987	303.06
296.217	327.06
296.448	314.06
296.679	287.06
296.909	273.06
297.14	281.06
297.37	288.06
297.601	291.06
297.831	281.06
298.062	288.06
298.292	296.06
298.523	286.06
298.753	293.06
298.984	296.06
299.214	307.06
299.445	301.06
299.675	301.06
299.905	303.06
300.136	299.06
300.366	317.06
300.597	317.06
300.827	307.06
301.057	321.06
301.288	311.06
301.518	299.06
301.748	304.06
301.979	312.06
302.209	311.06
302.439	325.06
302.669	333.06
302.9	331.06
303.13	320.06
303.36	311.06
303.59	325.06
303.82	335.06
304.051	322.06
304.281	309.06
304.511	328.06
304.741	318.06
304.971	332.06
305.201	324.06
305.431	320.06
305.661	299.06
305.891	311.06
306.121	301.06
306.352	322.06
306.582	322.06
306.812	298.06
307.042	322.06
307.272	337.06
307.502	316.06
307.731	318.06
307.961	323.06
308.191	333.06
308.421	319.06
308.651	316.06
308.881	330.06
309.111	333.06
309.341	342.06
309.571	320.06
309.8	351.06
310.03	338.06
310.26	359.06
310.49	352.06
310.72	362.06
310.949	379.06
311.179	373.06
311.409	345.06
311.639	352.06
311.868	360.06
312.098	351.06
312.328	357.06
312.557	364.06
312.787	369.06
313.017	368.06
313.246	365.06
313.476	382.06
313.706	362.06
313.935	358.06
314.165	375.06
314.394	383.06
314.624	373.06
314.853	366.06
315.083	373.06
315.312	361.06
315.542	365.06
315.771	360.06
316.001	360.06
316.23	360.06
316.46	353.06
316.689	356.06
316.919	356.06
317.148	374.06
317.377	373.06
317.607	373.06
317.836	363.06
318.065	380.06
318.295	355.06
318.524	380.06
318.753	360.06
318.983	360.06
319.212	367.06
319.441	363.06
319.67	369.06
319.9	351.06
320.129	364.06
320.358	375.06
320.587	371.06
320.816	373.06
321.046	373.06
321.275	392.06
321.504	369.06
321.733	375.06
321.962	392.06
322.191	400.06
322.42	395.06
322.649	421.06
322.878	434.06
323.108	430.06
323.337	441.06
323.566	462.06
323.795	477.06
324.024	519.06
324.253	585.06
324.482	873.06
324.71	1329.06
324.939	2000.06
325.168	1781.06
325.397	878.06
325.626	592.06
325.855	490.06
326.084	457.06
326.313	453.06
326.542	476.06
326.77	498.06
326.999	602.06
327.228	790.06
327.457	1183.06
327.686	1569.06
327.914	1003.06
328.143	643.06
328.372	558.06
328.6	521.06
328.829	512.06
329.058	505.06
329.287	545.06
329.515	500.06
329.744	468.06
329.972	481.06
330.201	480.06
330.43	508.06
330.658	515.06
330.887	549.06
331.115	536.06
331.344	480.06
331.572	471.06
331.801	470.06
332.03	447.06
332.258	453.06
332.486	435.06
332.715	410.06
332.943	435.06
333.172	447.06
333.4	461.06
333.629	457.06
333.857	442.06
334.085	471.06
334.314	475.06
334.542	505.06
334.771	508.06
334.999	454.06
335.227	463.06
335.455	453.06
335.684	443.06
335.912	439.06
336.14	432.06
336.369	432.06
336.597	444.06
336.825	445.06
337.053	441.06
337.281	451.06
337.51	419.06
337.738	417.06
337.966	441.06
338.194	435.06
338.422	449.06
338.65	450.06
338.878	419.06
339.106	413.06
339.334	417.06
339.562	420.06
339.79	400.06
340.018	434.06
340.246	392.06
340.474	397.06
340.702	413.06
340.93	406.06
341.158	409.06
341.386	423.06
341.614	420.06
341.842	438.06
342.07	433.06
342.298	425.06
342.526	408.06
342.754	401.06
342.981	407.06
343.209	406.06
343.437	406.06
343.665	417.06
343.893	447.06
344.12	458.06
344.348	439.06
344.576	437.06
344.804	439.06
345.031	440.06
345.259	447.06
345.487	421.06
345.714	431.06
345.942	401.06
346.17	423.06
346.397	398.06
346.625	392.06
346.853	414.06
347.08	386.06
347.308	411.06
347.535	419.06
347.763	437.06
347.99	408.06
348.218	416.06
348.445	415.06
348.673	411.06
348.9	443.06
349.128	393.06
349.355	390.06
349.583	400.06
349.81	390.06
350.037	397.06
350.265	404.06
350.492	399.06
350.72	392.06
350.947	398.06
351.174	397.06
351.402	418.06
351.629	402.06
351.856	420.06
352.083	420.06
352.311	431.06
352.538	413.06
352.765	408.06
352.992	436.06
353.22	401.06
353.447	395.06
353.674	389.06
353.901	390.06
354.128	397.06
354.355	385.06
354.583	395.06
354.81	384.06
355.037	377.06
355.264	404.06
355.491	409.06
355.718	403.06
355.945	368.06
356.172	387.06
356.399	390.06
356.626	376.06
356.853	373.06
357.08	385.06
357.307	384.06
357.534	379.06
357.761	388.06
357.988	391.06
358.215	379.06
358.441	399.06
358.668	391.06
358.895	391.06
359.122	379.06
359.349	408.06
359.576	431.06
359.802	411.06
360.029	433.06
360.256	444.06
360.483	417.06
360.709	414.06
360.936	401.06
361.163	404.06
361.39	420.06
361.616	430.06
361.843	411.06
362.07	403.06
362.296	423.06
362.523	425.06
362.749	413.06
362.976	412.06
363.203	411.06
363.429	391.06
363.656	398.06
363.882	391.06
364.109	386.06
364.335	403.06
364.562	393.06
364.788	394.06
365.015	401.06
365.241	402.06
365.468	401.06
365.694	407.06
365.92	411.06
366.147	395.06
366.373	377.06
366.599	391.06
366.826	402.06
367.052	395.06
367.278	397.06
367.505	395.06
367.731	405.06
367.957	407.06
368.184	413.06
368.41	408.06
368.636	413.06
368.862	423.06
369.089	418.06
369.315	406.06
369.541	402.06
369.767	399.06
369.993	395.06
370.219	406.06
370.445	395.06
370.672	401.06
370.898	416.06
371.124	423.06
371.35	419.06
371.576	398.06
371.802	405.06
372.028	417.06
372.254	411.06
372.48	390.06
372.706	410.06
372.932	411.06
373.158	398.06
373.384	407.06
373.61	406.06
373.835	436.06
374.061	393.06
374.287	432.06
374.513	417.06
374.739	435.06
374.965	439.06
375.191	426.06
375.416	417.06
375.642	427.06
375.868	397.06
376.094	404.06
376.319	413.06
376.545	393.06
376.771	418.06
376.997	423.06
377.222	407.06
377.448	396.06
377.674	425.06
377.899	419.06
378.125	427.06
378.35	419.06
378.576	387.06
378.802	409.06
379.027	397.06
379.253	412.06
379.478	401.06
379.704	411.06
379.929	414.06
380.155	413.06
380.38	426.06
380.606	433.06
380.831	436.06
381.057	409.06
381.282	435.06
381.507	400.06
381.733	409.06
381.958	395.06
382.184	423.06
382.409	444.06
382.634	413.06
382.86	395.06
383.085	428.06
383.31	420.06
383.535	414.06
383.761	439.06
383.986	432.06
384.211	429.06
384.436	438.06
384.662	436.06
384.887	442.06
385.112	447.06
385.337	474.06
385.562	434.06
385.787	441.06
386.013	465.06
386.238	462.06
386.463	468.06
386.688	460.06
386.913	446.06
387.138	462.06
387.363	474.06
387.588	465.06
387.813	458.06
388.038	447.06
388.263	462.06
388.488	455.06
388.713	454.06
388.938	470.06
389.163	464.06
389.387	433.06
389.612	455.06
389.837	445.06
390.062	427.06
390.287	471.06
390.512	448.06
390.736	442.06
390.961	464.06
391.186	469.06
391.411	472.06
391.636	475.06
391.86	472.06
392.085	467.06
392.31	483.06
392.534	473.06
392.759	463.06
392.984	467.06
393.208	473.06
393.433	486.06
393.658	477.06
393.882	445.06
394.107	483.06
394.331	468.06
394.556	462.06
394.78	465.06
395.005	476.06
395.229	478.06
395.454	464.06
395.678	485.06
395.903	504.06
396.127	506.06
396.352	520.06
396.576	476.06
396.801	486.06
397.025	466.06
397.249	521.06
397.474	495.06
397.698	482.06
397.922	521.06
398.147	541.06
398.371	533.06
398.595	519.06
398.82	552.06
399.044	537.06
399.268	558.06
399.492	589.06
399.717	639.06
399.941	640.06
400.165	683.06
400.389	672.06
400.613	601.06
400.837	582.06
401.062	559.06
401.286	543.06
401.51	535.06
401.734	528.06
401.958	543.06
402.182	535.06
402.406	540.06
402.63	557.06
402.854	520.06
403.078	545.06
403.302	556.06
403.526	560.06
403.75	557.06
403.974	560.06
404.198	548.06
404.422	555.06
404.645	597.06
404.869	561.06
405.093	589.06
405.317	625.06
405.541	666.06
405.765	620.06
405.988	597.06
406.212	593.06
406.436	597.06
406.66	588.06
406.883	613.06
407.107	632.06
407.331	678.06
407.555	732.06
407.778	710.06
408.002	648.06
408.226	611.06
408.449	630.06
408.673	623.06
408.896	659.06
409.12	699.06
409.344	631.06
409.567	590.06
409.791	577.06
410.014	548.06
410.238	555.06
410.461	577.06
410.685	571.06
410.908	582.06
411.132	621.06
411.355	610.06
411.578	626.06
411.802	549.06
412.025	566.06
412.249	543.06
412.472	586.06
412.695	607.06
412.919	630.06
413.142	584.06
413.365	567.06
413.589	563.06
413.812	523.06
414.035	517.06
414.258	537.06
414.482	539.06
414.705	543.06
414.928	550.06
415.151	533.06
415.374	522.06
415.597	542.06
415.821	529.06
416.044	550.06
416.267	553.06
416.49	525.06
416.713	525.06
416.936	529.06
417.159	544.06
417.382	516.06
417.605	543.06
417.828	524.06
418.051	539.06
418.274	524.06
418.497	519.06
418.72	528.06
418.943	519.06
419.166	539.06
419.389	572.06
419.611	571.06
419.834	556.06
420.057	557.06
420.28	560.06
420.503	553.06
420.726	543.06
420.948	544.06
421.171	592.06
421.394	623.06
421.617	579.06
421.839	576.06
422.062	540.06
422.285	572.06
422.507	622.06
422.73	693.06
422.953	647.06
423.175	565.06
423.398	565.06
423.621	551.06
423.843	582.06
424.066	601.06
424.288	560.06
424.511	576.06
424.733	639.06
424.956	719.06
425.178	719.06
425.401	679.06
425.623	718.06
425.846	631.06
426.068	590.06
426.291	603.06
426.513	572.06
426.735	596.06
426.958	637.06
427.18	697.06
427.402	846.06
427.625	940.06
427.847	801.06
428.069	685.06
428.292	613.06
428.514	574.06
428.736	538.06
428.958	537.06
429.181	537.06
429.403	541.06
429.625	540.06
429.847	567.06
430.069	643.06
430.292	646.06
430.514	568.06
430.736	555.06
430.958	533.06
431.18	524.06
431.402	512.06
431.624	506.06
431.846	520.06
432.068	517.06
432.29	522.06
432.512	520.06
432.734	501.06
432.956	523.06
433.178	524.06
433.4	540.06
433.622	520.06
433.844	519.06
434.066	509.06
434.287	520.06
434.509	520.06
434.731	540.06
434.953	539.06
435.175	563.06
435.397	604.06
435.618	581.06
435.84	619.06
436.062	717.06
436.284	790.06
436.505	656.06
436.727	600.06
436.949	549.06
437.17	529.06
437.392	533.06
437.614	541.06
437.835	581.06
438.057	658.06
438.278	751.06
438.5	792.06
438.721	871.06
438.943	812.06
439.165	657.06
439.386	608.06
439.608	575.06
439.829	599.06
440.05	608.06
440.272	664.06
440.493	605.06
440.715	571.06
440.936	526.06
441.158	521.06
441.379	548.06
441.6	528.06
441.822	573.06
442.043	622.06
442.264	699.06
442.486	740.06
442.707	649.06
442.928	610.06
443.149	615.06
443.371	618.06
443.592	671.06
443.813	750.06
444.034	828.06
444.255	670.06
444.476	618.06
444.698	589.06
444.919	599.06
445.14	688.06
445.361	643.06
445.582	637.06
445.803	681.06
446.024	780.06
446.245	817.06
446.466	727.06
446.687	633.06
446.908	577.06
447.129	536.06
447.35	534.06
447.571	527.06
447.792	531.06
448.013	544.06
448.234	536.06
448.455	593.06
448.675	702.06
448.896	860.06
449.117	706.06
449.338	652.06
449.559	757.06
449.779	863.06
450	703.06
450.221	609.06
450.442	552.06
450.662	526.06
450.883	514.06
451.104	528.06
451.324	525.06
451.545	525.06
451.766	503.06
451.986	472.06
452.207	487.06
452.428	480.06
452.648	486.06
452.869	491.06
453.089	475.06
453.31	461.06
453.53	492.06
453.751	485.06
453.971	503.06
454.192	494.06
454.412	481.06
454.633	468.06
454.853	472.06
455.073	459.06
455.294	503.06
455.514	563.06
455.734	557.06
455.955	466.06
456.175	469.06
456.395	472.06
456.616	464.06
456.836	468.06
457.056	466.06
457.276	462.06
457.497	451.06
457.717	474.06
457.937	475.06
458.157	472.06
458.377	488.06
458.598	511.06
458.818	550.06
459.038	631.06
459.258	646.06
459.478	568.06
459.698	550.06
459.918	516.06
460.138	508.06
460.358	534.06
460.578	535.06
460.798	550.06
461.018	563.06
461.238	563.06
461.458	527.06
461.678	542.06
461.898	561.06
462.118	544.06
462.338	529.06
462.558	559.06
462.777	575.06
462.997	590.06
463.217	596.06
463.437	585.06
463.657	593.06
463.876	578.06
464.096	586.06
464.316	555.06
464.536	594.06
464.755	576.06
464.975	585.06
465.195	614.06
465.414	638.06
465.634	635.06
465.854	566.06
466.073	541.06
466.293	543.06
466.512	520.06
466.732	507.06
466.951	523.06
467.171	509.06
467.391	497.06
467.61	533.06
467.829	528.06
468.049	496.06
468.268	529.06
468.488	499.06
468.707	492.06
468.927	499.06
469.146	484.06
469.365	508.06
469.585	483.06
469.804	509.06
470.023	520.06
470.243	518.06
470.462	517.06
470.681	524.06
470.901	519.06
471.12	509.06
471.339	499.06
471.558	521.06
471.777	490.06
471.997	502.06
472.216	501.06
472.435	534.06
472.654	524.06
472.873	515.06
473.092	517.06
473.311	493.06
473.53	512.06
473.749	504.06
473.968	552.06
474.187	621.06
474.406	681.06
474.625	563.06
474.844	537.06
475.063	531.06
475.282	501.06
475.501	519.06
475.72	532.06
475.939	532.06
476.158	530.06
476.377	528.06
476.596	513.06
476.814	534.06
477.033	520.06
477.252	525.06
477.471	548.06
477.69	559.06
477.908	557.06
478.127	579.06
478.346	561.06
478.564	566.06
478.783	577.06
479.002	568.06
479.22	596.06
479.439	614.06
479.658	599.06
479.876	616.06
480.095	617.06
480.313	650.06
480.532	651.06
480.751	622.06
480.969	634.06
481.188	659.06
481.406	708.06
481.624	629.06
481.843	599.06
482.061	592.06
482.28	596.06
482.498	613.06
482.717	620.06
482.935	596.06
483.153	602.06
483.372	579.06
483.59	594.06
483.808	588.06
484.027	581.06
484.245	598.06
484.463	604.06
484.681	612.06
484.9	604.06
485.118	585.06
485.336	601.06
485.554	610.06
485.772	645.06
485.99	632.06
486.209	612.06
486.427	604.06
486.645	633.06
486.863	639.06
487.081	625.06
487.299	629.06
487.517	637.06
487.735	629.06
487.953	638.06
488.171	618.06
488.389	645.06
488.607	637.06
488.825	641.06
489.043	636.06
489.261	653.06
489.479	618.06
489.696	651.06
489.914	641.06
490.132	653.06
490.35	665.06
490.568	667.06
490.786	649.06
491.003	673.06
491.221	682.06
491.439	687.06
491.657	678.06
491.874	719.06
492.092	715.06
492.31	696.06
492.527	697.06
492.745	740.06
492.963	725.06
493.18	731.06
493.398	710.06
493.615	721.06
493.833	720.06
494.05	713.06
494.268	732.06
494.485	733.06
494.703	708.06
494.92	721.06
495.138	728.06
495.355	717.06
495.573	747.06
495.79	776.06
496.008	744.06
496.225	735.06
496.442	757.06
496.66	730.06
496.877	743.06
497.094	748.06
497.312	761.06
497.529	761.06
497.746	811.06
497.963	781.06
498.181	826.06
498.398	835.06
498.615	824.06
498.832	858.06
499.049	874.06
499.267	892.06
499.484	928.06
499.701	961.06
499.918	1017.06
500.135	1035.06
500.352	1099.06
500.569	1088.06
500.786	1097.06
501.003	1112.06
501.22	1070.06
501.437	1017.06
501.654	999.06
501.871	963.06
