Data from 1978.PennyLincolnUp.Lamp.En5.5.200Scan.071719.P1_HRD10591_16-13-23-864.txt Node
Date: Thu Jul 18 16:13:23 EDT 2019
User: cochatt
Spectrometer: HR+D1059
Trigger mode: 1
Integration Time (sec): 1.000000E-1
Scans to average: 1
Electric dark correction enabled: true
Nonlinearity correction enabled: false
Boxcar width: 0
XAxis mode: Wavelengths
Number of Pixels in Spectrum: 2048
>>>>>Begin Spectral Data<<<<<
223.165	-10.06
223.4	-10.06
223.635	-10.06
223.869	-24.06
224.104	-27.06
224.338	-7.06
224.573	-17.06
224.808	-11.06
225.042	-1.06
225.277	-0.06
225.511	8.94
225.746	7.94
225.98	12.94
226.215	-1.06
226.449	21.94
226.683	7.94
226.918	19.94
227.152	18.94
227.387	34.94
227.621	38.94
227.856	47.94
228.09	49.94
228.324	48.94
228.559	51.94
228.793	68.94
229.027	91.94
229.262	114.94
229.496	96.94
229.73	132.94
229.964	146.94
230.199	130.94
230.433	110.94
230.667	122.94
230.901	109.94
231.136	104.94
231.37	114.94
231.604	128.94
231.838	116.94
232.072	110.94
232.306	112.94
232.541	118.94
232.775	113.94
233.009	110.94
233.243	118.94
233.477	112.94
233.711	126.94
233.945	110.94
234.179	119.94
234.413	120.94
234.647	127.94
234.881	121.94
235.115	114.94
235.349	107.94
235.583	119.94
235.817	141.94
236.051	118.94
236.285	138.94
236.519	132.94
236.753	116.94
236.987	131.94
237.221	174.94
237.455	221.94
237.689	196.94
237.922	141.94
238.156	138.94
238.39	121.94
238.624	125.94
238.858	135.94
239.091	128.94
239.325	132.94
239.559	128.94
239.793	137.94
240.027	142.94
240.26	145.94
240.494	166.94
240.728	135.94
240.961	152.94
241.195	144.94
241.429	161.94
241.662	144.94
241.896	126.94
242.13	139.94
242.363	142.94
242.597	135.94
242.83	146.94
243.064	130.94
243.298	135.94
243.531	128.94
243.765	134.94
243.998	137.94
244.232	142.94
244.465	150.94
244.699	130.94
244.932	150.94
245.166	140.94
245.399	139.94
245.633	152.94
245.866	148.94
246.099	156.94
246.333	149.94
246.566	155.94
246.8	145.94
247.033	141.94
247.266	155.94
247.5	159.94
247.733	165.94
247.966	172.94
248.2	158.94
248.433	153.94
248.666	164.94
248.899	169.94
249.133	197.94
249.366	194.94
249.599	204.94
249.832	191.94
250.066	152.94
250.299	182.94
250.532	189.94
250.765	216.94
250.998	213.94
251.231	221.94
251.465	195.94
251.698	198.94
251.931	190.94
252.164	178.94
252.397	195.94
252.63	205.94
252.863	186.94
253.096	214.94
253.329	229.94
253.562	215.94
253.795	198.94
254.028	207.94
254.261	203.94
254.494	201.94
254.727	221.94
254.96	270.94
255.193	242.94
255.426	245.94
255.659	223.94
255.892	210.94
256.124	232.94
256.357	207.94
256.59	211.94
256.823	194.94
257.056	208.94
257.289	198.94
257.521	222.94
257.754	197.94
257.987	204.94
258.22	192.94
258.452	208.94
258.685	222.94
258.918	210.94
259.151	204.94
259.383	208.94
259.616	214.94
259.849	215.94
260.081	214.94
260.314	223.94
260.547	257.94
260.779	234.94
261.012	239.94
261.244	230.94
261.477	215.94
261.71	200.94
261.942	215.94
262.175	225.94
262.407	226.94
262.64	210.94
262.872	201.94
263.105	204.94
263.337	219.94
263.57	209.94
263.802	206.94
264.035	212.94
264.267	216.94
264.499	205.94
264.732	206.94
264.964	205.94
265.197	219.94
265.429	199.94
265.661	226.94
265.894	218.94
266.126	205.94
266.358	200.94
266.591	208.94
266.823	227.94
267.055	231.94
267.287	218.94
267.52	218.94
267.752	231.94
267.984	225.94
268.216	217.94
268.448	222.94
268.681	225.94
268.913	236.94
269.145	258.94
269.377	268.94
269.609	260.94
269.841	250.94
270.073	251.94
270.306	250.94
270.538	301.94
270.77	296.94
271.002	308.94
271.234	278.94
271.466	283.94
271.698	282.94
271.93	287.94
272.162	292.94
272.394	301.94
272.626	281.94
272.858	275.94
273.09	280.94
273.322	271.94
273.553	244.94
273.785	261.94
274.017	268.94
274.249	272.94
274.481	256.94
274.713	274.94
274.945	253.94
275.176	250.94
275.408	260.94
275.64	237.94
275.872	263.94
276.104	261.94
276.335	266.94
276.567	270.94
276.799	262.94
277.031	287.94
277.262	299.94
277.494	304.94
277.726	297.94
277.957	277.94
278.189	260.94
278.421	280.94
278.652	270.94
278.884	268.94
279.115	268.94
279.347	262.94
279.579	267.94
279.81	269.94
280.042	270.94
280.273	261.94
280.505	276.94
280.736	280.94
280.968	279.94
281.199	262.94
281.431	264.94
281.662	258.94
281.894	266.94
282.125	267.94
282.356	288.94
282.588	307.94
282.819	294.94
283.051	276.94
283.282	267.94
283.513	270.94
283.745	278.94
283.976	266.94
284.207	280.94
284.439	282.94
284.67	287.94
284.901	279.94
285.132	276.94
285.364	293.94
285.595	287.94
285.826	283.94
286.057	281.94
286.288	274.94
286.52	273.94
286.751	270.94
286.982	272.94
287.213	283.94
287.444	279.94
287.675	289.94
287.906	289.94
288.138	301.94
288.369	292.94
288.6	286.94
288.831	275.94
289.062	292.94
289.293	288.94
289.524	290.94
289.755	276.94
289.986	293.94
290.217	297.94
290.448	297.94
290.679	279.94
290.91	310.94
291.141	291.94
291.371	276.94
291.602	286.94
291.833	293.94
292.064	274.94
292.295	283.94
292.526	287.94
292.757	293.94
292.987	285.94
293.218	281.94
293.449	283.94
293.68	284.94
293.91	290.94
294.141	303.94
294.372	291.94
294.603	298.94
294.833	296.94
295.064	297.94
295.295	296.94
295.525	312.94
295.756	298.94
295.987	306.94
296.217	324.94
296.448	328.94
296.679	303.94
296.909	300.94
297.14	301.94
297.37	307.94
297.601	294.94
297.831	316.94
298.062	296.94
298.292	295.94
298.523	303.94
298.753	322.94
298.984	326.94
299.214	311.94
299.445	314.94
299.675	307.94
299.905	326.94
300.136	317.94
300.366	323.94
300.597	318.94
300.827	306.94
301.057	316.94
301.288	332.94
301.518	322.94
301.748	325.94
301.979	331.94
302.209	336.94
302.439	340.94
302.669	336.94
302.9	309.94
303.13	315.94
303.36	314.94
303.59	332.94
303.82	334.94
304.051	355.94
304.281	325.94
304.511	317.94
304.741	338.94
304.971	333.94
305.201	316.94
305.431	330.94
305.661	334.94
305.891	324.94
306.121	326.94
306.352	332.94
306.582	344.94
306.812	346.94
307.042	319.94
307.272	323.94
307.502	320.94
307.731	342.94
307.961	331.94
308.191	329.94
308.421	324.94
308.651	355.94
308.881	343.94
309.111	348.94
309.341	320.94
309.571	359.94
309.8	359.94
310.03	362.94
310.26	384.94
310.49	372.94
310.72	393.94
310.949	380.94
311.179	384.94
311.409	366.94
311.639	364.94
311.868	368.94
312.098	380.94
312.328	392.94
312.557	384.94
312.787	398.94
313.017	421.94
313.246	394.94
313.476	377.94
313.706	377.94
313.935	391.94
314.165	388.94
314.394	394.94
314.624	400.94
314.853	384.94
315.083	372.94
315.312	383.94
315.542	365.94
315.771	382.94
316.001	371.94
316.23	380.94
316.46	370.94
316.689	361.94
316.919	388.94
317.148	374.94
317.377	394.94
317.607	385.94
317.836	369.94
318.065	379.94
318.295	373.94
318.524	354.94
318.753	382.94
318.983	365.94
319.212	358.94
319.441	379.94
319.67	398.94
319.9	391.94
320.129	370.94
320.358	378.94
320.587	386.94
320.816	397.94
321.046	411.94
321.275	400.94
321.504	384.94
321.733	401.94
321.962	406.94
322.191	433.94
322.42	410.94
322.649	436.94
322.878	463.94
323.108	453.94
323.337	484.94
323.566	510.94
323.795	524.94
324.024	556.94
324.253	663.94
324.482	964.94
324.71	1516.94
324.939	2276.94
325.168	1996.94
325.397	989.94
325.626	640.94
325.855	543.94
326.084	517.94
326.313	507.94
326.542	495.94
326.77	562.94
326.999	653.94
327.228	880.94
327.457	1387.94
327.686	1734.94
327.914	1091.94
328.143	721.94
328.372	627.94
328.6	589.94
328.829	564.94
329.058	593.94
329.287	579.94
329.515	542.94
329.744	499.94
329.972	514.94
330.201	533.94
330.43	559.94
330.658	579.94
330.887	608.94
331.115	592.94
331.344	548.94
331.572	485.94
331.801	517.94
332.03	485.94
332.258	478.94
332.486	460.94
332.715	462.94
332.943	448.94
333.172	473.94
333.4	477.94
333.629	453.94
333.857	461.94
334.085	488.94
334.314	502.94
334.542	518.94
334.771	538.94
334.999	493.94
335.227	492.94
335.455	476.94
335.684	459.94
335.912	469.94
336.14	472.94
336.369	460.94
336.597	458.94
336.825	463.94
337.053	458.94
337.281	469.94
337.51	438.94
337.738	462.94
337.966	441.94
338.194	448.94
338.422	473.94
338.65	444.94
338.878	434.94
339.106	452.94
339.334	448.94
339.562	449.94
339.79	425.94
340.018	425.94
340.246	440.94
340.474	447.94
340.702	448.94
340.93	440.94
341.158	453.94
341.386	432.94
341.614	444.94
341.842	448.94
342.07	440.94
342.298	427.94
342.526	436.94
342.754	432.94
342.981	420.94
343.209	439.94
343.437	424.94
343.665	444.94
343.893	423.94
344.12	445.94
344.348	443.94
344.576	447.94
344.804	471.94
345.031	453.94
345.259	471.94
345.487	466.94
345.714	444.94
345.942	416.94
346.17	436.94
346.397	419.94
346.625	420.94
346.853	438.94
347.08	441.94
347.308	449.94
347.535	439.94
347.763	446.94
347.99	434.94
348.218	456.94
348.445	437.94
348.673	440.94
348.9	435.94
349.128	419.94
349.355	422.94
349.583	409.94
349.81	426.94
350.037	422.94
350.265	417.94
350.492	407.94
350.72	427.94
350.947	436.94
351.174	422.94
351.402	426.94
351.629	439.94
351.856	419.94
352.083	436.94
352.311	429.94
352.538	442.94
352.765	432.94
352.992	436.94
353.22	414.94
353.447	411.94
353.674	429.94
353.901	415.94
354.128	433.94
354.355	410.94
354.583	413.94
354.81	416.94
355.037	393.94
355.264	396.94
355.491	405.94
355.718	389.94
355.945	379.94
356.172	424.94
356.399	417.94
356.626	400.94
356.853	382.94
357.08	382.94
357.307	400.94
357.534	399.94
357.761	405.94
357.988	399.94
358.215	420.94
358.441	434.94
358.668	411.94
358.895	397.94
359.122	402.94
359.349	420.94
359.576	439.94
359.802	440.94
360.029	480.94
360.256	499.94
360.483	484.94
360.709	407.94
360.936	415.94
361.163	407.94
361.39	440.94
361.616	443.94
361.843	429.94
362.07	427.94
362.296	440.94
362.523	418.94
362.749	418.94
362.976	441.94
363.203	414.94
363.429	425.94
363.656	423.94
363.882	430.94
364.109	413.94
364.335	440.94
364.562	397.94
364.788	399.94
365.015	410.94
365.241	422.94
365.468	428.94
365.694	435.94
365.92	423.94
366.147	406.94
366.373	438.94
366.599	412.94
366.826	422.94
367.052	425.94
367.278	448.94
367.505	424.94
367.731	421.94
367.957	413.94
368.184	404.94
368.41	424.94
368.636	423.94
368.862	428.94
369.089	446.94
369.315	402.94
369.541	416.94
369.767	412.94
369.993	415.94
370.219	418.94
370.445	427.94
370.672	422.94
370.898	425.94
371.124	425.94
371.35	420.94
371.576	421.94
371.802	431.94
372.028	432.94
372.254	428.94
372.48	420.94
372.706	442.94
372.932	432.94
373.158	427.94
373.384	431.94
373.61	430.94
373.835	431.94
374.061	437.94
374.287	430.94
374.513	450.94
374.739	422.94
374.965	420.94
375.191	442.94
375.416	430.94
375.642	430.94
375.868	431.94
376.094	428.94
376.319	395.94
376.545	427.94
376.771	415.94
376.997	423.94
377.222	417.94
377.448	404.94
377.674	429.94
377.899	414.94
378.125	430.94
378.35	422.94
378.576	420.94
378.802	442.94
379.027	429.94
379.253	434.94
379.478	410.94
379.704	426.94
379.929	426.94
380.155	431.94
380.38	416.94
380.606	426.94
380.831	429.94
381.057	438.94
381.282	442.94
381.507	419.94
381.733	420.94
381.958	431.94
382.184	439.94
382.409	418.94
382.634	431.94
382.86	438.94
383.085	438.94
383.31	449.94
383.535	438.94
383.761	447.94
383.986	440.94
384.211	452.94
384.436	450.94
384.662	453.94
384.887	460.94
385.112	444.94
385.337	455.94
385.562	472.94
385.787	454.94
386.013	487.94
386.238	481.94
386.463	489.94
386.688	479.94
386.913	478.94
387.138	493.94
387.363	479.94
387.588	477.94
387.813	462.94
388.038	478.94
388.263	465.94
388.488	474.94
388.713	469.94
388.938	475.94
389.163	490.94
389.387	473.94
389.612	474.94
389.837	471.94
390.062	484.94
390.287	469.94
390.512	471.94
390.736	479.94
390.961	496.94
391.186	486.94
391.411	490.94
391.636	469.94
391.86	480.94
392.085	478.94
392.31	475.94
392.534	474.94
392.759	480.94
392.984	493.94
393.208	471.94
393.433	470.94
393.658	481.94
393.882	482.94
394.107	487.94
394.331	486.94
394.556	485.94
394.78	492.94
395.005	483.94
395.229	488.94
395.454	493.94
395.678	502.94
395.903	506.94
396.127	512.94
396.352	531.94
396.576	502.94
396.801	534.94
397.025	509.94
397.249	512.94
397.474	519.94
397.698	522.94
397.922	524.94
398.147	539.94
398.371	558.94
398.595	535.94
398.82	534.94
399.044	554.94
399.268	572.94
399.492	601.94
399.717	632.94
399.941	662.94
400.165	686.94
400.389	700.94
400.613	617.94
400.837	588.94
401.062	570.94
401.286	581.94
401.51	593.94
401.734	560.94
401.958	560.94
402.182	554.94
402.406	566.94
402.63	573.94
402.854	568.94
403.078	567.94
403.302	571.94
403.526	572.94
403.75	563.94
403.974	566.94
404.198	564.94
404.422	573.94
404.645	578.94
404.869	561.94
405.093	630.94
405.317	681.94
405.541	690.94
405.765	608.94
405.988	615.94
406.212	618.94
406.436	620.94
406.66	627.94
406.883	641.94
407.107	660.94
407.331	678.94
407.555	780.94
407.778	757.94
408.002	700.94
408.226	662.94
408.449	640.94
408.673	640.94
408.896	661.94
409.12	695.94
409.344	642.94
409.567	642.94
409.791	610.94
410.014	568.94
410.238	593.94
410.461	602.94
410.685	606.94
410.908	619.94
411.132	622.94
411.355	667.94
411.578	656.94
411.802	594.94
412.025	572.94
412.249	578.94
412.472	607.94
412.695	651.94
412.919	658.94
413.142	594.94
413.365	560.94
413.589	566.94
413.812	577.94
414.035	571.94
414.258	546.94
414.482	542.94
414.705	542.94
414.928	535.94
415.151	543.94
415.374	557.94
415.597	548.94
415.821	540.94
416.044	526.94
416.267	564.94
416.49	550.94
416.713	569.94
416.936	523.94
417.159	553.94
417.382	538.94
417.605	565.94
417.828	542.94
418.051	573.94
418.274	554.94
418.497	535.94
418.72	562.94
418.943	558.94
419.166	572.94
419.389	598.94
419.611	593.94
419.834	567.94
420.057	584.94
420.28	598.94
420.503	580.94
420.726	582.94
420.948	586.94
421.171	607.94
421.394	649.94
421.617	614.94
421.839	583.94
422.062	575.94
422.285	563.94
422.507	651.94
422.73	720.94
422.953	719.94
423.175	620.94
423.398	593.94
423.621	598.94
423.843	631.94
424.066	599.94
424.288	593.94
424.511	629.94
424.733	696.94
424.956	780.94
425.178	740.94
425.401	750.94
425.623	781.94
425.846	651.94
426.068	607.94
426.291	607.94
426.513	591.94
426.735	618.94
426.958	653.94
427.18	756.94
427.402	906.94
427.625	1006.94
427.847	863.94
428.069	745.94
428.292	638.94
428.514	612.94
428.736	592.94
428.958	595.94
429.181	573.94
429.403	565.94
429.625	571.94
429.847	606.94
430.069	679.94
430.292	656.94
430.514	558.94
430.736	559.94
430.958	558.94
431.18	549.94
431.402	541.94
431.624	516.94
431.846	528.94
432.068	535.94
432.29	548.94
432.512	520.94
432.734	550.94
432.956	544.94
433.178	525.94
433.4	558.94
433.622	556.94
433.844	563.94
434.066	550.94
434.287	526.94
434.509	559.94
434.731	544.94
434.953	564.94
435.175	566.94
435.397	606.94
435.618	628.94
435.84	634.94
436.062	768.94
436.284	841.94
436.505	711.94
436.727	615.94
436.949	583.94
437.17	556.94
437.392	556.94
437.614	587.94
437.835	620.94
438.057	675.94
438.278	809.94
438.5	840.94
438.721	900.94
438.943	882.94
439.165	686.94
439.386	638.94
439.608	626.94
439.829	601.94
440.05	644.94
440.272	696.94
440.493	662.94
440.715	608.94
440.936	564.94
441.158	578.94
441.379	549.94
441.6	580.94
441.822	614.94
442.043	638.94
442.264	737.94
442.486	796.94
442.707	706.94
442.928	640.94
443.149	639.94
443.371	654.94
443.592	685.94
443.813	804.94
444.034	891.94
444.255	715.94
444.476	635.94
444.698	648.94
444.919	604.94
445.14	722.94
445.361	642.94
445.582	657.94
445.803	728.94
446.024	846.94
446.245	836.94
446.466	800.94
446.687	649.94
446.908	608.94
447.129	586.94
447.35	576.94
447.571	545.94
447.792	572.94
448.013	572.94
448.234	579.94
448.455	638.94
448.675	747.94
448.896	882.94
449.117	745.94
449.338	707.94
449.559	816.94
449.779	932.94
450	750.94
450.221	584.94
450.442	570.94
450.662	562.94
450.883	560.94
451.104	554.94
451.324	547.94
451.545	546.94
451.766	540.94
451.986	514.94
452.207	500.94
452.428	492.94
452.648	525.94
452.869	518.94
453.089	503.94
453.31	524.94
453.53	511.94
453.751	506.94
453.971	485.94
454.192	528.94
454.412	514.94
454.633	495.94
454.853	505.94
455.073	485.94
455.294	526.94
455.514	610.94
455.734	572.94
455.955	523.94
456.175	479.94
456.395	459.94
456.616	459.94
456.836	472.94
457.056	462.94
457.276	466.94
457.497	485.94
457.717	476.94
457.937	498.94
458.157	492.94
458.377	503.94
458.598	540.94
458.818	560.94
459.038	664.94
459.258	694.94
459.478	601.94
459.698	550.94
459.918	542.94
460.138	552.94
460.358	552.94
460.578	563.94
460.798	572.94
461.018	563.94
461.238	555.94
461.458	564.94
461.678	540.94
461.898	542.94
462.118	554.94
462.338	546.94
462.558	593.94
462.777	592.94
462.997	621.94
463.217	618.94
463.437	627.94
463.657	630.94
463.876	592.94
464.096	611.94
464.316	597.94
464.536	596.94
464.755	577.94
464.975	577.94
465.195	627.94
465.414	698.94
465.634	598.94
465.854	574.94
466.073	563.94
466.293	526.94
466.512	533.94
466.732	537.94
466.951	522.94
467.171	541.94
467.391	536.94
467.61	536.94
467.829	534.94
468.049	537.94
468.268	524.94
468.488	516.94
468.707	539.94
468.927	512.94
469.146	497.94
469.365	513.94
469.585	544.94
469.804	525.94
470.023	520.94
470.243	514.94
470.462	540.94
470.681	538.94
470.901	551.94
471.12	528.94
471.339	538.94
471.558	543.94
471.777	531.94
471.997	499.94
472.216	533.94
472.435	549.94
472.654	548.94
472.873	539.94
473.092	537.94
473.311	509.94
473.53	523.94
473.749	554.94
473.968	565.94
474.187	695.94
474.406	702.94
474.625	580.94
474.844	530.94
475.063	542.94
475.282	523.94
475.501	540.94
475.72	528.94
475.939	554.94
476.158	548.94
476.377	550.94
476.596	544.94
476.814	583.94
477.033	558.94
477.252	547.94
477.471	553.94
477.69	567.94
477.908	591.94
478.127	585.94
478.346	575.94
478.564	603.94
478.783	599.94
479.002	603.94
479.22	610.94
479.439	621.94
479.658	632.94
479.876	634.94
480.095	637.94
480.313	669.94
480.532	661.94
480.751	647.94
480.969	645.94
481.188	701.94
481.406	743.94
481.624	651.94
481.843	653.94
482.061	642.94
482.28	650.94
482.498	616.94
482.717	628.94
482.935	607.94
483.153	614.94
483.372	620.94
483.59	626.94
483.808	585.94
484.027	628.94
484.245	614.94
484.463	625.94
484.681	648.94
484.9	648.94
485.118	628.94
485.336	639.94
485.554	635.94
485.772	630.94
485.99	621.94
486.209	650.94
486.427	670.94
486.645	636.94
486.863	643.94
487.081	652.94
487.299	670.94
487.517	638.94
487.735	621.94
487.953	641.94
488.171	647.94
488.389	644.94
488.607	651.94
488.825	671.94
489.043	658.94
489.261	669.94
489.479	660.94
489.696	683.94
489.914	683.94
490.132	682.94
490.35	677.94
490.568	660.94
490.786	679.94
491.003	679.94
491.221	714.94
491.439	738.94
491.657	735.94
491.874	756.94
492.092	720.94
492.31	718.94
492.527	733.94
492.745	726.94
492.963	743.94
493.18	738.94
493.398	751.94
493.615	760.94
493.833	750.94
494.05	782.94
494.268	775.94
494.485	782.94
494.703	785.94
494.92	768.94
495.138	764.94
495.355	770.94
495.573	790.94
495.79	776.94
496.008	782.94
496.225	796.94
496.442	795.94
496.66	806.94
496.877	780.94
497.094	794.94
497.312	787.94
497.529	818.94
497.746	811.94
497.963	842.94
498.181	832.94
498.398	870.94
498.615	897.94
498.832	882.94
499.049	920.94
499.267	936.94
499.484	959.94
499.701	990.94
499.918	1037.94
500.135	1088.94
500.352	1131.94
500.569	1144.94
500.786	1172.94
501.003	1139.94
501.22	1101.94
501.437	1082.94
501.654	1052.94
501.871	1017.94
