Data from 1978.PennyLincolnUp.Lamp.En5.5.200Scan.071719.P1_HRD10591_16-13-27-864.txt Node
Date: Thu Jul 18 16:13:27 EDT 2019
User: cochatt
Spectrometer: HR+D1059
Trigger mode: 1
Integration Time (sec): 1.000000E-1
Scans to average: 1
Electric dark correction enabled: true
Nonlinearity correction enabled: false
Boxcar width: 0
XAxis mode: Wavelengths
Number of Pixels in Spectrum: 2048
>>>>>Begin Spectral Data<<<<<
223.165	-31.81
223.4	-31.81
223.635	-31.81
223.869	-10.81
224.104	-16.81
224.338	-16.81
224.573	-11.81
224.808	-6.81
225.042	-9.81
225.277	10.19
225.511	-8.81
225.746	-13.81
225.98	-1.81
226.215	24.19
226.449	16.19
226.683	24.19
226.918	34.19
227.152	20.19
227.387	42.19
227.621	24.19
227.856	48.19
228.09	46.19
228.324	41.19
228.559	55.19
228.793	72.19
229.027	102.19
229.262	111.19
229.496	100.19
229.73	146.19
229.964	150.19
230.199	135.19
230.433	111.19
230.667	109.19
230.901	109.19
231.136	107.19
231.37	111.19
231.604	96.19
231.838	104.19
232.072	118.19
232.306	106.19
232.541	109.19
232.775	109.19
233.009	122.19
233.243	126.19
233.477	103.19
233.711	107.19
233.945	105.19
234.179	111.19
234.413	108.19
234.647	122.19
234.881	97.19
235.115	96.19
235.349	122.19
235.583	114.19
235.817	119.19
236.051	125.19
236.285	100.19
236.519	120.19
236.753	119.19
236.987	133.19
237.221	164.19
237.455	231.19
237.689	171.19
237.922	140.19
238.156	142.19
238.39	126.19
238.624	122.19
238.858	132.19
239.091	122.19
239.325	126.19
239.559	128.19
239.793	125.19
240.027	127.19
240.26	134.19
240.494	151.19
240.728	150.19
240.961	143.19
241.195	128.19
241.429	132.19
241.662	127.19
241.896	125.19
242.13	121.19
242.363	127.19
242.597	125.19
242.83	143.19
243.064	138.19
243.298	132.19
243.531	139.19
243.765	144.19
243.998	131.19
244.232	121.19
244.465	148.19
244.699	152.19
244.932	140.19
245.166	139.19
245.399	149.19
245.633	128.19
245.866	154.19
246.099	134.19
246.333	140.19
246.566	148.19
246.8	139.19
247.033	150.19
247.266	165.19
247.5	154.19
247.733	134.19
247.966	157.19
248.2	150.19
248.433	140.19
248.666	162.19
248.899	173.19
249.133	205.19
249.366	198.19
249.599	196.19
249.832	179.19
250.066	168.19
250.299	180.19
250.532	172.19
250.765	187.19
250.998	197.19
251.231	188.19
251.465	212.19
251.698	191.19
251.931	172.19
252.164	174.19
252.397	181.19
252.63	194.19
252.863	187.19
253.096	174.19
253.329	208.19
253.562	200.19
253.795	193.19
254.028	204.19
254.261	202.19
254.494	204.19
254.727	207.19
254.96	242.19
255.193	225.19
255.426	228.19
255.659	233.19
255.892	216.19
256.124	217.19
256.357	200.19
256.59	207.19
256.823	212.19
257.056	184.19
257.289	195.19
257.521	202.19
257.754	199.19
257.987	202.19
258.22	191.19
258.452	202.19
258.685	182.19
258.918	210.19
259.151	192.19
259.383	215.19
259.616	197.19
259.849	228.19
260.081	228.19
260.314	226.19
260.547	238.19
260.779	206.19
261.012	215.19
261.244	216.19
261.477	201.19
261.71	194.19
261.942	198.19
262.175	212.19
262.407	219.19
262.64	202.19
262.872	216.19
263.105	191.19
263.337	200.19
263.57	204.19
263.802	215.19
264.035	209.19
264.267	198.19
264.499	188.19
264.732	197.19
264.964	212.19
265.197	210.19
265.429	218.19
265.661	206.19
265.894	213.19
266.126	203.19
266.358	208.19
266.591	190.19
266.823	212.19
267.055	213.19
267.287	226.19
267.52	211.19
267.752	226.19
267.984	219.19
268.216	225.19
268.448	207.19
268.681	224.19
268.913	230.19
269.145	236.19
269.377	248.19
269.609	250.19
269.841	234.19
270.073	234.19
270.306	266.19
270.538	279.19
270.77	281.19
271.002	290.19
271.234	271.19
271.466	280.19
271.698	277.19
271.93	293.19
272.162	272.19
272.394	288.19
272.626	296.19
272.858	284.19
273.09	267.19
273.322	249.19
273.553	261.19
273.785	242.19
274.017	258.19
274.249	225.19
274.481	246.19
274.713	255.19
274.945	261.19
275.176	234.19
275.408	254.19
275.64	232.19
275.872	246.19
276.104	260.19
276.335	258.19
276.567	251.19
276.799	272.19
277.031	280.19
277.262	291.19
277.494	297.19
277.726	284.19
277.957	278.19
278.189	260.19
278.421	250.19
278.652	246.19
278.884	242.19
279.115	249.19
279.347	246.19
279.579	247.19
279.81	270.19
280.042	252.19
280.273	245.19
280.505	276.19
280.736	264.19
280.968	252.19
281.199	265.19
281.431	246.19
281.662	264.19
281.894	254.19
282.125	260.19
282.356	295.19
282.588	280.19
282.819	278.19
283.051	248.19
283.282	278.19
283.513	272.19
283.745	266.19
283.976	248.19
284.207	298.19
284.439	270.19
284.67	273.19
284.901	281.19
285.132	278.19
285.364	270.19
285.595	271.19
285.826	287.19
286.057	263.19
286.288	267.19
286.52	269.19
286.751	268.19
286.982	280.19
287.213	268.19
287.444	262.19
287.675	279.19
287.906	284.19
288.138	287.19
288.369	274.19
288.6	293.19
288.831	293.19
289.062	285.19
289.293	278.19
289.524	279.19
289.755	278.19
289.986	284.19
290.217	276.19
290.448	267.19
290.679	279.19
290.91	291.19
291.141	283.19
291.371	298.19
291.602	282.19
291.833	270.19
292.064	274.19
292.295	285.19
292.526	273.19
292.757	279.19
292.987	282.19
293.218	264.19
293.449	270.19
293.68	268.19
293.91	279.19
294.141	288.19
294.372	282.19
294.603	276.19
294.833	282.19
295.064	294.19
295.295	278.19
295.525	292.19
295.756	292.19
295.987	291.19
296.217	308.19
296.448	327.19
296.679	306.19
296.909	285.19
297.14	296.19
297.37	302.19
297.601	300.19
297.831	280.19
298.062	266.19
298.292	298.19
298.523	293.19
298.753	311.19
298.984	299.19
299.214	288.19
299.445	294.19
299.675	293.19
299.905	306.19
300.136	290.19
300.366	310.19
300.597	306.19
300.827	303.19
301.057	323.19
301.288	327.19
301.518	321.19
301.748	330.19
301.979	308.19
302.209	330.19
302.439	311.19
302.669	319.19
302.9	321.19
303.13	308.19
303.36	314.19
303.59	331.19
303.82	328.19
304.051	321.19
304.281	333.19
304.511	317.19
304.741	324.19
304.971	329.19
305.201	308.19
305.431	310.19
305.661	303.19
305.891	300.19
306.121	307.19
306.352	299.19
306.582	306.19
306.812	327.19
307.042	326.19
307.272	335.19
307.502	325.19
307.731	328.19
307.961	322.19
308.191	324.19
308.421	313.19
308.651	335.19
308.881	339.19
309.111	341.19
309.341	310.19
309.571	331.19
309.8	348.19
310.03	347.19
310.26	351.19
310.49	350.19
310.72	352.19
310.949	360.19
311.179	366.19
311.409	357.19
311.639	373.19
311.868	364.19
312.098	374.19
312.328	382.19
312.557	390.19
312.787	390.19
313.017	399.19
313.246	378.19
313.476	348.19
313.706	365.19
313.935	376.19
314.165	363.19
314.394	374.19
314.624	380.19
314.853	377.19
315.083	344.19
315.312	363.19
315.542	354.19
315.771	358.19
316.001	344.19
316.23	345.19
316.46	369.19
316.689	342.19
316.919	358.19
317.148	383.19
317.377	394.19
317.607	369.19
317.836	379.19
318.065	357.19
318.295	360.19
318.524	365.19
318.753	374.19
318.983	370.19
319.212	377.19
319.441	381.19
319.67	376.19
319.9	387.19
320.129	360.19
320.358	372.19
320.587	384.19
320.816	376.19
321.046	380.19
321.275	361.19
321.504	386.19
321.733	374.19
321.962	381.19
322.191	406.19
322.42	423.19
322.649	430.19
322.878	430.19
323.108	449.19
323.337	472.19
323.566	476.19
323.795	504.19
324.024	532.19
324.253	637.19
324.482	930.19
324.71	1466.19
324.939	2232.19
325.168	1907.19
325.397	944.19
325.626	639.19
325.855	534.19
326.084	487.19
326.313	480.19
326.542	479.19
326.77	545.19
326.999	632.19
327.228	870.19
327.457	1316.19
327.686	1695.19
327.914	1086.19
328.143	690.19
328.372	593.19
328.6	577.19
328.829	518.19
329.058	525.19
329.287	549.19
329.515	518.19
329.744	497.19
329.972	481.19
330.201	506.19
330.43	511.19
330.658	555.19
330.887	587.19
331.115	558.19
331.344	483.19
331.572	464.19
331.801	484.19
332.03	475.19
332.258	456.19
332.486	438.19
332.715	426.19
332.943	439.19
333.172	424.19
333.4	439.19
333.629	456.19
333.857	462.19
334.085	478.19
334.314	493.19
334.542	493.19
334.771	528.19
334.999	478.19
335.227	459.19
335.455	454.19
335.684	430.19
335.912	456.19
336.14	427.19
336.369	445.19
336.597	430.19
336.825	436.19
337.053	419.19
337.281	427.19
337.51	460.19
337.738	428.19
337.966	449.19
338.194	440.19
338.422	452.19
338.65	441.19
338.878	441.19
339.106	430.19
339.334	438.19
339.562	426.19
339.79	446.19
340.018	436.19
340.246	432.19
340.474	437.19
340.702	432.19
340.93	424.19
341.158	411.19
341.386	430.19
341.614	436.19
341.842	418.19
342.07	428.19
342.298	398.19
342.526	405.19
342.754	412.19
342.981	391.19
343.209	426.19
343.437	422.19
343.665	423.19
343.893	448.19
344.12	439.19
344.348	435.19
344.576	446.19
344.804	460.19
345.031	443.19
345.259	453.19
345.487	442.19
345.714	425.19
345.942	428.19
346.17	423.19
346.397	399.19
346.625	409.19
346.853	423.19
347.08	412.19
347.308	398.19
347.535	413.19
347.763	422.19
347.99	422.19
348.218	428.19
348.445	411.19
348.673	441.19
348.9	395.19
349.128	415.19
349.355	413.19
349.583	392.19
349.81	400.19
350.037	398.19
350.265	400.19
350.492	409.19
350.72	416.19
350.947	414.19
351.174	416.19
351.402	434.19
351.629	432.19
351.856	419.19
352.083	406.19
352.311	430.19
352.538	433.19
352.765	417.19
352.992	409.19
353.22	418.19
353.447	408.19
353.674	396.19
353.901	409.19
354.128	385.19
354.355	393.19
354.583	396.19
354.81	398.19
355.037	384.19
355.264	414.19
355.491	414.19
355.718	394.19
355.945	378.19
356.172	382.19
356.399	383.19
356.626	404.19
356.853	391.19
357.08	374.19
357.307	391.19
357.534	399.19
357.761	385.19
357.988	413.19
358.215	390.19
358.441	389.19
358.668	378.19
358.895	406.19
359.122	399.19
359.349	400.19
359.576	418.19
359.802	440.19
360.029	444.19
360.256	462.19
360.483	461.19
360.709	423.19
360.936	429.19
361.163	416.19
361.39	408.19
361.616	428.19
361.843	423.19
362.07	403.19
362.296	419.19
362.523	395.19
362.749	423.19
362.976	439.19
363.203	419.19
363.429	412.19
363.656	417.19
363.882	414.19
364.109	414.19
364.335	380.19
364.562	423.19
364.788	400.19
365.015	408.19
365.241	415.19
365.468	409.19
365.694	412.19
365.92	422.19
366.147	414.19
366.373	392.19
366.599	384.19
366.826	398.19
367.052	419.19
367.278	414.19
367.505	411.19
367.731	426.19
367.957	399.19
368.184	408.19
368.41	399.19
368.636	439.19
368.862	398.19
369.089	414.19
369.315	405.19
369.541	440.19
369.767	414.19
369.993	397.19
370.219	417.19
370.445	412.19
370.672	398.19
370.898	386.19
371.124	399.19
371.35	390.19
371.576	397.19
371.802	402.19
372.028	408.19
372.254	390.19
372.48	396.19
372.706	414.19
372.932	415.19
373.158	414.19
373.384	415.19
373.61	399.19
373.835	424.19
374.061	400.19
374.287	422.19
374.513	426.19
374.739	418.19
374.965	424.19
375.191	436.19
375.416	406.19
375.642	404.19
375.868	415.19
376.094	394.19
376.319	422.19
376.545	411.19
376.771	407.19
376.997	409.19
377.222	417.19
377.448	413.19
377.674	403.19
377.899	412.19
378.125	405.19
378.35	393.19
378.576	406.19
378.802	416.19
379.027	406.19
379.253	400.19
379.478	392.19
379.704	441.19
379.929	402.19
380.155	418.19
380.38	424.19
380.606	408.19
380.831	409.19
381.057	413.19
381.282	427.19
381.507	401.19
381.733	406.19
381.958	412.19
382.184	427.19
382.409	432.19
382.634	418.19
382.86	425.19
383.085	412.19
383.31	419.19
383.535	436.19
383.761	430.19
383.986	429.19
384.211	420.19
384.436	419.19
384.662	431.19
384.887	450.19
385.112	430.19
385.337	444.19
385.562	452.19
385.787	430.19
386.013	467.19
386.238	474.19
386.463	450.19
386.688	450.19
386.913	449.19
387.138	457.19
387.363	453.19
387.588	463.19
387.813	451.19
388.038	450.19
388.263	469.19
388.488	447.19
388.713	459.19
388.938	460.19
389.163	443.19
389.387	448.19
389.612	459.19
389.837	466.19
390.062	464.19
390.287	444.19
390.512	450.19
390.736	442.19
390.961	443.19
391.186	461.19
391.411	470.19
391.636	462.19
391.86	478.19
392.085	481.19
392.31	479.19
392.534	488.19
392.759	462.19
392.984	480.19
393.208	477.19
393.433	465.19
393.658	438.19
393.882	469.19
394.107	475.19
394.331	478.19
394.556	469.19
394.78	456.19
395.005	482.19
395.229	461.19
395.454	476.19
395.678	476.19
395.903	490.19
396.127	494.19
396.352	521.19
396.576	491.19
396.801	472.19
397.025	469.19
397.249	505.19
397.474	524.19
397.698	503.19
397.922	508.19
398.147	514.19
398.371	536.19
398.595	519.19
398.82	531.19
399.044	552.19
399.268	574.19
399.492	569.19
399.717	612.19
399.941	624.19
400.165	667.19
400.389	687.19
400.613	592.19
400.837	582.19
401.062	558.19
401.286	542.19
401.51	546.19
401.734	550.19
401.958	532.19
402.182	537.19
402.406	542.19
402.63	547.19
402.854	555.19
403.078	541.19
403.302	568.19
403.526	555.19
403.75	549.19
403.974	543.19
404.198	550.19
404.422	559.19
404.645	565.19
404.869	577.19
405.093	592.19
405.317	647.19
405.541	700.19
405.765	610.19
405.988	582.19
406.212	583.19
406.436	607.19
406.66	618.19
406.883	572.19
407.107	621.19
407.331	690.19
407.555	743.19
407.778	731.19
408.002	674.19
408.226	645.19
408.449	606.19
408.673	614.19
408.896	659.19
409.12	682.19
409.344	639.19
409.567	582.19
409.791	576.19
410.014	560.19
410.238	584.19
410.461	571.19
410.685	569.19
410.908	565.19
411.132	603.19
411.355	651.19
411.578	610.19
411.802	576.19
412.025	538.19
412.249	547.19
412.472	566.19
412.695	620.19
412.919	628.19
413.142	573.19
413.365	542.19
413.589	532.19
413.812	531.19
414.035	543.19
414.258	521.19
414.482	516.19
414.705	553.19
414.928	534.19
415.151	515.19
415.374	549.19
415.597	511.19
415.821	520.19
416.044	502.19
416.267	528.19
416.49	519.19
416.713	530.19
416.936	529.19
417.159	532.19
417.382	522.19
417.605	552.19
417.828	531.19
418.051	547.19
418.274	548.19
418.497	520.19
418.72	539.19
418.943	523.19
419.166	534.19
419.389	584.19
419.611	563.19
419.834	562.19
420.057	565.19
420.28	568.19
420.503	525.19
420.726	557.19
420.948	571.19
421.171	584.19
421.394	629.19
421.617	555.19
421.839	557.19
422.062	548.19
422.285	563.19
422.507	637.19
422.73	698.19
422.953	690.19
423.175	592.19
423.398	572.19
423.621	552.19
423.843	592.19
424.066	581.19
424.288	581.19
424.511	603.19
424.733	646.19
424.956	788.19
425.178	692.19
425.401	712.19
425.623	729.19
425.846	628.19
426.068	584.19
426.291	572.19
426.513	590.19
426.735	582.19
426.958	630.19
427.18	732.19
427.402	858.19
427.625	972.19
427.847	831.19
428.069	706.19
428.292	648.19
428.514	594.19
428.736	576.19
428.958	571.19
429.181	548.19
429.403	542.19
429.625	581.19
429.847	604.19
430.069	664.19
430.292	663.19
430.514	573.19
430.736	534.19
430.958	529.19
431.18	531.19
431.402	509.19
431.624	506.19
431.846	525.19
432.068	513.19
432.29	554.19
432.512	542.19
432.734	527.19
432.956	530.19
433.178	525.19
433.4	538.19
433.622	544.19
433.844	537.19
434.066	522.19
434.287	526.19
434.509	527.19
434.731	563.19
434.953	539.19
435.175	568.19
435.397	572.19
435.618	593.19
435.84	629.19
436.062	720.19
436.284	800.19
436.505	671.19
436.727	588.19
436.949	575.19
437.17	550.19
437.392	548.19
437.614	557.19
437.835	596.19
438.057	727.19
438.278	802.19
438.5	780.19
438.721	866.19
438.943	860.19
439.165	666.19
439.386	603.19
439.608	602.19
439.829	600.19
440.05	636.19
440.272	677.19
440.493	630.19
440.715	563.19
440.936	562.19
441.158	559.19
441.379	556.19
441.6	573.19
441.822	605.19
442.043	630.19
442.264	700.19
442.486	764.19
442.707	650.19
442.928	616.19
443.149	623.19
443.371	639.19
443.592	649.19
443.813	781.19
444.034	847.19
444.255	704.19
444.476	638.19
444.698	612.19
444.919	594.19
445.14	676.19
445.361	651.19
445.582	614.19
445.803	694.19
446.024	791.19
446.245	824.19
446.466	754.19
446.687	634.19
446.908	583.19
447.129	580.19
447.35	552.19
447.571	560.19
447.792	557.19
448.013	544.19
448.234	568.19
448.455	634.19
448.675	754.19
448.896	876.19
449.117	730.19
449.338	676.19
449.559	824.19
449.779	942.19
450	735.19
450.221	597.19
450.442	543.19
450.662	525.19
450.883	514.19
451.104	546.19
451.324	564.19
451.545	522.19
451.766	510.19
451.986	511.19
452.207	476.19
452.428	467.19
452.648	488.19
452.869	485.19
453.089	498.19
453.31	506.19
453.53	504.19
453.751	495.19
453.971	495.19
454.192	501.19
454.412	512.19
454.633	517.19
454.853	509.19
455.073	459.19
455.294	502.19
455.514	537.19
455.734	557.19
455.955	508.19
456.175	478.19
456.395	455.19
456.616	471.19
456.836	456.19
457.056	458.19
457.276	445.19
457.497	461.19
457.717	468.19
457.937	477.19
458.157	478.19
458.377	490.19
458.598	502.19
458.818	567.19
459.038	619.19
459.258	670.19
459.478	576.19
459.698	551.19
459.918	533.19
460.138	522.19
460.358	536.19
460.578	527.19
460.798	530.19
461.018	522.19
461.238	544.19
461.458	527.19
461.678	542.19
461.898	532.19
462.118	549.19
462.338	555.19
462.558	552.19
462.777	574.19
462.997	584.19
463.217	567.19
463.437	582.19
463.657	571.19
463.876	590.19
464.096	580.19
464.316	574.19
464.536	562.19
464.755	574.19
464.975	592.19
465.195	605.19
465.414	663.19
465.634	591.19
465.854	552.19
466.073	540.19
466.293	518.19
466.512	524.19
466.732	511.19
466.951	501.19
467.171	514.19
467.391	515.19
467.61	519.19
467.829	507.19
468.049	511.19
468.268	510.19
468.488	492.19
468.707	474.19
468.927	478.19
469.146	499.19
469.365	471.19
469.585	478.19
469.804	498.19
470.023	490.19
470.243	518.19
470.462	498.19
470.681	541.19
470.901	512.19
471.12	500.19
471.339	509.19
471.558	526.19
471.777	535.19
471.997	515.19
472.216	504.19
472.435	534.19
472.654	515.19
472.873	520.19
473.092	531.19
473.311	510.19
473.53	535.19
473.749	492.19
473.968	566.19
474.187	662.19
474.406	708.19
474.625	570.19
474.844	544.19
475.063	514.19
475.282	544.19
475.501	521.19
475.72	528.19
475.939	533.19
476.158	525.19
476.377	534.19
476.596	528.19
476.814	539.19
477.033	534.19
477.252	570.19
477.471	553.19
477.69	548.19
477.908	551.19
478.127	557.19
478.346	526.19
478.564	577.19
478.783	568.19
479.002	576.19
479.22	595.19
479.439	581.19
479.658	599.19
479.876	643.19
480.095	650.19
480.313	658.19
480.532	635.19
480.751	636.19
480.969	637.19
481.188	653.19
481.406	680.19
481.624	636.19
481.843	610.19
482.061	584.19
482.28	593.19
482.498	610.19
482.717	614.19
482.935	595.19
483.153	590.19
483.372	598.19
483.59	582.19
483.808	580.19
484.027	603.19
484.245	593.19
484.463	590.19
484.681	613.19
484.9	609.19
485.118	613.19
485.336	622.19
485.554	620.19
485.772	612.19
485.99	642.19
486.209	627.19
486.427	624.19
486.645	678.19
486.863	682.19
487.081	635.19
487.299	637.19
487.517	651.19
487.735	634.19
487.953	630.19
488.171	638.19
488.389	655.19
488.607	628.19
488.825	631.19
489.043	640.19
489.261	628.19
489.479	657.19
489.696	641.19
489.914	654.19
490.132	674.19
490.35	655.19
490.568	662.19
490.786	664.19
491.003	688.19
491.221	702.19
491.439	719.19
491.657	711.19
491.874	704.19
492.092	722.19
492.31	703.19
492.527	720.19
492.745	732.19
492.963	722.19
493.18	695.19
493.398	731.19
493.615	737.19
493.833	734.19
494.05	771.19
494.268	734.19
494.485	714.19
494.703	726.19
494.92	767.19
495.138	752.19
495.355	750.19
495.573	757.19
495.79	762.19
496.008	756.19
496.225	749.19
496.442	751.19
496.66	769.19
496.877	758.19
497.094	760.19
497.312	796.19
497.529	768.19
497.746	811.19
497.963	800.19
498.181	826.19
498.398	846.19
498.615	836.19
498.832	882.19
499.049	868.19
499.267	898.19
499.484	910.19
499.701	949.19
499.918	979.19
500.135	1064.19
500.352	1092.19
500.569	1102.19
500.786	1107.19
501.003	1103.19
501.22	1060.19
501.437	998.19
501.654	1005.19
501.871	980.19
