Data from 1978.PennyLincolnUp.Lamp.En5.5.200Scan.071719.P1_HRD10591_16-11-50-866.txt Node
Date: Thu Jul 18 16:11:50 EDT 2019
User: cochatt
Spectrometer: HR+D1059
Trigger mode: 1
Integration Time (sec): 1.000000E-1
Scans to average: 1
Electric dark correction enabled: true
Nonlinearity correction enabled: false
Boxcar width: 0
XAxis mode: Wavelengths
Number of Pixels in Spectrum: 2048
>>>>>Begin Spectral Data<<<<<
223.165	-11.25
223.4	-11.25
223.635	-11.25
223.869	-20.25
224.104	-19.25
224.338	-7.25
224.573	-16.25
224.808	-13.25
225.042	-24.25
225.277	3.75
225.511	-1.25
225.746	-12.25
225.98	8.75
226.215	11.75
226.449	16.75
226.683	13.75
226.918	33.75
227.152	36.75
227.387	19.75
227.621	37.75
227.856	57.75
228.09	52.75
228.324	42.75
228.559	70.75
228.793	65.75
229.027	86.75
229.262	87.75
229.496	100.75
229.73	104.75
229.964	131.75
230.199	117.75
230.433	96.75
230.667	105.75
230.901	112.75
231.136	94.75
231.37	104.75
231.604	98.75
231.838	97.75
232.072	104.75
232.306	94.75
232.541	109.75
232.775	114.75
233.009	113.75
233.243	114.75
233.477	100.75
233.711	117.75
233.945	102.75
234.179	122.75
234.413	111.75
234.647	122.75
234.881	116.75
235.115	106.75
235.349	101.75
235.583	107.75
235.817	116.75
236.051	108.75
236.285	120.75
236.519	116.75
236.753	123.75
236.987	121.75
237.221	161.75
237.455	173.75
237.689	163.75
237.922	126.75
238.156	120.75
238.39	111.75
238.624	125.75
238.858	121.75
239.091	104.75
239.325	108.75
239.559	108.75
239.793	115.75
240.027	130.75
240.26	142.75
240.494	141.75
240.728	127.75
240.961	127.75
241.195	142.75
241.429	117.75
241.662	121.75
241.896	106.75
242.13	129.75
242.363	120.75
242.597	120.75
242.83	127.75
243.064	126.75
243.298	124.75
243.531	112.75
243.765	129.75
243.998	128.75
244.232	133.75
244.465	146.75
244.699	125.75
244.932	140.75
245.166	130.75
245.399	149.75
245.633	139.75
245.866	128.75
246.099	144.75
246.333	147.75
246.566	142.75
246.8	137.75
247.033	145.75
247.266	135.75
247.5	131.75
247.733	136.75
247.966	150.75
248.2	142.75
248.433	149.75
248.666	158.75
248.899	153.75
249.133	176.75
249.366	183.75
249.599	159.75
249.832	164.75
250.066	154.75
250.299	150.75
250.532	168.75
250.765	173.75
250.998	180.75
251.231	200.75
251.465	165.75
251.698	169.75
251.931	161.75
252.164	158.75
252.397	164.75
252.63	168.75
252.863	173.75
253.096	171.75
253.329	176.75
253.562	176.75
253.795	173.75
254.028	174.75
254.261	171.75
254.494	174.75
254.727	207.75
254.96	198.75
255.193	200.75
255.426	173.75
255.659	182.75
255.892	193.75
256.124	185.75
256.357	193.75
256.59	187.75
256.823	173.75
257.056	175.75
257.289	171.75
257.521	172.75
257.754	168.75
257.987	173.75
258.22	192.75
258.452	180.75
258.685	176.75
258.918	186.75
259.151	190.75
259.383	168.75
259.616	192.75
259.849	188.75
260.081	207.75
260.314	193.75
260.547	193.75
260.779	198.75
261.012	206.75
261.244	188.75
261.477	189.75
261.71	197.75
261.942	192.75
262.175	177.75
262.407	190.75
262.64	193.75
262.872	180.75
263.105	188.75
263.337	174.75
263.57	186.75
263.802	202.75
264.035	184.75
264.267	186.75
264.499	178.75
264.732	190.75
264.964	187.75
265.197	199.75
265.429	182.75
265.661	191.75
265.894	200.75
266.126	186.75
266.358	185.75
266.591	210.75
266.823	188.75
267.055	200.75
267.287	190.75
267.52	197.75
267.752	202.75
267.984	177.75
268.216	193.75
268.448	202.75
268.681	210.75
268.913	226.75
269.145	226.75
269.377	206.75
269.609	225.75
269.841	232.75
270.073	218.75
270.306	231.75
270.538	229.75
270.77	256.75
271.002	241.75
271.234	222.75
271.466	225.75
271.698	243.75
271.93	255.75
272.162	241.75
272.394	248.75
272.626	226.75
272.858	210.75
273.09	239.75
273.322	205.75
273.553	218.75
273.785	221.75
274.017	239.75
274.249	227.75
274.481	221.75
274.713	215.75
274.945	222.75
275.176	249.75
275.408	232.75
275.64	233.75
275.872	232.75
276.104	218.75
276.335	205.75
276.567	232.75
276.799	246.75
277.031	236.75
277.262	264.75
277.494	248.75
277.726	258.75
277.957	242.75
278.189	256.75
278.421	225.75
278.652	231.75
278.884	238.75
279.115	219.75
279.347	225.75
279.579	237.75
279.81	222.75
280.042	239.75
280.273	222.75
280.505	226.75
280.736	228.75
280.968	238.75
281.199	261.75
281.431	249.75
281.662	247.75
281.894	230.75
282.125	238.75
282.356	251.75
282.588	244.75
282.819	244.75
283.051	231.75
283.282	246.75
283.513	258.75
283.745	261.75
283.976	246.75
284.207	264.75
284.439	241.75
284.67	266.75
284.901	259.75
285.132	250.75
285.364	237.75
285.595	258.75
285.826	262.75
286.057	236.75
286.288	246.75
286.52	244.75
286.751	250.75
286.982	245.75
287.213	246.75
287.444	250.75
287.675	253.75
287.906	259.75
288.138	279.75
288.369	264.75
288.6	270.75
288.831	253.75
289.062	261.75
289.293	244.75
289.524	251.75
289.755	254.75
289.986	245.75
290.217	255.75
290.448	252.75
290.679	251.75
290.91	263.75
291.141	270.75
291.371	254.75
291.602	263.75
291.833	247.75
292.064	240.75
292.295	262.75
292.526	262.75
292.757	265.75
292.987	270.75
293.218	257.75
293.449	269.75
293.68	264.75
293.91	269.75
294.141	258.75
294.372	276.75
294.603	248.75
294.833	282.75
295.064	270.75
295.295	272.75
295.525	261.75
295.756	283.75
295.987	264.75
296.217	274.75
296.448	278.75
296.679	258.75
296.909	270.75
297.14	271.75
297.37	271.75
297.601	250.75
297.831	265.75
298.062	280.75
298.292	273.75
298.523	271.75
298.753	268.75
298.984	260.75
299.214	278.75
299.445	294.75
299.675	274.75
299.905	286.75
300.136	262.75
300.366	278.75
300.597	301.75
300.827	260.75
301.057	277.75
301.288	284.75
301.518	304.75
301.748	280.75
301.979	289.75
302.209	300.75
302.439	295.75
302.669	274.75
302.9	298.75
303.13	294.75
303.36	297.75
303.59	288.75
303.82	299.75
304.051	293.75
304.281	310.75
304.511	278.75
304.741	301.75
304.971	297.75
305.201	280.75
305.431	305.75
305.661	303.75
305.891	290.75
306.121	275.75
306.352	289.75
306.582	305.75
306.812	284.75
307.042	302.75
307.272	312.75
307.502	295.75
307.731	305.75
307.961	297.75
308.191	313.75
308.421	318.75
308.651	322.75
308.881	301.75
309.111	312.75
309.341	318.75
309.571	287.75
309.8	317.75
310.03	298.75
310.26	323.75
310.49	319.75
310.72	318.75
310.949	337.75
311.179	338.75
311.409	319.75
311.639	313.75
311.868	312.75
312.098	316.75
312.328	328.75
312.557	341.75
312.787	358.75
313.017	347.75
313.246	332.75
313.476	333.75
313.706	317.75
313.935	334.75
314.165	347.75
314.394	318.75
314.624	348.75
314.853	322.75
315.083	319.75
315.312	344.75
315.542	335.75
315.771	336.75
316.001	334.75
316.23	331.75
316.46	324.75
316.689	319.75
316.919	338.75
317.148	340.75
317.377	352.75
317.607	336.75
317.836	318.75
318.065	334.75
318.295	344.75
318.524	324.75
318.753	324.75
318.983	342.75
319.212	316.75
319.441	318.75
319.67	357.75
319.9	344.75
320.129	338.75
320.358	335.75
320.587	328.75
320.816	341.75
321.046	351.75
321.275	352.75
321.504	336.75
321.733	342.75
321.962	344.75
322.191	337.75
322.42	344.75
322.649	376.75
322.878	356.75
323.108	384.75
323.337	381.75
323.566	396.75
323.795	390.75
324.024	436.75
324.253	490.75
324.482	653.75
324.71	997.75
324.939	1445.75
325.168	1263.75
325.397	638.75
325.626	475.75
325.855	410.75
326.084	386.75
326.313	417.75
326.542	401.75
326.77	438.75
326.999	476.75
327.228	604.75
327.457	934.75
327.686	1117.75
327.914	734.75
328.143	527.75
328.372	463.75
328.6	450.75
328.829	428.75
329.058	442.75
329.287	430.75
329.515	415.75
329.744	413.75
329.972	407.75
330.201	402.75
330.43	433.75
330.658	445.75
330.887	450.75
331.115	445.75
331.344	409.75
331.572	401.75
331.801	398.75
332.03	400.75
332.258	386.75
332.486	375.75
332.715	379.75
332.943	370.75
333.172	388.75
333.4	424.75
333.629	409.75
333.857	419.75
334.085	411.75
334.314	413.75
334.542	431.75
334.771	456.75
334.999	441.75
335.227	412.75
335.455	423.75
335.684	406.75
335.912	406.75
336.14	402.75
336.369	384.75
336.597	392.75
336.825	397.75
337.053	408.75
337.281	394.75
337.51	385.75
337.738	411.75
337.966	394.75
338.194	409.75
338.422	401.75
338.65	383.75
338.878	413.75
339.106	388.75
339.334	406.75
339.562	388.75
339.79	386.75
340.018	386.75
340.246	386.75
340.474	378.75
340.702	395.75
340.93	377.75
341.158	390.75
341.386	390.75
341.614	387.75
341.842	381.75
342.07	386.75
342.298	383.75
342.526	373.75
342.754	376.75
342.981	382.75
343.209	363.75
343.437	378.75
343.665	379.75
343.893	396.75
344.12	397.75
344.348	412.75
344.576	396.75
344.804	405.75
345.031	397.75
345.259	393.75
345.487	395.75
345.714	379.75
345.942	395.75
346.17	382.75
346.397	362.75
346.625	378.75
346.853	369.75
347.08	368.75
347.308	384.75
347.535	374.75
347.763	381.75
347.99	381.75
348.218	396.75
348.445	390.75
348.673	353.75
348.9	381.75
349.128	362.75
349.355	366.75
349.583	368.75
349.81	368.75
350.037	374.75
350.265	366.75
350.492	349.75
350.72	373.75
350.947	350.75
351.174	358.75
351.402	370.75
351.629	372.75
351.856	376.75
352.083	383.75
352.311	382.75
352.538	374.75
352.765	379.75
352.992	392.75
353.22	368.75
353.447	376.75
353.674	366.75
353.901	376.75
354.128	374.75
354.355	339.75
354.583	356.75
354.81	369.75
355.037	367.75
355.264	359.75
355.491	355.75
355.718	358.75
355.945	358.75
356.172	361.75
356.399	361.75
356.626	360.75
356.853	369.75
357.08	363.75
357.307	372.75
357.534	357.75
357.761	352.75
357.988	368.75
358.215	354.75
358.441	378.75
358.668	367.75
358.895	369.75
359.122	382.75
359.349	382.75
359.576	362.75
359.802	394.75
360.029	422.75
360.256	398.75
360.483	382.75
360.709	383.75
360.936	363.75
361.163	370.75
361.39	380.75
361.616	380.75
361.843	367.75
362.07	364.75
362.296	364.75
362.523	356.75
362.749	381.75
362.976	372.75
363.203	377.75
363.429	367.75
363.656	367.75
363.882	364.75
364.109	373.75
364.335	368.75
364.562	378.75
364.788	375.75
365.015	362.75
365.241	374.75
365.468	361.75
365.694	351.75
365.92	357.75
366.147	374.75
366.373	376.75
366.599	369.75
366.826	375.75
367.052	359.75
367.278	362.75
367.505	370.75
367.731	390.75
367.957	384.75
368.184	368.75
368.41	368.75
368.636	378.75
368.862	367.75
369.089	364.75
369.315	375.75
369.541	382.75
369.767	375.75
369.993	380.75
370.219	377.75
370.445	377.75
370.672	398.75
370.898	390.75
371.124	386.75
371.35	393.75
371.576	374.75
371.802	397.75
372.028	388.75
372.254	385.75
372.48	388.75
372.706	382.75
372.932	386.75
373.158	377.75
373.384	406.75
373.61	372.75
373.835	382.75
374.061	394.75
374.287	417.75
374.513	398.75
374.739	386.75
374.965	389.75
375.191	395.75
375.416	422.75
375.642	378.75
375.868	384.75
376.094	381.75
376.319	390.75
376.545	396.75
376.771	384.75
376.997	398.75
377.222	376.75
377.448	384.75
377.674	365.75
377.899	378.75
378.125	382.75
378.35	390.75
378.576	379.75
378.802	377.75
379.027	376.75
379.253	391.75
379.478	387.75
379.704	391.75
379.929	370.75
380.155	386.75
380.38	400.75
380.606	377.75
380.831	385.75
381.057	385.75
381.282	383.75
381.507	398.75
381.733	391.75
381.958	386.75
382.184	400.75
382.409	395.75
382.634	410.75
382.86	396.75
383.085	417.75
383.31	416.75
383.535	416.75
383.761	412.75
383.986	404.75
384.211	399.75
384.436	390.75
384.662	412.75
384.887	427.75
385.112	427.75
385.337	428.75
385.562	418.75
385.787	427.75
386.013	443.75
386.238	452.75
386.463	438.75
386.688	439.75
386.913	433.75
387.138	428.75
387.363	446.75
387.588	436.75
387.813	416.75
388.038	426.75
388.263	442.75
388.488	431.75
388.713	426.75
388.938	424.75
389.163	445.75
389.387	435.75
389.612	426.75
389.837	422.75
390.062	424.75
390.287	414.75
390.512	416.75
390.736	439.75
390.961	422.75
391.186	440.75
391.411	433.75
391.636	457.75
391.86	460.75
392.085	454.75
392.31	422.75
392.534	441.75
392.759	448.75
392.984	442.75
393.208	433.75
393.433	438.75
393.658	432.75
393.882	455.75
394.107	434.75
394.331	440.75
394.556	427.75
394.78	444.75
395.005	461.75
395.229	450.75
395.454	485.75
395.678	466.75
395.903	457.75
396.127	464.75
396.352	485.75
396.576	458.75
396.801	472.75
397.025	464.75
397.249	476.75
397.474	472.75
397.698	481.75
397.922	501.75
398.147	473.75
398.371	476.75
398.595	470.75
398.82	500.75
399.044	518.75
399.268	510.75
399.492	561.75
399.717	586.75
399.941	605.75
400.165	614.75
400.389	607.75
400.613	559.75
400.837	534.75
401.062	532.75
401.286	518.75
401.51	500.75
401.734	481.75
401.958	504.75
402.182	504.75
402.406	513.75
402.63	516.75
402.854	526.75
403.078	514.75
403.302	537.75
403.526	526.75
403.75	532.75
403.974	524.75
404.198	514.75
404.422	522.75
404.645	536.75
404.869	521.75
405.093	552.75
405.317	561.75
405.541	599.75
405.765	579.75
405.988	542.75
406.212	564.75
406.436	557.75
406.66	566.75
406.883	558.75
407.107	564.75
407.331	604.75
407.555	664.75
407.778	647.75
408.002	592.75
408.226	587.75
408.449	572.75
408.673	558.75
408.896	586.75
409.12	628.75
409.344	593.75
409.567	554.75
409.791	533.75
410.014	552.75
410.238	512.75
410.461	536.75
410.685	536.75
410.908	523.75
411.132	573.75
411.355	557.75
411.578	577.75
411.802	520.75
412.025	524.75
412.249	513.75
412.472	544.75
412.695	556.75
412.919	565.75
413.142	530.75
413.365	526.75
413.589	520.75
413.812	520.75
414.035	523.75
414.258	502.75
414.482	510.75
414.705	516.75
414.928	527.75
415.151	521.75
415.374	516.75
415.597	489.75
415.821	467.75
416.044	464.75
416.267	501.75
416.49	479.75
416.713	520.75
416.936	492.75
417.159	491.75
417.382	494.75
417.605	494.75
417.828	472.75
418.051	512.75
418.274	485.75
418.497	483.75
418.72	474.75
418.943	491.75
419.166	492.75
419.389	538.75
419.611	509.75
419.834	525.75
420.057	491.75
420.28	511.75
420.503	511.75
420.726	494.75
420.948	502.75
421.171	524.75
421.394	552.75
421.617	522.75
421.839	519.75
422.062	514.75
422.285	514.75
422.507	566.75
422.73	594.75
422.953	583.75
423.175	565.75
423.398	517.75
423.621	527.75
423.843	529.75
424.066	538.75
424.288	526.75
424.511	548.75
424.733	581.75
424.956	676.75
425.178	630.75
425.401	620.75
425.623	648.75
425.846	563.75
426.068	522.75
426.291	526.75
426.513	549.75
426.735	533.75
426.958	549.75
427.18	617.75
427.402	740.75
427.625	812.75
427.847	692.75
428.069	590.75
428.292	549.75
428.514	501.75
428.736	522.75
428.958	539.75
429.181	497.75
429.403	482.75
429.625	487.75
429.847	538.75
430.069	575.75
430.292	562.75
430.514	523.75
430.736	500.75
430.958	498.75
431.18	492.75
431.402	489.75
431.624	467.75
431.846	487.75
432.068	459.75
432.29	482.75
432.512	475.75
432.734	490.75
432.956	505.75
433.178	479.75
433.4	492.75
433.622	481.75
433.844	489.75
434.066	504.75
434.287	482.75
434.509	485.75
434.731	505.75
434.953	509.75
435.175	488.75
435.397	531.75
435.618	520.75
435.84	566.75
436.062	620.75
436.284	662.75
436.505	585.75
436.727	550.75
436.949	502.75
437.17	507.75
437.392	508.75
437.614	514.75
437.835	504.75
438.057	592.75
438.278	656.75
438.5	664.75
438.721	716.75
438.943	749.75
439.165	577.75
439.386	534.75
439.608	518.75
439.829	524.75
440.05	550.75
440.272	568.75
440.493	540.75
440.715	525.75
440.936	516.75
441.158	512.75
441.379	488.75
441.6	510.75
441.822	504.75
442.043	559.75
442.264	598.75
442.486	646.75
442.707	576.75
442.928	539.75
443.149	536.75
443.371	556.75
443.592	597.75
443.813	634.75
444.034	724.75
444.255	599.75
444.476	549.75
444.698	544.75
444.919	556.75
445.14	680.75
445.361	585.75
445.582	561.75
445.803	589.75
446.024	649.75
446.245	708.75
446.466	638.75
446.687	565.75
446.908	528.75
447.129	514.75
447.35	488.75
447.571	500.75
447.792	489.75
448.013	483.75
448.234	487.75
448.455	534.75
448.675	640.75
448.896	737.75
449.117	614.75
449.338	604.75
449.559	660.75
449.779	784.75
450	584.75
450.221	538.75
450.442	494.75
450.662	479.75
450.883	465.75
451.104	480.75
451.324	458.75
451.545	465.75
451.766	469.75
451.986	448.75
452.207	433.75
452.428	431.75
452.648	466.75
452.869	448.75
453.089	454.75
453.31	450.75
453.53	466.75
453.751	432.75
453.971	458.75
454.192	453.75
454.412	445.75
454.633	461.75
454.853	460.75
455.073	454.75
455.294	457.75
455.514	521.75
455.734	504.75
455.955	451.75
456.175	443.75
456.395	438.75
456.616	420.75
456.836	436.75
457.056	438.75
457.276	410.75
457.497	453.75
457.717	438.75
457.937	416.75
458.157	434.75
458.377	451.75
458.598	459.75
458.818	473.75
459.038	556.75
459.258	568.75
459.478	488.75
459.698	473.75
459.918	470.75
460.138	489.75
460.358	500.75
460.578	510.75
460.798	513.75
461.018	491.75
461.238	498.75
461.458	515.75
461.678	504.75
461.898	510.75
462.118	524.75
462.338	521.75
462.558	536.75
462.777	534.75
462.997	555.75
463.217	562.75
463.437	576.75
463.657	546.75
463.876	549.75
464.096	562.75
464.316	556.75
464.536	543.75
464.755	560.75
464.975	562.75
465.195	561.75
465.414	574.75
465.634	534.75
465.854	510.75
466.073	503.75
466.293	508.75
466.512	473.75
466.732	461.75
466.951	467.75
467.171	478.75
467.391	470.75
467.61	479.75
467.829	469.75
468.049	485.75
468.268	465.75
468.488	480.75
468.707	448.75
468.927	459.75
469.146	456.75
469.365	449.75
469.585	466.75
469.804	460.75
470.023	458.75
470.243	455.75
470.462	471.75
470.681	483.75
470.901	471.75
471.12	484.75
471.339	466.75
471.558	488.75
471.777	483.75
471.997	482.75
472.216	500.75
472.435	484.75
472.654	464.75
472.873	476.75
473.092	473.75
473.311	480.75
473.53	465.75
473.749	468.75
473.968	492.75
474.187	571.75
474.406	590.75
474.625	506.75
474.844	473.75
475.063	478.75
475.282	480.75
475.501	481.75
475.72	495.75
475.939	489.75
476.158	510.75
476.377	507.75
476.596	494.75
476.814	505.75
477.033	497.75
477.252	479.75
477.471	534.75
477.69	518.75
477.908	532.75
478.127	532.75
478.346	527.75
478.564	531.75
478.783	561.75
479.002	546.75
479.22	565.75
479.439	566.75
479.658	577.75
479.876	589.75
480.095	552.75
480.313	568.75
480.532	590.75
480.751	562.75
480.969	585.75
481.188	593.75
481.406	616.75
481.624	593.75
481.843	567.75
482.061	559.75
482.28	562.75
482.498	551.75
482.717	569.75
482.935	570.75
483.153	540.75
483.372	539.75
483.59	546.75
483.808	551.75
484.027	554.75
484.245	558.75
484.463	570.75
484.681	566.75
484.9	554.75
485.118	559.75
485.336	575.75
485.554	557.75
485.772	565.75
485.99	544.75
486.209	564.75
486.427	587.75
486.645	552.75
486.863	572.75
487.081	598.75
487.299	604.75
487.517	585.75
487.735	595.75
487.953	589.75
488.171	566.75
488.389	593.75
488.607	584.75
488.825	594.75
489.043	597.75
489.261	600.75
489.479	600.75
489.696	591.75
489.914	620.75
490.132	588.75
490.35	632.75
490.568	596.75
490.786	622.75
491.003	606.75
491.221	630.75
491.439	649.75
491.657	624.75
491.874	628.75
492.092	634.75
492.31	625.75
492.527	656.75
492.745	648.75
492.963	673.75
493.18	654.75
493.398	646.75
493.615	658.75
493.833	673.75
494.05	644.75
494.268	668.75
494.485	648.75
494.703	643.75
494.92	668.75
495.138	649.75
495.355	664.75
495.573	675.75
495.79	677.75
496.008	679.75
496.225	658.75
496.442	676.75
496.66	701.75
496.877	686.75
497.094	696.75
497.312	709.75
497.529	707.75
497.746	746.75
497.963	755.75
498.181	768.75
498.398	783.75
498.615	793.75
498.832	825.75
499.049	840.75
499.267	842.75
499.484	880.75
499.701	912.75
499.918	950.75
500.135	993.75
500.352	988.75
500.569	1028.75
500.786	1049.75
501.003	1045.75
501.22	1003.75
501.437	954.75
501.654	905.75
501.871	924.75
502.088	860.75
