Data from 1978.PennyLincolnUp.Lamp.En5.5.200Scan.071719.P1_HRD10591_16-14-04-864.txt Node
Date: Thu Jul 18 16:14:04 EDT 2019
User: cochatt
Spectrometer: HR+D1059
Trigger mode: 1
Integration Time (sec): 1.000000E-1
Scans to average: 1
Electric dark correction enabled: true
Nonlinearity correction enabled: false
Boxcar width: 0
XAxis mode: Wavelengths
Number of Pixels in Spectrum: 2048
>>>>>Begin Spectral Data<<<<<
223.165	-24.75
223.4	-24.75
223.635	-24.75
223.869	-13.75
224.104	-20.75
224.338	-9.75
224.573	-11.75
224.808	-24.75
225.042	2.25
225.277	12.25
225.511	0.25
225.746	-0.75
225.98	0.25
226.215	11.25
226.449	2.25
226.683	16.25
226.918	30.25
227.152	31.25
227.387	35.25
227.621	45.25
227.856	39.25
228.09	41.25
228.324	41.25
228.559	57.25
228.793	72.25
229.027	97.25
229.262	96.25
229.496	112.25
229.73	136.25
229.964	153.25
230.199	119.25
230.433	113.25
230.667	117.25
230.901	118.25
231.136	119.25
231.37	104.25
231.604	114.25
231.838	112.25
232.072	114.25
232.306	121.25
232.541	118.25
232.775	115.25
233.009	114.25
233.243	115.25
233.477	127.25
233.711	111.25
233.945	120.25
234.179	121.25
234.413	129.25
234.647	116.25
234.881	100.25
235.115	117.25
235.349	127.25
235.583	121.25
235.817	124.25
236.051	119.25
236.285	136.25
236.519	113.25
236.753	133.25
236.987	138.25
237.221	180.25
237.455	230.25
237.689	176.25
237.922	141.25
238.156	129.25
238.39	118.25
238.624	132.25
238.858	126.25
239.091	107.25
239.325	132.25
239.559	128.25
239.793	140.25
240.027	137.25
240.26	136.25
240.494	140.25
240.728	138.25
240.961	138.25
241.195	143.25
241.429	128.25
241.662	130.25
241.896	132.25
242.13	147.25
242.363	138.25
242.597	124.25
242.83	126.25
243.064	130.25
243.298	126.25
243.531	126.25
243.765	138.25
243.998	124.25
244.232	142.25
244.465	130.25
244.699	133.25
244.932	145.25
245.166	138.25
245.399	134.25
245.633	140.25
245.866	131.25
246.099	138.25
246.333	150.25
246.566	150.25
246.8	134.25
247.033	132.25
247.266	155.25
247.5	167.25
247.733	158.25
247.966	155.25
248.2	150.25
248.433	183.25
248.666	179.25
248.899	176.25
249.133	190.25
249.366	189.25
249.599	187.25
249.832	168.25
250.066	166.25
250.299	173.25
250.532	176.25
250.765	185.25
250.998	199.25
251.231	197.25
251.465	200.25
251.698	188.25
251.931	179.25
252.164	194.25
252.397	177.25
252.63	193.25
252.863	174.25
253.096	203.25
253.329	209.25
253.562	217.25
253.795	198.25
254.028	208.25
254.261	210.25
254.494	211.25
254.727	224.25
254.96	252.25
255.193	246.25
255.426	250.25
255.659	214.25
255.892	202.25
256.124	208.25
256.357	222.25
256.59	213.25
256.823	206.25
257.056	194.25
257.289	208.25
257.521	190.25
257.754	201.25
257.987	202.25
258.22	212.25
258.452	195.25
258.685	207.25
258.918	194.25
259.151	206.25
259.383	211.25
259.616	208.25
259.849	219.25
260.081	222.25
260.314	222.25
260.547	242.25
260.779	229.25
261.012	222.25
261.244	224.25
261.477	220.25
261.71	199.25
261.942	205.25
262.175	192.25
262.407	206.25
262.64	210.25
262.872	202.25
263.105	198.25
263.337	202.25
263.57	219.25
263.802	204.25
264.035	200.25
264.267	195.25
264.499	211.25
264.732	212.25
264.964	206.25
265.197	206.25
265.429	200.25
265.661	206.25
265.894	211.25
266.126	210.25
266.358	199.25
266.591	214.25
266.823	208.25
267.055	203.25
267.287	227.25
267.52	214.25
267.752	222.25
267.984	220.25
268.216	221.25
268.448	216.25
268.681	227.25
268.913	247.25
269.145	258.25
269.377	258.25
269.609	245.25
269.841	248.25
270.073	248.25
270.306	265.25
270.538	292.25
270.77	299.25
271.002	288.25
271.234	274.25
271.466	277.25
271.698	289.25
271.93	288.25
272.162	288.25
272.394	293.25
272.626	280.25
272.858	250.25
273.09	267.25
273.322	264.25
273.553	252.25
273.785	252.25
274.017	269.25
274.249	255.25
274.481	259.25
274.713	245.25
274.945	244.25
275.176	267.25
275.408	260.25
275.64	244.25
275.872	264.25
276.104	243.25
276.335	245.25
276.567	272.25
276.799	277.25
277.031	284.25
277.262	295.25
277.494	309.25
277.726	278.25
277.957	281.25
278.189	265.25
278.421	248.25
278.652	269.25
278.884	240.25
279.115	262.25
279.347	258.25
279.579	260.25
279.81	274.25
280.042	279.25
280.273	268.25
280.505	267.25
280.736	261.25
280.968	258.25
281.199	258.25
281.431	264.25
281.662	247.25
281.894	255.25
282.125	252.25
282.356	283.25
282.588	296.25
282.819	285.25
283.051	282.25
283.282	256.25
283.513	268.25
283.745	267.25
283.976	279.25
284.207	277.25
284.439	288.25
284.67	265.25
284.901	261.25
285.132	267.25
285.364	271.25
285.595	269.25
285.826	274.25
286.057	273.25
286.288	281.25
286.52	268.25
286.751	268.25
286.982	271.25
287.213	276.25
287.444	269.25
287.675	267.25
287.906	281.25
288.138	293.25
288.369	305.25
288.6	291.25
288.831	311.25
289.062	287.25
289.293	289.25
289.524	284.25
289.755	266.25
289.986	292.25
290.217	278.25
290.448	291.25
290.679	274.25
290.91	274.25
291.141	282.25
291.371	287.25
291.602	292.25
291.833	295.25
292.064	275.25
292.295	272.25
292.526	254.25
292.757	290.25
292.987	278.25
293.218	284.25
293.449	298.25
293.68	303.25
293.91	299.25
294.141	280.25
294.372	266.25
294.603	288.25
294.833	295.25
295.064	282.25
295.295	286.25
295.525	302.25
295.756	309.25
295.987	288.25
296.217	302.25
296.448	333.25
296.679	293.25
296.909	296.25
297.14	278.25
297.37	306.25
297.601	322.25
297.831	290.25
298.062	288.25
298.292	284.25
298.523	290.25
298.753	304.25
298.984	312.25
299.214	291.25
299.445	299.25
299.675	326.25
299.905	315.25
300.136	313.25
300.366	315.25
300.597	312.25
300.827	302.25
301.057	317.25
301.288	321.25
301.518	321.25
301.748	322.25
301.979	328.25
302.209	318.25
302.439	324.25
302.669	334.25
302.9	324.25
303.13	309.25
303.36	302.25
303.59	330.25
303.82	322.25
304.051	329.25
304.281	319.25
304.511	320.25
304.741	308.25
304.971	313.25
305.201	322.25
305.431	314.25
305.661	330.25
305.891	318.25
306.121	338.25
306.352	321.25
306.582	330.25
306.812	324.25
307.042	314.25
307.272	322.25
307.502	325.25
307.731	327.25
307.961	339.25
308.191	326.25
308.421	318.25
308.651	329.25
308.881	329.25
309.111	324.25
309.341	331.25
309.571	326.25
309.8	364.25
310.03	349.25
310.26	376.25
310.49	357.25
310.72	378.25
310.949	375.25
311.179	382.25
311.409	371.25
311.639	368.25
311.868	355.25
312.098	362.25
312.328	390.25
312.557	373.25
312.787	383.25
313.017	392.25
313.246	384.25
313.476	368.25
313.706	367.25
313.935	380.25
314.165	384.25
314.394	390.25
314.624	379.25
314.853	374.25
315.083	371.25
315.312	371.25
315.542	364.25
315.771	359.25
316.001	361.25
316.23	367.25
316.46	363.25
316.689	364.25
316.919	374.25
317.148	372.25
317.377	366.25
317.607	379.25
317.836	358.25
318.065	361.25
318.295	361.25
318.524	361.25
318.753	369.25
318.983	363.25
319.212	366.25
319.441	386.25
319.67	382.25
319.9	377.25
320.129	380.25
320.358	379.25
320.587	399.25
320.816	387.25
321.046	387.25
321.275	396.25
321.504	387.25
321.733	391.25
321.962	395.25
322.191	405.25
322.42	438.25
322.649	436.25
322.878	448.25
323.108	420.25
323.337	471.25
323.566	468.25
323.795	514.25
324.024	540.25
324.253	669.25
324.482	971.25
324.71	1578.25
324.939	2400.25
325.168	2077.25
325.397	983.25
325.626	634.25
325.855	549.25
326.084	494.25
326.313	482.25
326.542	486.25
326.77	528.25
326.999	633.25
327.228	883.25
327.457	1392.25
327.686	1762.25
327.914	1153.25
328.143	718.25
328.372	607.25
328.6	562.25
328.829	571.25
329.058	561.25
329.287	575.25
329.515	554.25
329.744	523.25
329.972	481.25
330.201	499.25
330.43	532.25
330.658	566.25
330.887	584.25
331.115	597.25
331.344	514.25
331.572	490.25
331.801	483.25
332.03	476.25
332.258	445.25
332.486	464.25
332.715	425.25
332.943	445.25
333.172	451.25
333.4	440.25
333.629	446.25
333.857	473.25
334.085	470.25
334.314	499.25
334.542	535.25
334.771	529.25
334.999	505.25
335.227	483.25
335.455	466.25
335.684	456.25
335.912	447.25
336.14	449.25
336.369	443.25
336.597	444.25
336.825	439.25
337.053	464.25
337.281	446.25
337.51	445.25
337.738	441.25
337.966	425.25
338.194	450.25
338.422	446.25
338.65	430.25
338.878	444.25
339.106	419.25
339.334	421.25
339.562	420.25
339.79	412.25
340.018	427.25
340.246	430.25
340.474	409.25
340.702	430.25
340.93	415.25
341.158	411.25
341.386	419.25
341.614	441.25
341.842	430.25
342.07	453.25
342.298	416.25
342.526	423.25
342.754	427.25
342.981	400.25
343.209	407.25
343.437	440.25
343.665	414.25
343.893	442.25
344.12	450.25
344.348	451.25
344.576	432.25
344.804	445.25
345.031	436.25
345.259	443.25
345.487	466.25
345.714	428.25
345.942	409.25
346.17	439.25
346.397	432.25
346.625	429.25
346.853	417.25
347.08	414.25
347.308	407.25
347.535	446.25
347.763	412.25
347.99	407.25
348.218	422.25
348.445	415.25
348.673	433.25
348.9	412.25
349.128	434.25
349.355	409.25
349.583	439.25
349.81	404.25
350.037	409.25
350.265	417.25
350.492	402.25
350.72	416.25
350.947	416.25
351.174	418.25
351.402	435.25
351.629	407.25
351.856	406.25
352.083	433.25
352.311	430.25
352.538	448.25
352.765	433.25
352.992	434.25
353.22	427.25
353.447	439.25
353.674	404.25
353.901	398.25
354.128	381.25
354.355	385.25
354.583	401.25
354.81	415.25
355.037	400.25
355.264	403.25
355.491	393.25
355.718	380.25
355.945	390.25
356.172	386.25
356.399	376.25
356.626	394.25
356.853	389.25
357.08	384.25
357.307	391.25
357.534	389.25
357.761	393.25
357.988	392.25
358.215	358.25
358.441	390.25
358.668	380.25
358.895	394.25
359.122	400.25
359.349	415.25
359.576	423.25
359.802	424.25
360.029	441.25
360.256	470.25
360.483	455.25
360.709	440.25
360.936	458.25
361.163	430.25
361.39	419.25
361.616	424.25
361.843	408.25
362.07	434.25
362.296	406.25
362.523	400.25
362.749	418.25
362.976	406.25
363.203	406.25
363.429	396.25
363.656	408.25
363.882	418.25
364.109	401.25
364.335	397.25
364.562	388.25
364.788	404.25
365.015	409.25
365.241	419.25
365.468	414.25
365.694	423.25
365.92	406.25
366.147	402.25
366.373	418.25
366.599	417.25
366.826	388.25
367.052	397.25
367.278	382.25
367.505	401.25
367.731	409.25
367.957	403.25
368.184	408.25
368.41	406.25
368.636	394.25
368.862	424.25
369.089	414.25
369.315	418.25
369.541	416.25
369.767	415.25
369.993	412.25
370.219	397.25
370.445	408.25
370.672	393.25
370.898	395.25
371.124	404.25
371.35	404.25
371.576	392.25
371.802	412.25
372.028	410.25
372.254	421.25
372.48	412.25
372.706	415.25
372.932	405.25
373.158	408.25
373.384	408.25
373.61	423.25
373.835	426.25
374.061	405.25
374.287	426.25
374.513	409.25
374.739	415.25
374.965	422.25
375.191	401.25
375.416	402.25
375.642	440.25
375.868	406.25
376.094	409.25
376.319	416.25
376.545	401.25
376.771	408.25
376.997	399.25
377.222	397.25
377.448	416.25
377.674	413.25
377.899	404.25
378.125	428.25
378.35	390.25
378.576	416.25
378.802	404.25
379.027	424.25
379.253	415.25
379.478	409.25
379.704	420.25
379.929	409.25
380.155	427.25
380.38	412.25
380.606	432.25
380.831	396.25
381.057	408.25
381.282	411.25
381.507	395.25
381.733	440.25
381.958	402.25
382.184	430.25
382.409	421.25
382.634	422.25
382.86	427.25
383.085	436.25
383.31	444.25
383.535	431.25
383.761	423.25
383.986	423.25
384.211	422.25
384.436	442.25
384.662	423.25
384.887	418.25
385.112	451.25
385.337	446.25
385.562	456.25
385.787	466.25
386.013	452.25
386.238	461.25
386.463	458.25
386.688	455.25
386.913	455.25
387.138	448.25
387.363	464.25
387.588	440.25
387.813	474.25
388.038	469.25
388.263	447.25
388.488	462.25
388.713	452.25
388.938	466.25
389.163	466.25
389.387	471.25
389.612	453.25
389.837	470.25
390.062	448.25
390.287	440.25
390.512	462.25
390.736	474.25
390.961	464.25
391.186	461.25
391.411	464.25
391.636	482.25
391.86	463.25
392.085	461.25
392.31	497.25
392.534	475.25
392.759	463.25
392.984	486.25
393.208	466.25
393.433	469.25
393.658	472.25
393.882	466.25
394.107	464.25
394.331	481.25
394.556	475.25
394.78	481.25
395.005	485.25
395.229	466.25
395.454	511.25
395.678	492.25
395.903	495.25
396.127	494.25
396.352	530.25
396.576	500.25
396.801	492.25
397.025	494.25
397.249	492.25
397.474	492.25
397.698	514.25
397.922	498.25
398.147	540.25
398.371	539.25
398.595	536.25
398.82	526.25
399.044	537.25
399.268	545.25
399.492	587.25
399.717	616.25
399.941	626.25
400.165	646.25
400.389	686.25
400.613	618.25
400.837	585.25
401.062	568.25
401.286	554.25
401.51	547.25
401.734	550.25
401.958	554.25
402.182	527.25
402.406	544.25
402.63	550.25
402.854	564.25
403.078	559.25
403.302	556.25
403.526	574.25
403.75	579.25
403.974	554.25
404.198	554.25
404.422	580.25
404.645	564.25
404.869	581.25
405.093	612.25
405.317	658.25
405.541	676.25
405.765	625.25
405.988	586.25
406.212	614.25
406.436	609.25
406.66	626.25
406.883	631.25
407.107	622.25
407.331	664.25
407.555	747.25
407.778	731.25
408.002	684.25
408.226	653.25
408.449	619.25
408.673	608.25
408.896	654.25
409.12	692.25
409.344	647.25
409.567	592.25
409.791	580.25
410.014	582.25
410.238	586.25
410.461	567.25
410.685	572.25
410.908	592.25
411.132	623.25
411.355	653.25
411.578	645.25
411.802	564.25
412.025	558.25
412.249	582.25
412.472	603.25
412.695	638.25
412.919	603.25
413.142	583.25
413.365	541.25
413.589	545.25
413.812	552.25
414.035	545.25
414.258	539.25
414.482	540.25
414.705	545.25
414.928	537.25
415.151	559.25
415.374	529.25
415.597	525.25
415.821	529.25
416.044	542.25
416.267	523.25
416.49	538.25
416.713	533.25
416.936	543.25
417.159	506.25
417.382	539.25
417.605	537.25
417.828	534.25
418.051	554.25
418.274	525.25
418.497	539.25
418.72	527.25
418.943	517.25
419.166	558.25
419.389	592.25
419.611	578.25
419.834	564.25
420.057	567.25
420.28	575.25
420.503	530.25
420.726	534.25
420.948	563.25
421.171	627.25
421.394	646.25
421.617	597.25
421.839	556.25
422.062	555.25
422.285	554.25
422.507	627.25
422.73	739.25
422.953	679.25
423.175	593.25
423.398	592.25
423.621	568.25
423.843	617.25
424.066	587.25
424.288	581.25
424.511	606.25
424.733	661.25
424.956	751.25
425.178	734.25
425.401	704.25
425.623	749.25
425.846	659.25
426.068	616.25
426.291	606.25
426.513	589.25
426.735	601.25
426.958	650.25
427.18	740.25
427.402	885.25
427.625	975.25
427.847	854.25
428.069	724.25
428.292	646.25
428.514	570.25
428.736	563.25
428.958	571.25
429.181	543.25
429.403	554.25
429.625	558.25
429.847	608.25
430.069	670.25
430.292	658.25
430.514	567.25
430.736	563.25
430.958	548.25
431.18	514.25
431.402	514.25
431.624	512.25
431.846	515.25
432.068	521.25
432.29	537.25
432.512	522.25
432.734	544.25
432.956	501.25
433.178	530.25
433.4	548.25
433.622	514.25
433.844	520.25
434.066	526.25
434.287	520.25
434.509	540.25
434.731	542.25
434.953	559.25
435.175	546.25
435.397	588.25
435.618	615.25
435.84	613.25
436.062	754.25
436.284	832.25
436.505	660.25
436.727	607.25
436.949	562.25
437.17	550.25
437.392	566.25
437.614	575.25
437.835	579.25
438.057	687.25
438.278	818.25
438.5	818.25
438.721	907.25
438.943	870.25
439.165	662.25
439.386	623.25
439.608	605.25
439.829	592.25
440.05	634.25
440.272	680.25
440.493	640.25
440.715	604.25
440.936	566.25
441.158	579.25
441.379	566.25
441.6	576.25
441.822	595.25
442.043	614.25
442.264	738.25
442.486	783.25
442.707	671.25
442.928	594.25
443.149	615.25
443.371	650.25
443.592	658.25
443.813	791.25
444.034	867.25
444.255	693.25
444.476	623.25
444.698	608.25
444.919	601.25
445.14	693.25
445.361	644.25
445.582	668.25
445.803	721.25
446.024	825.25
446.245	827.25
446.466	773.25
446.687	665.25
446.908	624.25
447.129	580.25
447.35	571.25
447.571	530.25
447.792	535.25
448.013	552.25
448.234	560.25
448.455	633.25
448.675	732.25
448.896	840.25
449.117	735.25
449.338	697.25
449.559	791.25
449.779	954.25
450	750.25
450.221	591.25
450.442	562.25
450.662	547.25
450.883	548.25
451.104	552.25
451.324	548.25
451.545	507.25
451.766	483.25
451.986	496.25
452.207	500.25
452.428	494.25
452.648	491.25
452.869	486.25
453.089	490.25
453.31	499.25
453.53	507.25
453.751	522.25
453.971	489.25
454.192	523.25
454.412	503.25
454.633	487.25
454.853	499.25
455.073	480.25
455.294	510.25
455.514	585.25
455.734	587.25
455.955	490.25
456.175	466.25
456.395	459.25
456.616	451.25
456.836	477.25
457.056	455.25
457.276	471.25
457.497	464.25
457.717	467.25
457.937	491.25
458.157	495.25
458.377	489.25
458.598	515.25
458.818	574.25
459.038	637.25
459.258	683.25
459.478	570.25
459.698	534.25
459.918	530.25
460.138	535.25
460.358	529.25
460.578	530.25
460.798	538.25
461.018	550.25
461.238	537.25
461.458	538.25
461.678	524.25
461.898	534.25
462.118	543.25
462.338	560.25
462.558	563.25
462.777	576.25
462.997	583.25
463.217	588.25
463.437	575.25
463.657	573.25
463.876	565.25
464.096	575.25
464.316	569.25
464.536	564.25
464.755	584.25
464.975	587.25
465.195	619.25
465.414	649.25
465.634	614.25
465.854	554.25
466.073	543.25
466.293	540.25
466.512	516.25
466.732	502.25
466.951	542.25
467.171	508.25
467.391	512.25
467.61	527.25
467.829	513.25
468.049	521.25
468.268	515.25
468.488	522.25
468.707	500.25
468.927	515.25
469.146	502.25
469.365	526.25
469.585	510.25
469.804	494.25
470.023	500.25
470.243	518.25
470.462	515.25
470.681	525.25
470.901	538.25
471.12	529.25
471.339	521.25
471.558	519.25
471.777	514.25
471.997	487.25
472.216	511.25
472.435	543.25
472.654	556.25
472.873	495.25
473.092	516.25
473.311	500.25
473.53	518.25
473.749	514.25
473.968	575.25
474.187	638.25
474.406	676.25
474.625	584.25
474.844	532.25
475.063	529.25
475.282	523.25
475.501	535.25
475.72	528.25
475.939	541.25
476.158	532.25
476.377	551.25
476.596	528.25
476.814	544.25
477.033	558.25
477.252	545.25
477.471	546.25
477.69	558.25
477.908	569.25
478.127	544.25
478.346	557.25
478.564	576.25
478.783	576.25
479.002	585.25
479.22	602.25
479.439	618.25
479.658	630.25
479.876	606.25
480.095	633.25
480.313	656.25
480.532	643.25
480.751	617.25
480.969	630.25
481.188	671.25
481.406	751.25
481.624	657.25
481.843	633.25
482.061	635.25
482.28	626.25
482.498	613.25
482.717	587.25
482.935	595.25
483.153	613.25
483.372	601.25
483.59	607.25
483.808	602.25
484.027	597.25
484.245	606.25
484.463	616.25
484.681	604.25
484.9	629.25
485.118	613.25
485.336	601.25
485.554	636.25
485.772	627.25
485.99	630.25
486.209	622.25
486.427	659.25
486.645	647.25
486.863	643.25
487.081	639.25
487.299	656.25
487.517	629.25
487.735	625.25
487.953	629.25
488.171	654.25
488.389	636.25
488.607	656.25
488.825	628.25
489.043	642.25
489.261	659.25
489.479	686.25
489.696	648.25
489.914	644.25
490.132	648.25
490.35	660.25
490.568	687.25
490.786	661.25
491.003	703.25
491.221	690.25
491.439	696.25
491.657	713.25
491.874	730.25
492.092	726.25
492.31	700.25
492.527	729.25
492.745	728.25
492.963	755.25
493.18	763.25
493.398	775.25
493.615	759.25
493.833	741.25
494.05	753.25
494.268	752.25
494.485	727.25
494.703	731.25
494.92	779.25
495.138	756.25
495.355	736.25
495.573	752.25
495.79	764.25
496.008	748.25
496.225	724.25
496.442	744.25
496.66	780.25
496.877	777.25
497.094	755.25
497.312	740.25
497.529	782.25
497.746	796.25
497.963	820.25
498.181	840.25
498.398	846.25
498.615	864.25
498.832	884.25
499.049	906.25
499.267	915.25
499.484	950.25
499.701	938.25
499.918	1008.25
500.135	1034.25
500.352	1074.25
500.569	1078.25
500.786	1107.25
501.003	1097.25
501.22	1068.25
501.437	1059.25
501.654	1015.25
501.871	991.25
