Data from 1978.PennyLincolnUp.Lamp.En5.5.200Scan.071719.P1_HRD10591_16-12-35-864.txt Node
Date: Thu Jul 18 16:12:35 EDT 2019
User: cochatt
Spectrometer: HR+D1059
Trigger mode: 1
Integration Time (sec): 1.000000E-1
Scans to average: 1
Electric dark correction enabled: true
Nonlinearity correction enabled: false
Boxcar width: 0
XAxis mode: Wavelengths
Number of Pixels in Spectrum: 2048
>>>>>Begin Spectral Data<<<<<
223.165	-12.62
223.4	-12.62
223.635	-12.62
223.869	-9.62
224.104	-17.62
224.338	-16.62
224.573	-30.62
224.808	6.38
225.042	-11.62
225.277	-5.62
225.511	-17.62
225.746	4.38
225.98	0.38
226.215	0.38
226.449	19.38
226.683	15.38
226.918	39.38
227.152	36.38
227.387	22.38
227.621	38.38
227.856	58.38
228.09	45.38
228.324	45.38
228.559	55.38
228.793	76.38
229.027	84.38
229.262	103.38
229.496	114.38
229.73	116.38
229.964	133.38
230.199	124.38
230.433	118.38
230.667	116.38
230.901	103.38
231.136	119.38
231.37	119.38
231.604	103.38
231.838	102.38
232.072	107.38
232.306	112.38
232.541	87.38
232.775	111.38
233.009	113.38
233.243	108.38
233.477	113.38
233.711	124.38
233.945	107.38
234.179	114.38
234.413	128.38
234.647	134.38
234.881	110.38
235.115	128.38
235.349	124.38
235.583	88.38
235.817	109.38
236.051	112.38
236.285	123.38
236.519	109.38
236.753	131.38
236.987	133.38
237.221	174.38
237.455	224.38
237.689	166.38
237.922	122.38
238.156	121.38
238.39	125.38
238.624	118.38
238.858	129.38
239.091	120.38
239.325	120.38
239.559	146.38
239.793	127.38
240.027	124.38
240.26	127.38
240.494	136.38
240.728	150.38
240.961	156.38
241.195	133.38
241.429	140.38
241.662	136.38
241.896	118.38
242.13	129.38
242.363	110.38
242.597	139.38
242.83	130.38
243.064	143.38
243.298	125.38
243.531	144.38
243.765	122.38
243.998	135.38
244.232	136.38
244.465	148.38
244.699	125.38
244.932	130.38
245.166	137.38
245.399	138.38
245.633	154.38
245.866	133.38
246.099	150.38
246.333	131.38
246.566	132.38
246.8	149.38
247.033	140.38
247.266	156.38
247.5	139.38
247.733	156.38
247.966	162.38
248.2	164.38
248.433	171.38
248.666	168.38
248.899	165.38
249.133	171.38
249.366	181.38
249.599	169.38
249.832	177.38
250.066	173.38
250.299	166.38
250.532	176.38
250.765	192.38
250.998	197.38
251.231	195.38
251.465	203.38
251.698	180.38
251.931	182.38
252.164	184.38
252.397	180.38
252.63	184.38
252.863	172.38
253.096	197.38
253.329	207.38
253.562	196.38
253.795	202.38
254.028	187.38
254.261	203.38
254.494	217.38
254.727	244.38
254.96	243.38
255.193	231.38
255.426	211.38
255.659	209.38
255.892	213.38
256.124	211.38
256.357	200.38
256.59	199.38
256.823	196.38
257.056	205.38
257.289	215.38
257.521	192.38
257.754	196.38
257.987	184.38
258.22	217.38
258.452	203.38
258.685	210.38
258.918	205.38
259.151	196.38
259.383	196.38
259.616	214.38
259.849	210.38
260.081	222.38
260.314	231.38
260.547	241.38
260.779	220.38
261.012	211.38
261.244	210.38
261.477	201.38
261.71	214.38
261.942	218.38
262.175	218.38
262.407	214.38
262.64	215.38
262.872	192.38
263.105	219.38
263.337	199.38
263.57	190.38
263.802	207.38
264.035	214.38
264.267	197.38
264.499	198.38
264.732	198.38
264.964	198.38
265.197	198.38
265.429	209.38
265.661	213.38
265.894	198.38
266.126	206.38
266.358	219.38
266.591	205.38
266.823	199.38
267.055	206.38
267.287	216.38
267.52	218.38
267.752	223.38
267.984	211.38
268.216	209.38
268.448	217.38
268.681	190.38
268.913	223.38
269.145	246.38
269.377	253.38
269.609	255.38
269.841	230.38
270.073	231.38
270.306	246.38
270.538	279.38
270.77	264.38
271.002	268.38
271.234	259.38
271.466	268.38
271.698	299.38
271.93	283.38
272.162	282.38
272.394	289.38
272.626	272.38
272.858	274.38
273.09	267.38
273.322	246.38
273.553	255.38
273.785	251.38
274.017	255.38
274.249	261.38
274.481	244.38
274.713	237.38
274.945	255.38
275.176	252.38
275.408	255.38
275.64	244.38
275.872	244.38
276.104	253.38
276.335	245.38
276.567	256.38
276.799	259.38
277.031	283.38
277.262	281.38
277.494	272.38
277.726	269.38
277.957	252.38
278.189	253.38
278.421	252.38
278.652	265.38
278.884	267.38
279.115	241.38
279.347	246.38
279.579	247.38
279.81	262.38
280.042	242.38
280.273	254.38
280.505	243.38
280.736	261.38
280.968	252.38
281.199	252.38
281.431	260.38
281.662	258.38
281.894	253.38
282.125	262.38
282.356	276.38
282.588	274.38
282.819	296.38
283.051	257.38
283.282	274.38
283.513	265.38
283.745	270.38
283.976	273.38
284.207	280.38
284.439	252.38
284.67	272.38
284.901	284.38
285.132	273.38
285.364	263.38
285.595	260.38
285.826	258.38
286.057	284.38
286.288	273.38
286.52	269.38
286.751	281.38
286.982	292.38
287.213	267.38
287.444	270.38
287.675	279.38
287.906	294.38
288.138	279.38
288.369	288.38
288.6	296.38
288.831	278.38
289.062	277.38
289.293	283.38
289.524	280.38
289.755	270.38
289.986	260.38
290.217	287.38
290.448	273.38
290.679	286.38
290.91	268.38
291.141	284.38
291.371	278.38
291.602	295.38
291.833	264.38
292.064	288.38
292.295	275.38
292.526	274.38
292.757	274.38
292.987	309.38
293.218	287.38
293.449	272.38
293.68	290.38
293.91	263.38
294.141	290.38
294.372	277.38
294.603	278.38
294.833	265.38
295.064	301.38
295.295	290.38
295.525	293.38
295.756	297.38
295.987	300.38
296.217	334.38
296.448	321.38
296.679	306.38
296.909	310.38
297.14	298.38
297.37	293.38
297.601	274.38
297.831	270.38
298.062	312.38
298.292	283.38
298.523	296.38
298.753	296.38
298.984	310.38
299.214	277.38
299.445	295.38
299.675	307.38
299.905	298.38
300.136	310.38
300.366	302.38
300.597	282.38
300.827	325.38
301.057	298.38
301.288	303.38
301.518	318.38
301.748	326.38
301.979	298.38
302.209	304.38
302.439	319.38
302.669	306.38
302.9	304.38
303.13	331.38
303.36	321.38
303.59	321.38
303.82	331.38
304.051	319.38
304.281	318.38
304.511	307.38
304.741	322.38
304.971	303.38
305.201	313.38
305.431	308.38
305.661	316.38
305.891	304.38
306.121	320.38
306.352	322.38
306.582	319.38
306.812	326.38
307.042	312.38
307.272	324.38
307.502	320.38
307.731	316.38
307.961	297.38
308.191	323.38
308.421	322.38
308.651	334.38
308.881	333.38
309.111	323.38
309.341	329.38
309.571	343.38
309.8	348.38
310.03	346.38
310.26	353.38
310.49	350.38
310.72	358.38
310.949	378.38
311.179	376.38
311.409	371.38
311.639	374.38
311.868	358.38
312.098	355.38
312.328	347.38
312.557	380.38
312.787	386.38
313.017	389.38
313.246	386.38
313.476	367.38
313.706	359.38
313.935	363.38
314.165	387.38
314.394	378.38
314.624	389.38
314.853	361.38
315.083	372.38
315.312	360.38
315.542	349.38
315.771	339.38
316.001	367.38
316.23	377.38
316.46	357.38
316.689	370.38
316.919	378.38
317.148	366.38
317.377	378.38
317.607	377.38
317.836	366.38
318.065	376.38
318.295	372.38
318.524	346.38
318.753	343.38
318.983	351.38
319.212	337.38
319.441	366.38
319.67	382.38
319.9	378.38
320.129	365.38
320.358	388.38
320.587	397.38
320.816	379.38
321.046	379.38
321.275	380.38
321.504	379.38
321.733	374.38
321.962	392.38
322.191	407.38
322.42	415.38
322.649	411.38
322.878	428.38
323.108	425.38
323.337	443.38
323.566	458.38
323.795	504.38
324.024	538.38
324.253	626.38
324.482	874.38
324.71	1385.38
324.939	2081.38
325.168	1792.38
325.397	904.38
325.626	637.38
325.855	520.38
326.084	482.38
326.313	484.38
326.542	471.38
326.77	509.38
326.999	593.38
327.228	822.38
327.457	1266.38
327.686	1596.38
327.914	1006.38
328.143	648.38
328.372	580.38
328.6	545.38
328.829	526.38
329.058	528.38
329.287	534.38
329.515	491.38
329.744	464.38
329.972	486.38
330.201	491.38
330.43	524.38
330.658	551.38
330.887	569.38
331.115	569.38
331.344	494.38
331.572	473.38
331.801	463.38
332.03	464.38
332.258	458.38
332.486	435.38
332.715	450.38
332.943	437.38
333.172	446.38
333.4	430.38
333.629	452.38
333.857	446.38
334.085	482.38
334.314	489.38
334.542	492.38
334.771	527.38
334.999	470.38
335.227	454.38
335.455	447.38
335.684	434.38
335.912	447.38
336.14	447.38
336.369	432.38
336.597	448.38
336.825	445.38
337.053	440.38
337.281	419.38
337.51	436.38
337.738	431.38
337.966	444.38
338.194	453.38
338.422	428.38
338.65	428.38
338.878	430.38
339.106	411.38
339.334	420.38
339.562	417.38
339.79	440.38
340.018	422.38
340.246	438.38
340.474	431.38
340.702	437.38
340.93	418.38
341.158	422.38
341.386	421.38
341.614	422.38
341.842	435.38
342.07	408.38
342.298	430.38
342.526	413.38
342.754	420.38
342.981	413.38
343.209	410.38
343.437	411.38
343.665	414.38
343.893	418.38
344.12	441.38
344.348	429.38
344.576	449.38
344.804	433.38
345.031	463.38
345.259	438.38
345.487	451.38
345.714	455.38
345.942	427.38
346.17	403.38
346.397	421.38
346.625	416.38
346.853	396.38
347.08	414.38
347.308	429.38
347.535	432.38
347.763	425.38
347.99	439.38
348.218	432.38
348.445	417.38
348.673	434.38
348.9	420.38
349.128	406.38
349.355	418.38
349.583	406.38
349.81	403.38
350.037	398.38
350.265	407.38
350.492	406.38
350.72	404.38
350.947	429.38
351.174	418.38
351.402	436.38
351.629	417.38
351.856	421.38
352.083	428.38
352.311	416.38
352.538	439.38
352.765	410.38
352.992	416.38
353.22	413.38
353.447	414.38
353.674	422.38
353.901	409.38
354.128	410.38
354.355	389.38
354.583	402.38
354.81	388.38
355.037	394.38
355.264	403.38
355.491	388.38
355.718	396.38
355.945	398.38
356.172	378.38
356.399	400.38
356.626	372.38
356.853	388.38
357.08	413.38
357.307	386.38
357.534	381.38
357.761	395.38
357.988	405.38
358.215	390.38
358.441	400.38
358.668	418.38
358.895	400.38
359.122	415.38
359.349	413.38
359.576	430.38
359.802	422.38
360.029	467.38
360.256	462.38
360.483	448.38
360.709	413.38
360.936	395.38
361.163	414.38
361.39	420.38
361.616	431.38
361.843	411.38
362.07	420.38
362.296	394.38
362.523	430.38
362.749	429.38
362.976	423.38
363.203	402.38
363.429	396.38
363.656	430.38
363.882	380.38
364.109	390.38
364.335	419.38
364.562	414.38
364.788	408.38
365.015	403.38
365.241	403.38
365.468	429.38
365.694	412.38
365.92	404.38
366.147	410.38
366.373	413.38
366.599	399.38
366.826	409.38
367.052	418.38
367.278	405.38
367.505	399.38
367.731	399.38
367.957	424.38
368.184	409.38
368.41	419.38
368.636	443.38
368.862	419.38
369.089	405.38
369.315	409.38
369.541	428.38
369.767	414.38
369.993	401.38
370.219	388.38
370.445	415.38
370.672	404.38
370.898	417.38
371.124	418.38
371.35	409.38
371.576	398.38
371.802	401.38
372.028	421.38
372.254	417.38
372.48	400.38
372.706	401.38
372.932	412.38
373.158	408.38
373.384	403.38
373.61	408.38
373.835	405.38
374.061	416.38
374.287	419.38
374.513	415.38
374.739	429.38
374.965	433.38
375.191	430.38
375.416	415.38
375.642	424.38
375.868	399.38
376.094	393.38
376.319	417.38
376.545	405.38
376.771	410.38
376.997	410.38
377.222	414.38
377.448	433.38
377.674	420.38
377.899	414.38
378.125	423.38
378.35	398.38
378.576	411.38
378.802	397.38
379.027	408.38
379.253	426.38
379.478	395.38
379.704	418.38
379.929	399.38
380.155	414.38
380.38	445.38
380.606	425.38
380.831	416.38
381.057	426.38
381.282	407.38
381.507	436.38
381.733	415.38
381.958	430.38
382.184	425.38
382.409	416.38
382.634	422.38
382.86	390.38
383.085	454.38
383.31	436.38
383.535	446.38
383.761	446.38
383.986	430.38
384.211	436.38
384.436	440.38
384.662	438.38
384.887	463.38
385.112	444.38
385.337	453.38
385.562	442.38
385.787	443.38
386.013	465.38
386.238	477.38
386.463	489.38
386.688	473.38
386.913	443.38
387.138	461.38
387.363	455.38
387.588	461.38
387.813	458.38
388.038	477.38
388.263	456.38
388.488	466.38
388.713	438.38
388.938	478.38
389.163	460.38
389.387	486.38
389.612	455.38
389.837	467.38
390.062	440.38
390.287	470.38
390.512	473.38
390.736	470.38
390.961	462.38
391.186	466.38
391.411	485.38
391.636	483.38
391.86	463.38
392.085	475.38
392.31	488.38
392.534	478.38
392.759	474.38
392.984	472.38
393.208	466.38
393.433	485.38
393.658	478.38
393.882	479.38
394.107	454.38
394.331	473.38
394.556	482.38
394.78	474.38
395.005	469.38
395.229	483.38
395.454	475.38
395.678	495.38
395.903	488.38
396.127	527.38
396.352	483.38
396.576	500.38
396.801	495.38
397.025	498.38
397.249	501.38
397.474	498.38
397.698	493.38
397.922	503.38
398.147	546.38
398.371	545.38
398.595	540.38
398.82	534.38
399.044	557.38
399.268	570.38
399.492	577.38
399.717	629.38
399.941	647.38
400.165	653.38
400.389	668.38
400.613	598.38
400.837	566.38
401.062	564.38
401.286	547.38
401.51	558.38
401.734	542.38
401.958	532.38
402.182	552.38
402.406	550.38
402.63	531.38
402.854	558.38
403.078	549.38
403.302	581.38
403.526	565.38
403.75	579.38
403.974	550.38
404.198	553.38
404.422	563.38
404.645	569.38
404.869	569.38
405.093	610.38
405.317	636.38
405.541	676.38
405.765	598.38
405.988	588.38
406.212	562.38
406.436	617.38
406.66	599.38
406.883	599.38
407.107	638.38
407.331	669.38
407.555	757.38
407.778	714.38
408.002	690.38
408.226	625.38
408.449	618.38
408.673	615.38
408.896	632.38
409.12	698.38
409.344	648.38
409.567	600.38
409.791	580.38
410.014	571.38
410.238	584.38
410.461	574.38
410.685	572.38
410.908	569.38
411.132	600.38
411.355	662.38
411.578	618.38
411.802	583.38
412.025	559.38
412.249	548.38
412.472	572.38
412.695	638.38
412.919	636.38
413.142	564.38
413.365	550.38
413.589	559.38
413.812	556.38
414.035	553.38
414.258	522.38
414.482	547.38
414.705	550.38
414.928	534.38
415.151	522.38
415.374	530.38
415.597	520.38
415.821	531.38
416.044	541.38
416.267	527.38
416.49	538.38
416.713	516.38
416.936	518.38
417.159	511.38
417.382	523.38
417.605	529.38
417.828	522.38
418.051	546.38
418.274	544.38
418.497	556.38
418.72	523.38
418.943	533.38
419.166	532.38
419.389	604.38
419.611	568.38
419.834	549.38
420.057	566.38
420.28	564.38
420.503	543.38
420.726	548.38
420.948	549.38
421.171	597.38
421.394	637.38
421.617	564.38
421.839	530.38
422.062	560.38
422.285	564.38
422.507	632.38
422.73	703.38
422.953	682.38
423.175	603.38
423.398	586.38
423.621	577.38
423.843	573.38
424.066	567.38
424.288	594.38
424.511	617.38
424.733	638.38
424.956	734.38
425.178	719.38
425.401	708.38
425.623	734.38
425.846	627.38
426.068	599.38
426.291	597.38
426.513	594.38
426.735	566.38
426.958	616.38
427.18	707.38
427.402	868.38
427.625	938.38
427.847	828.38
428.069	692.38
428.292	623.38
428.514	588.38
428.736	575.38
428.958	537.38
429.181	556.38
429.403	542.38
429.625	565.38
429.847	611.38
430.069	661.38
430.292	662.38
430.514	568.38
430.736	537.38
430.958	549.38
431.18	546.38
431.402	513.38
431.624	525.38
431.846	501.38
432.068	515.38
432.29	524.38
432.512	532.38
432.734	532.38
432.956	506.38
433.178	514.38
433.4	553.38
433.622	543.38
433.844	522.38
434.066	528.38
434.287	514.38
434.509	528.38
434.731	558.38
434.953	543.38
435.175	559.38
435.397	594.38
435.618	580.38
435.84	607.38
436.062	729.38
436.284	766.38
436.505	645.38
436.727	602.38
436.949	551.38
437.17	523.38
437.392	512.38
437.614	560.38
437.835	610.38
438.057	675.38
438.278	757.38
438.5	778.38
438.721	854.38
438.943	838.38
439.165	645.38
439.386	603.38
439.608	579.38
439.829	589.38
440.05	621.38
440.272	671.38
440.493	647.38
440.715	578.38
440.936	570.38
441.158	527.38
441.379	558.38
441.6	553.38
441.822	580.38
442.043	626.38
442.264	703.38
442.486	770.38
442.707	653.38
442.928	607.38
443.149	597.38
443.371	623.38
443.592	657.38
443.813	778.38
444.034	834.38
444.255	686.38
444.476	617.38
444.698	582.38
444.919	587.38
445.14	675.38
445.361	658.38
445.582	602.38
445.803	706.38
446.024	785.38
446.245	810.38
446.466	740.38
446.687	631.38
446.908	565.38
447.129	551.38
447.35	552.38
447.571	554.38
447.792	554.38
448.013	540.38
448.234	549.38
448.455	594.38
448.675	714.38
448.896	827.38
449.117	722.38
449.338	668.38
449.559	798.38
449.779	884.38
450	690.38
450.221	614.38
450.442	536.38
450.662	502.38
450.883	533.38
451.104	537.38
451.324	524.38
451.545	518.38
451.766	518.38
451.986	494.38
452.207	492.38
452.428	493.38
452.648	487.38
452.869	489.38
453.089	479.38
453.31	501.38
453.53	486.38
453.751	474.38
453.971	489.38
454.192	507.38
454.412	499.38
454.633	461.38
454.853	464.38
455.073	479.38
455.294	528.38
455.514	587.38
455.734	572.38
455.955	499.38
456.175	470.38
456.395	467.38
456.616	465.38
456.836	463.38
457.056	454.38
457.276	464.38
457.497	490.38
457.717	467.38
457.937	482.38
458.157	480.38
458.377	492.38
458.598	504.38
458.818	542.38
459.038	637.38
459.258	638.38
459.478	570.38
459.698	535.38
459.918	524.38
460.138	514.38
460.358	540.38
460.578	551.38
460.798	553.38
461.018	575.38
461.238	539.38
461.458	527.38
461.678	520.38
461.898	559.38
462.118	557.38
462.338	574.38
462.558	564.38
462.777	601.38
462.997	600.38
463.217	575.38
463.437	599.38
463.657	607.38
463.876	582.38
464.096	574.38
464.316	585.38
464.536	572.38
464.755	610.38
464.975	588.38
465.195	610.38
465.414	668.38
465.634	596.38
465.854	554.38
466.073	548.38
466.293	510.38
466.512	494.38
466.732	518.38
466.951	536.38
467.171	513.38
467.391	522.38
467.61	533.38
467.829	523.38
468.049	488.38
468.268	499.38
468.488	483.38
468.707	504.38
468.927	495.38
469.146	510.38
469.365	491.38
469.585	486.38
469.804	514.38
470.023	513.38
470.243	513.38
470.462	518.38
470.681	527.38
470.901	556.38
471.12	525.38
471.339	494.38
471.558	495.38
471.777	486.38
471.997	497.38
472.216	512.38
472.435	551.38
472.654	526.38
472.873	512.38
473.092	492.38
473.311	508.38
473.53	524.38
473.749	507.38
473.968	552.38
474.187	625.38
474.406	674.38
474.625	568.38
474.844	526.38
475.063	496.38
475.282	521.38
475.501	548.38
475.72	528.38
475.939	501.38
476.158	540.38
476.377	548.38
476.596	534.38
476.814	518.38
477.033	554.38
477.252	530.38
477.471	554.38
477.69	551.38
477.908	567.38
478.127	584.38
478.346	594.38
478.564	581.38
478.783	574.38
479.002	579.38
479.22	593.38
479.439	606.38
479.658	619.38
479.876	611.38
480.095	629.38
480.313	650.38
480.532	648.38
480.751	635.38
480.969	627.38
481.188	696.38
481.406	677.38
481.624	642.38
481.843	629.38
482.061	635.38
482.28	616.38
482.498	613.38
482.717	600.38
482.935	602.38
483.153	594.38
483.372	623.38
483.59	602.38
483.808	578.38
484.027	601.38
484.245	606.38
484.463	621.38
484.681	596.38
484.9	614.38
485.118	612.38
485.336	607.38
485.554	615.38
485.772	610.38
485.99	612.38
486.209	652.38
486.427	625.38
486.645	626.38
486.863	639.38
487.081	655.38
487.299	639.38
487.517	667.38
487.735	641.38
487.953	640.38
488.171	627.38
488.389	620.38
488.607	654.38
488.825	652.38
489.043	648.38
489.261	642.38
489.479	637.38
489.696	641.38
489.914	660.38
490.132	664.38
490.35	652.38
490.568	655.38
490.786	662.38
491.003	678.38
491.221	685.38
491.439	687.38
491.657	718.38
491.874	700.38
492.092	728.38
492.31	717.38
492.527	720.38
492.745	704.38
492.963	732.38
493.18	738.38
493.398	734.38
493.615	728.38
493.833	743.38
494.05	739.38
494.268	743.38
494.485	727.38
494.703	757.38
494.92	733.38
495.138	735.38
495.355	728.38
495.573	768.38
495.79	755.38
496.008	748.38
496.225	760.38
496.442	725.38
496.66	759.38
496.877	755.38
497.094	742.38
497.312	778.38
497.529	784.38
497.746	809.38
497.963	798.38
498.181	840.38
498.398	830.38
498.615	845.38
498.832	886.38
499.049	891.38
499.267	913.38
499.484	934.38
499.701	987.38
499.918	1002.38
500.135	1075.38
500.352	1098.38
500.569	1104.38
500.786	1112.38
501.003	1099.38
501.22	1078.38
501.437	1014.38
501.654	991.38
501.871	1014.38
