Data from 1978.PennyLincolnUp.Lamp.En5.5.200Scan.071719.P1_HRD10591_16-14-37-863.txt Node
Date: Thu Jul 18 16:14:37 EDT 2019
User: cochatt
Spectrometer: HR+D1059
Trigger mode: 1
Integration Time (sec): 1.000000E-1
Scans to average: 1
Electric dark correction enabled: true
Nonlinearity correction enabled: false
Boxcar width: 0
XAxis mode: Wavelengths
Number of Pixels in Spectrum: 2048
>>>>>Begin Spectral Data<<<<<
223.165	-21.69
223.4	-21.69
223.635	-21.69
223.869	-14.69
224.104	-13.69
224.338	-15.69
224.573	-19.69
224.808	-17.69
225.042	-14.69
225.277	-14.69
225.511	4.31
225.746	4.31
225.98	22.31
226.215	22.31
226.449	12.31
226.683	26.31
226.918	8.31
227.152	32.31
227.387	56.31
227.621	32.31
227.856	44.31
228.09	51.31
228.324	53.31
228.559	56.31
228.793	69.31
229.027	103.31
229.262	102.31
229.496	105.31
229.73	131.31
229.964	165.31
230.199	132.31
230.433	96.31
230.667	119.31
230.901	105.31
231.136	113.31
231.37	129.31
231.604	116.31
231.838	108.31
232.072	119.31
232.306	120.31
232.541	110.31
232.775	118.31
233.009	119.31
233.243	117.31
233.477	113.31
233.711	121.31
233.945	109.31
234.179	113.31
234.413	112.31
234.647	105.31
234.881	118.31
235.115	116.31
235.349	127.31
235.583	121.31
235.817	105.31
236.051	129.31
236.285	122.31
236.519	117.31
236.753	133.31
236.987	146.31
237.221	175.31
237.455	228.31
237.689	198.31
237.922	142.31
238.156	143.31
238.39	125.31
238.624	138.31
238.858	136.31
239.091	128.31
239.325	144.31
239.559	128.31
239.793	132.31
240.027	133.31
240.26	146.31
240.494	143.31
240.728	148.31
240.961	146.31
241.195	150.31
241.429	132.31
241.662	122.31
241.896	136.31
242.13	138.31
242.363	116.31
242.597	131.31
242.83	148.31
243.064	141.31
243.298	129.31
243.531	151.31
243.765	130.31
243.998	149.31
244.232	137.31
244.465	140.31
244.699	146.31
244.932	143.31
245.166	134.31
245.399	132.31
245.633	139.31
245.866	155.31
246.099	137.31
246.333	160.31
246.566	148.31
246.8	159.31
247.033	145.31
247.266	154.31
247.5	160.31
247.733	152.31
247.966	162.31
248.2	173.31
248.433	161.31
248.666	189.31
248.899	169.31
249.133	188.31
249.366	189.31
249.599	178.31
249.832	176.31
250.066	162.31
250.299	172.31
250.532	190.31
250.765	196.31
250.998	204.31
251.231	205.31
251.465	203.31
251.698	191.31
251.931	186.31
252.164	193.31
252.397	196.31
252.63	178.31
252.863	200.31
253.096	188.31
253.329	216.31
253.562	231.31
253.795	205.31
254.028	210.31
254.261	230.31
254.494	208.31
254.727	241.31
254.96	259.31
255.193	264.31
255.426	222.31
255.659	220.31
255.892	220.31
256.124	217.31
256.357	223.31
256.59	207.31
256.823	191.31
257.056	217.31
257.289	208.31
257.521	199.31
257.754	192.31
257.987	187.31
258.22	202.31
258.452	185.31
258.685	178.31
258.918	219.31
259.151	209.31
259.383	199.31
259.616	208.31
259.849	216.31
260.081	218.31
260.314	245.31
260.547	235.31
260.779	232.31
261.012	241.31
261.244	208.31
261.477	222.31
261.71	208.31
261.942	207.31
262.175	215.31
262.407	231.31
262.64	188.31
262.872	209.31
263.105	202.31
263.337	204.31
263.57	199.31
263.802	211.31
264.035	199.31
264.267	222.31
264.499	201.31
264.732	203.31
264.964	212.31
265.197	213.31
265.429	228.31
265.661	207.31
265.894	224.31
266.126	202.31
266.358	211.31
266.591	204.31
266.823	228.31
267.055	227.31
267.287	212.31
267.52	205.31
267.752	226.31
267.984	234.31
268.216	229.31
268.448	240.31
268.681	225.31
268.913	218.31
269.145	257.31
269.377	272.31
269.609	263.31
269.841	253.31
270.073	255.31
270.306	296.31
270.538	305.31
270.77	294.31
271.002	286.31
271.234	274.31
271.466	277.31
271.698	280.31
271.93	286.31
272.162	297.31
272.394	303.31
272.626	287.31
272.858	286.31
273.09	262.31
273.322	257.31
273.553	251.31
273.785	262.31
274.017	241.31
274.249	254.31
274.481	250.31
274.713	249.31
274.945	262.31
275.176	267.31
275.408	248.31
275.64	246.31
275.872	241.31
276.104	272.31
276.335	258.31
276.567	254.31
276.799	269.31
277.031	305.31
277.262	286.31
277.494	325.31
277.726	279.31
277.957	270.31
278.189	284.31
278.421	274.31
278.652	262.31
278.884	250.31
279.115	252.31
279.347	284.31
279.579	261.31
279.81	248.31
280.042	274.31
280.273	271.31
280.505	258.31
280.736	269.31
280.968	266.31
281.199	245.31
281.431	255.31
281.662	268.31
281.894	278.31
282.125	272.31
282.356	268.31
282.588	296.31
282.819	310.31
283.051	262.31
283.282	262.31
283.513	264.31
283.745	275.31
283.976	273.31
284.207	289.31
284.439	262.31
284.67	292.31
284.901	278.31
285.132	287.31
285.364	278.31
285.595	269.31
285.826	255.31
286.057	258.31
286.288	285.31
286.52	257.31
286.751	275.31
286.982	272.31
287.213	271.31
287.444	282.31
287.675	284.31
287.906	287.31
288.138	273.31
288.369	300.31
288.6	300.31
288.831	284.31
289.062	287.31
289.293	275.31
289.524	287.31
289.755	300.31
289.986	282.31
290.217	284.31
290.448	278.31
290.679	301.31
290.91	280.31
291.141	277.31
291.371	287.31
291.602	298.31
291.833	274.31
292.064	286.31
292.295	266.31
292.526	274.31
292.757	282.31
292.987	291.31
293.218	296.31
293.449	304.31
293.68	300.31
293.91	271.31
294.141	298.31
294.372	267.31
294.603	285.31
294.833	298.31
295.064	293.31
295.295	284.31
295.525	280.31
295.756	284.31
295.987	299.31
296.217	320.31
296.448	344.31
296.679	325.31
296.909	305.31
297.14	286.31
297.37	285.31
297.601	299.31
297.831	292.31
298.062	288.31
298.292	296.31
298.523	312.31
298.753	288.31
298.984	301.31
299.214	300.31
299.445	293.31
299.675	294.31
299.905	320.31
300.136	302.31
300.366	309.31
300.597	278.31
300.827	315.31
301.057	320.31
301.288	322.31
301.518	312.31
301.748	330.31
301.979	319.31
302.209	315.31
302.439	325.31
302.669	316.31
302.9	330.31
303.13	310.31
303.36	341.31
303.59	316.31
303.82	319.31
304.051	318.31
304.281	327.31
304.511	327.31
304.741	321.31
304.971	322.31
305.201	316.31
305.431	319.31
305.661	323.31
305.891	324.31
306.121	302.31
306.352	328.31
306.582	327.31
306.812	311.31
307.042	333.31
307.272	315.31
307.502	332.31
307.731	329.31
307.961	320.31
308.191	335.31
308.421	328.31
308.651	336.31
308.881	373.31
309.111	347.31
309.341	332.31
309.571	349.31
309.8	353.31
310.03	338.31
310.26	382.31
310.49	361.31
310.72	375.31
310.949	370.31
311.179	382.31
311.409	369.31
311.639	350.31
311.868	344.31
312.098	385.31
312.328	387.31
312.557	393.31
312.787	391.31
313.017	408.31
313.246	386.31
313.476	382.31
313.706	397.31
313.935	378.31
314.165	381.31
314.394	392.31
314.624	396.31
314.853	410.31
315.083	367.31
315.312	365.31
315.542	349.31
315.771	365.31
316.001	365.31
316.23	366.31
316.46	382.31
316.689	394.31
316.919	367.31
317.148	380.31
317.377	380.31
317.607	376.31
317.836	361.31
318.065	380.31
318.295	368.31
318.524	378.31
318.753	374.31
318.983	375.31
319.212	374.31
319.441	379.31
319.67	386.31
319.9	382.31
320.129	364.31
320.358	369.31
320.587	384.31
320.816	378.31
321.046	382.31
321.275	400.31
321.504	427.31
321.733	392.31
321.962	392.31
322.191	418.31
322.42	421.31
322.649	422.31
322.878	455.31
323.108	465.31
323.337	489.31
323.566	490.31
323.795	512.31
324.024	568.31
324.253	693.31
324.482	954.31
324.71	1582.31
324.939	2396.31
325.168	2072.31
325.397	973.31
325.626	680.31
325.855	542.31
326.084	512.31
326.313	484.31
326.542	491.31
326.77	534.31
326.999	656.31
327.228	914.31
327.457	1458.31
327.686	1850.31
327.914	1135.31
328.143	721.31
328.372	637.31
328.6	568.31
328.829	545.31
329.058	555.31
329.287	570.31
329.515	546.31
329.744	508.31
329.972	501.31
330.201	516.31
330.43	578.31
330.658	582.31
330.887	580.31
331.115	589.31
331.344	512.31
331.572	479.31
331.801	474.31
332.03	475.31
332.258	467.31
332.486	466.31
332.715	434.31
332.943	440.31
333.172	443.31
333.4	465.31
333.629	466.31
333.857	481.31
334.085	488.31
334.314	487.31
334.542	504.31
334.771	525.31
334.999	496.31
335.227	473.31
335.455	485.31
335.684	485.31
335.912	458.31
336.14	435.31
336.369	449.31
336.597	448.31
336.825	452.31
337.053	460.31
337.281	445.31
337.51	450.31
337.738	451.31
337.966	442.31
338.194	442.31
338.422	464.31
338.65	446.31
338.878	436.31
339.106	424.31
339.334	422.31
339.562	429.31
339.79	426.31
340.018	429.31
340.246	437.31
340.474	429.31
340.702	456.31
340.93	436.31
341.158	429.31
341.386	432.31
341.614	441.31
341.842	434.31
342.07	424.31
342.298	437.31
342.526	406.31
342.754	426.31
342.981	432.31
343.209	431.31
343.437	433.31
343.665	440.31
343.893	442.31
344.12	429.31
344.348	452.31
344.576	449.31
344.804	460.31
345.031	459.31
345.259	475.31
345.487	456.31
345.714	417.31
345.942	445.31
346.17	439.31
346.397	418.31
346.625	434.31
346.853	405.31
347.08	428.31
347.308	425.31
347.535	406.31
347.763	440.31
347.99	428.31
348.218	433.31
348.445	444.31
348.673	425.31
348.9	422.31
349.128	425.31
349.355	413.31
349.583	400.31
349.81	404.31
350.037	412.31
350.265	403.31
350.492	398.31
350.72	440.31
350.947	407.31
351.174	423.31
351.402	419.31
351.629	404.31
351.856	438.31
352.083	440.31
352.311	424.31
352.538	434.31
352.765	450.31
352.992	428.31
353.22	406.31
353.447	433.31
353.674	421.31
353.901	397.31
354.128	407.31
354.355	405.31
354.583	392.31
354.81	401.31
355.037	384.31
355.264	404.31
355.491	392.31
355.718	390.31
355.945	398.31
356.172	384.31
356.399	396.31
356.626	408.31
356.853	405.31
357.08	392.31
357.307	402.31
357.534	395.31
357.761	398.31
357.988	385.31
358.215	401.31
358.441	379.31
358.668	363.31
358.895	400.31
359.122	399.31
359.349	430.31
359.576	427.31
359.802	445.31
360.029	452.31
360.256	475.31
360.483	453.31
360.709	414.31
360.936	423.31
361.163	435.31
361.39	417.31
361.616	408.31
361.843	430.31
362.07	407.31
362.296	394.31
362.523	416.31
362.749	429.31
362.976	412.31
363.203	410.31
363.429	422.31
363.656	397.31
363.882	411.31
364.109	401.31
364.335	421.31
364.562	408.31
364.788	408.31
365.015	399.31
365.241	399.31
365.468	411.31
365.694	415.31
365.92	406.31
366.147	413.31
366.373	416.31
366.599	385.31
366.826	406.31
367.052	420.31
367.278	422.31
367.505	411.31
367.731	410.31
367.957	408.31
368.184	397.31
368.41	428.31
368.636	414.31
368.862	421.31
369.089	406.31
369.315	412.31
369.541	410.31
369.767	402.31
369.993	409.31
370.219	428.31
370.445	403.31
370.672	414.31
370.898	398.31
371.124	418.31
371.35	409.31
371.576	420.31
371.802	400.31
372.028	419.31
372.254	408.31
372.48	406.31
372.706	412.31
372.932	409.31
373.158	426.31
373.384	429.31
373.61	413.31
373.835	437.31
374.061	413.31
374.287	430.31
374.513	408.31
374.739	427.31
374.965	426.31
375.191	414.31
375.416	412.31
375.642	427.31
375.868	421.31
376.094	418.31
376.319	423.31
376.545	418.31
376.771	408.31
376.997	400.31
377.222	425.31
377.448	423.31
377.674	408.31
377.899	417.31
378.125	418.31
378.35	416.31
378.576	410.31
378.802	406.31
379.027	418.31
379.253	421.31
379.478	414.31
379.704	435.31
379.929	409.31
380.155	418.31
380.38	408.31
380.606	406.31
380.831	401.31
381.057	424.31
381.282	408.31
381.507	427.31
381.733	417.31
381.958	418.31
382.184	439.31
382.409	433.31
382.634	421.31
382.86	422.31
383.085	430.31
383.31	417.31
383.535	426.31
383.761	457.31
383.986	421.31
384.211	450.31
384.436	428.31
384.662	458.31
384.887	458.31
385.112	462.31
385.337	439.31
385.562	458.31
385.787	439.31
386.013	469.31
386.238	470.31
386.463	464.31
386.688	478.31
386.913	457.31
387.138	450.31
387.363	471.31
387.588	470.31
387.813	461.31
388.038	478.31
388.263	473.31
388.488	462.31
388.713	457.31
388.938	473.31
389.163	466.31
389.387	474.31
389.612	464.31
389.837	453.31
390.062	464.31
390.287	478.31
390.512	462.31
390.736	459.31
390.961	454.31
391.186	454.31
391.411	474.31
391.636	479.31
391.86	483.31
392.085	464.31
392.31	473.31
392.534	471.31
392.759	460.31
392.984	475.31
393.208	473.31
393.433	476.31
393.658	470.31
393.882	476.31
394.107	462.31
394.331	459.31
394.556	462.31
394.78	476.31
395.005	472.31
395.229	479.31
395.454	487.31
395.678	498.31
395.903	501.31
396.127	534.31
396.352	525.31
396.576	504.31
396.801	486.31
397.025	487.31
397.249	500.31
397.474	508.31
397.698	490.31
397.922	516.31
398.147	522.31
398.371	540.31
398.595	514.31
398.82	511.31
399.044	533.31
399.268	546.31
399.492	601.31
399.717	611.31
399.941	652.31
400.165	649.31
400.389	692.31
400.613	612.31
400.837	568.31
401.062	567.31
401.286	572.31
401.51	550.31
401.734	543.31
401.958	537.31
402.182	569.31
402.406	559.31
402.63	554.31
402.854	551.31
403.078	545.31
403.302	536.31
403.526	564.31
403.75	550.31
403.974	574.31
404.198	548.31
404.422	575.31
404.645	568.31
404.869	578.31
405.093	598.31
405.317	638.31
405.541	694.31
405.765	616.31
405.988	568.31
406.212	598.31
406.436	626.31
406.66	636.31
406.883	636.31
407.107	653.31
407.331	670.31
407.555	760.31
407.778	722.31
408.002	664.31
408.226	618.31
408.449	639.31
408.673	607.31
408.896	658.31
409.12	702.31
409.344	649.31
409.567	606.31
409.791	593.31
410.014	576.31
410.238	570.31
410.461	587.31
410.685	577.31
410.908	576.31
411.132	651.31
411.355	650.31
411.578	631.31
411.802	576.31
412.025	578.31
412.249	593.31
412.472	625.31
412.695	633.31
412.919	625.31
413.142	571.31
413.365	551.31
413.589	560.31
413.812	550.31
414.035	553.31
414.258	529.31
414.482	539.31
414.705	530.31
414.928	526.31
415.151	534.31
415.374	532.31
415.597	534.31
415.821	486.31
416.044	508.31
416.267	551.31
416.49	544.31
416.713	511.31
416.936	525.31
417.159	513.31
417.382	540.31
417.605	534.31
417.828	551.31
418.051	572.31
418.274	568.31
418.497	552.31
418.72	545.31
418.943	522.31
419.166	558.31
419.389	597.31
419.611	588.31
419.834	562.31
420.057	565.31
420.28	542.31
420.503	556.31
420.726	552.31
420.948	541.31
421.171	616.31
421.394	666.31
421.617	558.31
421.839	531.31
422.062	548.31
422.285	567.31
422.507	638.31
422.73	727.31
422.953	674.31
423.175	600.31
423.398	570.31
423.621	570.31
423.843	574.31
424.066	598.31
424.288	592.31
424.511	611.31
424.733	667.31
424.956	750.31
425.178	713.31
425.401	729.31
425.623	733.31
425.846	665.31
426.068	594.31
426.291	584.31
426.513	593.31
426.735	617.31
426.958	630.31
427.18	733.31
427.402	874.31
427.625	989.31
427.847	830.31
428.069	729.31
428.292	614.31
428.514	607.31
428.736	560.31
428.958	573.31
429.181	557.31
429.403	547.31
429.625	570.31
429.847	604.31
430.069	673.31
430.292	673.31
430.514	573.31
430.736	539.31
430.958	526.31
431.18	528.31
431.402	525.31
431.624	504.31
431.846	528.31
432.068	536.31
432.29	521.31
432.512	512.31
432.734	543.31
432.956	529.31
433.178	529.31
433.4	573.31
433.622	545.31
433.844	505.31
434.066	517.31
434.287	534.31
434.509	517.31
434.731	559.31
434.953	555.31
435.175	577.31
435.397	570.31
435.618	604.31
435.84	658.31
436.062	746.31
436.284	826.31
436.505	678.31
436.727	628.31
436.949	575.31
437.17	552.31
437.392	555.31
437.614	558.31
437.835	604.31
438.057	687.31
438.278	806.31
438.5	811.31
438.721	928.31
438.943	863.31
439.165	688.31
439.386	599.31
439.608	615.31
439.829	606.31
440.05	642.31
440.272	699.31
440.493	654.31
440.715	570.31
440.936	574.31
441.158	560.31
441.379	556.31
441.6	565.31
441.822	580.31
442.043	643.31
442.264	738.31
442.486	780.31
442.707	637.31
442.928	628.31
443.149	628.31
443.371	653.31
443.592	695.31
443.813	792.31
444.034	877.31
444.255	717.31
444.476	625.31
444.698	610.31
444.919	605.31
445.14	681.31
445.361	667.31
445.582	650.31
445.803	722.31
446.024	844.31
446.245	867.31
446.466	781.31
446.687	642.31
446.908	597.31
447.129	562.31
447.35	548.31
447.571	538.31
447.792	525.31
448.013	554.31
448.234	567.31
448.455	620.31
448.675	749.31
448.896	900.31
449.117	749.31
449.338	708.31
449.559	814.31
449.779	967.31
450	738.31
450.221	604.31
450.442	552.31
450.662	538.31
450.883	559.31
451.104	541.31
451.324	539.31
451.545	534.31
451.766	519.31
451.986	488.31
452.207	494.31
452.428	505.31
452.648	505.31
452.869	500.31
453.089	508.31
453.31	520.31
453.53	507.31
453.751	483.31
453.971	510.31
454.192	517.31
454.412	511.31
454.633	486.31
454.853	499.31
455.073	492.31
455.294	525.31
455.514	607.31
455.734	581.31
455.955	518.31
456.175	492.31
456.395	464.31
456.616	451.31
456.836	466.31
457.056	472.31
457.276	461.31
457.497	464.31
457.717	493.31
457.937	473.31
458.157	482.31
458.377	487.31
458.598	499.31
458.818	553.31
459.038	641.31
459.258	682.31
459.478	602.31
459.698	545.31
459.918	535.31
460.138	526.31
460.358	520.31
460.578	535.31
460.798	540.31
461.018	541.31
461.238	546.31
461.458	546.31
461.678	533.31
461.898	548.31
462.118	554.31
462.338	551.31
462.558	562.31
462.777	559.31
462.997	583.31
463.217	593.31
463.437	583.31
463.657	587.31
463.876	591.31
464.096	590.31
464.316	544.31
464.536	585.31
464.755	581.31
464.975	586.31
465.195	607.31
465.414	667.31
465.634	605.31
465.854	588.31
466.073	558.31
466.293	543.31
466.512	542.31
466.732	526.31
466.951	513.31
467.171	524.31
467.391	519.31
467.61	536.31
467.829	524.31
468.049	521.31
468.268	504.31
468.488	511.31
468.707	487.31
468.927	483.31
469.146	501.31
469.365	505.31
469.585	483.31
469.804	516.31
470.023	519.31
470.243	507.31
470.462	541.31
470.681	555.31
470.901	525.31
471.12	524.31
471.339	508.31
471.558	501.31
471.777	518.31
471.997	524.31
472.216	520.31
472.435	557.31
472.654	538.31
472.873	531.31
473.092	520.31
473.311	518.31
473.53	520.31
473.749	516.31
473.968	581.31
474.187	670.31
474.406	690.31
474.625	578.31
474.844	541.31
475.063	514.31
475.282	513.31
475.501	510.31
475.72	522.31
475.939	529.31
476.158	544.31
476.377	567.31
476.596	537.31
476.814	544.31
477.033	546.31
477.252	552.31
477.471	558.31
477.69	549.31
477.908	584.31
478.127	568.31
478.346	570.31
478.564	571.31
478.783	568.31
479.002	587.31
479.22	597.31
479.439	595.31
479.658	603.31
479.876	610.31
480.095	608.31
480.313	644.31
480.532	668.31
480.751	628.31
480.969	650.31
481.188	692.31
481.406	724.31
481.624	651.31
481.843	623.31
482.061	648.31
482.28	621.31
482.498	611.31
482.717	599.31
482.935	611.31
483.153	605.31
483.372	596.31
483.59	611.31
483.808	581.31
484.027	601.31
484.245	581.31
484.463	615.31
484.681	634.31
484.9	626.31
485.118	637.31
485.336	607.31
485.554	616.31
485.772	616.31
485.99	612.31
486.209	636.31
486.427	643.31
486.645	644.31
486.863	645.31
487.081	650.31
487.299	651.31
487.517	636.31
487.735	614.31
487.953	638.31
488.171	663.31
488.389	642.31
488.607	640.31
488.825	622.31
489.043	629.31
489.261	612.31
489.479	664.31
489.696	667.31
489.914	656.31
490.132	668.31
490.35	680.31
490.568	662.31
490.786	660.31
491.003	688.31
491.221	718.31
491.439	696.31
491.657	714.31
491.874	720.31
492.092	736.31
492.31	741.31
492.527	725.31
492.745	719.31
492.963	753.31
493.18	742.31
493.398	723.31
493.615	757.31
493.833	766.31
494.05	744.31
494.268	733.31
494.485	743.31
494.703	778.31
494.92	736.31
495.138	738.31
495.355	768.31
495.573	734.31
495.79	727.31
496.008	770.31
496.225	759.31
496.442	772.31
496.66	776.31
496.877	770.31
497.094	779.31
497.312	774.31
497.529	791.31
497.746	792.31
497.963	806.31
498.181	843.31
498.398	849.31
498.615	855.31
498.832	886.31
499.049	877.31
499.267	934.31
499.484	925.31
499.701	956.31
499.918	993.31
500.135	1062.31
500.352	1057.31
500.569	1055.31
500.786	1092.31
501.003	1107.31
501.22	1057.31
501.437	1045.31
501.654	999.31
501.871	1013.31
