Data from 1978.PennyLincolnUp.Lamp.En5.5.200Scan.071719.P1_HRD10591_16-13-06-865.txt Node
Date: Thu Jul 18 16:13:06 EDT 2019
User: cochatt
Spectrometer: HR+D1059
Trigger mode: 1
Integration Time (sec): 1.000000E-1
Scans to average: 1
Electric dark correction enabled: true
Nonlinearity correction enabled: false
Boxcar width: 0
XAxis mode: Wavelengths
Number of Pixels in Spectrum: 2048
>>>>>Begin Spectral Data<<<<<
223.165	-8.69
223.4	-8.69
223.635	-8.69
223.869	-9.69
224.104	-15.69
224.338	-8.69
224.573	-35.69
224.808	-17.69
225.042	0.31
225.277	6.31
225.511	-11.69
225.746	-2.69
225.98	6.31
226.215	15.31
226.449	24.31
226.683	12.31
226.918	25.31
227.152	20.31
227.387	26.31
227.621	32.31
227.856	29.31
228.09	38.31
228.324	37.31
228.559	59.31
228.793	65.31
229.027	89.31
229.262	97.31
229.496	102.31
229.73	133.31
229.964	153.31
230.199	108.31
230.433	101.31
230.667	91.31
230.901	113.31
231.136	110.31
231.37	109.31
231.604	110.31
231.838	89.31
232.072	105.31
232.306	121.31
232.541	104.31
232.775	112.31
233.009	124.31
233.243	117.31
233.477	112.31
233.711	114.31
233.945	117.31
234.179	119.31
234.413	110.31
234.647	118.31
234.881	112.31
235.115	121.31
235.349	124.31
235.583	107.31
235.817	128.31
236.051	108.31
236.285	123.31
236.519	123.31
236.753	120.31
236.987	149.31
237.221	173.31
237.455	231.31
237.689	202.31
237.922	133.31
238.156	130.31
238.39	133.31
238.624	114.31
238.858	103.31
239.091	117.31
239.325	124.31
239.559	107.31
239.793	122.31
240.027	124.31
240.26	141.31
240.494	151.31
240.728	138.31
240.961	148.31
241.195	130.31
241.429	129.31
241.662	139.31
241.896	119.31
242.13	143.31
242.363	134.31
242.597	142.31
242.83	137.31
243.064	140.31
243.298	149.31
243.531	141.31
243.765	121.31
243.998	124.31
244.232	163.31
244.465	156.31
244.699	141.31
244.932	148.31
245.166	127.31
245.399	140.31
245.633	135.31
245.866	143.31
246.099	147.31
246.333	149.31
246.566	136.31
246.8	148.31
247.033	146.31
247.266	138.31
247.5	153.31
247.733	150.31
247.966	164.31
248.2	152.31
248.433	167.31
248.666	165.31
248.899	165.31
249.133	191.31
249.366	210.31
249.599	185.31
249.832	155.31
250.066	148.31
250.299	159.31
250.532	163.31
250.765	187.31
250.998	200.31
251.231	216.31
251.465	216.31
251.698	193.31
251.931	198.31
252.164	183.31
252.397	171.31
252.63	196.31
252.863	192.31
253.096	205.31
253.329	211.31
253.562	210.31
253.795	200.31
254.028	206.31
254.261	197.31
254.494	194.31
254.727	235.31
254.96	248.31
255.193	222.31
255.426	233.31
255.659	206.31
255.892	224.31
256.124	204.31
256.357	205.31
256.59	195.31
256.823	208.31
257.056	196.31
257.289	200.31
257.521	199.31
257.754	185.31
257.987	205.31
258.22	210.31
258.452	201.31
258.685	233.31
258.918	192.31
259.151	193.31
259.383	201.31
259.616	202.31
259.849	233.31
260.081	217.31
260.314	220.31
260.547	245.31
260.779	225.31
261.012	220.31
261.244	203.31
261.477	200.31
261.71	196.31
261.942	220.31
262.175	229.31
262.407	219.31
262.64	224.31
262.872	201.31
263.105	206.31
263.337	210.31
263.57	212.31
263.802	187.31
264.035	210.31
264.267	211.31
264.499	213.31
264.732	219.31
264.964	204.31
265.197	205.31
265.429	222.31
265.661	210.31
265.894	196.31
266.126	210.31
266.358	205.31
266.591	220.31
266.823	201.31
267.055	206.31
267.287	217.31
267.52	218.31
267.752	207.31
267.984	238.31
268.216	240.31
268.448	223.31
268.681	243.31
268.913	230.31
269.145	265.31
269.377	263.31
269.609	259.31
269.841	260.31
270.073	262.31
270.306	281.31
270.538	291.31
270.77	291.31
271.002	291.31
271.234	270.31
271.466	275.31
271.698	287.31
271.93	292.31
272.162	274.31
272.394	282.31
272.626	282.31
272.858	259.31
273.09	269.31
273.322	263.31
273.553	258.31
273.785	261.31
274.017	276.31
274.249	281.31
274.481	254.31
274.713	243.31
274.945	256.31
275.176	254.31
275.408	246.31
275.64	249.31
275.872	264.31
276.104	240.31
276.335	252.31
276.567	256.31
276.799	276.31
277.031	308.31
277.262	298.31
277.494	300.31
277.726	276.31
277.957	291.31
278.189	261.31
278.421	266.31
278.652	270.31
278.884	260.31
279.115	262.31
279.347	266.31
279.579	269.31
279.81	271.31
280.042	271.31
280.273	263.31
280.505	262.31
280.736	262.31
280.968	261.31
281.199	260.31
281.431	245.31
281.662	262.31
281.894	263.31
282.125	260.31
282.356	279.31
282.588	294.31
282.819	284.31
283.051	270.31
283.282	253.31
283.513	271.31
283.745	265.31
283.976	270.31
284.207	275.31
284.439	270.31
284.67	267.31
284.901	274.31
285.132	270.31
285.364	264.31
285.595	281.31
285.826	274.31
286.057	278.31
286.288	290.31
286.52	283.31
286.751	270.31
286.982	273.31
287.213	256.31
287.444	281.31
287.675	288.31
287.906	282.31
288.138	274.31
288.369	299.31
288.6	315.31
288.831	284.31
289.062	301.31
289.293	289.31
289.524	270.31
289.755	298.31
289.986	272.31
290.217	288.31
290.448	264.31
290.679	288.31
290.91	272.31
291.141	277.31
291.371	295.31
291.602	287.31
291.833	281.31
292.064	297.31
292.295	289.31
292.526	291.31
292.757	274.31
292.987	295.31
293.218	301.31
293.449	296.31
293.68	277.31
293.91	279.31
294.141	296.31
294.372	279.31
294.603	291.31
294.833	298.31
295.064	299.31
295.295	284.31
295.525	277.31
295.756	301.31
295.987	305.31
296.217	325.31
296.448	317.31
296.679	311.31
296.909	300.31
297.14	297.31
297.37	327.31
297.601	310.31
297.831	302.31
298.062	314.31
298.292	294.31
298.523	288.31
298.753	290.31
298.984	312.31
299.214	316.31
299.445	330.31
299.675	323.31
299.905	320.31
300.136	309.31
300.366	312.31
300.597	308.31
300.827	306.31
301.057	319.31
301.288	329.31
301.518	328.31
301.748	322.31
301.979	333.31
302.209	315.31
302.439	309.31
302.669	322.31
302.9	319.31
303.13	307.31
303.36	325.31
303.59	317.31
303.82	330.31
304.051	332.31
304.281	330.31
304.511	341.31
304.741	330.31
304.971	325.31
305.201	321.31
305.431	317.31
305.661	323.31
305.891	325.31
306.121	324.31
306.352	323.31
306.582	327.31
306.812	339.31
307.042	338.31
307.272	316.31
307.502	350.31
307.731	344.31
307.961	332.31
308.191	343.31
308.421	327.31
308.651	339.31
308.881	354.31
309.111	340.31
309.341	315.31
309.571	352.31
309.8	359.31
310.03	346.31
310.26	382.31
310.49	365.31
310.72	363.31
310.949	374.31
311.179	394.31
311.409	377.31
311.639	390.31
311.868	358.31
312.098	370.31
312.328	398.31
312.557	394.31
312.787	411.31
313.017	384.31
313.246	378.31
313.476	365.31
313.706	388.31
313.935	386.31
314.165	398.31
314.394	416.31
314.624	382.31
314.853	374.31
315.083	361.31
315.312	379.31
315.542	382.31
315.771	332.31
316.001	362.31
316.23	373.31
316.46	364.31
316.689	363.31
316.919	353.31
317.148	391.31
317.377	392.31
317.607	383.31
317.836	380.31
318.065	372.31
318.295	366.31
318.524	366.31
318.753	374.31
318.983	386.31
319.212	379.31
319.441	389.31
319.67	382.31
319.9	360.31
320.129	362.31
320.358	379.31
320.587	372.31
320.816	386.31
321.046	398.31
321.275	398.31
321.504	397.31
321.733	390.31
321.962	405.31
322.191	420.31
322.42	425.31
322.649	440.31
322.878	441.31
323.108	450.31
323.337	466.31
323.566	502.31
323.795	501.31
324.024	561.31
324.253	655.31
324.482	926.31
324.71	1481.31
324.939	2279.31
325.168	2016.31
325.397	981.31
325.626	624.31
325.855	550.31
326.084	501.31
326.313	486.31
326.542	516.31
326.77	546.31
326.999	608.31
327.228	880.31
327.457	1370.31
327.686	1726.31
327.914	1089.31
328.143	688.31
328.372	603.31
328.6	562.31
328.829	558.31
329.058	566.31
329.287	584.31
329.515	540.31
329.744	488.31
329.972	488.31
330.201	540.31
330.43	550.31
330.658	568.31
330.887	586.31
331.115	589.31
331.344	512.31
331.572	509.31
331.801	478.31
332.03	491.31
332.258	457.31
332.486	455.31
332.715	452.31
332.943	456.31
333.172	447.31
333.4	449.31
333.629	471.31
333.857	488.31
334.085	498.31
334.314	489.31
334.542	518.31
334.771	549.31
334.999	470.31
335.227	484.31
335.455	464.31
335.684	442.31
335.912	456.31
336.14	434.31
336.369	444.31
336.597	451.31
336.825	452.31
337.053	456.31
337.281	419.31
337.51	446.31
337.738	435.31
337.966	446.31
338.194	439.31
338.422	462.31
338.65	455.31
338.878	442.31
339.106	423.31
339.334	424.31
339.562	429.31
339.79	436.31
340.018	417.31
340.246	446.31
340.474	452.31
340.702	439.31
340.93	430.31
341.158	424.31
341.386	434.31
341.614	429.31
341.842	415.31
342.07	414.31
342.298	425.31
342.526	437.31
342.754	413.31
342.981	417.31
343.209	415.31
343.437	423.31
343.665	430.31
343.893	432.31
344.12	440.31
344.348	430.31
344.576	459.31
344.804	472.31
345.031	458.31
345.259	447.31
345.487	422.31
345.714	436.31
345.942	422.31
346.17	434.31
346.397	415.31
346.625	404.31
346.853	424.31
347.08	425.31
347.308	424.31
347.535	411.31
347.763	440.31
347.99	434.31
348.218	433.31
348.445	450.31
348.673	424.31
348.9	442.31
349.128	419.31
349.355	412.31
349.583	394.31
349.81	414.31
350.037	413.31
350.265	435.31
350.492	409.31
350.72	397.31
350.947	403.31
351.174	440.31
351.402	432.31
351.629	448.31
351.856	440.31
352.083	434.31
352.311	438.31
352.538	433.31
352.765	435.31
352.992	448.31
353.22	435.31
353.447	418.31
353.674	436.31
353.901	414.31
354.128	427.31
354.355	401.31
354.583	399.31
354.81	401.31
355.037	394.31
355.264	388.31
355.491	390.31
355.718	385.31
355.945	394.31
356.172	406.31
356.399	409.31
356.626	405.31
356.853	404.31
357.08	407.31
357.307	400.31
357.534	411.31
357.761	375.31
357.988	412.31
358.215	384.31
358.441	402.31
358.668	432.31
358.895	411.31
359.122	386.31
359.349	429.31
359.576	404.31
359.802	427.31
360.029	477.31
360.256	456.31
360.483	445.31
360.709	440.31
360.936	438.31
361.163	427.31
361.39	427.31
361.616	423.31
361.843	428.31
362.07	421.31
362.296	418.31
362.523	430.31
362.749	433.31
362.976	418.31
363.203	429.31
363.429	404.31
363.656	418.31
363.882	440.31
364.109	420.31
364.335	401.31
364.562	402.31
364.788	415.31
365.015	419.31
365.241	416.31
365.468	408.31
365.694	409.31
365.92	430.31
366.147	421.31
366.373	400.31
366.599	434.31
366.826	406.31
367.052	431.31
367.278	403.31
367.505	429.31
367.731	419.31
367.957	427.31
368.184	420.31
368.41	426.31
368.636	436.31
368.862	444.31
369.089	424.31
369.315	409.31
369.541	422.31
369.767	425.31
369.993	416.31
370.219	427.31
370.445	429.31
370.672	423.31
370.898	421.31
371.124	409.31
371.35	411.31
371.576	426.31
371.802	411.31
372.028	430.31
372.254	412.31
372.48	418.31
372.706	410.31
372.932	406.31
373.158	399.31
373.384	418.31
373.61	432.31
373.835	435.31
374.061	417.31
374.287	420.31
374.513	462.31
374.739	421.31
374.965	422.31
375.191	432.31
375.416	440.31
375.642	413.31
375.868	412.31
376.094	439.31
376.319	444.31
376.545	424.31
376.771	398.31
376.997	404.31
377.222	414.31
377.448	422.31
377.674	436.31
377.899	406.31
378.125	419.31
378.35	390.31
378.576	418.31
378.802	417.31
379.027	414.31
379.253	430.31
379.478	406.31
379.704	424.31
379.929	414.31
380.155	414.31
380.38	412.31
380.606	427.31
380.831	432.31
381.057	428.31
381.282	416.31
381.507	424.31
381.733	439.31
381.958	446.31
382.184	429.31
382.409	448.31
382.634	436.31
382.86	417.31
383.085	452.31
383.31	442.31
383.535	439.31
383.761	445.31
383.986	452.31
384.211	454.31
384.436	441.31
384.662	469.31
384.887	462.31
385.112	447.31
385.337	456.31
385.562	460.31
385.787	481.31
386.013	467.31
386.238	462.31
386.463	478.31
386.688	480.31
386.913	436.31
387.138	480.31
387.363	457.31
387.588	466.31
387.813	472.31
388.038	461.31
388.263	493.31
388.488	472.31
388.713	447.31
388.938	463.31
389.163	476.31
389.387	464.31
389.612	472.31
389.837	471.31
390.062	468.31
390.287	469.31
390.512	459.31
390.736	468.31
390.961	461.31
391.186	465.31
391.411	452.31
391.636	478.31
391.86	483.31
392.085	496.31
392.31	485.31
392.534	474.31
392.759	465.31
392.984	488.31
393.208	467.31
393.433	492.31
393.658	465.31
393.882	478.31
394.107	489.31
394.331	516.31
394.556	514.31
394.78	486.31
395.005	509.31
395.229	494.31
395.454	458.31
395.678	487.31
395.903	493.31
396.127	539.31
396.352	534.31
396.576	513.31
396.801	491.31
397.025	516.31
397.249	503.31
397.474	506.31
397.698	508.31
397.922	545.31
398.147	523.31
398.371	532.31
398.595	521.31
398.82	545.31
399.044	549.31
399.268	578.31
399.492	602.31
399.717	649.31
399.941	680.31
400.165	676.31
400.389	675.31
400.613	621.31
400.837	596.31
401.062	567.31
401.286	560.31
401.51	560.31
401.734	529.31
401.958	576.31
402.182	557.31
402.406	581.31
402.63	570.31
402.854	584.31
403.078	568.31
403.302	562.31
403.526	579.31
403.75	562.31
403.974	562.31
404.198	569.31
404.422	561.31
404.645	597.31
404.869	583.31
405.093	595.31
405.317	664.31
405.541	707.31
405.765	614.31
405.988	600.31
406.212	609.31
406.436	626.31
406.66	627.31
406.883	608.31
407.107	646.31
407.331	688.31
407.555	768.31
407.778	756.31
408.002	680.31
408.226	658.31
408.449	630.31
408.673	639.31
408.896	673.31
409.12	706.31
409.344	664.31
409.567	620.31
409.791	612.31
410.014	579.31
410.238	581.31
410.461	569.31
410.685	572.31
410.908	588.31
411.132	638.31
411.355	666.31
411.578	634.31
411.802	577.31
412.025	586.31
412.249	586.31
412.472	608.31
412.695	629.31
412.919	634.31
413.142	593.31
413.365	566.31
413.589	567.31
413.812	534.31
414.035	533.31
414.258	574.31
414.482	566.31
414.705	557.31
414.928	548.31
415.151	539.31
415.374	534.31
415.597	534.31
415.821	523.31
416.044	539.31
416.267	536.31
416.49	535.31
416.713	526.31
416.936	530.31
417.159	530.31
417.382	531.31
417.605	553.31
417.828	550.31
418.051	572.31
418.274	538.31
418.497	512.31
418.72	564.31
418.943	538.31
419.166	555.31
419.389	609.31
419.611	584.31
419.834	586.31
420.057	581.31
420.28	556.31
420.503	551.31
420.726	538.31
420.948	569.31
421.171	609.31
421.394	629.31
421.617	584.31
421.839	578.31
422.062	588.31
422.285	580.31
422.507	658.31
422.73	723.31
422.953	692.31
423.175	630.31
423.398	594.31
423.621	599.31
423.843	609.31
424.066	598.31
424.288	594.31
424.511	603.31
424.733	677.31
424.956	767.31
425.178	734.31
425.401	714.31
425.623	738.31
425.846	646.31
426.068	640.31
426.291	603.31
426.513	621.31
426.735	595.31
426.958	614.31
427.18	743.31
427.402	867.31
427.625	997.31
427.847	836.31
428.069	717.31
428.292	644.31
428.514	578.31
428.736	580.31
428.958	565.31
429.181	575.31
429.403	550.31
429.625	580.31
429.847	597.31
430.069	661.31
430.292	664.31
430.514	588.31
430.736	553.31
430.958	566.31
431.18	549.31
431.402	552.31
431.624	515.31
431.846	507.31
432.068	546.31
432.29	505.31
432.512	537.31
432.734	544.31
432.956	520.31
433.178	555.31
433.4	554.31
433.622	511.31
433.844	543.31
434.066	541.31
434.287	526.31
434.509	534.31
434.731	553.31
434.953	546.31
435.175	592.31
435.397	605.31
435.618	596.31
435.84	659.31
436.062	753.31
436.284	805.31
436.505	670.31
436.727	620.31
436.949	562.31
437.17	579.31
437.392	564.31
437.614	565.31
437.835	604.31
438.057	702.31
438.278	831.31
438.5	813.31
438.721	889.31
438.943	845.31
439.165	666.31
439.386	618.31
439.608	616.31
439.829	598.31
440.05	618.31
440.272	714.31
440.493	657.31
440.715	585.31
440.936	566.31
441.158	593.31
441.379	541.31
441.6	565.31
441.822	585.31
442.043	636.31
442.264	751.31
442.486	792.31
442.707	669.31
442.928	602.31
443.149	618.31
443.371	674.31
443.592	701.31
443.813	805.31
444.034	880.31
444.255	712.31
444.476	616.31
444.698	618.31
444.919	635.31
445.14	744.31
445.361	686.31
445.582	653.31
445.803	749.31
446.024	842.31
446.245	845.31
446.466	794.31
446.687	644.31
446.908	595.31
447.129	569.31
447.35	569.31
447.571	553.31
447.792	547.31
448.013	571.31
448.234	574.31
448.455	629.31
448.675	746.31
448.896	898.31
449.117	746.31
449.338	669.31
449.559	818.31
449.779	950.31
450	720.31
450.221	584.31
450.442	550.31
450.662	546.31
450.883	538.31
451.104	555.31
451.324	558.31
451.545	542.31
451.766	522.31
451.986	513.31
452.207	508.31
452.428	486.31
452.648	477.31
452.869	490.31
453.089	497.31
453.31	502.31
453.53	492.31
453.751	484.31
453.971	492.31
454.192	520.31
454.412	532.31
454.633	497.31
454.853	490.31
455.073	491.31
455.294	509.31
455.514	574.31
455.734	569.31
455.955	497.31
456.175	469.31
456.395	474.31
456.616	466.31
456.836	471.31
457.056	485.31
457.276	455.31
457.497	480.31
457.717	483.31
457.937	500.31
458.157	479.31
458.377	486.31
458.598	518.31
458.818	571.31
459.038	662.31
459.258	649.31
459.478	588.31
459.698	540.31
459.918	557.31
460.138	551.31
460.358	522.31
460.578	562.31
460.798	562.31
461.018	546.31
461.238	542.31
461.458	554.31
461.678	522.31
461.898	557.31
462.118	553.31
462.338	556.31
462.558	576.31
462.777	571.31
462.997	594.31
463.217	598.31
463.437	613.31
463.657	611.31
463.876	584.31
464.096	597.31
464.316	569.31
464.536	612.31
464.755	595.31
464.975	581.31
465.195	612.31
465.414	690.31
465.634	616.31
465.854	605.31
466.073	546.31
466.293	548.31
466.512	541.31
466.732	549.31
466.951	527.31
467.171	518.31
467.391	534.31
467.61	501.31
467.829	538.31
468.049	506.31
468.268	497.31
468.488	524.31
468.707	517.31
468.927	521.31
469.146	492.31
469.365	509.31
469.585	483.31
469.804	507.31
470.023	522.31
470.243	514.31
470.462	508.31
470.681	536.31
470.901	524.31
471.12	514.31
471.339	537.31
471.558	523.31
471.777	524.31
471.997	514.31
472.216	542.31
472.435	549.31
472.654	556.31
472.873	537.31
473.092	528.31
473.311	555.31
473.53	527.31
473.749	537.31
473.968	561.31
474.187	658.31
474.406	708.31
474.625	577.31
474.844	542.31
475.063	517.31
475.282	523.31
475.501	526.31
475.72	528.31
475.939	540.31
476.158	547.31
476.377	553.31
476.596	545.31
476.814	550.31
477.033	564.31
477.252	564.31
477.471	568.31
477.69	561.31
477.908	566.31
478.127	547.31
478.346	564.31
478.564	587.31
478.783	578.31
479.002	590.31
479.22	600.31
479.439	614.31
479.658	629.31
479.876	640.31
480.095	650.31
480.313	660.31
480.532	657.31
480.751	642.31
480.969	666.31
481.188	713.31
481.406	715.31
481.624	664.31
481.843	634.31
482.061	648.31
482.28	614.31
482.498	592.31
482.717	608.31
482.935	641.31
483.153	618.31
483.372	613.31
483.59	614.31
483.808	605.31
484.027	597.31
484.245	628.31
484.463	624.31
484.681	621.31
484.9	638.31
485.118	615.31
485.336	634.31
485.554	642.31
485.772	651.31
485.99	661.31
486.209	622.31
486.427	648.31
486.645	650.31
486.863	652.31
487.081	673.31
487.299	654.31
487.517	660.31
487.735	658.31
487.953	647.31
488.171	652.31
488.389	658.31
488.607	658.31
488.825	678.31
489.043	667.31
489.261	666.31
489.479	672.31
489.696	679.31
489.914	681.31
490.132	685.31
490.35	688.31
490.568	686.31
490.786	700.31
491.003	678.31
491.221	706.31
491.439	719.31
491.657	728.31
491.874	711.31
492.092	724.31
492.31	734.31
492.527	732.31
492.745	747.31
492.963	757.31
493.18	730.31
493.398	736.31
493.615	741.31
493.833	716.31
494.05	753.31
494.268	740.31
494.485	755.31
494.703	729.31
494.92	736.31
495.138	745.31
495.355	736.31
495.573	756.31
495.79	770.31
496.008	781.31
496.225	776.31
496.442	778.31
496.66	790.31
496.877	759.31
497.094	769.31
497.312	805.31
497.529	787.31
497.746	817.31
497.963	821.31
498.181	867.31
498.398	850.31
498.615	881.31
498.832	918.31
499.049	916.31
499.267	937.31
499.484	969.31
499.701	993.31
499.918	1007.31
500.135	1084.31
500.352	1103.31
500.569	1101.31
500.786	1156.31
501.003	1103.31
501.22	1118.31
501.437	1058.31
501.654	1012.31
501.871	1009.31
