Data from 1978.PennyLincolnUp.Lamp.En5.5.200Scan.071719.P1_HRD10591_16-13-42-863.txt Node
Date: Thu Jul 18 16:13:42 EDT 2019
User: cochatt
Spectrometer: HR+D1059
Trigger mode: 1
Integration Time (sec): 1.000000E-1
Scans to average: 1
Electric dark correction enabled: true
Nonlinearity correction enabled: false
Boxcar width: 0
XAxis mode: Wavelengths
Number of Pixels in Spectrum: 2048
>>>>>Begin Spectral Data<<<<<
223.165	-11.06
223.4	-11.06
223.635	-11.06
223.869	-12.06
224.104	-18.06
224.338	-23.06
224.573	-18.06
224.808	-19.06
225.042	-3.06
225.277	-7.06
225.511	-6.06
225.746	11.94
225.98	2.94
226.215	10.94
226.449	14.94
226.683	17.94
226.918	29.94
227.152	28.94
227.387	24.94
227.621	48.94
227.856	44.94
228.09	48.94
228.324	52.94
228.559	37.94
228.793	70.94
229.027	95.94
229.262	94.94
229.496	107.94
229.73	136.94
229.964	151.94
230.199	134.94
230.433	127.94
230.667	115.94
230.901	109.94
231.136	94.94
231.37	104.94
231.604	94.94
231.838	99.94
232.072	110.94
232.306	109.94
232.541	112.94
232.775	121.94
233.009	104.94
233.243	110.94
233.477	115.94
233.711	106.94
233.945	117.94
234.179	96.94
234.413	103.94
234.647	108.94
234.881	120.94
235.115	100.94
235.349	95.94
235.583	127.94
235.817	119.94
236.051	119.94
236.285	129.94
236.519	125.94
236.753	114.94
236.987	119.94
237.221	167.94
237.455	217.94
237.689	181.94
237.922	132.94
238.156	120.94
238.39	129.94
238.624	116.94
238.858	130.94
239.091	119.94
239.325	110.94
239.559	118.94
239.793	121.94
240.027	118.94
240.26	131.94
240.494	154.94
240.728	139.94
240.961	136.94
241.195	128.94
241.429	130.94
241.662	143.94
241.896	120.94
242.13	126.94
242.363	124.94
242.597	128.94
242.83	119.94
243.064	130.94
243.298	136.94
243.531	122.94
243.765	134.94
243.998	119.94
244.232	129.94
244.465	137.94
244.699	147.94
244.932	131.94
245.166	125.94
245.399	142.94
245.633	144.94
245.866	141.94
246.099	128.94
246.333	146.94
246.566	142.94
246.8	130.94
247.033	138.94
247.266	148.94
247.5	148.94
247.733	148.94
247.966	160.94
248.2	142.94
248.433	159.94
248.666	157.94
248.899	164.94
249.133	190.94
249.366	190.94
249.599	189.94
249.832	159.94
250.066	173.94
250.299	165.94
250.532	169.94
250.765	181.94
250.998	195.94
251.231	201.94
251.465	191.94
251.698	186.94
251.931	183.94
252.164	184.94
252.397	188.94
252.63	191.94
252.863	189.94
253.096	195.94
253.329	212.94
253.562	215.94
253.795	200.94
254.028	197.94
254.261	205.94
254.494	205.94
254.727	239.94
254.96	245.94
255.193	246.94
255.426	221.94
255.659	214.94
255.892	222.94
256.124	211.94
256.357	210.94
256.59	212.94
256.823	200.94
257.056	196.94
257.289	189.94
257.521	195.94
257.754	201.94
257.987	190.94
258.22	199.94
258.452	206.94
258.685	200.94
258.918	191.94
259.151	189.94
259.383	200.94
259.616	185.94
259.849	213.94
260.081	213.94
260.314	241.94
260.547	243.94
260.779	229.94
261.012	201.94
261.244	201.94
261.477	224.94
261.71	221.94
261.942	210.94
262.175	218.94
262.407	202.94
262.64	197.94
262.872	209.94
263.105	196.94
263.337	201.94
263.57	190.94
263.802	194.94
264.035	220.94
264.267	205.94
264.499	197.94
264.732	201.94
264.964	200.94
265.197	212.94
265.429	203.94
265.661	210.94
265.894	223.94
266.126	205.94
266.358	192.94
266.591	213.94
266.823	192.94
267.055	226.94
267.287	205.94
267.52	212.94
267.752	221.94
267.984	215.94
268.216	233.94
268.448	214.94
268.681	233.94
268.913	238.94
269.145	236.94
269.377	265.94
269.609	256.94
269.841	255.94
270.073	258.94
270.306	252.94
270.538	303.94
270.77	288.94
271.002	274.94
271.234	258.94
271.466	267.94
271.698	272.94
271.93	287.94
272.162	292.94
272.394	290.94
272.626	278.94
272.858	262.94
273.09	257.94
273.322	256.94
273.553	253.94
273.785	255.94
274.017	240.94
274.249	249.94
274.481	249.94
274.713	230.94
274.945	274.94
275.176	254.94
275.408	243.94
275.64	255.94
275.872	241.94
276.104	253.94
276.335	244.94
276.567	233.94
276.799	248.94
277.031	288.94
277.262	302.94
277.494	317.94
277.726	286.94
277.957	265.94
278.189	268.94
278.421	256.94
278.652	243.94
278.884	257.94
279.115	276.94
279.347	260.94
279.579	252.94
279.81	246.94
280.042	276.94
280.273	263.94
280.505	249.94
280.736	241.94
280.968	257.94
281.199	241.94
281.431	237.94
281.662	258.94
281.894	248.94
282.125	256.94
282.356	283.94
282.588	304.94
282.819	305.94
283.051	267.94
283.282	271.94
283.513	274.94
283.745	264.94
283.976	273.94
284.207	277.94
284.439	281.94
284.67	258.94
284.901	278.94
285.132	273.94
285.364	266.94
285.595	270.94
285.826	266.94
286.057	268.94
286.288	260.94
286.52	275.94
286.751	279.94
286.982	277.94
287.213	255.94
287.444	262.94
287.675	286.94
287.906	274.94
288.138	280.94
288.369	293.94
288.6	274.94
288.831	264.94
289.062	302.94
289.293	279.94
289.524	287.94
289.755	276.94
289.986	274.94
290.217	272.94
290.448	287.94
290.679	280.94
290.91	289.94
291.141	285.94
291.371	286.94
291.602	287.94
291.833	276.94
292.064	268.94
292.295	272.94
292.526	273.94
292.757	286.94
292.987	264.94
293.218	278.94
293.449	284.94
293.68	297.94
293.91	284.94
294.141	278.94
294.372	272.94
294.603	271.94
294.833	281.94
295.064	292.94
295.295	282.94
295.525	286.94
295.756	273.94
295.987	295.94
296.217	323.94
296.448	333.94
296.679	293.94
296.909	275.94
297.14	276.94
297.37	305.94
297.601	296.94
297.831	301.94
298.062	300.94
298.292	291.94
298.523	305.94
298.753	302.94
298.984	304.94
299.214	312.94
299.445	293.94
299.675	304.94
299.905	301.94
300.136	302.94
300.366	290.94
300.597	304.94
300.827	319.94
301.057	322.94
301.288	318.94
301.518	295.94
301.748	305.94
301.979	295.94
302.209	316.94
302.439	315.94
302.669	324.94
302.9	311.94
303.13	307.94
303.36	310.94
303.59	316.94
303.82	324.94
304.051	312.94
304.281	321.94
304.511	322.94
304.741	324.94
304.971	313.94
305.201	326.94
305.431	315.94
305.661	302.94
305.891	294.94
306.121	322.94
306.352	334.94
306.582	328.94
306.812	321.94
307.042	326.94
307.272	321.94
307.502	335.94
307.731	324.94
307.961	323.94
308.191	330.94
308.421	334.94
308.651	320.94
308.881	322.94
309.111	335.94
309.341	302.94
309.571	348.94
309.8	350.94
310.03	357.94
310.26	348.94
310.49	368.94
310.72	350.94
310.949	368.94
311.179	393.94
311.409	383.94
311.639	368.94
311.868	372.94
312.098	388.94
312.328	354.94
312.557	386.94
312.787	389.94
313.017	392.94
313.246	368.94
313.476	379.94
313.706	371.94
313.935	364.94
314.165	385.94
314.394	412.94
314.624	365.94
314.853	388.94
315.083	380.94
315.312	367.94
315.542	366.94
315.771	359.94
316.001	372.94
316.23	350.94
316.46	361.94
316.689	361.94
316.919	374.94
317.148	386.94
317.377	377.94
317.607	386.94
317.836	359.94
318.065	361.94
318.295	364.94
318.524	366.94
318.753	368.94
318.983	364.94
319.212	374.94
319.441	364.94
319.67	390.94
319.9	366.94
320.129	362.94
320.358	376.94
320.587	367.94
320.816	385.94
321.046	391.94
321.275	382.94
321.504	390.94
321.733	379.94
321.962	384.94
322.191	409.94
322.42	428.94
322.649	441.94
322.878	446.94
323.108	423.94
323.337	458.94
323.566	478.94
323.795	514.94
324.024	556.94
324.253	658.94
324.482	954.94
324.71	1532.94
324.939	2335.94
325.168	2070.94
325.397	948.94
325.626	675.94
325.855	546.94
326.084	490.94
326.313	494.94
326.542	510.94
326.77	547.94
326.999	630.94
327.228	890.94
327.457	1421.94
327.686	1724.94
327.914	1122.94
328.143	715.94
328.372	574.94
328.6	573.94
328.829	530.94
329.058	549.94
329.287	547.94
329.515	532.94
329.744	488.94
329.972	497.94
330.201	496.94
330.43	560.94
330.658	561.94
330.887	583.94
331.115	597.94
331.344	510.94
331.572	462.94
331.801	487.94
332.03	494.94
332.258	482.94
332.486	462.94
332.715	456.94
332.943	428.94
333.172	478.94
333.4	459.94
333.629	474.94
333.857	472.94
334.085	484.94
334.314	504.94
334.542	526.94
334.771	537.94
334.999	496.94
335.227	472.94
335.455	454.94
335.684	453.94
335.912	456.94
336.14	454.94
336.369	431.94
336.597	471.94
336.825	440.94
337.053	456.94
337.281	431.94
337.51	440.94
337.738	429.94
337.966	411.94
338.194	438.94
338.422	438.94
338.65	427.94
338.878	432.94
339.106	450.94
339.334	420.94
339.562	428.94
339.79	432.94
340.018	424.94
340.246	434.94
340.474	442.94
340.702	456.94
340.93	427.94
341.158	430.94
341.386	417.94
341.614	427.94
341.842	436.94
342.07	416.94
342.298	417.94
342.526	439.94
342.754	413.94
342.981	408.94
343.209	446.94
343.437	429.94
343.665	417.94
343.893	445.94
344.12	449.94
344.348	439.94
344.576	450.94
344.804	446.94
345.031	445.94
345.259	451.94
345.487	428.94
345.714	428.94
345.942	405.94
346.17	417.94
346.397	438.94
346.625	424.94
346.853	426.94
347.08	427.94
347.308	420.94
347.535	416.94
347.763	432.94
347.99	440.94
348.218	436.94
348.445	432.94
348.673	424.94
348.9	420.94
349.128	408.94
349.355	408.94
349.583	409.94
349.81	409.94
350.037	381.94
350.265	408.94
350.492	418.94
350.72	398.94
350.947	430.94
351.174	419.94
351.402	415.94
351.629	416.94
351.856	431.94
352.083	433.94
352.311	446.94
352.538	440.94
352.765	439.94
352.992	417.94
353.22	409.94
353.447	418.94
353.674	411.94
353.901	414.94
354.128	399.94
354.355	382.94
354.583	388.94
354.81	401.94
355.037	395.94
355.264	403.94
355.491	382.94
355.718	391.94
355.945	396.94
356.172	404.94
356.399	378.94
356.626	396.94
356.853	361.94
357.08	374.94
357.307	400.94
357.534	394.94
357.761	400.94
357.988	417.94
358.215	378.94
358.441	389.94
358.668	401.94
358.895	402.94
359.122	408.94
359.349	426.94
359.576	418.94
359.802	449.94
360.029	473.94
360.256	459.94
360.483	459.94
360.709	429.94
360.936	396.94
361.163	408.94
361.39	414.94
361.616	430.94
361.843	429.94
362.07	420.94
362.296	413.94
362.523	437.94
362.749	428.94
362.976	423.94
363.203	419.94
363.429	396.94
363.656	433.94
363.882	412.94
364.109	391.94
364.335	409.94
364.562	402.94
364.788	407.94
365.015	405.94
365.241	421.94
365.468	430.94
365.694	413.94
365.92	436.94
366.147	416.94
366.373	409.94
366.599	395.94
366.826	396.94
367.052	402.94
367.278	405.94
367.505	425.94
367.731	418.94
367.957	404.94
368.184	396.94
368.41	412.94
368.636	426.94
368.862	431.94
369.089	430.94
369.315	406.94
369.541	414.94
369.767	404.94
369.993	411.94
370.219	415.94
370.445	397.94
370.672	385.94
370.898	396.94
371.124	425.94
371.35	405.94
371.576	414.94
371.802	411.94
372.028	405.94
372.254	412.94
372.48	427.94
372.706	400.94
372.932	404.94
373.158	436.94
373.384	408.94
373.61	409.94
373.835	400.94
374.061	423.94
374.287	414.94
374.513	428.94
374.739	409.94
374.965	430.94
375.191	409.94
375.416	422.94
375.642	424.94
375.868	415.94
376.094	424.94
376.319	431.94
376.545	409.94
376.771	416.94
376.997	406.94
377.222	425.94
377.448	415.94
377.674	418.94
377.899	399.94
378.125	408.94
378.35	416.94
378.576	396.94
378.802	407.94
379.027	412.94
379.253	392.94
379.478	406.94
379.704	413.94
379.929	398.94
380.155	417.94
380.38	414.94
380.606	425.94
380.831	400.94
381.057	420.94
381.282	428.94
381.507	417.94
381.733	413.94
381.958	418.94
382.184	428.94
382.409	399.94
382.634	395.94
382.86	423.94
383.085	414.94
383.31	435.94
383.535	436.94
383.761	448.94
383.986	426.94
384.211	421.94
384.436	445.94
384.662	445.94
384.887	425.94
385.112	428.94
385.337	451.94
385.562	480.94
385.787	438.94
386.013	468.94
386.238	436.94
386.463	457.94
386.688	477.94
386.913	450.94
387.138	479.94
387.363	442.94
387.588	460.94
387.813	456.94
388.038	451.94
388.263	459.94
388.488	471.94
388.713	468.94
388.938	467.94
389.163	462.94
389.387	463.94
389.612	461.94
389.837	465.94
390.062	467.94
390.287	454.94
390.512	467.94
390.736	458.94
390.961	470.94
391.186	461.94
391.411	458.94
391.636	488.94
391.86	479.94
392.085	469.94
392.31	505.94
392.534	485.94
392.759	502.94
392.984	481.94
393.208	471.94
393.433	477.94
393.658	465.94
393.882	476.94
394.107	466.94
394.331	495.94
394.556	461.94
394.78	484.94
395.005	471.94
395.229	474.94
395.454	481.94
395.678	471.94
395.903	499.94
396.127	510.94
396.352	538.94
396.576	490.94
396.801	494.94
397.025	465.94
397.249	492.94
397.474	496.94
397.698	507.94
397.922	542.94
398.147	532.94
398.371	516.94
398.595	542.94
398.82	520.94
399.044	547.94
399.268	586.94
399.492	624.94
399.717	600.94
399.941	651.94
400.165	672.94
400.389	686.94
400.613	615.94
400.837	595.94
401.062	546.94
401.286	551.94
401.51	544.94
401.734	518.94
401.958	552.94
402.182	553.94
402.406	536.94
402.63	563.94
402.854	539.94
403.078	581.94
403.302	548.94
403.526	531.94
403.75	554.94
403.974	551.94
404.198	553.94
404.422	578.94
404.645	574.94
404.869	586.94
405.093	629.94
405.317	662.94
405.541	702.94
405.765	625.94
405.988	601.94
406.212	577.94
406.436	609.94
406.66	611.94
406.883	604.94
407.107	624.94
407.331	687.94
407.555	744.94
407.778	754.94
408.002	694.94
408.226	657.94
408.449	624.94
408.673	599.94
408.896	636.94
409.12	681.94
409.344	660.94
409.567	588.94
409.791	568.94
410.014	556.94
410.238	594.94
410.461	575.94
410.685	576.94
410.908	593.94
411.132	632.94
411.355	661.94
411.578	630.94
411.802	600.94
412.025	573.94
412.249	599.94
412.472	593.94
412.695	638.94
412.919	633.94
413.142	599.94
413.365	579.94
413.589	564.94
413.812	528.94
414.035	543.94
414.258	541.94
414.482	521.94
414.705	547.94
414.928	544.94
415.151	541.94
415.374	538.94
415.597	526.94
415.821	525.94
416.044	539.94
416.267	548.94
416.49	520.94
416.713	538.94
416.936	519.94
417.159	552.94
417.382	551.94
417.605	552.94
417.828	530.94
418.051	560.94
418.274	553.94
418.497	512.94
418.72	521.94
418.943	512.94
419.166	564.94
419.389	577.94
419.611	558.94
419.834	569.94
420.057	569.94
420.28	579.94
420.503	552.94
420.726	532.94
420.948	566.94
421.171	609.94
421.394	654.94
421.617	582.94
421.839	542.94
422.062	562.94
422.285	550.94
422.507	638.94
422.73	727.94
422.953	672.94
423.175	612.94
423.398	575.94
423.621	594.94
423.843	599.94
424.066	586.94
424.288	599.94
424.511	620.94
424.733	674.94
424.956	771.94
425.178	724.94
425.401	705.94
425.623	738.94
425.846	624.94
426.068	604.94
426.291	580.94
426.513	592.94
426.735	604.94
426.958	637.94
427.18	713.94
427.402	844.94
427.625	988.94
427.847	838.94
428.069	723.94
428.292	644.94
428.514	579.94
428.736	563.94
428.958	572.94
429.181	567.94
429.403	551.94
429.625	556.94
429.847	608.94
430.069	680.94
430.292	668.94
430.514	574.94
430.736	544.94
430.958	548.94
431.18	544.94
431.402	538.94
431.624	537.94
431.846	527.94
432.068	498.94
432.29	536.94
432.512	519.94
432.734	540.94
432.956	512.94
433.178	552.94
433.4	548.94
433.622	513.94
433.844	540.94
434.066	532.94
434.287	511.94
434.509	543.94
434.731	539.94
434.953	548.94
435.175	565.94
435.397	599.94
435.618	593.94
435.84	628.94
436.062	752.94
436.284	841.94
436.505	714.94
436.727	608.94
436.949	593.94
437.17	564.94
437.392	552.94
437.614	582.94
437.835	595.94
438.057	709.94
438.278	802.94
438.5	824.94
438.721	912.94
438.943	882.94
439.165	688.94
439.386	615.94
439.608	589.94
439.829	628.94
440.05	640.94
440.272	680.94
440.493	644.94
440.715	584.94
440.936	559.94
441.158	549.94
441.379	586.94
441.6	576.94
441.822	585.94
442.043	640.94
442.264	764.94
442.486	780.94
442.707	650.94
442.928	617.94
443.149	627.94
443.371	652.94
443.592	698.94
443.813	809.94
444.034	869.94
444.255	718.94
444.476	629.94
444.698	593.94
444.919	600.94
445.14	663.94
445.361	654.94
445.582	654.94
445.803	698.94
446.024	840.94
446.245	847.94
446.466	762.94
446.687	669.94
446.908	605.94
447.129	574.94
447.35	561.94
447.571	548.94
447.792	558.94
448.013	556.94
448.234	560.94
448.455	609.94
448.675	754.94
448.896	886.94
449.117	754.94
449.338	673.94
449.559	831.94
449.779	956.94
450	744.94
450.221	608.94
450.442	574.94
450.662	576.94
450.883	550.94
451.104	559.94
451.324	540.94
451.545	527.94
451.766	508.94
451.986	497.94
452.207	470.94
452.428	497.94
452.648	496.94
452.869	497.94
453.089	487.94
453.31	521.94
453.53	489.94
453.751	508.94
453.971	520.94
454.192	516.94
454.412	499.94
454.633	495.94
454.853	480.94
455.073	502.94
455.294	526.94
455.514	596.94
455.734	560.94
455.955	489.94
456.175	482.94
456.395	473.94
456.616	460.94
456.836	495.94
457.056	470.94
457.276	456.94
457.497	466.94
457.717	470.94
457.937	471.94
458.157	480.94
458.377	499.94
458.598	494.94
458.818	576.94
459.038	640.94
459.258	672.94
459.478	596.94
459.698	535.94
459.918	526.94
460.138	541.94
460.358	535.94
460.578	528.94
460.798	549.94
461.018	519.94
461.238	547.94
461.458	549.94
461.678	549.94
461.898	570.94
462.118	537.94
462.338	575.94
462.558	562.94
462.777	572.94
462.997	612.94
463.217	598.94
463.437	585.94
463.657	594.94
463.876	574.94
464.096	596.94
464.316	572.94
464.536	579.94
464.755	589.94
464.975	578.94
465.195	616.94
465.414	673.94
465.634	613.94
465.854	555.94
466.073	553.94
466.293	541.94
466.512	509.94
466.732	520.94
466.951	526.94
467.171	502.94
467.391	504.94
467.61	547.94
467.829	538.94
468.049	498.94
468.268	538.94
468.488	512.94
468.707	517.94
468.927	489.94
469.146	492.94
469.365	482.94
469.585	494.94
469.804	487.94
470.023	513.94
470.243	522.94
470.462	499.94
470.681	536.94
470.901	535.94
471.12	531.94
471.339	503.94
471.558	527.94
471.777	533.94
471.997	514.94
472.216	523.94
472.435	550.94
472.654	551.94
472.873	504.94
473.092	529.94
473.311	515.94
473.53	517.94
473.749	520.94
473.968	569.94
474.187	656.94
474.406	715.94
474.625	563.94
474.844	526.94
475.063	526.94
475.282	529.94
475.501	568.94
475.72	533.94
475.939	542.94
476.158	511.94
476.377	547.94
476.596	548.94
476.814	540.94
477.033	536.94
477.252	544.94
477.471	562.94
477.69	556.94
477.908	554.94
478.127	573.94
478.346	564.94
478.564	598.94
478.783	592.94
479.002	587.94
479.22	598.94
479.439	609.94
479.658	613.94
479.876	651.94
480.095	620.94
480.313	658.94
480.532	669.94
480.751	629.94
480.969	645.94
481.188	680.94
481.406	702.94
481.624	628.94
481.843	648.94
482.061	641.94
482.28	616.94
482.498	612.94
482.717	616.94
482.935	613.94
483.153	601.94
483.372	609.94
483.59	624.94
483.808	632.94
484.027	602.94
484.245	621.94
484.463	616.94
484.681	618.94
484.9	623.94
485.118	604.94
485.336	636.94
485.554	632.94
485.772	617.94
485.99	638.94
486.209	634.94
486.427	668.94
486.645	632.94
486.863	688.94
487.081	635.94
487.299	652.94
487.517	629.94
487.735	662.94
487.953	662.94
488.171	652.94
488.389	628.94
488.607	657.94
488.825	670.94
489.043	657.94
489.261	654.94
489.479	652.94
489.696	642.94
489.914	632.94
490.132	680.94
490.35	665.94
490.568	671.94
490.786	677.94
491.003	691.94
491.221	681.94
491.439	705.94
491.657	716.94
491.874	705.94
492.092	745.94
492.31	728.94
492.527	705.94
492.745	734.94
492.963	751.94
493.18	748.94
493.398	736.94
493.615	739.94
493.833	745.94
494.05	723.94
494.268	733.94
494.485	752.94
494.703	745.94
494.92	742.94
495.138	741.94
495.355	767.94
495.573	752.94
495.79	755.94
496.008	780.94
496.225	773.94
496.442	759.94
496.66	776.94
496.877	754.94
497.094	783.94
497.312	781.94
497.529	794.94
497.746	805.94
497.963	822.94
498.181	853.94
498.398	872.94
498.615	862.94
498.832	882.94
499.049	892.94
499.267	902.94
499.484	975.94
499.701	1011.94
499.918	1004.94
500.135	1046.94
500.352	1090.94
500.569	1082.94
500.786	1105.94
501.003	1090.94
501.22	1073.94
501.437	1026.94
501.654	1000.94
501.871	995.94
