Data from 1978.PennyLincolnUp.Lamp.En5.5.200Scan.071719.P1_HRD10591_16-14-14-863.txt Node
Date: Thu Jul 18 16:14:14 EDT 2019
User: cochatt
Spectrometer: HR+D1059
Trigger mode: 1
Integration Time (sec): 1.000000E-1
Scans to average: 1
Electric dark correction enabled: true
Nonlinearity correction enabled: false
Boxcar width: 0
XAxis mode: Wavelengths
Number of Pixels in Spectrum: 2048
>>>>>Begin Spectral Data<<<<<
223.165	-3.38
223.4	-3.38
223.635	-3.38
223.869	-17.38
224.104	-11.38
224.338	-5.38
224.573	-31.38
224.808	-15.38
225.042	-16.38
225.277	2.62
225.511	-3.38
225.746	-5.38
225.98	5.62
226.215	5.62
226.449	28.62
226.683	13.62
226.918	22.62
227.152	30.62
227.387	37.62
227.621	37.62
227.856	42.62
228.09	44.62
228.324	49.62
228.559	50.62
228.793	83.62
229.027	100.62
229.262	115.62
229.496	122.62
229.73	130.62
229.964	141.62
230.199	126.62
230.433	116.62
230.667	111.62
230.901	108.62
231.136	107.62
231.37	102.62
231.604	103.62
231.838	105.62
232.072	112.62
232.306	105.62
232.541	116.62
232.775	118.62
233.009	103.62
233.243	116.62
233.477	132.62
233.711	123.62
233.945	111.62
234.179	122.62
234.413	127.62
234.647	110.62
234.881	106.62
235.115	130.62
235.349	118.62
235.583	119.62
235.817	120.62
236.051	129.62
236.285	138.62
236.519	133.62
236.753	118.62
236.987	158.62
237.221	185.62
237.455	240.62
237.689	190.62
237.922	135.62
238.156	124.62
238.39	124.62
238.624	129.62
238.858	133.62
239.091	133.62
239.325	115.62
239.559	120.62
239.793	120.62
240.027	151.62
240.26	152.62
240.494	154.62
240.728	161.62
240.961	160.62
241.195	158.62
241.429	123.62
241.662	131.62
241.896	145.62
242.13	129.62
242.363	126.62
242.597	133.62
242.83	145.62
243.064	127.62
243.298	156.62
243.531	144.62
243.765	134.62
243.998	141.62
244.232	155.62
244.465	140.62
244.699	136.62
244.932	146.62
245.166	140.62
245.399	168.62
245.633	150.62
245.866	142.62
246.099	149.62
246.333	145.62
246.566	140.62
246.8	155.62
247.033	167.62
247.266	152.62
247.5	163.62
247.733	158.62
247.966	172.62
248.2	168.62
248.433	169.62
248.666	165.62
248.899	177.62
249.133	187.62
249.366	206.62
249.599	207.62
249.832	180.62
250.066	163.62
250.299	172.62
250.532	190.62
250.765	183.62
250.998	206.62
251.231	218.62
251.465	203.62
251.698	207.62
251.931	189.62
252.164	197.62
252.397	196.62
252.63	188.62
252.863	205.62
253.096	202.62
253.329	209.62
253.562	211.62
253.795	198.62
254.028	193.62
254.261	203.62
254.494	217.62
254.727	244.62
254.96	253.62
255.193	248.62
255.426	237.62
255.659	211.62
255.892	234.62
256.124	235.62
256.357	219.62
256.59	201.62
256.823	218.62
257.056	207.62
257.289	219.62
257.521	211.62
257.754	208.62
257.987	196.62
258.22	189.62
258.452	192.62
258.685	210.62
258.918	214.62
259.151	205.62
259.383	214.62
259.616	212.62
259.849	232.62
260.081	222.62
260.314	242.62
260.547	241.62
260.779	227.62
261.012	231.62
261.244	212.62
261.477	231.62
261.71	223.62
261.942	212.62
262.175	226.62
262.407	233.62
262.64	208.62
262.872	199.62
263.105	222.62
263.337	220.62
263.57	191.62
263.802	203.62
264.035	210.62
264.267	196.62
264.499	215.62
264.732	210.62
264.964	217.62
265.197	209.62
265.429	213.62
265.661	231.62
265.894	227.62
266.126	223.62
266.358	203.62
266.591	222.62
266.823	219.62
267.055	233.62
267.287	238.62
267.52	224.62
267.752	215.62
267.984	227.62
268.216	226.62
268.448	240.62
268.681	218.62
268.913	250.62
269.145	262.62
269.377	262.62
269.609	257.62
269.841	280.62
270.073	275.62
270.306	276.62
270.538	280.62
270.77	300.62
271.002	285.62
271.234	278.62
271.466	283.62
271.698	300.62
271.93	303.62
272.162	302.62
272.394	312.62
272.626	306.62
272.858	276.62
273.09	271.62
273.322	267.62
273.553	281.62
273.785	259.62
274.017	261.62
274.249	266.62
274.481	265.62
274.713	259.62
274.945	272.62
275.176	269.62
275.408	263.62
275.64	259.62
275.872	263.62
276.104	262.62
276.335	282.62
276.567	262.62
276.799	264.62
277.031	314.62
277.262	310.62
277.494	315.62
277.726	287.62
277.957	278.62
278.189	261.62
278.421	248.62
278.652	260.62
278.884	262.62
279.115	270.62
279.347	252.62
279.579	258.62
279.81	239.62
280.042	250.62
280.273	254.62
280.505	268.62
280.736	274.62
280.968	275.62
281.199	263.62
281.431	258.62
281.662	264.62
281.894	259.62
282.125	274.62
282.356	266.62
282.588	293.62
282.819	302.62
283.051	271.62
283.282	254.62
283.513	285.62
283.745	275.62
283.976	279.62
284.207	291.62
284.439	280.62
284.67	280.62
284.901	259.62
285.132	284.62
285.364	283.62
285.595	282.62
285.826	268.62
286.057	283.62
286.288	281.62
286.52	285.62
286.751	304.62
286.982	285.62
287.213	280.62
287.444	293.62
287.675	304.62
287.906	301.62
288.138	301.62
288.369	313.62
288.6	290.62
288.831	272.62
289.062	307.62
289.293	295.62
289.524	308.62
289.755	312.62
289.986	284.62
290.217	276.62
290.448	293.62
290.679	287.62
290.91	294.62
291.141	286.62
291.371	295.62
291.602	287.62
291.833	282.62
292.064	304.62
292.295	291.62
292.526	298.62
292.757	288.62
292.987	292.62
293.218	290.62
293.449	300.62
293.68	300.62
293.91	295.62
294.141	297.62
294.372	286.62
294.603	275.62
294.833	304.62
295.064	283.62
295.295	290.62
295.525	288.62
295.756	304.62
295.987	310.62
296.217	312.62
296.448	331.62
296.679	310.62
296.909	294.62
297.14	296.62
297.37	303.62
297.601	301.62
297.831	307.62
298.062	306.62
298.292	316.62
298.523	316.62
298.753	296.62
298.984	301.62
299.214	307.62
299.445	319.62
299.675	314.62
299.905	334.62
300.136	321.62
300.366	320.62
300.597	318.62
300.827	310.62
301.057	336.62
301.288	339.62
301.518	340.62
301.748	328.62
301.979	324.62
302.209	333.62
302.439	328.62
302.669	328.62
302.9	319.62
303.13	328.62
303.36	326.62
303.59	333.62
303.82	339.62
304.051	345.62
304.281	328.62
304.511	331.62
304.741	341.62
304.971	332.62
305.201	356.62
305.431	334.62
305.661	340.62
305.891	342.62
306.121	347.62
306.352	337.62
306.582	345.62
306.812	325.62
307.042	333.62
307.272	342.62
307.502	355.62
307.731	340.62
307.961	349.62
308.191	339.62
308.421	332.62
308.651	341.62
308.881	338.62
309.111	346.62
309.341	350.62
309.571	360.62
309.8	343.62
310.03	370.62
310.26	370.62
310.49	391.62
310.72	380.62
310.949	376.62
311.179	374.62
311.409	389.62
311.639	363.62
311.868	378.62
312.098	390.62
312.328	372.62
312.557	405.62
312.787	419.62
313.017	401.62
313.246	393.62
313.476	369.62
313.706	390.62
313.935	396.62
314.165	387.62
314.394	396.62
314.624	421.62
314.853	394.62
315.083	371.62
315.312	379.62
315.542	387.62
315.771	374.62
316.001	378.62
316.23	373.62
316.46	379.62
316.689	394.62
316.919	387.62
317.148	390.62
317.377	395.62
317.607	381.62
317.836	379.62
318.065	374.62
318.295	380.62
318.524	392.62
318.753	392.62
318.983	392.62
319.212	374.62
319.441	388.62
319.67	392.62
319.9	401.62
320.129	354.62
320.358	390.62
320.587	378.62
320.816	389.62
321.046	399.62
321.275	422.62
321.504	404.62
321.733	420.62
321.962	423.62
322.191	409.62
322.42	432.62
322.649	425.62
322.878	428.62
323.108	450.62
323.337	478.62
323.566	476.62
323.795	528.62
324.024	605.62
324.253	669.62
324.482	1024.62
324.71	1583.62
324.939	2421.62
325.168	2102.62
325.397	987.62
325.626	694.62
325.855	572.62
326.084	525.62
326.313	502.62
326.542	500.62
326.77	556.62
326.999	656.62
327.228	883.62
327.457	1421.62
327.686	1811.62
327.914	1173.62
328.143	728.62
328.372	623.62
328.6	598.62
328.829	557.62
329.058	592.62
329.287	585.62
329.515	526.62
329.744	491.62
329.972	491.62
330.201	525.62
330.43	564.62
330.658	566.62
330.887	600.62
331.115	621.62
331.344	527.62
331.572	504.62
331.801	511.62
332.03	499.62
332.258	474.62
332.486	453.62
332.715	461.62
332.943	462.62
333.172	463.62
333.4	473.62
333.629	483.62
333.857	492.62
334.085	496.62
334.314	506.62
334.542	550.62
334.771	546.62
334.999	522.62
335.227	484.62
335.455	485.62
335.684	483.62
335.912	476.62
336.14	466.62
336.369	478.62
336.597	488.62
336.825	489.62
337.053	470.62
337.281	457.62
337.51	459.62
337.738	460.62
337.966	461.62
338.194	452.62
338.422	438.62
338.65	444.62
338.878	458.62
339.106	431.62
339.334	462.62
339.562	437.62
339.79	432.62
340.018	440.62
340.246	450.62
340.474	443.62
340.702	443.62
340.93	419.62
341.158	447.62
341.386	458.62
341.614	456.62
341.842	447.62
342.07	451.62
342.298	448.62
342.526	415.62
342.754	437.62
342.981	425.62
343.209	414.62
343.437	425.62
343.665	429.62
343.893	461.62
344.12	455.62
344.348	461.62
344.576	459.62
344.804	473.62
345.031	462.62
345.259	489.62
345.487	468.62
345.714	463.62
345.942	438.62
346.17	436.62
346.397	434.62
346.625	417.62
346.853	424.62
347.08	439.62
347.308	429.62
347.535	450.62
347.763	459.62
347.99	455.62
348.218	460.62
348.445	441.62
348.673	450.62
348.9	464.62
349.128	439.62
349.355	405.62
349.583	422.62
349.81	413.62
350.037	417.62
350.265	409.62
350.492	399.62
350.72	407.62
350.947	414.62
351.174	428.62
351.402	456.62
351.629	410.62
351.856	451.62
352.083	446.62
352.311	462.62
352.538	444.62
352.765	464.62
352.992	450.62
353.22	435.62
353.447	414.62
353.674	446.62
353.901	434.62
354.128	395.62
354.355	386.62
354.583	404.62
354.81	411.62
355.037	410.62
355.264	407.62
355.491	421.62
355.718	426.62
355.945	412.62
356.172	413.62
356.399	393.62
356.626	410.62
356.853	404.62
357.08	407.62
357.307	408.62
357.534	397.62
357.761	403.62
357.988	406.62
358.215	417.62
358.441	417.62
358.668	410.62
358.895	406.62
359.122	428.62
359.349	410.62
359.576	430.62
359.802	463.62
360.029	486.62
360.256	486.62
360.483	464.62
360.709	459.62
360.936	446.62
361.163	424.62
361.39	450.62
361.616	462.62
361.843	427.62
362.07	459.62
362.296	450.62
362.523	450.62
362.749	436.62
362.976	439.62
363.203	432.62
363.429	401.62
363.656	421.62
363.882	410.62
364.109	424.62
364.335	422.62
364.562	444.62
364.788	438.62
365.015	413.62
365.241	446.62
365.468	413.62
365.694	430.62
365.92	424.62
366.147	411.62
366.373	418.62
366.599	418.62
366.826	411.62
367.052	401.62
367.278	422.62
367.505	419.62
367.731	418.62
367.957	428.62
368.184	419.62
368.41	431.62
368.636	430.62
368.862	435.62
369.089	446.62
369.315	434.62
369.541	459.62
369.767	424.62
369.993	416.62
370.219	430.62
370.445	436.62
370.672	424.62
370.898	398.62
371.124	434.62
371.35	429.62
371.576	431.62
371.802	424.62
372.028	418.62
372.254	427.62
372.48	424.62
372.706	422.62
372.932	420.62
373.158	426.62
373.384	433.62
373.61	429.62
373.835	434.62
374.061	417.62
374.287	436.62
374.513	425.62
374.739	438.62
374.965	460.62
375.191	448.62
375.416	441.62
375.642	437.62
375.868	454.62
376.094	449.62
376.319	408.62
376.545	421.62
376.771	428.62
376.997	434.62
377.222	422.62
377.448	421.62
377.674	421.62
377.899	440.62
378.125	428.62
378.35	406.62
378.576	423.62
378.802	418.62
379.027	431.62
379.253	451.62
379.478	426.62
379.704	422.62
379.929	426.62
380.155	413.62
380.38	414.62
380.606	437.62
380.831	441.62
381.057	439.62
381.282	438.62
381.507	450.62
381.733	456.62
381.958	432.62
382.184	447.62
382.409	452.62
382.634	429.62
382.86	453.62
383.085	443.62
383.31	455.62
383.535	431.62
383.761	442.62
383.986	454.62
384.211	456.62
384.436	474.62
384.662	458.62
384.887	470.62
385.112	469.62
385.337	464.62
385.562	461.62
385.787	483.62
386.013	475.62
386.238	475.62
386.463	484.62
386.688	482.62
386.913	460.62
387.138	462.62
387.363	494.62
387.588	469.62
387.813	468.62
388.038	487.62
388.263	475.62
388.488	483.62
388.713	465.62
388.938	496.62
389.163	492.62
389.387	469.62
389.612	491.62
389.837	479.62
390.062	473.62
390.287	488.62
390.512	492.62
390.736	478.62
390.961	493.62
391.186	467.62
391.411	478.62
391.636	478.62
391.86	495.62
392.085	503.62
392.31	512.62
392.534	500.62
392.759	481.62
392.984	482.62
393.208	477.62
393.433	498.62
393.658	471.62
393.882	505.62
394.107	511.62
394.331	494.62
394.556	508.62
394.78	478.62
395.005	486.62
395.229	486.62
395.454	505.62
395.678	495.62
395.903	530.62
396.127	528.62
396.352	534.62
396.576	520.62
396.801	510.62
397.025	495.62
397.249	487.62
397.474	512.62
397.698	518.62
397.922	537.62
398.147	544.62
398.371	551.62
398.595	584.62
398.82	548.62
399.044	551.62
399.268	577.62
399.492	597.62
399.717	644.62
399.941	670.62
400.165	666.62
400.389	703.62
400.613	638.62
400.837	611.62
401.062	570.62
401.286	562.62
401.51	553.62
401.734	572.62
401.958	548.62
402.182	562.62
402.406	564.62
402.63	575.62
402.854	557.62
403.078	568.62
403.302	594.62
403.526	578.62
403.75	572.62
403.974	598.62
404.198	599.62
404.422	567.62
404.645	597.62
404.869	610.62
405.093	634.62
405.317	661.62
405.541	723.62
405.765	655.62
405.988	608.62
406.212	624.62
406.436	617.62
406.66	662.62
406.883	622.62
407.107	646.62
407.331	706.62
407.555	779.62
407.778	803.62
408.002	718.62
408.226	638.62
408.449	642.62
408.673	648.62
408.896	687.62
409.12	724.62
409.344	674.62
409.567	635.62
409.791	597.62
410.014	584.62
410.238	583.62
410.461	589.62
410.685	588.62
410.908	595.62
411.132	639.62
411.355	711.62
411.578	666.62
411.802	590.62
412.025	589.62
412.249	616.62
412.472	633.62
412.695	674.62
412.919	640.62
413.142	612.62
413.365	566.62
413.589	562.62
413.812	563.62
414.035	552.62
414.258	570.62
414.482	570.62
414.705	556.62
414.928	528.62
415.151	541.62
415.374	539.62
415.597	554.62
415.821	539.62
416.044	525.62
416.267	530.62
416.49	551.62
416.713	543.62
416.936	555.62
417.159	550.62
417.382	558.62
417.605	555.62
417.828	575.62
418.051	575.62
418.274	567.62
418.497	572.62
418.72	555.62
418.943	563.62
419.166	568.62
419.389	583.62
419.611	597.62
419.834	570.62
420.057	582.62
420.28	580.62
420.503	562.62
420.726	576.62
420.948	583.62
421.171	625.62
421.394	672.62
421.617	616.62
421.839	550.62
422.062	581.62
422.285	582.62
422.507	649.62
422.73	747.62
422.953	690.62
423.175	618.62
423.398	596.62
423.621	607.62
423.843	626.62
424.066	618.62
424.288	586.62
424.511	632.62
424.733	692.62
424.956	802.62
425.178	750.62
425.401	731.62
425.623	798.62
425.846	655.62
426.068	612.62
426.291	621.62
426.513	595.62
426.735	614.62
426.958	669.62
427.18	772.62
427.402	906.62
427.625	1032.62
427.847	854.62
428.069	737.62
428.292	666.62
428.514	596.62
428.736	624.62
428.958	605.62
429.181	568.62
429.403	576.62
429.625	574.62
429.847	606.62
430.069	675.62
430.292	670.62
430.514	577.62
430.736	562.62
430.958	566.62
431.18	554.62
431.402	558.62
431.624	535.62
431.846	516.62
432.068	553.62
432.29	544.62
432.512	543.62
432.734	545.62
432.956	580.62
433.178	561.62
433.4	574.62
433.622	539.62
433.844	544.62
434.066	541.62
434.287	548.62
434.509	560.62
434.731	554.62
434.953	584.62
435.175	573.62
435.397	605.62
435.618	603.62
435.84	683.62
436.062	789.62
436.284	846.62
436.505	672.62
436.727	620.62
436.949	586.62
437.17	573.62
437.392	589.62
437.614	579.62
437.835	612.62
438.057	704.62
438.278	850.62
438.5	806.62
438.721	911.62
438.943	888.62
439.165	697.62
439.386	640.62
439.608	597.62
439.829	635.62
440.05	658.62
440.272	692.62
440.493	656.62
440.715	612.62
440.936	578.62
441.158	582.62
441.379	572.62
441.6	582.62
441.822	608.62
442.043	663.62
442.264	758.62
442.486	820.62
442.707	666.62
442.928	623.62
443.149	643.62
443.371	642.62
443.592	707.62
443.813	835.62
444.034	887.62
444.255	720.62
444.476	628.62
444.698	638.62
444.919	621.62
445.14	741.62
445.361	687.62
445.582	679.62
445.803	720.62
446.024	862.62
446.245	863.62
446.466	805.62
446.687	656.62
446.908	626.62
447.129	586.62
447.35	586.62
447.571	569.62
447.792	555.62
448.013	566.62
448.234	600.62
448.455	621.62
448.675	791.62
448.896	900.62
449.117	756.62
449.338	684.62
449.559	839.62
449.779	962.62
450	760.62
450.221	622.62
450.442	584.62
450.662	532.62
450.883	555.62
451.104	585.62
451.324	543.62
451.545	548.62
451.766	540.62
451.986	510.62
452.207	504.62
452.428	524.62
452.648	491.62
452.869	495.62
453.089	530.62
453.31	535.62
453.53	508.62
453.751	495.62
453.971	514.62
454.192	549.62
454.412	503.62
454.633	498.62
454.853	505.62
455.073	515.62
455.294	532.62
455.514	612.62
455.734	590.62
455.955	492.62
456.175	488.62
456.395	491.62
456.616	495.62
456.836	488.62
457.056	473.62
457.276	467.62
457.497	493.62
457.717	479.62
457.937	486.62
458.157	497.62
458.377	490.62
458.598	539.62
458.818	575.62
459.038	666.62
459.258	678.62
459.478	597.62
459.698	544.62
459.918	550.62
460.138	546.62
460.358	573.62
460.578	560.62
460.798	562.62
461.018	555.62
461.238	546.62
461.458	553.62
461.678	545.62
461.898	577.62
462.118	560.62
462.338	571.62
462.558	568.62
462.777	563.62
462.997	605.62
463.217	584.62
463.437	622.62
463.657	605.62
463.876	589.62
464.096	602.62
464.316	598.62
464.536	630.62
464.755	598.62
464.975	598.62
465.195	612.62
465.414	681.62
465.634	620.62
465.854	574.62
466.073	564.62
466.293	551.62
466.512	534.62
466.732	535.62
466.951	526.62
467.171	524.62
467.391	532.62
467.61	531.62
467.829	541.62
468.049	546.62
468.268	544.62
468.488	526.62
468.707	524.62
468.927	503.62
469.146	516.62
469.365	514.62
469.585	521.62
469.804	529.62
470.023	560.62
470.243	527.62
470.462	534.62
470.681	546.62
470.901	557.62
471.12	533.62
471.339	539.62
471.558	534.62
471.777	537.62
471.997	542.62
472.216	524.62
472.435	554.62
472.654	568.62
472.873	518.62
473.092	544.62
473.311	527.62
473.53	534.62
473.749	532.62
473.968	581.62
474.187	706.62
474.406	678.62
474.625	592.62
474.844	564.62
475.063	544.62
475.282	568.62
475.501	520.62
475.72	550.62
475.939	541.62
476.158	562.62
476.377	566.62
476.596	557.62
476.814	570.62
477.033	588.62
477.252	565.62
477.471	572.62
477.69	575.62
477.908	592.62
478.127	563.62
478.346	577.62
478.564	611.62
478.783	591.62
479.002	607.62
479.22	631.62
479.439	615.62
479.658	632.62
479.876	617.62
480.095	655.62
480.313	685.62
480.532	665.62
480.751	655.62
480.969	677.62
481.188	720.62
481.406	740.62
481.624	666.62
481.843	658.62
482.061	638.62
482.28	640.62
482.498	642.62
482.717	648.62
482.935	618.62
483.153	607.62
483.372	609.62
483.59	626.62
483.808	618.62
484.027	626.62
484.245	630.62
484.463	636.62
484.681	648.62
484.9	628.62
485.118	626.62
485.336	619.62
485.554	646.62
485.772	630.62
485.99	644.62
486.209	657.62
486.427	657.62
486.645	656.62
486.863	680.62
487.081	694.62
487.299	647.62
487.517	687.62
487.735	650.62
487.953	648.62
488.171	667.62
488.389	640.62
488.607	669.62
488.825	646.62
489.043	656.62
489.261	676.62
489.479	664.62
489.696	634.62
489.914	682.62
490.132	679.62
490.35	707.62
490.568	687.62
490.786	716.62
491.003	708.62
491.221	718.62
491.439	736.62
491.657	739.62
491.874	739.62
492.092	732.62
492.31	755.62
492.527	762.62
492.745	761.62
492.963	748.62
493.18	770.62
493.398	768.62
493.615	756.62
493.833	780.62
494.05	772.62
494.268	747.62
494.485	757.62
494.703	788.62
494.92	783.62
495.138	746.62
495.355	774.62
495.573	791.62
495.79	763.62
496.008	805.62
496.225	788.62
496.442	790.62
496.66	778.62
496.877	799.62
497.094	784.62
497.312	804.62
497.529	793.62
497.746	826.62
497.963	863.62
498.181	893.62
498.398	878.62
498.615	887.62
498.832	926.62
499.049	916.62
499.267	947.62
499.484	950.62
499.701	987.62
499.918	1034.62
500.135	1100.62
500.352	1138.62
500.569	1148.62
500.786	1142.62
501.003	1115.62
501.22	1104.62
501.437	1067.62
501.654	1014.62
501.871	1024.62
