Data from 1978.PennyLincolnUp.Lamp.En5.5.200Scan.071719.P1_HRD10591_16-11-53-866.txt Node
Date: Thu Jul 18 16:11:53 EDT 2019
User: cochatt
Spectrometer: HR+D1059
Trigger mode: 1
Integration Time (sec): 1.000000E-1
Scans to average: 1
Electric dark correction enabled: true
Nonlinearity correction enabled: false
Boxcar width: 0
XAxis mode: Wavelengths
Number of Pixels in Spectrum: 2048
>>>>>Begin Spectral Data<<<<<
223.165	-4.81
223.4	-4.81
223.635	-4.81
223.869	-26.81
224.104	-10.81
224.338	-17.81
224.573	-26.81
224.808	-19.81
225.042	-5.81
225.277	7.19
225.511	-6.81
225.746	10.19
225.98	3.19
226.215	9.19
226.449	10.19
226.683	36.19
226.918	23.19
227.152	20.19
227.387	35.19
227.621	39.19
227.856	41.19
228.09	62.19
228.324	51.19
228.559	69.19
228.793	65.19
229.027	108.19
229.262	89.19
229.496	106.19
229.73	118.19
229.964	121.19
230.199	108.19
230.433	93.19
230.667	85.19
230.901	116.19
231.136	104.19
231.37	106.19
231.604	107.19
231.838	102.19
232.072	115.19
232.306	109.19
232.541	104.19
232.775	107.19
233.009	107.19
233.243	107.19
233.477	126.19
233.711	118.19
233.945	122.19
234.179	106.19
234.413	112.19
234.647	121.19
234.881	112.19
235.115	102.19
235.349	113.19
235.583	118.19
235.817	107.19
236.051	116.19
236.285	115.19
236.519	114.19
236.753	118.19
236.987	129.19
237.221	164.19
237.455	186.19
237.689	157.19
237.922	116.19
238.156	136.19
238.39	125.19
238.624	94.19
238.858	121.19
239.091	109.19
239.325	125.19
239.559	118.19
239.793	120.19
240.027	123.19
240.26	121.19
240.494	124.19
240.728	128.19
240.961	126.19
241.195	144.19
241.429	103.19
241.662	124.19
241.896	130.19
242.13	129.19
242.363	126.19
242.597	129.19
242.83	140.19
243.064	119.19
243.298	132.19
243.531	122.19
243.765	115.19
243.998	128.19
244.232	138.19
244.465	132.19
244.699	131.19
244.932	131.19
245.166	144.19
245.399	143.19
245.633	139.19
245.866	132.19
246.099	138.19
246.333	140.19
246.566	128.19
246.8	119.19
247.033	130.19
247.266	156.19
247.5	146.19
247.733	162.19
247.966	149.19
248.2	146.19
248.433	142.19
248.666	163.19
248.899	179.19
249.133	171.19
249.366	168.19
249.599	149.19
249.832	146.19
250.066	174.19
250.299	162.19
250.532	155.19
250.765	156.19
250.998	179.19
251.231	186.19
251.465	182.19
251.698	166.19
251.931	163.19
252.164	165.19
252.397	173.19
252.63	159.19
252.863	166.19
253.096	173.19
253.329	182.19
253.562	190.19
253.795	198.19
254.028	168.19
254.261	178.19
254.494	182.19
254.727	186.19
254.96	211.19
255.193	214.19
255.426	189.19
255.659	179.19
255.892	184.19
256.124	173.19
256.357	201.19
256.59	173.19
256.823	196.19
257.056	195.19
257.289	183.19
257.521	179.19
257.754	187.19
257.987	178.19
258.22	188.19
258.452	181.19
258.685	177.19
258.918	192.19
259.151	193.19
259.383	173.19
259.616	202.19
259.849	184.19
260.081	201.19
260.314	200.19
260.547	205.19
260.779	190.19
261.012	189.19
261.244	174.19
261.477	191.19
261.71	182.19
261.942	176.19
262.175	197.19
262.407	180.19
262.64	189.19
262.872	177.19
263.105	188.19
263.337	190.19
263.57	190.19
263.802	182.19
264.035	183.19
264.267	180.19
264.499	189.19
264.732	198.19
264.964	186.19
265.197	189.19
265.429	189.19
265.661	194.19
265.894	183.19
266.126	183.19
266.358	200.19
266.591	177.19
266.823	192.19
267.055	222.19
267.287	200.19
267.52	201.19
267.752	190.19
267.984	187.19
268.216	211.19
268.448	182.19
268.681	205.19
268.913	203.19
269.145	221.19
269.377	218.19
269.609	230.19
269.841	221.19
270.073	227.19
270.306	220.19
270.538	236.19
270.77	246.19
271.002	244.19
271.234	245.19
271.466	245.19
271.698	256.19
271.93	245.19
272.162	247.19
272.394	254.19
272.626	252.19
272.858	246.19
273.09	246.19
273.322	225.19
273.553	233.19
273.785	225.19
274.017	235.19
274.249	223.19
274.481	232.19
274.713	236.19
274.945	225.19
275.176	213.19
275.408	234.19
275.64	213.19
275.872	230.19
276.104	242.19
276.335	234.19
276.567	240.19
276.799	245.19
277.031	256.19
277.262	249.19
277.494	259.19
277.726	256.19
277.957	238.19
278.189	233.19
278.421	226.19
278.652	233.19
278.884	237.19
279.115	236.19
279.347	241.19
279.579	228.19
279.81	261.19
280.042	256.19
280.273	228.19
280.505	249.19
280.736	243.19
280.968	242.19
281.199	236.19
281.431	250.19
281.662	246.19
281.894	235.19
282.125	247.19
282.356	259.19
282.588	264.19
282.819	258.19
283.051	251.19
283.282	252.19
283.513	253.19
283.745	257.19
283.976	243.19
284.207	253.19
284.439	246.19
284.67	259.19
284.901	262.19
285.132	258.19
285.364	251.19
285.595	245.19
285.826	246.19
286.057	235.19
286.288	243.19
286.52	264.19
286.751	249.19
286.982	262.19
287.213	260.19
287.444	261.19
287.675	244.19
287.906	268.19
288.138	282.19
288.369	252.19
288.6	264.19
288.831	265.19
289.062	256.19
289.293	257.19
289.524	266.19
289.755	278.19
289.986	244.19
290.217	269.19
290.448	264.19
290.679	269.19
290.91	267.19
291.141	252.19
291.371	265.19
291.602	242.19
291.833	250.19
292.064	273.19
292.295	265.19
292.526	275.19
292.757	253.19
292.987	274.19
293.218	259.19
293.449	270.19
293.68	284.19
293.91	253.19
294.141	278.19
294.372	269.19
294.603	269.19
294.833	271.19
295.064	276.19
295.295	277.19
295.525	263.19
295.756	272.19
295.987	262.19
296.217	288.19
296.448	293.19
296.679	278.19
296.909	285.19
297.14	284.19
297.37	275.19
297.601	274.19
297.831	265.19
298.062	273.19
298.292	286.19
298.523	283.19
298.753	288.19
298.984	267.19
299.214	269.19
299.445	293.19
299.675	269.19
299.905	267.19
300.136	281.19
300.366	277.19
300.597	266.19
300.827	264.19
301.057	295.19
301.288	301.19
301.518	276.19
301.748	280.19
301.979	279.19
302.209	311.19
302.439	299.19
302.669	301.19
302.9	302.19
303.13	287.19
303.36	293.19
303.59	282.19
303.82	306.19
304.051	323.19
304.281	293.19
304.511	299.19
304.741	301.19
304.971	291.19
305.201	277.19
305.431	285.19
305.661	296.19
305.891	291.19
306.121	308.19
306.352	288.19
306.582	291.19
306.812	316.19
307.042	290.19
307.272	306.19
307.502	332.19
307.731	304.19
307.961	304.19
308.191	301.19
308.421	288.19
308.651	308.19
308.881	309.19
309.111	301.19
309.341	295.19
309.571	310.19
309.8	331.19
310.03	319.19
310.26	324.19
310.49	332.19
310.72	347.19
310.949	342.19
311.179	317.19
311.409	328.19
311.639	319.19
311.868	324.19
312.098	320.19
312.328	335.19
312.557	351.19
312.787	355.19
313.017	373.19
313.246	342.19
313.476	312.19
313.706	320.19
313.935	333.19
314.165	344.19
314.394	342.19
314.624	349.19
314.853	341.19
315.083	334.19
315.312	335.19
315.542	330.19
315.771	327.19
316.001	335.19
316.23	330.19
316.46	326.19
316.689	343.19
316.919	347.19
317.148	347.19
317.377	332.19
317.607	344.19
317.836	354.19
318.065	340.19
318.295	338.19
318.524	337.19
318.753	327.19
318.983	336.19
319.212	349.19
319.441	326.19
319.67	337.19
319.9	331.19
320.129	338.19
320.358	356.19
320.587	350.19
320.816	331.19
321.046	356.19
321.275	366.19
321.504	330.19
321.733	354.19
321.962	342.19
322.191	369.19
322.42	356.19
322.649	368.19
322.878	357.19
323.108	388.19
323.337	410.19
323.566	409.19
323.795	424.19
324.024	449.19
324.253	515.19
324.482	688.19
324.71	1082.19
324.939	1607.19
325.168	1355.19
325.397	673.19
325.626	494.19
325.855	453.19
326.084	425.19
326.313	418.19
326.542	442.19
326.77	449.19
326.999	511.19
327.228	672.19
327.457	970.19
327.686	1189.19
327.914	813.19
328.143	553.19
328.372	481.19
328.6	459.19
328.829	431.19
329.058	458.19
329.287	416.19
329.515	423.19
329.744	422.19
329.972	392.19
330.201	422.19
330.43	445.19
330.658	453.19
330.887	477.19
331.115	460.19
331.344	422.19
331.572	411.19
331.801	403.19
332.03	420.19
332.258	401.19
332.486	405.19
332.715	400.19
332.943	409.19
333.172	397.19
333.4	409.19
333.629	418.19
333.857	423.19
334.085	454.19
334.314	449.19
334.542	440.19
334.771	472.19
334.999	433.19
335.227	444.19
335.455	406.19
335.684	403.19
335.912	421.19
336.14	396.19
336.369	413.19
336.597	408.19
336.825	420.19
337.053	404.19
337.281	393.19
337.51	411.19
337.738	406.19
337.966	396.19
338.194	415.19
338.422	378.19
338.65	399.19
338.878	418.19
339.106	407.19
339.334	401.19
339.562	393.19
339.79	386.19
340.018	394.19
340.246	389.19
340.474	388.19
340.702	391.19
340.93	385.19
341.158	392.19
341.386	402.19
341.614	387.19
341.842	389.19
342.07	386.19
342.298	384.19
342.526	377.19
342.754	379.19
342.981	388.19
343.209	382.19
343.437	391.19
343.665	404.19
343.893	398.19
344.12	417.19
344.348	423.19
344.576	403.19
344.804	400.19
345.031	407.19
345.259	409.19
345.487	399.19
345.714	393.19
345.942	388.19
346.17	387.19
346.397	386.19
346.625	387.19
346.853	399.19
347.08	361.19
347.308	376.19
347.535	398.19
347.763	379.19
347.99	372.19
348.218	381.19
348.445	396.19
348.673	378.19
348.9	361.19
349.128	375.19
349.355	374.19
349.583	377.19
349.81	382.19
350.037	380.19
350.265	377.19
350.492	374.19
350.72	378.19
350.947	379.19
351.174	373.19
351.402	399.19
351.629	373.19
351.856	358.19
352.083	402.19
352.311	379.19
352.538	377.19
352.765	378.19
352.992	395.19
353.22	376.19
353.447	391.19
353.674	381.19
353.901	364.19
354.128	370.19
354.355	384.19
354.583	384.19
354.81	376.19
355.037	378.19
355.264	372.19
355.491	394.19
355.718	362.19
355.945	347.19
356.172	377.19
356.399	377.19
356.626	349.19
356.853	356.19
357.08	368.19
357.307	344.19
357.534	352.19
357.761	375.19
357.988	382.19
358.215	375.19
358.441	380.19
358.668	381.19
358.895	361.19
359.122	380.19
359.349	402.19
359.576	388.19
359.802	386.19
360.029	399.19
360.256	399.19
360.483	391.19
360.709	393.19
360.936	381.19
361.163	380.19
361.39	380.19
361.616	376.19
361.843	404.19
362.07	384.19
362.296	380.19
362.523	374.19
362.749	389.19
362.976	375.19
363.203	377.19
363.429	357.19
363.656	374.19
363.882	364.19
364.109	384.19
364.335	368.19
364.562	360.19
364.788	359.19
365.015	392.19
365.241	364.19
365.468	368.19
365.694	387.19
365.92	385.19
366.147	383.19
366.373	378.19
366.599	402.19
366.826	382.19
367.052	381.19
367.278	381.19
367.505	371.19
367.731	405.19
367.957	380.19
368.184	382.19
368.41	377.19
368.636	377.19
368.862	390.19
369.089	387.19
369.315	393.19
369.541	378.19
369.767	392.19
369.993	401.19
370.219	370.19
370.445	388.19
370.672	385.19
370.898	398.19
371.124	369.19
371.35	380.19
371.576	383.19
371.802	376.19
372.028	385.19
372.254	394.19
372.48	394.19
372.706	391.19
372.932	392.19
373.158	406.19
373.384	400.19
373.61	396.19
373.835	381.19
374.061	414.19
374.287	401.19
374.513	399.19
374.739	399.19
374.965	412.19
375.191	413.19
375.416	397.19
375.642	385.19
375.868	392.19
376.094	382.19
376.319	398.19
376.545	394.19
376.771	389.19
376.997	380.19
377.222	382.19
377.448	379.19
377.674	385.19
377.899	387.19
378.125	388.19
378.35	379.19
378.576	386.19
378.802	386.19
379.027	392.19
379.253	396.19
379.478	368.19
379.704	375.19
379.929	386.19
380.155	395.19
380.38	391.19
380.606	393.19
380.831	395.19
381.057	423.19
381.282	403.19
381.507	390.19
381.733	417.19
381.958	410.19
382.184	394.19
382.409	419.19
382.634	426.19
382.86	418.19
383.085	412.19
383.31	410.19
383.535	405.19
383.761	403.19
383.986	405.19
384.211	435.19
384.436	420.19
384.662	420.19
384.887	415.19
385.112	405.19
385.337	423.19
385.562	424.19
385.787	437.19
386.013	417.19
386.238	428.19
386.463	450.19
386.688	441.19
386.913	449.19
387.138	452.19
387.363	445.19
387.588	433.19
387.813	467.19
388.038	449.19
388.263	436.19
388.488	435.19
388.713	458.19
388.938	440.19
389.163	442.19
389.387	443.19
389.612	438.19
389.837	455.19
390.062	443.19
390.287	421.19
390.512	416.19
390.736	434.19
390.961	437.19
391.186	462.19
391.411	454.19
391.636	445.19
391.86	449.19
392.085	463.19
392.31	467.19
392.534	447.19
392.759	453.19
392.984	448.19
393.208	458.19
393.433	471.19
393.658	461.19
393.882	438.19
394.107	457.19
394.331	443.19
394.556	445.19
394.78	458.19
395.005	452.19
395.229	473.19
395.454	465.19
395.678	466.19
395.903	472.19
396.127	491.19
396.352	509.19
396.576	478.19
396.801	454.19
397.025	468.19
397.249	489.19
397.474	470.19
397.698	480.19
397.922	485.19
398.147	500.19
398.371	504.19
398.595	481.19
398.82	505.19
399.044	517.19
399.268	527.19
399.492	550.19
399.717	594.19
399.941	604.19
400.165	606.19
400.389	634.19
400.613	548.19
400.837	520.19
401.062	533.19
401.286	520.19
401.51	512.19
401.734	500.19
401.958	530.19
402.182	545.19
402.406	531.19
402.63	524.19
402.854	553.19
403.078	525.19
403.302	513.19
403.526	516.19
403.75	531.19
403.974	544.19
404.198	523.19
404.422	531.19
404.645	525.19
404.869	534.19
405.093	557.19
405.317	592.19
405.541	637.19
405.765	568.19
405.988	536.19
406.212	557.19
406.436	557.19
406.66	574.19
406.883	551.19
407.107	593.19
407.331	637.19
407.555	684.19
407.778	663.19
408.002	628.19
408.226	622.19
408.449	607.19
408.673	569.19
408.896	604.19
409.12	640.19
409.344	605.19
409.567	554.19
409.791	567.19
410.014	512.19
410.238	522.19
410.461	520.19
410.685	552.19
410.908	553.19
411.132	570.19
411.355	606.19
411.578	598.19
411.802	561.19
412.025	527.19
412.249	524.19
412.472	550.19
412.695	567.19
412.919	572.19
413.142	538.19
413.365	521.19
413.589	528.19
413.812	514.19
414.035	500.19
414.258	525.19
414.482	525.19
414.705	526.19
414.928	501.19
415.151	498.19
415.374	474.19
415.597	493.19
415.821	503.19
416.044	500.19
416.267	492.19
416.49	520.19
416.713	488.19
416.936	494.19
417.159	529.19
417.382	498.19
417.605	486.19
417.828	492.19
418.051	522.19
418.274	499.19
418.497	494.19
418.72	489.19
418.943	485.19
419.166	526.19
419.389	522.19
419.611	549.19
419.834	505.19
420.057	519.19
420.28	523.19
420.503	514.19
420.726	522.19
420.948	520.19
421.171	546.19
421.394	570.19
421.617	521.19
421.839	515.19
422.062	497.19
422.285	512.19
422.507	574.19
422.73	621.19
422.953	626.19
423.175	552.19
423.398	542.19
423.621	508.19
423.843	534.19
424.066	541.19
424.288	523.19
424.511	537.19
424.733	592.19
424.956	659.19
425.178	636.19
425.401	636.19
425.623	660.19
425.846	579.19
426.068	542.19
426.291	550.19
426.513	517.19
426.735	545.19
426.958	586.19
427.18	650.19
427.402	752.19
427.625	826.19
427.847	708.19
428.069	624.19
428.292	569.19
428.514	541.19
428.736	532.19
428.958	512.19
429.181	502.19
429.403	503.19
429.625	510.19
429.847	549.19
430.069	584.19
430.292	601.19
430.514	523.19
430.736	503.19
430.958	524.19
431.18	507.19
431.402	500.19
431.624	505.19
431.846	493.19
432.068	465.19
432.29	474.19
432.512	478.19
432.734	494.19
432.956	497.19
433.178	491.19
433.4	502.19
433.622	487.19
433.844	483.19
434.066	496.19
434.287	513.19
434.509	496.19
434.731	492.19
434.953	510.19
435.175	501.19
435.397	553.19
435.618	549.19
435.84	574.19
436.062	640.19
436.284	750.19
436.505	589.19
436.727	555.19
436.949	506.19
437.17	505.19
437.392	511.19
437.614	530.19
437.835	530.19
438.057	606.19
438.278	704.19
438.5	679.19
438.721	780.19
438.943	775.19
439.165	584.19
439.386	570.19
439.608	541.19
439.829	525.19
440.05	546.19
440.272	587.19
440.493	568.19
440.715	537.19
440.936	514.19
441.158	497.19
441.379	508.19
441.6	510.19
441.822	534.19
442.043	571.19
442.264	648.19
442.486	660.19
442.707	582.19
442.928	552.19
443.149	560.19
443.371	554.19
443.592	581.19
443.813	679.19
444.034	736.19
444.255	636.19
444.476	568.19
444.698	568.19
444.919	544.19
445.14	686.19
445.361	606.19
445.582	596.19
445.803	625.19
446.024	694.19
446.245	750.19
446.466	639.19
446.687	568.19
446.908	545.19
447.129	510.19
447.35	496.19
447.571	497.19
447.792	470.19
448.013	504.19
448.234	492.19
448.455	543.19
448.675	643.19
448.896	779.19
449.117	653.19
449.338	595.19
449.559	700.19
449.779	807.19
450	633.19
450.221	544.19
450.442	505.19
450.662	473.19
450.883	475.19
451.104	485.19
451.324	508.19
451.545	473.19
451.766	475.19
451.986	462.19
452.207	444.19
452.428	445.19
452.648	458.19
452.869	450.19
453.089	457.19
453.31	456.19
453.53	450.19
453.751	448.19
453.971	462.19
454.192	480.19
454.412	445.19
454.633	452.19
454.853	462.19
455.073	440.19
455.294	477.19
455.514	490.19
455.734	497.19
455.955	456.19
456.175	414.19
456.395	429.19
456.616	424.19
456.836	433.19
457.056	420.19
457.276	419.19
457.497	445.19
457.717	437.19
457.937	471.19
458.157	459.19
458.377	460.19
458.598	473.19
458.818	493.19
459.038	561.19
459.258	593.19
459.478	519.19
459.698	490.19
459.918	511.19
460.138	490.19
460.358	520.19
460.578	517.19
460.798	513.19
461.018	509.19
461.238	530.19
461.458	491.19
461.678	506.19
461.898	524.19
462.118	522.19
462.338	544.19
462.558	548.19
462.777	545.19
462.997	577.19
463.217	577.19
463.437	578.19
463.657	571.19
463.876	555.19
464.096	545.19
464.316	557.19
464.536	554.19
464.755	564.19
464.975	569.19
465.195	532.19
465.414	581.19
465.634	543.19
465.854	524.19
466.073	514.19
466.293	503.19
466.512	476.19
466.732	489.19
466.951	479.19
467.171	477.19
467.391	491.19
467.61	473.19
467.829	467.19
468.049	491.19
468.268	490.19
468.488	471.19
468.707	469.19
468.927	466.19
469.146	485.19
469.365	473.19
469.585	447.19
469.804	472.19
470.023	478.19
470.243	476.19
470.462	497.19
470.681	477.19
470.901	482.19
471.12	510.19
471.339	474.19
471.558	477.19
471.777	481.19
471.997	497.19
472.216	480.19
472.435	496.19
472.654	481.19
472.873	490.19
473.092	474.19
473.311	490.19
473.53	484.19
473.749	489.19
473.968	505.19
474.187	583.19
474.406	595.19
474.625	530.19
474.844	504.19
475.063	483.19
475.282	489.19
475.501	493.19
475.72	485.19
475.939	504.19
476.158	494.19
476.377	501.19
476.596	504.19
476.814	503.19
477.033	537.19
477.252	504.19
477.471	522.19
477.69	516.19
477.908	517.19
478.127	530.19
478.346	541.19
478.564	550.19
478.783	560.19
479.002	553.19
479.22	573.19
479.439	570.19
479.658	580.19
479.876	576.19
480.095	573.19
480.313	593.19
480.532	589.19
480.751	573.19
480.969	578.19
481.188	629.19
481.406	633.19
481.624	609.19
481.843	604.19
482.061	570.19
482.28	570.19
482.498	562.19
482.717	587.19
482.935	577.19
483.153	547.19
483.372	566.19
483.59	582.19
483.808	596.19
484.027	575.19
484.245	565.19
484.463	581.19
484.681	592.19
484.9	565.19
485.118	591.19
485.336	585.19
485.554	572.19
485.772	587.19
485.99	581.19
486.209	591.19
486.427	589.19
486.645	580.19
486.863	587.19
487.081	598.19
487.299	604.19
487.517	611.19
487.735	584.19
487.953	588.19
488.171	605.19
488.389	608.19
488.607	608.19
488.825	595.19
489.043	613.19
489.261	612.19
489.479	620.19
489.696	605.19
489.914	606.19
490.132	613.19
490.35	610.19
490.568	642.19
490.786	640.19
491.003	625.19
491.221	628.19
491.439	632.19
491.657	637.19
491.874	642.19
492.092	652.19
492.31	644.19
492.527	637.19
492.745	665.19
492.963	689.19
493.18	670.19
493.398	669.19
493.615	671.19
493.833	654.19
494.05	681.19
494.268	686.19
494.485	681.19
494.703	681.19
494.92	682.19
495.138	698.19
495.355	695.19
495.573	692.19
495.79	690.19
496.008	701.19
496.225	698.19
496.442	707.19
496.66	712.19
496.877	694.19
497.094	709.19
497.312	700.19
497.529	712.19
497.746	729.19
497.963	760.19
498.181	774.19
498.398	805.19
498.615	782.19
498.832	807.19
499.049	843.19
499.267	881.19
499.484	896.19
499.701	912.19
499.918	962.19
500.135	995.19
500.352	1050.19
500.569	1050.19
500.786	1045.19
501.003	1035.19
501.22	1033.19
501.437	968.19
501.654	965.19
501.871	916.19
502.088	872.19
