Data from 1978.PennyLincolnUp.Lamp.En5.5.200Scan.071719.P1_HRD10591_16-12-39-864.txt Node
Date: Thu Jul 18 16:12:39 EDT 2019
User: cochatt
Spectrometer: HR+D1059
Trigger mode: 1
Integration Time (sec): 1.000000E-1
Scans to average: 1
Electric dark correction enabled: true
Nonlinearity correction enabled: false
Boxcar width: 0
XAxis mode: Wavelengths
Number of Pixels in Spectrum: 2048
>>>>>Begin Spectral Data<<<<<
223.165	-7.75
223.4	-7.75
223.635	-7.75
223.869	-18.75
224.104	-17.75
224.338	-11.75
224.573	-8.75
224.808	-5.75
225.042	3.25
225.277	-13.75
225.511	4.25
225.746	4.25
225.98	1.25
226.215	0.25
226.449	10.25
226.683	11.25
226.918	23.25
227.152	26.25
227.387	35.25
227.621	33.25
227.856	44.25
228.09	34.25
228.324	27.25
228.559	41.25
228.793	60.25
229.027	91.25
229.262	96.25
229.496	110.25
229.73	118.25
229.964	141.25
230.199	113.25
230.433	94.25
230.667	110.25
230.901	105.25
231.136	100.25
231.37	103.25
231.604	115.25
231.838	107.25
232.072	110.25
232.306	114.25
232.541	108.25
232.775	99.25
233.009	110.25
233.243	99.25
233.477	124.25
233.711	98.25
233.945	111.25
234.179	116.25
234.413	106.25
234.647	107.25
234.881	120.25
235.115	119.25
235.349	109.25
235.583	110.25
235.817	113.25
236.051	126.25
236.285	124.25
236.519	117.25
236.753	122.25
236.987	130.25
237.221	180.25
237.455	221.25
237.689	182.25
237.922	115.25
238.156	114.25
238.39	112.25
238.624	113.25
238.858	121.25
239.091	115.25
239.325	128.25
239.559	124.25
239.793	130.25
240.027	128.25
240.26	133.25
240.494	132.25
240.728	129.25
240.961	136.25
241.195	141.25
241.429	124.25
241.662	142.25
241.896	126.25
242.13	115.25
242.363	123.25
242.597	117.25
242.83	118.25
243.064	143.25
243.298	140.25
243.531	130.25
243.765	138.25
243.998	125.25
244.232	126.25
244.465	141.25
244.699	124.25
244.932	146.25
245.166	136.25
245.399	130.25
245.633	137.25
245.866	132.25
246.099	139.25
246.333	151.25
246.566	157.25
246.8	151.25
247.033	148.25
247.266	141.25
247.5	145.25
247.733	159.25
247.966	147.25
248.2	160.25
248.433	159.25
248.666	162.25
248.899	156.25
249.133	167.25
249.366	190.25
249.599	183.25
249.832	164.25
250.066	163.25
250.299	161.25
250.532	171.25
250.765	189.25
250.998	176.25
251.231	194.25
251.465	190.25
251.698	173.25
251.931	174.25
252.164	184.25
252.397	173.25
252.63	195.25
252.863	168.25
253.096	178.25
253.329	225.25
253.562	188.25
253.795	198.25
254.028	181.25
254.261	193.25
254.494	204.25
254.727	217.25
254.96	233.25
255.193	222.25
255.426	224.25
255.659	209.25
255.892	190.25
256.124	203.25
256.357	200.25
256.59	194.25
256.823	196.25
257.056	189.25
257.289	192.25
257.521	203.25
257.754	188.25
257.987	198.25
258.22	190.25
258.452	187.25
258.685	179.25
258.918	196.25
259.151	183.25
259.383	196.25
259.616	192.25
259.849	204.25
260.081	212.25
260.314	217.25
260.547	231.25
260.779	213.25
261.012	203.25
261.244	202.25
261.477	216.25
261.71	204.25
261.942	195.25
262.175	203.25
262.407	211.25
262.64	191.25
262.872	193.25
263.105	184.25
263.337	185.25
263.57	212.25
263.802	192.25
264.035	196.25
264.267	193.25
264.499	195.25
264.732	197.25
264.964	205.25
265.197	205.25
265.429	203.25
265.661	213.25
265.894	190.25
266.126	202.25
266.358	205.25
266.591	198.25
266.823	214.25
267.055	205.25
267.287	223.25
267.52	203.25
267.752	213.25
267.984	205.25
268.216	197.25
268.448	224.25
268.681	192.25
268.913	213.25
269.145	217.25
269.377	248.25
269.609	246.25
269.841	244.25
270.073	237.25
270.306	256.25
270.538	274.25
270.77	274.25
271.002	290.25
271.234	267.25
271.466	246.25
271.698	287.25
271.93	267.25
272.162	279.25
272.394	295.25
272.626	251.25
272.858	261.25
273.09	250.25
273.322	248.25
273.553	267.25
273.785	230.25
274.017	241.25
274.249	246.25
274.481	248.25
274.713	228.25
274.945	257.25
275.176	237.25
275.408	242.25
275.64	251.25
275.872	250.25
276.104	236.25
276.335	249.25
276.567	231.25
276.799	261.25
277.031	273.25
277.262	263.25
277.494	285.25
277.726	267.25
277.957	279.25
278.189	245.25
278.421	259.25
278.652	240.25
278.884	245.25
279.115	246.25
279.347	236.25
279.579	237.25
279.81	234.25
280.042	240.25
280.273	244.25
280.505	260.25
280.736	254.25
280.968	235.25
281.199	236.25
281.431	246.25
281.662	260.25
281.894	230.25
282.125	242.25
282.356	260.25
282.588	270.25
282.819	296.25
283.051	254.25
283.282	257.25
283.513	247.25
283.745	237.25
283.976	271.25
284.207	260.25
284.439	257.25
284.67	257.25
284.901	257.25
285.132	275.25
285.364	236.25
285.595	266.25
285.826	266.25
286.057	259.25
286.288	253.25
286.52	251.25
286.751	273.25
286.982	269.25
287.213	264.25
287.444	270.25
287.675	277.25
287.906	279.25
288.138	276.25
288.369	272.25
288.6	267.25
288.831	273.25
289.062	279.25
289.293	267.25
289.524	276.25
289.755	261.25
289.986	283.25
290.217	291.25
290.448	283.25
290.679	267.25
290.91	265.25
291.141	277.25
291.371	273.25
291.602	271.25
291.833	268.25
292.064	272.25
292.295	270.25
292.526	269.25
292.757	273.25
292.987	268.25
293.218	269.25
293.449	269.25
293.68	270.25
293.91	265.25
294.141	276.25
294.372	284.25
294.603	274.25
294.833	252.25
295.064	277.25
295.295	262.25
295.525	274.25
295.756	293.25
295.987	288.25
296.217	308.25
296.448	326.25
296.679	288.25
296.909	267.25
297.14	314.25
297.37	296.25
297.601	284.25
297.831	285.25
298.062	292.25
298.292	297.25
298.523	297.25
298.753	286.25
298.984	285.25
299.214	269.25
299.445	298.25
299.675	286.25
299.905	284.25
300.136	299.25
300.366	287.25
300.597	280.25
300.827	297.25
301.057	312.25
301.288	316.25
301.518	309.25
301.748	295.25
301.979	291.25
302.209	320.25
302.439	310.25
302.669	298.25
302.9	329.25
303.13	308.25
303.36	305.25
303.59	298.25
303.82	325.25
304.051	328.25
304.281	307.25
304.511	312.25
304.741	303.25
304.971	306.25
305.201	317.25
305.431	316.25
305.661	300.25
305.891	314.25
306.121	316.25
306.352	322.25
306.582	319.25
306.812	308.25
307.042	315.25
307.272	327.25
307.502	328.25
307.731	317.25
307.961	327.25
308.191	310.25
308.421	311.25
308.651	330.25
308.881	320.25
309.111	315.25
309.341	330.25
309.571	327.25
309.8	323.25
310.03	333.25
310.26	359.25
310.49	348.25
310.72	355.25
310.949	350.25
311.179	378.25
311.409	355.25
311.639	359.25
311.868	379.25
312.098	357.25
312.328	350.25
312.557	365.25
312.787	380.25
313.017	384.25
313.246	374.25
313.476	349.25
313.706	350.25
313.935	353.25
314.165	352.25
314.394	365.25
314.624	378.25
314.853	377.25
315.083	363.25
315.312	365.25
315.542	338.25
315.771	334.25
316.001	346.25
316.23	338.25
316.46	353.25
316.689	346.25
316.919	349.25
317.148	374.25
317.377	358.25
317.607	377.25
317.836	376.25
318.065	369.25
318.295	358.25
318.524	350.25
318.753	348.25
318.983	349.25
319.212	354.25
319.441	360.25
319.67	345.25
319.9	378.25
320.129	352.25
320.358	368.25
320.587	370.25
320.816	373.25
321.046	378.25
321.275	390.25
321.504	388.25
321.733	379.25
321.962	390.25
322.191	394.25
322.42	403.25
322.649	399.25
322.878	430.25
323.108	427.25
323.337	438.25
323.566	443.25
323.795	466.25
324.024	525.25
324.253	613.25
324.482	892.25
324.71	1374.25
324.939	2006.25
325.168	1798.25
325.397	915.25
325.626	606.25
325.855	502.25
326.084	447.25
326.313	460.25
326.542	469.25
326.77	489.25
326.999	597.25
327.228	796.25
327.457	1270.25
327.686	1559.25
327.914	1013.25
328.143	648.25
328.372	568.25
328.6	526.25
328.829	495.25
329.058	518.25
329.287	534.25
329.515	506.25
329.744	468.25
329.972	474.25
330.201	473.25
330.43	485.25
330.658	529.25
330.887	534.25
331.115	532.25
331.344	488.25
331.572	468.25
331.801	445.25
332.03	455.25
332.258	440.25
332.486	441.25
332.715	409.25
332.943	445.25
333.172	432.25
333.4	445.25
333.629	436.25
333.857	434.25
334.085	458.25
334.314	477.25
334.542	492.25
334.771	518.25
334.999	484.25
335.227	469.25
335.455	435.25
335.684	440.25
335.912	432.25
336.14	435.25
336.369	426.25
336.597	448.25
336.825	438.25
337.053	434.25
337.281	427.25
337.51	419.25
337.738	421.25
337.966	427.25
338.194	425.25
338.422	437.25
338.65	427.25
338.878	446.25
339.106	390.25
339.334	431.25
339.562	420.25
339.79	413.25
340.018	415.25
340.246	419.25
340.474	421.25
340.702	411.25
340.93	418.25
341.158	390.25
341.386	434.25
341.614	409.25
341.842	438.25
342.07	416.25
342.298	408.25
342.526	415.25
342.754	421.25
342.981	397.25
343.209	381.25
343.437	402.25
343.665	423.25
343.893	416.25
344.12	431.25
344.348	440.25
344.576	429.25
344.804	434.25
345.031	440.25
345.259	449.25
345.487	439.25
345.714	432.25
345.942	413.25
346.17	381.25
346.397	418.25
346.625	416.25
346.853	416.25
347.08	399.25
347.308	434.25
347.535	409.25
347.763	405.25
347.99	399.25
348.218	421.25
348.445	426.25
348.673	427.25
348.9	442.25
349.128	395.25
349.355	382.25
349.583	400.25
349.81	376.25
350.037	406.25
350.265	389.25
350.492	408.25
350.72	380.25
350.947	392.25
351.174	398.25
351.402	420.25
351.629	406.25
351.856	413.25
352.083	426.25
352.311	413.25
352.538	417.25
352.765	446.25
352.992	416.25
353.22	397.25
353.447	419.25
353.674	393.25
353.901	391.25
354.128	382.25
354.355	384.25
354.583	370.25
354.81	397.25
355.037	380.25
355.264	393.25
355.491	394.25
355.718	388.25
355.945	397.25
356.172	382.25
356.399	374.25
356.626	382.25
356.853	390.25
357.08	377.25
357.307	370.25
357.534	378.25
357.761	388.25
357.988	389.25
358.215	382.25
358.441	382.25
358.668	388.25
358.895	405.25
359.122	397.25
359.349	377.25
359.576	424.25
359.802	421.25
360.029	427.25
360.256	445.25
360.483	440.25
360.709	393.25
360.936	402.25
361.163	407.25
361.39	400.25
361.616	428.25
361.843	404.25
362.07	412.25
362.296	409.25
362.523	398.25
362.749	416.25
362.976	410.25
363.203	406.25
363.429	378.25
363.656	399.25
363.882	382.25
364.109	392.25
364.335	403.25
364.562	412.25
364.788	388.25
365.015	391.25
365.241	403.25
365.468	394.25
365.694	398.25
365.92	408.25
366.147	374.25
366.373	389.25
366.599	402.25
366.826	389.25
367.052	387.25
367.278	398.25
367.505	406.25
367.731	396.25
367.957	393.25
368.184	406.25
368.41	390.25
368.636	437.25
368.862	417.25
369.089	390.25
369.315	409.25
369.541	398.25
369.767	392.25
369.993	412.25
370.219	381.25
370.445	388.25
370.672	419.25
370.898	392.25
371.124	395.25
371.35	423.25
371.576	416.25
371.802	399.25
372.028	410.25
372.254	409.25
372.48	402.25
372.706	415.25
372.932	410.25
373.158	404.25
373.384	419.25
373.61	403.25
373.835	415.25
374.061	407.25
374.287	406.25
374.513	421.25
374.739	417.25
374.965	412.25
375.191	416.25
375.416	396.25
375.642	404.25
375.868	426.25
376.094	403.25
376.319	413.25
376.545	403.25
376.771	395.25
376.997	401.25
377.222	414.25
377.448	405.25
377.674	425.25
377.899	389.25
378.125	402.25
378.35	386.25
378.576	402.25
378.802	392.25
379.027	408.25
379.253	413.25
379.478	401.25
379.704	390.25
379.929	405.25
380.155	395.25
380.38	402.25
380.606	406.25
380.831	398.25
381.057	405.25
381.282	419.25
381.507	426.25
381.733	430.25
381.958	421.25
382.184	398.25
382.409	428.25
382.634	426.25
382.86	427.25
383.085	425.25
383.31	414.25
383.535	425.25
383.761	429.25
383.986	422.25
384.211	432.25
384.436	443.25
384.662	419.25
384.887	442.25
385.112	436.25
385.337	456.25
385.562	439.25
385.787	426.25
386.013	448.25
386.238	446.25
386.463	457.25
386.688	470.25
386.913	447.25
387.138	463.25
387.363	438.25
387.588	451.25
387.813	451.25
388.038	456.25
388.263	448.25
388.488	447.25
388.713	442.25
388.938	454.25
389.163	443.25
389.387	434.25
389.612	438.25
389.837	461.25
390.062	445.25
390.287	460.25
390.512	446.25
390.736	452.25
390.961	466.25
391.186	452.25
391.411	453.25
391.636	458.25
391.86	480.25
392.085	470.25
392.31	466.25
392.534	450.25
392.759	504.25
392.984	476.25
393.208	448.25
393.433	480.25
393.658	467.25
393.882	452.25
394.107	482.25
394.331	455.25
394.556	468.25
394.78	471.25
395.005	472.25
395.229	472.25
395.454	472.25
395.678	484.25
395.903	505.25
396.127	502.25
396.352	519.25
396.576	486.25
396.801	466.25
397.025	468.25
397.249	466.25
397.474	482.25
397.698	476.25
397.922	496.25
398.147	488.25
398.371	527.25
398.595	522.25
398.82	517.25
399.044	531.25
399.268	554.25
399.492	558.25
399.717	593.25
399.941	642.25
400.165	660.25
400.389	681.25
400.613	610.25
400.837	579.25
401.062	536.25
401.286	528.25
401.51	529.25
401.734	522.25
401.958	534.25
402.182	558.25
402.406	536.25
402.63	543.25
402.854	533.25
403.078	538.25
403.302	538.25
403.526	541.25
403.75	555.25
403.974	557.25
404.198	558.25
404.422	546.25
404.645	549.25
404.869	563.25
405.093	575.25
405.317	633.25
405.541	651.25
405.765	597.25
405.988	570.25
406.212	582.25
406.436	586.25
406.66	603.25
406.883	603.25
407.107	600.25
407.331	660.25
407.555	720.25
407.778	728.25
408.002	680.25
408.226	615.25
408.449	609.25
408.673	614.25
408.896	648.25
409.12	668.25
409.344	635.25
409.567	597.25
409.791	589.25
410.014	596.25
410.238	562.25
410.461	548.25
410.685	555.25
410.908	579.25
411.132	609.25
411.355	636.25
411.578	619.25
411.802	570.25
412.025	553.25
412.249	556.25
412.472	597.25
412.695	619.25
412.919	599.25
413.142	550.25
413.365	541.25
413.589	547.25
413.812	535.25
414.035	526.25
414.258	496.25
414.482	529.25
414.705	515.25
414.928	520.25
415.151	517.25
415.374	527.25
415.597	526.25
415.821	493.25
416.044	512.25
416.267	524.25
416.49	523.25
416.713	506.25
416.936	520.25
417.159	516.25
417.382	503.25
417.605	534.25
417.828	520.25
418.051	553.25
418.274	504.25
418.497	537.25
418.72	521.25
418.943	532.25
419.166	544.25
419.389	556.25
419.611	549.25
419.834	547.25
420.057	561.25
420.28	538.25
420.503	553.25
420.726	554.25
420.948	544.25
421.171	585.25
421.394	652.25
421.617	535.25
421.839	541.25
422.062	525.25
422.285	552.25
422.507	609.25
422.73	674.25
422.953	656.25
423.175	578.25
423.398	546.25
423.621	555.25
423.843	548.25
424.066	562.25
424.288	552.25
424.511	586.25
424.733	648.25
424.956	719.25
425.178	682.25
425.401	670.25
425.623	720.25
425.846	597.25
426.068	579.25
426.291	546.25
426.513	582.25
426.735	582.25
426.958	598.25
427.18	703.25
427.402	819.25
427.625	916.25
427.847	794.25
428.069	684.25
428.292	612.25
428.514	604.25
428.736	551.25
428.958	555.25
429.181	536.25
429.403	545.25
429.625	562.25
429.847	580.25
430.069	625.25
430.292	636.25
430.514	548.25
430.736	537.25
430.958	530.25
431.18	526.25
431.402	516.25
431.624	512.25
431.846	506.25
432.068	522.25
432.29	518.25
432.512	537.25
432.734	514.25
432.956	530.25
433.178	503.25
433.4	500.25
433.622	522.25
433.844	531.25
434.066	487.25
434.287	514.25
434.509	539.25
434.731	506.25
434.953	540.25
435.175	564.25
435.397	568.25
435.618	568.25
435.84	602.25
436.062	730.25
436.284	808.25
436.505	656.25
436.727	588.25
436.949	560.25
437.17	537.25
437.392	547.25
437.614	548.25
437.835	581.25
438.057	648.25
438.278	774.25
438.5	786.25
438.721	846.25
438.943	828.25
439.165	674.25
439.386	607.25
439.608	581.25
439.829	578.25
440.05	623.25
440.272	646.25
440.493	628.25
440.715	597.25
440.936	555.25
441.158	542.25
441.379	520.25
441.6	539.25
441.822	584.25
442.043	622.25
442.264	703.25
442.486	758.25
442.707	619.25
442.928	599.25
443.149	596.25
443.371	622.25
443.592	634.25
443.813	749.25
444.034	820.25
444.255	684.25
444.476	616.25
444.698	583.25
444.919	592.25
445.14	699.25
445.361	659.25
445.582	608.25
445.803	668.25
446.024	798.25
446.245	816.25
446.466	726.25
446.687	640.25
446.908	578.25
447.129	576.25
447.35	525.25
447.571	525.25
447.792	521.25
448.013	537.25
448.234	550.25
448.455	578.25
448.675	707.25
448.896	846.25
449.117	703.25
449.338	660.25
449.559	765.25
449.779	894.25
450	704.25
450.221	588.25
450.442	541.25
450.662	510.25
450.883	525.25
451.104	520.25
451.324	532.25
451.545	506.25
451.766	485.25
451.986	466.25
452.207	489.25
452.428	460.25
452.648	459.25
452.869	484.25
453.089	472.25
453.31	502.25
453.53	487.25
453.751	456.25
453.971	485.25
454.192	510.25
454.412	490.25
454.633	480.25
454.853	488.25
455.073	481.25
455.294	489.25
455.514	553.25
455.734	558.25
455.955	509.25
456.175	469.25
456.395	460.25
456.616	460.25
456.836	468.25
457.056	431.25
457.276	459.25
457.497	470.25
457.717	460.25
457.937	468.25
458.157	466.25
458.377	493.25
458.598	513.25
458.818	576.25
459.038	617.25
459.258	651.25
459.478	566.25
459.698	534.25
459.918	519.25
460.138	526.25
460.358	506.25
460.578	524.25
460.798	521.25
461.018	536.25
461.238	530.25
461.458	530.25
461.678	545.25
461.898	554.25
462.118	528.25
462.338	538.25
462.558	544.25
462.777	569.25
462.997	596.25
463.217	576.25
463.437	599.25
463.657	574.25
463.876	576.25
464.096	564.25
464.316	555.25
464.536	562.25
464.755	573.25
464.975	578.25
465.195	607.25
465.414	655.25
465.634	587.25
465.854	558.25
466.073	558.25
466.293	541.25
466.512	498.25
466.732	499.25
466.951	499.25
467.171	513.25
467.391	500.25
467.61	486.25
467.829	517.25
468.049	512.25
468.268	499.25
468.488	484.25
468.707	482.25
468.927	462.25
469.146	468.25
469.365	501.25
469.585	491.25
469.804	490.25
470.023	508.25
470.243	488.25
470.462	520.25
470.681	510.25
470.901	522.25
471.12	494.25
471.339	525.25
471.558	504.25
471.777	498.25
471.997	502.25
472.216	502.25
472.435	538.25
472.654	532.25
472.873	492.25
473.092	500.25
473.311	502.25
473.53	527.25
473.749	520.25
473.968	564.25
474.187	643.25
474.406	654.25
474.625	549.25
474.844	527.25
475.063	521.25
475.282	500.25
475.501	518.25
475.72	529.25
475.939	516.25
476.158	525.25
476.377	534.25
476.596	519.25
476.814	543.25
477.033	527.25
477.252	538.25
477.471	555.25
477.69	535.25
477.908	540.25
478.127	568.25
478.346	546.25
478.564	562.25
478.783	560.25
479.002	585.25
479.22	576.25
479.439	605.25
479.658	608.25
479.876	598.25
480.095	618.25
480.313	644.25
480.532	618.25
480.751	612.25
480.969	631.25
481.188	668.25
481.406	690.25
481.624	617.25
481.843	573.25
482.061	598.25
482.28	585.25
482.498	584.25
482.717	605.25
482.935	605.25
483.153	579.25
483.372	590.25
483.59	577.25
483.808	574.25
484.027	594.25
484.245	611.25
484.463	588.25
484.681	596.25
484.9	606.25
485.118	590.25
485.336	616.25
485.554	628.25
485.772	608.25
485.99	609.25
486.209	589.25
486.427	609.25
486.645	638.25
486.863	630.25
487.081	648.25
487.299	629.25
487.517	602.25
487.735	615.25
487.953	600.25
488.171	635.25
488.389	626.25
488.607	609.25
488.825	642.25
489.043	618.25
489.261	646.25
489.479	642.25
489.696	649.25
489.914	635.25
490.132	649.25
490.35	660.25
490.568	648.25
490.786	666.25
491.003	681.25
491.221	677.25
491.439	690.25
491.657	712.25
491.874	705.25
492.092	707.25
492.31	692.25
492.527	690.25
492.745	704.25
492.963	688.25
493.18	710.25
493.398	714.25
493.615	714.25
493.833	726.25
494.05	707.25
494.268	736.25
494.485	712.25
494.703	700.25
494.92	728.25
495.138	705.25
495.355	704.25
495.573	736.25
495.79	721.25
496.008	743.25
496.225	729.25
496.442	747.25
496.66	728.25
496.877	741.25
497.094	757.25
497.312	784.25
497.529	760.25
497.746	764.25
497.963	792.25
498.181	824.25
498.398	848.25
498.615	855.25
498.832	817.25
499.049	864.25
499.267	890.25
499.484	903.25
499.701	935.25
499.918	988.25
500.135	1030.25
500.352	1084.25
500.569	1082.25
500.786	1084.25
501.003	1057.25
501.22	1062.25
501.437	1027.25
501.654	989.25
501.871	994.25
502.088	951.25
