Data from 1978.PennyLincolnUp.Lamp.En5.5.200Scan.071719.P1_HRD10591_16-11-51-864.txt Node
Date: Thu Jul 18 16:11:51 EDT 2019
User: cochatt
Spectrometer: HR+D1059
Trigger mode: 1
Integration Time (sec): 1.000000E-1
Scans to average: 1
Electric dark correction enabled: true
Nonlinearity correction enabled: false
Boxcar width: 0
XAxis mode: Wavelengths
Number of Pixels in Spectrum: 2048
>>>>>Begin Spectral Data<<<<<
223.165	-23.31
223.4	-23.31
223.635	-23.31
223.869	-20.31
224.104	-14.31
224.338	-24.31
224.573	-22.31
224.808	-13.31
225.042	-7.31
225.277	-12.31
225.511	10.69
225.746	8.69
225.98	10.69
226.215	17.69
226.449	16.69
226.683	20.69
226.918	32.69
227.152	19.69
227.387	34.69
227.621	37.69
227.856	40.69
228.09	35.69
228.324	48.69
228.559	55.69
228.793	70.69
229.027	82.69
229.262	99.69
229.496	96.69
229.73	110.69
229.964	125.69
230.199	102.69
230.433	89.69
230.667	109.69
230.901	98.69
231.136	91.69
231.37	111.69
231.604	115.69
231.838	91.69
232.072	94.69
232.306	117.69
232.541	103.69
232.775	98.69
233.009	92.69
233.243	100.69
233.477	100.69
233.711	106.69
233.945	116.69
234.179	102.69
234.413	107.69
234.647	124.69
234.881	105.69
235.115	111.69
235.349	107.69
235.583	98.69
235.817	93.69
236.051	105.69
236.285	114.69
236.519	109.69
236.753	117.69
236.987	134.69
237.221	140.69
237.455	184.69
237.689	147.69
237.922	128.69
238.156	125.69
238.39	101.69
238.624	122.69
238.858	111.69
239.091	124.69
239.325	115.69
239.559	112.69
239.793	84.69
240.027	114.69
240.26	126.69
240.494	116.69
240.728	125.69
240.961	121.69
241.195	135.69
241.429	124.69
241.662	118.69
241.896	129.69
242.13	126.69
242.363	119.69
242.597	120.69
242.83	129.69
243.064	135.69
243.298	124.69
243.531	126.69
243.765	112.69
243.998	128.69
244.232	126.69
244.465	120.69
244.699	137.69
244.932	138.69
245.166	128.69
245.399	123.69
245.633	132.69
245.866	136.69
246.099	123.69
246.333	131.69
246.566	123.69
246.8	134.69
247.033	128.69
247.266	138.69
247.5	137.69
247.733	130.69
247.966	154.69
248.2	154.69
248.433	145.69
248.666	133.69
248.899	166.69
249.133	160.69
249.366	184.69
249.599	161.69
249.832	154.69
250.066	164.69
250.299	150.69
250.532	151.69
250.765	170.69
250.998	166.69
251.231	178.69
251.465	171.69
251.698	148.69
251.931	163.69
252.164	170.69
252.397	164.69
252.63	171.69
252.863	153.69
253.096	160.69
253.329	174.69
253.562	170.69
253.795	180.69
254.028	169.69
254.261	172.69
254.494	177.69
254.727	201.69
254.96	207.69
255.193	202.69
255.426	176.69
255.659	172.69
255.892	183.69
256.124	188.69
256.357	168.69
256.59	184.69
256.823	167.69
257.056	164.69
257.289	176.69
257.521	185.69
257.754	170.69
257.987	173.69
258.22	178.69
258.452	188.69
258.685	166.69
258.918	179.69
259.151	187.69
259.383	167.69
259.616	188.69
259.849	182.69
260.081	199.69
260.314	199.69
260.547	203.69
260.779	198.69
261.012	179.69
261.244	187.69
261.477	189.69
261.71	186.69
261.942	172.69
262.175	192.69
262.407	193.69
262.64	190.69
262.872	192.69
263.105	198.69
263.337	168.69
263.57	192.69
263.802	187.69
264.035	178.69
264.267	176.69
264.499	184.69
264.732	172.69
264.964	178.69
265.197	176.69
265.429	181.69
265.661	193.69
265.894	183.69
266.126	190.69
266.358	177.69
266.591	165.69
266.823	185.69
267.055	191.69
267.287	186.69
267.52	204.69
267.752	194.69
267.984	190.69
268.216	194.69
268.448	189.69
268.681	185.69
268.913	202.69
269.145	215.69
269.377	208.69
269.609	209.69
269.841	230.69
270.073	218.69
270.306	233.69
270.538	228.69
270.77	245.69
271.002	244.69
271.234	246.69
271.466	226.69
271.698	232.69
271.93	218.69
272.162	245.69
272.394	258.69
272.626	256.69
272.858	237.69
273.09	224.69
273.322	222.69
273.553	219.69
273.785	210.69
274.017	218.69
274.249	204.69
274.481	219.69
274.713	214.69
274.945	223.69
275.176	226.69
275.408	223.69
275.64	210.69
275.872	225.69
276.104	239.69
276.335	218.69
276.567	241.69
276.799	233.69
277.031	259.69
277.262	249.69
277.494	258.69
277.726	233.69
277.957	231.69
278.189	245.69
278.421	229.69
278.652	228.69
278.884	223.69
279.115	215.69
279.347	229.69
279.579	230.69
279.81	230.69
280.042	217.69
280.273	236.69
280.505	232.69
280.736	241.69
280.968	222.69
281.199	243.69
281.431	231.69
281.662	231.69
281.894	217.69
282.125	255.69
282.356	246.69
282.588	224.69
282.819	264.69
283.051	235.69
283.282	225.69
283.513	228.69
283.745	250.69
283.976	248.69
284.207	235.69
284.439	251.69
284.67	250.69
284.901	237.69
285.132	247.69
285.364	244.69
285.595	250.69
285.826	241.69
286.057	246.69
286.288	223.69
286.52	231.69
286.751	234.69
286.982	254.69
287.213	251.69
287.444	258.69
287.675	263.69
287.906	254.69
288.138	270.69
288.369	266.69
288.6	262.69
288.831	249.69
289.062	237.69
289.293	237.69
289.524	248.69
289.755	256.69
289.986	247.69
290.217	240.69
290.448	248.69
290.679	258.69
290.91	259.69
291.141	260.69
291.371	240.69
291.602	243.69
291.833	233.69
292.064	250.69
292.295	248.69
292.526	278.69
292.757	267.69
292.987	256.69
293.218	259.69
293.449	255.69
293.68	267.69
293.91	267.69
294.141	263.69
294.372	257.69
294.603	258.69
294.833	265.69
295.064	268.69
295.295	273.69
295.525	261.69
295.756	254.69
295.987	263.69
296.217	275.69
296.448	296.69
296.679	272.69
296.909	254.69
297.14	261.69
297.37	268.69
297.601	267.69
297.831	271.69
298.062	266.69
298.292	241.69
298.523	271.69
298.753	287.69
298.984	272.69
299.214	275.69
299.445	245.69
299.675	250.69
299.905	260.69
300.136	274.69
300.366	281.69
300.597	274.69
300.827	283.69
301.057	272.69
301.288	277.69
301.518	280.69
301.748	279.69
301.979	291.69
302.209	286.69
302.439	296.69
302.669	293.69
302.9	283.69
303.13	286.69
303.36	298.69
303.59	280.69
303.82	288.69
304.051	302.69
304.281	304.69
304.511	312.69
304.741	293.69
304.971	268.69
305.201	294.69
305.431	284.69
305.661	285.69
305.891	284.69
306.121	287.69
306.352	295.69
306.582	292.69
306.812	280.69
307.042	312.69
307.272	310.69
307.502	300.69
307.731	272.69
307.961	296.69
308.191	310.69
308.421	308.69
308.651	296.69
308.881	308.69
309.111	302.69
309.341	291.69
309.571	315.69
309.8	306.69
310.03	312.69
310.26	327.69
310.49	315.69
310.72	308.69
310.949	340.69
311.179	323.69
311.409	302.69
311.639	327.69
311.868	320.69
312.098	321.69
312.328	320.69
312.557	318.69
312.787	348.69
313.017	338.69
313.246	321.69
313.476	326.69
313.706	330.69
313.935	327.69
314.165	319.69
314.394	341.69
314.624	328.69
314.853	341.69
315.083	346.69
315.312	322.69
315.542	316.69
315.771	301.69
316.001	331.69
316.23	319.69
316.46	329.69
316.689	337.69
316.919	315.69
317.148	335.69
317.377	321.69
317.607	324.69
317.836	320.69
318.065	311.69
318.295	332.69
318.524	303.69
318.753	339.69
318.983	331.69
319.212	319.69
319.441	333.69
319.67	331.69
319.9	340.69
320.129	319.69
320.358	334.69
320.587	329.69
320.816	321.69
321.046	333.69
321.275	358.69
321.504	343.69
321.733	343.69
321.962	328.69
322.191	350.69
322.42	351.69
322.649	364.69
322.878	362.69
323.108	383.69
323.337	406.69
323.566	418.69
323.795	415.69
324.024	423.69
324.253	487.69
324.482	671.69
324.71	1056.69
324.939	1548.69
325.168	1320.69
325.397	684.69
325.626	494.69
325.855	439.69
326.084	402.69
326.313	410.69
326.542	402.69
326.77	430.69
326.999	487.69
327.228	615.69
327.457	929.69
327.686	1202.69
327.914	790.69
328.143	535.69
328.372	452.69
328.6	459.69
328.829	432.69
329.058	448.69
329.287	447.69
329.515	423.69
329.744	408.69
329.972	390.69
330.201	426.69
330.43	427.69
330.658	448.69
330.887	475.69
331.115	448.69
331.344	387.69
331.572	423.69
331.801	409.69
332.03	400.69
332.258	400.69
332.486	367.69
332.715	392.69
332.943	392.69
333.172	391.69
333.4	411.69
333.629	419.69
333.857	414.69
334.085	416.69
334.314	411.69
334.542	429.69
334.771	433.69
334.999	421.69
335.227	409.69
335.455	393.69
335.684	401.69
335.912	393.69
336.14	384.69
336.369	414.69
336.597	402.69
336.825	394.69
337.053	420.69
337.281	384.69
337.51	386.69
337.738	395.69
337.966	374.69
338.194	378.69
338.422	384.69
338.65	386.69
338.878	390.69
339.106	383.69
339.334	378.69
339.562	390.69
339.79	386.69
340.018	395.69
340.246	394.69
340.474	392.69
340.702	377.69
340.93	380.69
341.158	377.69
341.386	382.69
341.614	374.69
341.842	388.69
342.07	385.69
342.298	385.69
342.526	387.69
342.754	367.69
342.981	369.69
343.209	384.69
343.437	387.69
343.665	387.69
343.893	400.69
344.12	364.69
344.348	394.69
344.576	385.69
344.804	400.69
345.031	398.69
345.259	395.69
345.487	407.69
345.714	372.69
345.942	391.69
346.17	406.69
346.397	366.69
346.625	372.69
346.853	369.69
347.08	364.69
347.308	386.69
347.535	370.69
347.763	376.69
347.99	376.69
348.218	367.69
348.445	369.69
348.673	382.69
348.9	382.69
349.128	362.69
349.355	366.69
349.583	361.69
349.81	358.69
350.037	376.69
350.265	370.69
350.492	384.69
350.72	370.69
350.947	354.69
351.174	387.69
351.402	372.69
351.629	370.69
351.856	371.69
352.083	374.69
352.311	380.69
352.538	379.69
352.765	375.69
352.992	377.69
353.22	385.69
353.447	370.69
353.674	367.69
353.901	351.69
354.128	376.69
354.355	369.69
354.583	343.69
354.81	347.69
355.037	366.69
355.264	352.69
355.491	342.69
355.718	348.69
355.945	356.69
356.172	357.69
356.399	350.69
356.626	362.69
356.853	372.69
357.08	374.69
357.307	360.69
357.534	366.69
357.761	368.69
357.988	370.69
358.215	351.69
358.441	359.69
358.668	352.69
358.895	384.69
359.122	358.69
359.349	392.69
359.576	358.69
359.802	374.69
360.029	380.69
360.256	405.69
360.483	392.69
360.709	368.69
360.936	381.69
361.163	374.69
361.39	382.69
361.616	383.69
361.843	375.69
362.07	376.69
362.296	383.69
362.523	394.69
362.749	370.69
362.976	375.69
363.203	372.69
363.429	376.69
363.656	377.69
363.882	362.69
364.109	378.69
364.335	352.69
364.562	358.69
364.788	359.69
365.015	384.69
365.241	353.69
365.468	374.69
365.694	368.69
365.92	362.69
366.147	374.69
366.373	374.69
366.599	355.69
366.826	361.69
367.052	368.69
367.278	369.69
367.505	377.69
367.731	368.69
367.957	367.69
368.184	347.69
368.41	377.69
368.636	374.69
368.862	377.69
369.089	365.69
369.315	372.69
369.541	364.69
369.767	368.69
369.993	368.69
370.219	386.69
370.445	359.69
370.672	371.69
370.898	370.69
371.124	371.69
371.35	372.69
371.576	378.69
371.802	370.69
372.028	365.69
372.254	387.69
372.48	372.69
372.706	376.69
372.932	394.69
373.158	386.69
373.384	389.69
373.61	394.69
373.835	383.69
374.061	374.69
374.287	369.69
374.513	389.69
374.739	399.69
374.965	384.69
375.191	392.69
375.416	374.69
375.642	384.69
375.868	412.69
376.094	379.69
376.319	379.69
376.545	378.69
376.771	393.69
376.997	378.69
377.222	363.69
377.448	371.69
377.674	378.69
377.899	389.69
378.125	379.69
378.35	377.69
378.576	368.69
378.802	363.69
379.027	374.69
379.253	388.69
379.478	378.69
379.704	391.69
379.929	371.69
380.155	368.69
380.38	386.69
380.606	377.69
380.831	377.69
381.057	392.69
381.282	407.69
381.507	398.69
381.733	389.69
381.958	396.69
382.184	399.69
382.409	404.69
382.634	394.69
382.86	394.69
383.085	397.69
383.31	375.69
383.535	395.69
383.761	409.69
383.986	399.69
384.211	392.69
384.436	407.69
384.662	396.69
384.887	408.69
385.112	412.69
385.337	427.69
385.562	411.69
385.787	425.69
386.013	423.69
386.238	438.69
386.463	418.69
386.688	433.69
386.913	432.69
387.138	415.69
387.363	430.69
387.588	418.69
387.813	427.69
388.038	423.69
388.263	437.69
388.488	451.69
388.713	432.69
388.938	425.69
389.163	415.69
389.387	442.69
389.612	443.69
389.837	432.69
390.062	424.69
390.287	445.69
390.512	421.69
390.736	434.69
390.961	424.69
391.186	442.69
391.411	436.69
391.636	436.69
391.86	443.69
392.085	443.69
392.31	445.69
392.534	450.69
392.759	462.69
392.984	429.69
393.208	432.69
393.433	433.69
393.658	449.69
393.882	438.69
394.107	427.69
394.331	436.69
394.556	447.69
394.78	452.69
395.005	450.69
395.229	438.69
395.454	464.69
395.678	459.69
395.903	477.69
396.127	494.69
396.352	475.69
396.576	456.69
396.801	450.69
397.025	456.69
397.249	450.69
397.474	469.69
397.698	472.69
397.922	477.69
398.147	491.69
398.371	518.69
398.595	473.69
398.82	476.69
399.044	501.69
399.268	512.69
399.492	550.69
399.717	580.69
399.941	610.69
400.165	604.69
400.389	612.69
400.613	566.69
400.837	529.69
401.062	524.69
401.286	520.69
401.51	503.69
401.734	484.69
401.958	481.69
402.182	513.69
402.406	516.69
402.63	497.69
402.854	511.69
403.078	483.69
403.302	487.69
403.526	525.69
403.75	504.69
403.974	518.69
404.198	513.69
404.422	539.69
404.645	519.69
404.869	547.69
405.093	542.69
405.317	581.69
405.541	585.69
405.765	570.69
405.988	525.69
406.212	548.69
406.436	546.69
406.66	558.69
406.883	560.69
407.107	571.69
407.331	614.69
407.555	667.69
407.778	632.69
408.002	605.69
408.226	570.69
408.449	558.69
408.673	569.69
408.896	592.69
409.12	643.69
409.344	603.69
409.567	542.69
409.791	551.69
410.014	522.69
410.238	534.69
410.461	532.69
410.685	521.69
410.908	517.69
411.132	567.69
411.355	602.69
411.578	575.69
411.802	523.69
412.025	496.69
412.249	533.69
412.472	534.69
412.695	575.69
412.919	565.69
413.142	520.69
413.365	512.69
413.589	518.69
413.812	500.69
414.035	469.69
414.258	503.69
414.482	492.69
414.705	474.69
414.928	533.69
415.151	473.69
415.374	521.69
415.597	507.69
415.821	479.69
416.044	496.69
416.267	512.69
416.49	496.69
416.713	484.69
416.936	520.69
417.159	475.69
417.382	485.69
417.605	478.69
417.828	477.69
418.051	484.69
418.274	484.69
418.497	484.69
418.72	490.69
418.943	475.69
419.166	491.69
419.389	545.69
419.611	529.69
419.834	536.69
420.057	521.69
420.28	518.69
420.503	475.69
420.726	488.69
420.948	522.69
421.171	535.69
421.394	575.69
421.617	507.69
421.839	516.69
422.062	519.69
422.285	518.69
422.507	567.69
422.73	629.69
422.953	624.69
423.175	534.69
423.398	529.69
423.621	523.69
423.843	524.69
424.066	545.69
424.288	509.69
424.511	522.69
424.733	566.69
424.956	668.69
425.178	634.69
425.401	632.69
425.623	666.69
425.846	551.69
426.068	540.69
426.291	519.69
426.513	519.69
426.735	523.69
426.958	565.69
427.18	618.69
427.402	728.69
427.625	792.69
427.847	689.69
428.069	626.69
428.292	551.69
428.514	531.69
428.736	493.69
428.958	534.69
429.181	496.69
429.403	486.69
429.625	501.69
429.847	510.69
430.069	576.69
430.292	583.69
430.514	508.69
430.736	483.69
430.958	477.69
431.18	493.69
431.402	479.69
431.624	484.69
431.846	485.69
432.068	472.69
432.29	469.69
432.512	454.69
432.734	492.69
432.956	472.69
433.178	488.69
433.4	499.69
433.622	491.69
433.844	477.69
434.066	458.69
434.287	481.69
434.509	494.69
434.731	521.69
434.953	497.69
435.175	483.69
435.397	523.69
435.618	530.69
435.84	558.69
436.062	632.69
436.284	709.69
436.505	603.69
436.727	533.69
436.949	500.69
437.17	508.69
437.392	490.69
437.614	510.69
437.835	524.69
438.057	583.69
438.278	668.69
438.5	659.69
438.721	734.69
438.943	738.69
439.165	585.69
439.386	550.69
439.608	548.69
439.829	530.69
440.05	523.69
440.272	575.69
440.493	544.69
440.715	495.69
440.936	498.69
441.158	504.69
441.379	513.69
441.6	491.69
441.822	548.69
442.043	544.69
442.264	616.69
442.486	640.69
442.707	560.69
442.928	539.69
443.149	550.69
443.371	553.69
443.592	583.69
443.813	663.69
444.034	730.69
444.255	608.69
444.476	566.69
444.698	556.69
444.919	544.69
445.14	662.69
445.361	598.69
445.582	582.69
445.803	603.69
446.024	688.69
446.245	706.69
446.466	638.69
446.687	566.69
446.908	563.69
447.129	500.69
447.35	504.69
447.571	496.69
447.792	476.69
448.013	487.69
448.234	488.69
448.455	534.69
448.675	628.69
448.896	728.69
449.117	620.69
449.338	593.69
449.559	696.69
449.779	808.69
450	627.69
450.221	514.69
450.442	490.69
450.662	472.69
450.883	470.69
451.104	478.69
451.324	468.69
451.545	454.69
451.766	458.69
451.986	448.69
452.207	424.69
452.428	439.69
452.648	463.69
452.869	458.69
453.089	454.69
453.31	466.69
453.53	450.69
453.751	435.69
453.971	432.69
454.192	434.69
454.412	428.69
454.633	456.69
454.853	432.69
455.073	423.69
455.294	450.69
455.514	520.69
455.734	502.69
455.955	453.69
456.175	418.69
456.395	413.69
456.616	435.69
456.836	435.69
457.056	452.69
457.276	426.69
457.497	436.69
457.717	418.69
457.937	432.69
458.157	430.69
458.377	455.69
458.598	438.69
458.818	491.69
459.038	541.69
459.258	568.69
459.478	496.69
459.698	470.69
459.918	485.69
460.138	494.69
460.358	510.69
460.578	494.69
460.798	511.69
461.018	498.69
461.238	523.69
461.458	496.69
461.678	512.69
461.898	520.69
462.118	518.69
462.338	524.69
462.558	540.69
462.777	531.69
462.997	548.69
463.217	551.69
463.437	556.69
463.657	562.69
463.876	540.69
464.096	551.69
464.316	535.69
464.536	539.69
464.755	525.69
464.975	537.69
465.195	554.69
465.414	572.69
465.634	545.69
465.854	511.69
466.073	488.69
466.293	476.69
466.512	479.69
466.732	479.69
466.951	474.69
467.171	458.69
467.391	469.69
467.61	466.69
467.829	486.69
468.049	463.69
468.268	467.69
468.488	463.69
468.707	468.69
468.927	449.69
469.146	464.69
469.365	480.69
469.585	456.69
469.804	467.69
470.023	488.69
470.243	466.69
470.462	464.69
470.681	472.69
470.901	467.69
471.12	487.69
471.339	457.69
471.558	473.69
471.777	453.69
471.997	449.69
472.216	478.69
472.435	456.69
472.654	470.69
472.873	494.69
473.092	459.69
473.311	475.69
473.53	474.69
473.749	482.69
473.968	487.69
474.187	574.69
474.406	572.69
474.625	497.69
474.844	478.69
475.063	480.69
475.282	485.69
475.501	504.69
475.72	483.69
475.939	497.69
476.158	494.69
476.377	476.69
476.596	494.69
476.814	508.69
477.033	486.69
477.252	513.69
477.471	504.69
477.69	502.69
477.908	518.69
478.127	524.69
478.346	537.69
478.564	550.69
478.783	527.69
479.002	533.69
479.22	549.69
479.439	566.69
479.658	562.69
479.876	575.69
480.095	556.69
480.313	580.69
480.532	608.69
480.751	581.69
480.969	575.69
481.188	599.69
481.406	613.69
481.624	587.69
481.843	565.69
482.061	563.69
482.28	565.69
482.498	571.69
482.717	552.69
482.935	550.69
483.153	540.69
483.372	541.69
483.59	566.69
483.808	565.69
484.027	551.69
484.245	553.69
484.463	509.69
484.681	551.69
484.9	562.69
485.118	560.69
485.336	571.69
485.554	556.69
485.772	592.69
485.99	592.69
486.209	581.69
486.427	572.69
486.645	554.69
486.863	575.69
487.081	562.69
487.299	577.69
487.517	577.69
487.735	586.69
487.953	586.69
488.171	588.69
488.389	599.69
488.607	581.69
488.825	588.69
489.043	589.69
489.261	584.69
489.479	583.69
489.696	587.69
489.914	582.69
490.132	613.69
490.35	591.69
490.568	598.69
490.786	626.69
491.003	598.69
491.221	601.69
491.439	623.69
491.657	650.69
491.874	638.69
492.092	644.69
492.31	663.69
492.527	652.69
492.745	644.69
492.963	650.69
493.18	649.69
493.398	649.69
493.615	648.69
493.833	645.69
494.05	679.69
494.268	663.69
494.485	680.69
494.703	638.69
494.92	640.69
495.138	663.69
495.355	673.69
495.573	686.69
495.79	666.69
496.008	689.69
496.225	682.69
496.442	664.69
496.66	709.69
496.877	688.69
497.094	689.69
497.312	692.69
497.529	690.69
497.746	715.69
497.963	735.69
498.181	769.69
498.398	760.69
498.615	788.69
498.832	818.69
499.049	812.69
499.267	873.69
499.484	902.69
499.701	927.69
499.918	933.69
500.135	967.69
500.352	1011.69
500.569	1052.69
500.786	1023.69
501.003	1033.69
501.22	994.69
501.437	950.69
501.654	907.69
501.871	898.69
502.088	884.69
