Data from 1978.PennyLincolnUp.Lamp.En5.5.200Scan.071719.P1_HRD10591_16-13-52-864.txt Node
Date: Thu Jul 18 16:13:52 EDT 2019
User: cochatt
Spectrometer: HR+D1059
Trigger mode: 1
Integration Time (sec): 1.000000E-1
Scans to average: 1
Electric dark correction enabled: true
Nonlinearity correction enabled: false
Boxcar width: 0
XAxis mode: Wavelengths
Number of Pixels in Spectrum: 2048
>>>>>Begin Spectral Data<<<<<
223.165	-29.56
223.4	-29.56
223.635	-29.56
223.869	-22.56
224.104	-9.56
224.338	-12.56
224.573	-22.56
224.808	-5.56
225.042	-1.56
225.277	-0.56
225.511	0.44
225.746	-2.56
225.98	-0.56
226.215	16.44
226.449	20.44
226.683	13.44
226.918	30.44
227.152	26.44
227.387	29.44
227.621	29.44
227.856	41.44
228.09	53.44
228.324	43.44
228.559	55.44
228.793	68.44
229.027	90.44
229.262	95.44
229.496	123.44
229.73	111.44
229.964	136.44
230.199	113.44
230.433	96.44
230.667	109.44
230.901	115.44
231.136	86.44
231.37	97.44
231.604	102.44
231.838	112.44
232.072	101.44
232.306	105.44
232.541	87.44
232.775	121.44
233.009	109.44
233.243	108.44
233.477	117.44
233.711	95.44
233.945	118.44
234.179	114.44
234.413	130.44
234.647	111.44
234.881	116.44
235.115	106.44
235.349	129.44
235.583	106.44
235.817	115.44
236.051	133.44
236.285	120.44
236.519	123.44
236.753	128.44
236.987	128.44
237.221	174.44
237.455	228.44
237.689	178.44
237.922	142.44
238.156	136.44
238.39	135.44
238.624	122.44
238.858	110.44
239.091	101.44
239.325	109.44
239.559	116.44
239.793	131.44
240.027	144.44
240.26	129.44
240.494	143.44
240.728	140.44
240.961	130.44
241.195	132.44
241.429	134.44
241.662	128.44
241.896	123.44
242.13	132.44
242.363	125.44
242.597	113.44
242.83	112.44
243.064	125.44
243.298	126.44
243.531	131.44
243.765	126.44
243.998	127.44
244.232	142.44
244.465	136.44
244.699	142.44
244.932	152.44
245.166	140.44
245.399	145.44
245.633	132.44
245.866	127.44
246.099	144.44
246.333	130.44
246.566	148.44
246.8	147.44
247.033	154.44
247.266	151.44
247.5	153.44
247.733	158.44
247.966	158.44
248.2	169.44
248.433	162.44
248.666	164.44
248.899	185.44
249.133	187.44
249.366	192.44
249.599	187.44
249.832	183.44
250.066	175.44
250.299	179.44
250.532	177.44
250.765	190.44
250.998	215.44
251.231	212.44
251.465	197.44
251.698	192.44
251.931	184.44
252.164	199.44
252.397	191.44
252.63	199.44
252.863	194.44
253.096	194.44
253.329	203.44
253.562	195.44
253.795	202.44
254.028	205.44
254.261	205.44
254.494	211.44
254.727	238.44
254.96	243.44
255.193	245.44
255.426	233.44
255.659	214.44
255.892	218.44
256.124	211.44
256.357	208.44
256.59	207.44
256.823	185.44
257.056	198.44
257.289	193.44
257.521	191.44
257.754	183.44
257.987	205.44
258.22	187.44
258.452	199.44
258.685	197.44
258.918	203.44
259.151	194.44
259.383	211.44
259.616	215.44
259.849	237.44
260.081	224.44
260.314	232.44
260.547	251.44
260.779	234.44
261.012	198.44
261.244	214.44
261.477	218.44
261.71	208.44
261.942	207.44
262.175	238.44
262.407	218.44
262.64	206.44
262.872	215.44
263.105	217.44
263.337	202.44
263.57	214.44
263.802	216.44
264.035	210.44
264.267	200.44
264.499	204.44
264.732	212.44
264.964	219.44
265.197	184.44
265.429	183.44
265.661	205.44
265.894	202.44
266.126	205.44
266.358	224.44
266.591	214.44
266.823	237.44
267.055	221.44
267.287	204.44
267.52	200.44
267.752	209.44
267.984	214.44
268.216	222.44
268.448	228.44
268.681	234.44
268.913	230.44
269.145	242.44
269.377	256.44
269.609	260.44
269.841	248.44
270.073	267.44
270.306	269.44
270.538	294.44
270.77	298.44
271.002	291.44
271.234	277.44
271.466	266.44
271.698	293.44
271.93	273.44
272.162	297.44
272.394	289.44
272.626	286.44
272.858	277.44
273.09	289.44
273.322	263.44
273.553	264.44
273.785	249.44
274.017	243.44
274.249	255.44
274.481	240.44
274.713	243.44
274.945	258.44
275.176	247.44
275.408	265.44
275.64	249.44
275.872	238.44
276.104	257.44
276.335	277.44
276.567	240.44
276.799	273.44
277.031	304.44
277.262	312.44
277.494	282.44
277.726	296.44
277.957	280.44
278.189	270.44
278.421	259.44
278.652	261.44
278.884	260.44
279.115	249.44
279.347	263.44
279.579	280.44
279.81	269.44
280.042	248.44
280.273	265.44
280.505	260.44
280.736	254.44
280.968	255.44
281.199	251.44
281.431	270.44
281.662	253.44
281.894	259.44
282.125	267.44
282.356	278.44
282.588	305.44
282.819	279.44
283.051	281.44
283.282	261.44
283.513	261.44
283.745	268.44
283.976	275.44
284.207	275.44
284.439	263.44
284.67	263.44
284.901	271.44
285.132	271.44
285.364	258.44
285.595	268.44
285.826	249.44
286.057	290.44
286.288	279.44
286.52	249.44
286.751	266.44
286.982	278.44
287.213	250.44
287.444	276.44
287.675	266.44
287.906	281.44
288.138	296.44
288.369	294.44
288.6	293.44
288.831	301.44
289.062	285.44
289.293	293.44
289.524	283.44
289.755	289.44
289.986	264.44
290.217	274.44
290.448	280.44
290.679	296.44
290.91	271.44
291.141	273.44
291.371	278.44
291.602	277.44
291.833	258.44
292.064	293.44
292.295	262.44
292.526	306.44
292.757	286.44
292.987	282.44
293.218	298.44
293.449	294.44
293.68	287.44
293.91	279.44
294.141	301.44
294.372	279.44
294.603	292.44
294.833	280.44
295.064	287.44
295.295	285.44
295.525	300.44
295.756	287.44
295.987	296.44
296.217	303.44
296.448	316.44
296.679	301.44
296.909	298.44
297.14	290.44
297.37	286.44
297.601	267.44
297.831	287.44
298.062	298.44
298.292	313.44
298.523	294.44
298.753	291.44
298.984	306.44
299.214	300.44
299.445	293.44
299.675	294.44
299.905	304.44
300.136	289.44
300.366	305.44
300.597	302.44
300.827	303.44
301.057	321.44
301.288	326.44
301.518	323.44
301.748	313.44
301.979	317.44
302.209	321.44
302.439	318.44
302.669	318.44
302.9	331.44
303.13	306.44
303.36	328.44
303.59	326.44
303.82	329.44
304.051	330.44
304.281	304.44
304.511	312.44
304.741	319.44
304.971	330.44
305.201	340.44
305.431	325.44
305.661	320.44
305.891	335.44
306.121	336.44
306.352	323.44
306.582	319.44
306.812	312.44
307.042	328.44
307.272	327.44
307.502	337.44
307.731	323.44
307.961	318.44
308.191	327.44
308.421	326.44
308.651	323.44
308.881	330.44
309.111	339.44
309.341	344.44
309.571	343.44
309.8	367.44
310.03	353.44
310.26	383.44
310.49	369.44
310.72	396.44
310.949	373.44
311.179	369.44
311.409	370.44
311.639	354.44
311.868	376.44
312.098	368.44
312.328	374.44
312.557	387.44
312.787	389.44
313.017	382.44
313.246	396.44
313.476	375.44
313.706	362.44
313.935	379.44
314.165	389.44
314.394	397.44
314.624	402.44
314.853	373.44
315.083	370.44
315.312	373.44
315.542	350.44
315.771	372.44
316.001	353.44
316.23	373.44
316.46	375.44
316.689	372.44
316.919	389.44
317.148	387.44
317.377	386.44
317.607	381.44
317.836	374.44
318.065	395.44
318.295	353.44
318.524	369.44
318.753	365.44
318.983	357.44
319.212	368.44
319.441	371.44
319.67	381.44
319.9	387.44
320.129	371.44
320.358	361.44
320.587	373.44
320.816	389.44
321.046	384.44
321.275	409.44
321.504	388.44
321.733	395.44
321.962	389.44
322.191	403.44
322.42	440.44
322.649	449.44
322.878	474.44
323.108	459.44
323.337	459.44
323.566	480.44
323.795	520.44
324.024	581.44
324.253	704.44
324.482	968.44
324.71	1576.44
324.939	2345.44
325.168	2083.44
325.397	1010.44
325.626	643.44
325.855	546.44
326.084	523.44
326.313	503.44
326.542	503.44
326.77	557.44
326.999	664.44
327.228	902.44
327.457	1409.44
327.686	1795.44
327.914	1155.44
328.143	728.44
328.372	624.44
328.6	577.44
328.829	544.44
329.058	553.44
329.287	572.44
329.515	541.44
329.744	514.44
329.972	503.44
330.201	507.44
330.43	559.44
330.658	570.44
330.887	599.44
331.115	582.44
331.344	514.44
331.572	486.44
331.801	511.44
332.03	500.44
332.258	481.44
332.486	453.44
332.715	459.44
332.943	427.44
333.172	462.44
333.4	458.44
333.629	472.44
333.857	477.44
334.085	481.44
334.314	488.44
334.542	504.44
334.771	515.44
334.999	498.44
335.227	473.44
335.455	463.44
335.684	458.44
335.912	434.44
336.14	454.44
336.369	440.44
336.597	426.44
336.825	464.44
337.053	437.44
337.281	458.44
337.51	440.44
337.738	453.44
337.966	441.44
338.194	449.44
338.422	445.44
338.65	431.44
338.878	435.44
339.106	436.44
339.334	430.44
339.562	427.44
339.79	417.44
340.018	420.44
340.246	430.44
340.474	418.44
340.702	428.44
340.93	449.44
341.158	430.44
341.386	431.44
341.614	442.44
341.842	454.44
342.07	427.44
342.298	422.44
342.526	415.44
342.754	431.44
342.981	422.44
343.209	402.44
343.437	448.44
343.665	437.44
343.893	451.44
344.12	432.44
344.348	461.44
344.576	447.44
344.804	442.44
345.031	469.44
345.259	452.44
345.487	439.44
345.714	445.44
345.942	419.44
346.17	439.44
346.397	429.44
346.625	410.44
346.853	408.44
347.08	450.44
347.308	431.44
347.535	426.44
347.763	422.44
347.99	434.44
348.218	417.44
348.445	425.44
348.673	438.44
348.9	415.44
349.128	419.44
349.355	423.44
349.583	395.44
349.81	407.44
350.037	425.44
350.265	387.44
350.492	412.44
350.72	413.44
350.947	401.44
351.174	445.44
351.402	443.44
351.629	418.44
351.856	432.44
352.083	407.44
352.311	436.44
352.538	437.44
352.765	445.44
352.992	433.44
353.22	441.44
353.447	413.44
353.674	429.44
353.901	395.44
354.128	401.44
354.355	418.44
354.583	400.44
354.81	407.44
355.037	408.44
355.264	395.44
355.491	374.44
355.718	396.44
355.945	411.44
356.172	409.44
356.399	413.44
356.626	384.44
356.853	411.44
357.08	403.44
357.307	369.44
357.534	380.44
357.761	393.44
357.988	378.44
358.215	399.44
358.441	407.44
358.668	418.44
358.895	398.44
359.122	394.44
359.349	414.44
359.576	439.44
359.802	459.44
360.029	463.44
360.256	463.44
360.483	436.44
360.709	450.44
360.936	413.44
361.163	426.44
361.39	437.44
361.616	422.44
361.843	418.44
362.07	411.44
362.296	426.44
362.523	438.44
362.749	417.44
362.976	429.44
363.203	423.44
363.429	408.44
363.656	416.44
363.882	420.44
364.109	413.44
364.335	417.44
364.562	407.44
364.788	412.44
365.015	416.44
365.241	402.44
365.468	438.44
365.694	413.44
365.92	400.44
366.147	417.44
366.373	424.44
366.599	399.44
366.826	415.44
367.052	415.44
367.278	399.44
367.505	410.44
367.731	397.44
367.957	414.44
368.184	417.44
368.41	400.44
368.636	419.44
368.862	436.44
369.089	426.44
369.315	429.44
369.541	419.44
369.767	405.44
369.993	397.44
370.219	411.44
370.445	413.44
370.672	410.44
370.898	423.44
371.124	403.44
371.35	420.44
371.576	403.44
371.802	397.44
372.028	419.44
372.254	417.44
372.48	417.44
372.706	413.44
372.932	419.44
373.158	396.44
373.384	421.44
373.61	425.44
373.835	429.44
374.061	415.44
374.287	409.44
374.513	443.44
374.739	449.44
374.965	418.44
375.191	431.44
375.416	426.44
375.642	431.44
375.868	426.44
376.094	423.44
376.319	403.44
376.545	417.44
376.771	422.44
376.997	416.44
377.222	403.44
377.448	405.44
377.674	437.44
377.899	419.44
378.125	407.44
378.35	423.44
378.576	402.44
378.802	410.44
379.027	417.44
379.253	405.44
379.478	397.44
379.704	412.44
379.929	395.44
380.155	410.44
380.38	425.44
380.606	427.44
380.831	407.44
381.057	412.44
381.282	397.44
381.507	410.44
381.733	405.44
381.958	417.44
382.184	396.44
382.409	443.44
382.634	445.44
382.86	417.44
383.085	433.44
383.31	419.44
383.535	432.44
383.761	436.44
383.986	434.44
384.211	436.44
384.436	451.44
384.662	440.44
384.887	456.44
385.112	457.44
385.337	432.44
385.562	445.44
385.787	461.44
386.013	475.44
386.238	457.44
386.463	474.44
386.688	461.44
386.913	459.44
387.138	459.44
387.363	460.44
387.588	476.44
387.813	455.44
388.038	457.44
388.263	433.44
388.488	474.44
388.713	494.44
388.938	453.44
389.163	449.44
389.387	470.44
389.612	467.44
389.837	464.44
390.062	456.44
390.287	447.44
390.512	449.44
390.736	441.44
390.961	478.44
391.186	484.44
391.411	482.44
391.636	477.44
391.86	483.44
392.085	480.44
392.31	485.44
392.534	502.44
392.759	494.44
392.984	463.44
393.208	457.44
393.433	466.44
393.658	464.44
393.882	466.44
394.107	484.44
394.331	472.44
394.556	471.44
394.78	466.44
395.005	465.44
395.229	477.44
395.454	493.44
395.678	483.44
395.903	513.44
396.127	523.44
396.352	509.44
396.576	475.44
396.801	466.44
397.025	483.44
397.249	498.44
397.474	515.44
397.698	507.44
397.922	515.44
398.147	498.44
398.371	533.44
398.595	521.44
398.82	532.44
399.044	536.44
399.268	557.44
399.492	581.44
399.717	626.44
399.941	634.44
400.165	671.44
400.389	665.44
400.613	623.44
400.837	591.44
401.062	567.44
401.286	543.44
401.51	544.44
401.734	535.44
401.958	558.44
402.182	533.44
402.406	539.44
402.63	562.44
402.854	557.44
403.078	562.44
403.302	573.44
403.526	571.44
403.75	561.44
403.974	594.44
404.198	569.44
404.422	570.44
404.645	567.44
404.869	573.44
405.093	632.44
405.317	641.44
405.541	671.44
405.765	641.44
405.988	597.44
406.212	587.44
406.436	613.44
406.66	618.44
406.883	617.44
407.107	619.44
407.331	656.44
407.555	742.44
407.778	770.44
408.002	688.44
408.226	634.44
408.449	623.44
408.673	629.44
408.896	663.44
409.12	688.44
409.344	657.44
409.567	603.44
409.791	608.44
410.014	562.44
410.238	577.44
410.461	572.44
410.685	570.44
410.908	600.44
411.132	624.44
411.355	665.44
411.578	630.44
411.802	578.44
412.025	553.44
412.249	591.44
412.472	587.44
412.695	637.44
412.919	612.44
413.142	569.44
413.365	577.44
413.589	555.44
413.812	538.44
414.035	533.44
414.258	527.44
414.482	538.44
414.705	531.44
414.928	545.44
415.151	528.44
415.374	539.44
415.597	528.44
415.821	529.44
416.044	538.44
416.267	553.44
416.49	543.44
416.713	530.44
416.936	542.44
417.159	542.44
417.382	529.44
417.605	534.44
417.828	544.44
418.051	551.44
418.274	545.44
418.497	538.44
418.72	541.44
418.943	525.44
419.166	536.44
419.389	583.44
419.611	578.44
419.834	552.44
420.057	544.44
420.28	573.44
420.503	567.44
420.726	572.44
420.948	582.44
421.171	603.44
421.394	660.44
421.617	589.44
421.839	565.44
422.062	552.44
422.285	581.44
422.507	628.44
422.73	731.44
422.953	687.44
423.175	607.44
423.398	567.44
423.621	568.44
423.843	610.44
424.066	606.44
424.288	589.44
424.511	609.44
424.733	665.44
424.956	768.44
425.178	723.44
425.401	713.44
425.623	749.44
425.846	647.44
426.068	587.44
426.291	609.44
426.513	576.44
426.735	612.44
426.958	629.44
427.18	727.44
427.402	885.44
427.625	978.44
427.847	830.44
428.069	721.44
428.292	644.44
428.514	593.44
428.736	587.44
428.958	565.44
429.181	553.44
429.403	557.44
429.625	576.44
429.847	604.44
430.069	684.44
430.292	648.44
430.514	573.44
430.736	547.44
430.958	549.44
431.18	530.44
431.402	518.44
431.624	511.44
431.846	527.44
432.068	527.44
432.29	523.44
432.512	524.44
432.734	532.44
432.956	521.44
433.178	573.44
433.4	536.44
433.622	548.44
433.844	524.44
434.066	523.44
434.287	502.44
434.509	529.44
434.731	546.44
434.953	549.44
435.175	552.44
435.397	583.44
435.618	596.44
435.84	634.44
436.062	739.44
436.284	842.44
436.505	678.44
436.727	634.44
436.949	577.44
437.17	552.44
437.392	551.44
437.614	575.44
437.835	583.44
438.057	694.44
438.278	824.44
438.5	802.44
438.721	906.44
438.943	868.44
439.165	685.44
439.386	637.44
439.608	625.44
439.829	607.44
440.05	643.44
440.272	683.44
440.493	655.44
440.715	572.44
440.936	561.44
441.158	571.44
441.379	524.44
441.6	555.44
441.822	588.44
442.043	637.44
442.264	746.44
442.486	800.44
442.707	662.44
442.928	603.44
443.149	618.44
443.371	635.44
443.592	693.44
443.813	808.44
444.034	870.44
444.255	712.44
444.476	641.44
444.698	616.44
444.919	615.44
445.14	663.44
445.361	644.44
445.582	671.44
445.803	738.44
446.024	858.44
446.245	858.44
446.466	782.44
446.687	640.44
446.908	603.44
447.129	593.44
447.35	542.44
447.571	561.44
447.792	555.44
448.013	584.44
448.234	555.44
448.455	630.44
448.675	750.44
448.896	897.44
449.117	743.44
449.338	693.44
449.559	811.44
449.779	938.44
450	749.44
450.221	615.44
450.442	559.44
450.662	548.44
450.883	539.44
451.104	550.44
451.324	544.44
451.545	497.44
451.766	497.44
451.986	487.44
452.207	501.44
452.428	520.44
452.648	490.44
452.869	505.44
453.089	499.44
453.31	539.44
453.53	487.44
453.751	487.44
453.971	503.44
454.192	513.44
454.412	507.44
454.633	517.44
454.853	503.44
455.073	495.44
455.294	514.44
455.514	601.44
455.734	580.44
455.955	513.44
456.175	495.44
456.395	472.44
456.616	476.44
456.836	467.44
457.056	477.44
457.276	463.44
457.497	477.44
457.717	470.44
457.937	455.44
458.157	489.44
458.377	514.44
458.598	486.44
458.818	546.44
459.038	665.44
459.258	703.44
459.478	598.44
459.698	543.44
459.918	534.44
460.138	543.44
460.358	532.44
460.578	545.44
460.798	551.44
461.018	553.44
461.238	553.44
461.458	544.44
461.678	526.44
461.898	557.44
462.118	540.44
462.338	552.44
462.558	552.44
462.777	573.44
462.997	583.44
463.217	577.44
463.437	595.44
463.657	559.44
463.876	586.44
464.096	591.44
464.316	574.44
464.536	582.44
464.755	566.44
464.975	583.44
465.195	631.44
465.414	687.44
465.634	609.44
465.854	571.44
466.073	544.44
466.293	535.44
466.512	519.44
466.732	507.44
466.951	499.44
467.171	522.44
467.391	521.44
467.61	541.44
467.829	537.44
468.049	526.44
468.268	520.44
468.488	518.44
468.707	516.44
468.927	495.44
469.146	497.44
469.365	487.44
469.585	505.44
469.804	519.44
470.023	536.44
470.243	534.44
470.462	519.44
470.681	545.44
470.901	541.44
471.12	509.44
471.339	512.44
471.558	514.44
471.777	523.44
471.997	521.44
472.216	534.44
472.435	554.44
472.654	543.44
472.873	516.44
473.092	530.44
473.311	523.44
473.53	529.44
473.749	517.44
473.968	561.44
474.187	674.44
474.406	725.44
474.625	569.44
474.844	558.44
475.063	518.44
475.282	518.44
475.501	528.44
475.72	518.44
475.939	531.44
476.158	555.44
476.377	553.44
476.596	545.44
476.814	541.44
477.033	569.44
477.252	544.44
477.471	535.44
477.69	554.44
477.908	562.44
478.127	579.44
478.346	569.44
478.564	573.44
478.783	586.44
479.002	601.44
479.22	597.44
479.439	618.44
479.658	621.44
479.876	649.44
480.095	647.44
480.313	665.44
480.532	626.44
480.751	635.44
480.969	627.44
481.188	674.44
481.406	727.44
481.624	646.44
481.843	641.44
482.061	614.44
482.28	598.44
482.498	602.44
482.717	607.44
482.935	632.44
483.153	613.44
483.372	606.44
483.59	614.44
483.808	595.44
484.027	600.44
484.245	597.44
484.463	617.44
484.681	628.44
484.9	625.44
485.118	614.44
485.336	614.44
485.554	637.44
485.772	614.44
485.99	647.44
486.209	636.44
486.427	624.44
486.645	642.44
486.863	645.44
487.081	669.44
487.299	685.44
487.517	669.44
487.735	663.44
487.953	628.44
488.171	653.44
488.389	657.44
488.607	681.44
488.825	678.44
489.043	656.44
489.261	625.44
489.479	655.44
489.696	673.44
489.914	654.44
490.132	677.44
490.35	683.44
490.568	682.44
490.786	659.44
491.003	690.44
491.221	697.44
491.439	712.44
491.657	711.44
491.874	730.44
492.092	721.44
492.31	738.44
492.527	744.44
492.745	726.44
492.963	745.44
493.18	761.44
493.398	776.44
493.615	762.44
493.833	752.44
494.05	758.44
494.268	755.44
494.485	736.44
494.703	770.44
494.92	755.44
495.138	739.44
495.355	781.44
495.573	760.44
495.79	778.44
496.008	783.44
496.225	774.44
496.442	754.44
496.66	771.44
496.877	785.44
497.094	762.44
497.312	781.44
497.529	780.44
497.746	833.44
497.963	858.44
498.181	856.44
498.398	888.44
498.615	867.44
498.832	899.44
499.049	912.44
499.267	927.44
499.484	946.44
499.701	961.44
499.918	996.44
500.135	1069.44
500.352	1097.44
500.569	1100.44
500.786	1117.44
501.003	1125.44
501.22	1102.44
501.437	1053.44
501.654	1013.44
501.871	975.44
