Data from 1978.PennyLincolnUp.Lamp.En5.5.200Scan.071719.P1_HRD10591_16-11-52-872.txt Node
Date: Thu Jul 18 16:11:52 EDT 2019
User: cochatt
Spectrometer: HR+D1059
Trigger mode: 1
Integration Time (sec): 1.000000E-1
Scans to average: 1
Electric dark correction enabled: true
Nonlinearity correction enabled: false
Boxcar width: 0
XAxis mode: Wavelengths
Number of Pixels in Spectrum: 2048
>>>>>Begin Spectral Data<<<<<
223.165	-8.94
223.4	-8.94
223.635	-8.94
223.869	-13.94
224.104	-16.94
224.338	-11.94
224.573	-21.94
224.808	-16.94
225.042	-27.94
225.277	6.06
225.511	-12.94
225.746	9.06
225.98	1.06
226.215	23.06
226.449	19.06
226.683	14.06
226.918	29.06
227.152	30.06
227.387	40.06
227.621	41.06
227.856	40.06
228.09	47.06
228.324	63.06
228.559	62.06
228.793	74.06
229.027	95.06
229.262	91.06
229.496	91.06
229.73	117.06
229.964	137.06
230.199	113.06
230.433	105.06
230.667	115.06
230.901	114.06
231.136	102.06
231.37	103.06
231.604	112.06
231.838	109.06
232.072	101.06
232.306	109.06
232.541	121.06
232.775	107.06
233.009	113.06
233.243	112.06
233.477	126.06
233.711	104.06
233.945	108.06
234.179	117.06
234.413	117.06
234.647	121.06
234.881	119.06
235.115	109.06
235.349	125.06
235.583	111.06
235.817	117.06
236.051	118.06
236.285	122.06
236.519	128.06
236.753	126.06
236.987	123.06
237.221	146.06
237.455	183.06
237.689	160.06
237.922	133.06
238.156	104.06
238.39	110.06
238.624	109.06
238.858	119.06
239.091	119.06
239.325	109.06
239.559	119.06
239.793	125.06
240.027	114.06
240.26	122.06
240.494	134.06
240.728	146.06
240.961	130.06
241.195	129.06
241.429	134.06
241.662	118.06
241.896	125.06
242.13	123.06
242.363	116.06
242.597	130.06
242.83	146.06
243.064	146.06
243.298	132.06
243.531	138.06
243.765	119.06
243.998	135.06
244.232	131.06
244.465	124.06
244.699	137.06
244.932	146.06
245.166	148.06
245.399	121.06
245.633	139.06
245.866	131.06
246.099	134.06
246.333	139.06
246.566	115.06
246.8	147.06
247.033	151.06
247.266	145.06
247.5	147.06
247.733	137.06
247.966	135.06
248.2	163.06
248.433	145.06
248.666	143.06
248.899	149.06
249.133	148.06
249.366	168.06
249.599	176.06
249.832	169.06
250.066	141.06
250.299	148.06
250.532	154.06
250.765	166.06
250.998	174.06
251.231	177.06
251.465	175.06
251.698	178.06
251.931	172.06
252.164	173.06
252.397	164.06
252.63	177.06
252.863	165.06
253.096	181.06
253.329	177.06
253.562	173.06
253.795	179.06
254.028	181.06
254.261	174.06
254.494	189.06
254.727	217.06
254.96	215.06
255.193	176.06
255.426	189.06
255.659	181.06
255.892	188.06
256.124	175.06
256.357	190.06
256.59	191.06
256.823	186.06
257.056	187.06
257.289	181.06
257.521	184.06
257.754	171.06
257.987	193.06
258.22	173.06
258.452	185.06
258.685	171.06
258.918	173.06
259.151	187.06
259.383	189.06
259.616	195.06
259.849	178.06
260.081	202.06
260.314	209.06
260.547	188.06
260.779	197.06
261.012	204.06
261.244	176.06
261.477	189.06
261.71	181.06
261.942	177.06
262.175	214.06
262.407	196.06
262.64	172.06
262.872	197.06
263.105	184.06
263.337	183.06
263.57	178.06
263.802	167.06
264.035	184.06
264.267	173.06
264.499	183.06
264.732	174.06
264.964	205.06
265.197	191.06
265.429	185.06
265.661	195.06
265.894	194.06
266.126	187.06
266.358	194.06
266.591	193.06
266.823	211.06
267.055	209.06
267.287	178.06
267.52	189.06
267.752	205.06
267.984	209.06
268.216	189.06
268.448	190.06
268.681	207.06
268.913	218.06
269.145	230.06
269.377	236.06
269.609	233.06
269.841	228.06
270.073	224.06
270.306	245.06
270.538	250.06
270.77	225.06
271.002	237.06
271.234	233.06
271.466	221.06
271.698	233.06
271.93	237.06
272.162	246.06
272.394	258.06
272.626	237.06
272.858	217.06
273.09	230.06
273.322	239.06
273.553	200.06
273.785	226.06
274.017	211.06
274.249	239.06
274.481	208.06
274.713	207.06
274.945	233.06
275.176	222.06
275.408	225.06
275.64	229.06
275.872	238.06
276.104	249.06
276.335	217.06
276.567	246.06
276.799	238.06
277.031	254.06
277.262	251.06
277.494	255.06
277.726	250.06
277.957	253.06
278.189	230.06
278.421	241.06
278.652	225.06
278.884	236.06
279.115	233.06
279.347	249.06
279.579	225.06
279.81	230.06
280.042	234.06
280.273	227.06
280.505	239.06
280.736	231.06
280.968	236.06
281.199	222.06
281.431	235.06
281.662	249.06
281.894	254.06
282.125	238.06
282.356	242.06
282.588	253.06
282.819	267.06
283.051	270.06
283.282	241.06
283.513	252.06
283.745	249.06
283.976	243.06
284.207	263.06
284.439	258.06
284.67	242.06
284.901	235.06
285.132	253.06
285.364	240.06
285.595	238.06
285.826	247.06
286.057	257.06
286.288	239.06
286.52	247.06
286.751	247.06
286.982	239.06
287.213	261.06
287.444	245.06
287.675	246.06
287.906	253.06
288.138	271.06
288.369	259.06
288.6	269.06
288.831	263.06
289.062	261.06
289.293	266.06
289.524	254.06
289.755	258.06
289.986	264.06
290.217	259.06
290.448	247.06
290.679	265.06
290.91	270.06
291.141	263.06
291.371	263.06
291.602	250.06
291.833	237.06
292.064	268.06
292.295	261.06
292.526	251.06
292.757	265.06
292.987	253.06
293.218	243.06
293.449	253.06
293.68	269.06
293.91	259.06
294.141	254.06
294.372	262.06
294.603	266.06
294.833	267.06
295.064	272.06
295.295	262.06
295.525	266.06
295.756	262.06
295.987	274.06
296.217	273.06
296.448	283.06
296.679	274.06
296.909	262.06
297.14	265.06
297.37	277.06
297.601	268.06
297.831	256.06
298.062	261.06
298.292	270.06
298.523	271.06
298.753	271.06
298.984	266.06
299.214	261.06
299.445	267.06
299.675	288.06
299.905	279.06
300.136	270.06
300.366	260.06
300.597	271.06
300.827	279.06
301.057	289.06
301.288	281.06
301.518	277.06
301.748	300.06
301.979	283.06
302.209	287.06
302.439	288.06
302.669	299.06
302.9	315.06
303.13	296.06
303.36	307.06
303.59	288.06
303.82	310.06
304.051	300.06
304.281	289.06
304.511	293.06
304.741	298.06
304.971	294.06
305.201	276.06
305.431	291.06
305.661	298.06
305.891	289.06
306.121	288.06
306.352	282.06
306.582	310.06
306.812	298.06
307.042	293.06
307.272	282.06
307.502	302.06
307.731	279.06
307.961	304.06
308.191	302.06
308.421	313.06
308.651	302.06
308.881	289.06
309.111	303.06
309.341	342.06
309.571	302.06
309.8	306.06
310.03	323.06
310.26	318.06
310.49	321.06
310.72	328.06
310.949	338.06
311.179	329.06
311.409	345.06
311.639	319.06
311.868	318.06
312.098	336.06
312.328	313.06
312.557	321.06
312.787	332.06
313.017	352.06
313.246	320.06
313.476	328.06
313.706	328.06
313.935	327.06
314.165	346.06
314.394	341.06
314.624	319.06
314.853	333.06
315.083	327.06
315.312	354.06
315.542	319.06
315.771	317.06
316.001	315.06
316.23	341.06
316.46	323.06
316.689	325.06
316.919	315.06
317.148	333.06
317.377	339.06
317.607	328.06
317.836	333.06
318.065	329.06
318.295	328.06
318.524	336.06
318.753	328.06
318.983	328.06
319.212	318.06
319.441	355.06
319.67	313.06
319.9	343.06
320.129	329.06
320.358	343.06
320.587	340.06
320.816	345.06
321.046	344.06
321.275	343.06
321.504	344.06
321.733	344.06
321.962	369.06
322.191	336.06
322.42	345.06
322.649	370.06
322.878	380.06
323.108	367.06
323.337	381.06
323.566	404.06
323.795	423.06
324.024	431.06
324.253	467.06
324.482	679.06
324.71	1017.06
324.939	1516.06
325.168	1351.06
325.397	688.06
325.626	517.06
325.855	423.06
326.084	398.06
326.313	389.06
326.542	407.06
326.77	429.06
326.999	499.06
327.228	632.06
327.457	892.06
327.686	1169.06
327.914	752.06
328.143	518.06
328.372	470.06
328.6	451.06
328.829	435.06
329.058	456.06
329.287	432.06
329.515	435.06
329.744	430.06
329.972	407.06
330.201	395.06
330.43	425.06
330.658	457.06
330.887	463.06
331.115	440.06
331.344	438.06
331.572	398.06
331.801	399.06
332.03	417.06
332.258	409.06
332.486	402.06
332.715	391.06
332.943	384.06
333.172	402.06
333.4	411.06
333.629	401.06
333.857	410.06
334.085	413.06
334.314	424.06
334.542	445.06
334.771	448.06
334.999	438.06
335.227	422.06
335.455	407.06
335.684	415.06
335.912	424.06
336.14	407.06
336.369	387.06
336.597	413.06
336.825	409.06
337.053	413.06
337.281	404.06
337.51	411.06
337.738	397.06
337.966	407.06
338.194	394.06
338.422	388.06
338.65	408.06
338.878	388.06
339.106	375.06
339.334	393.06
339.562	411.06
339.79	372.06
340.018	388.06
340.246	391.06
340.474	395.06
340.702	384.06
340.93	386.06
341.158	400.06
341.386	389.06
341.614	387.06
341.842	367.06
342.07	373.06
342.298	365.06
342.526	379.06
342.754	379.06
342.981	378.06
343.209	384.06
343.437	386.06
343.665	377.06
343.893	409.06
344.12	409.06
344.348	391.06
344.576	391.06
344.804	401.06
345.031	426.06
345.259	409.06
345.487	411.06
345.714	402.06
345.942	395.06
346.17	369.06
346.397	385.06
346.625	366.06
346.853	383.06
347.08	363.06
347.308	392.06
347.535	393.06
347.763	384.06
347.99	384.06
348.218	391.06
348.445	382.06
348.673	379.06
348.9	379.06
349.128	359.06
349.355	359.06
349.583	366.06
349.81	371.06
350.037	382.06
350.265	361.06
350.492	353.06
350.72	367.06
350.947	369.06
351.174	382.06
351.402	389.06
351.629	373.06
351.856	381.06
352.083	383.06
352.311	375.06
352.538	387.06
352.765	370.06
352.992	391.06
353.22	380.06
353.447	366.06
353.674	381.06
353.901	373.06
354.128	347.06
354.355	375.06
354.583	361.06
354.81	359.06
355.037	364.06
355.264	374.06
355.491	358.06
355.718	358.06
355.945	357.06
356.172	354.06
356.399	361.06
356.626	357.06
356.853	380.06
357.08	373.06
357.307	357.06
357.534	352.06
357.761	383.06
357.988	349.06
358.215	375.06
358.441	374.06
358.668	365.06
358.895	355.06
359.122	368.06
359.349	396.06
359.576	373.06
359.802	380.06
360.029	397.06
360.256	391.06
360.483	395.06
360.709	385.06
360.936	379.06
361.163	363.06
361.39	375.06
361.616	369.06
361.843	367.06
362.07	393.06
362.296	379.06
362.523	359.06
362.749	381.06
362.976	375.06
363.203	368.06
363.429	353.06
363.656	374.06
363.882	385.06
364.109	372.06
364.335	370.06
364.562	352.06
364.788	375.06
365.015	401.06
365.241	377.06
365.468	361.06
365.694	381.06
365.92	379.06
366.147	371.06
366.373	389.06
366.599	369.06
366.826	377.06
367.052	374.06
367.278	366.06
367.505	355.06
367.731	384.06
367.957	359.06
368.184	389.06
368.41	378.06
368.636	368.06
368.862	375.06
369.089	379.06
369.315	385.06
369.541	377.06
369.767	380.06
369.993	378.06
370.219	383.06
370.445	391.06
370.672	369.06
370.898	361.06
371.124	369.06
371.35	386.06
371.576	379.06
371.802	374.06
372.028	380.06
372.254	396.06
372.48	375.06
372.706	401.06
372.932	376.06
373.158	378.06
373.384	390.06
373.61	384.06
373.835	407.06
374.061	370.06
374.287	391.06
374.513	401.06
374.739	386.06
374.965	391.06
375.191	398.06
375.416	383.06
375.642	400.06
375.868	381.06
376.094	381.06
376.319	386.06
376.545	393.06
376.771	385.06
376.997	385.06
377.222	384.06
377.448	364.06
377.674	381.06
377.899	371.06
378.125	368.06
378.35	386.06
378.576	393.06
378.802	375.06
379.027	381.06
379.253	371.06
379.478	387.06
379.704	387.06
379.929	379.06
380.155	366.06
380.38	385.06
380.606	403.06
380.831	375.06
381.057	397.06
381.282	385.06
381.507	386.06
381.733	385.06
381.958	396.06
382.184	387.06
382.409	389.06
382.634	402.06
382.86	397.06
383.085	381.06
383.31	396.06
383.535	403.06
383.761	401.06
383.986	415.06
384.211	395.06
384.436	414.06
384.662	429.06
384.887	419.06
385.112	429.06
385.337	423.06
385.562	434.06
385.787	433.06
386.013	449.06
386.238	447.06
386.463	445.06
386.688	442.06
386.913	443.06
387.138	446.06
387.363	442.06
387.588	444.06
387.813	435.06
388.038	442.06
388.263	426.06
388.488	446.06
388.713	437.06
388.938	453.06
389.163	429.06
389.387	403.06
389.612	420.06
389.837	423.06
390.062	417.06
390.287	458.06
390.512	453.06
390.736	416.06
390.961	447.06
391.186	453.06
391.411	439.06
391.636	471.06
391.86	466.06
392.085	449.06
392.31	449.06
392.534	450.06
392.759	470.06
392.984	447.06
393.208	439.06
393.433	442.06
393.658	426.06
393.882	440.06
394.107	440.06
394.331	449.06
394.556	432.06
394.78	441.06
395.005	462.06
395.229	450.06
395.454	453.06
395.678	455.06
395.903	454.06
396.127	484.06
396.352	483.06
396.576	455.06
396.801	466.06
397.025	487.06
397.249	471.06
397.474	458.06
397.698	472.06
397.922	486.06
398.147	491.06
398.371	460.06
398.595	491.06
398.82	491.06
399.044	530.06
399.268	558.06
399.492	553.06
399.717	584.06
399.941	604.06
400.165	602.06
400.389	624.06
400.613	590.06
400.837	544.06
401.062	524.06
401.286	509.06
401.51	508.06
401.734	508.06
401.958	517.06
402.182	507.06
402.406	519.06
402.63	521.06
402.854	509.06
403.078	511.06
403.302	524.06
403.526	527.06
403.75	527.06
403.974	531.06
404.198	504.06
404.422	527.06
404.645	510.06
404.869	537.06
405.093	541.06
405.317	581.06
405.541	595.06
405.765	575.06
405.988	550.06
406.212	553.06
406.436	548.06
406.66	531.06
406.883	547.06
407.107	598.06
407.331	594.06
407.555	669.06
407.778	659.06
408.002	631.06
408.226	570.06
408.449	567.06
408.673	565.06
408.896	592.06
409.12	616.06
409.344	594.06
409.567	575.06
409.791	531.06
410.014	547.06
410.238	530.06
410.461	524.06
410.685	535.06
410.908	544.06
411.132	567.06
411.355	605.06
411.578	589.06
411.802	536.06
412.025	525.06
412.249	538.06
412.472	551.06
412.695	582.06
412.919	556.06
413.142	506.06
413.365	527.06
413.589	525.06
413.812	487.06
414.035	526.06
414.258	508.06
414.482	498.06
414.705	525.06
414.928	511.06
415.151	518.06
415.374	515.06
415.597	486.06
415.821	517.06
416.044	474.06
416.267	514.06
416.49	495.06
416.713	498.06
416.936	498.06
417.159	496.06
417.382	479.06
417.605	501.06
417.828	500.06
418.051	493.06
418.274	508.06
418.497	494.06
418.72	508.06
418.943	489.06
419.166	505.06
419.389	546.06
419.611	526.06
419.834	523.06
420.057	521.06
420.28	488.06
420.503	505.06
420.726	521.06
420.948	527.06
421.171	532.06
421.394	581.06
421.617	514.06
421.839	495.06
422.062	507.06
422.285	524.06
422.507	563.06
422.73	623.06
422.953	605.06
423.175	542.06
423.398	497.06
423.621	529.06
423.843	545.06
424.066	522.06
424.288	534.06
424.511	526.06
424.733	582.06
424.956	646.06
425.178	625.06
425.401	644.06
425.623	637.06
425.846	541.06
426.068	514.06
426.291	526.06
426.513	532.06
426.735	535.06
426.958	569.06
427.18	643.06
427.402	744.06
427.625	821.06
427.847	699.06
428.069	610.06
428.292	550.06
428.514	517.06
428.736	505.06
428.958	508.06
429.181	478.06
429.403	495.06
429.625	507.06
429.847	531.06
430.069	567.06
430.292	566.06
430.514	514.06
430.736	503.06
430.958	499.06
431.18	498.06
431.402	480.06
431.624	484.06
431.846	487.06
432.068	476.06
432.29	483.06
432.512	482.06
432.734	502.06
432.956	485.06
433.178	489.06
433.4	486.06
433.622	473.06
433.844	494.06
434.066	479.06
434.287	487.06
434.509	501.06
434.731	488.06
434.953	493.06
435.175	512.06
435.397	531.06
435.618	535.06
435.84	537.06
436.062	648.06
436.284	694.06
436.505	593.06
436.727	517.06
436.949	521.06
437.17	489.06
437.392	502.06
437.614	495.06
437.835	504.06
438.057	571.06
438.278	663.06
438.5	670.06
438.721	765.06
438.943	732.06
439.165	574.06
439.386	543.06
439.608	521.06
439.829	524.06
440.05	553.06
440.272	593.06
440.493	560.06
440.715	534.06
440.936	496.06
441.158	506.06
441.379	486.06
441.6	493.06
441.822	535.06
442.043	561.06
442.264	640.06
442.486	649.06
442.707	579.06
442.928	535.06
443.149	565.06
443.371	554.06
443.592	577.06
443.813	677.06
444.034	733.06
444.255	635.06
444.476	555.06
444.698	529.06
444.919	550.06
445.14	642.06
445.361	586.06
445.582	552.06
445.803	588.06
446.024	685.06
446.245	694.06
446.466	635.06
446.687	560.06
446.908	519.06
447.129	497.06
447.35	505.06
447.571	480.06
447.792	515.06
448.013	485.06
448.234	479.06
448.455	522.06
448.675	610.06
448.896	750.06
449.117	617.06
449.338	575.06
449.559	686.06
449.779	781.06
450	605.06
450.221	496.06
450.442	504.06
450.662	475.06
450.883	466.06
451.104	496.06
451.324	474.06
451.545	447.06
451.766	428.06
451.986	471.06
452.207	441.06
452.428	443.06
452.648	441.06
452.869	431.06
453.089	431.06
453.31	476.06
453.53	441.06
453.751	464.06
453.971	446.06
454.192	456.06
454.412	444.06
454.633	447.06
454.853	444.06
455.073	447.06
455.294	473.06
455.514	493.06
455.734	505.06
455.955	437.06
456.175	425.06
456.395	404.06
456.616	443.06
456.836	431.06
457.056	441.06
457.276	414.06
457.497	443.06
457.717	428.06
457.937	446.06
458.157	441.06
458.377	449.06
458.598	451.06
458.818	500.06
459.038	539.06
459.258	578.06
459.478	486.06
459.698	477.06
459.918	486.06
460.138	488.06
460.358	492.06
460.578	518.06
460.798	484.06
461.018	523.06
461.238	517.06
461.458	511.06
461.678	506.06
461.898	503.06
462.118	511.06
462.338	554.06
462.558	527.06
462.777	535.06
462.997	530.06
463.217	575.06
463.437	565.06
463.657	573.06
463.876	554.06
464.096	551.06
464.316	556.06
464.536	529.06
464.755	534.06
464.975	563.06
465.195	564.06
465.414	569.06
465.634	528.06
465.854	517.06
466.073	488.06
466.293	490.06
466.512	478.06
466.732	498.06
466.951	471.06
467.171	485.06
467.391	486.06
467.61	462.06
467.829	484.06
468.049	504.06
468.268	474.06
468.488	492.06
468.707	463.06
468.927	459.06
469.146	444.06
469.365	451.06
469.585	449.06
469.804	453.06
470.023	489.06
470.243	491.06
470.462	473.06
470.681	477.06
470.901	486.06
471.12	471.06
471.339	468.06
471.558	481.06
471.777	475.06
471.997	485.06
472.216	471.06
472.435	475.06
472.654	470.06
472.873	495.06
473.092	474.06
473.311	460.06
473.53	481.06
473.749	483.06
473.968	514.06
474.187	582.06
474.406	584.06
474.625	516.06
474.844	501.06
475.063	460.06
475.282	473.06
475.501	472.06
475.72	471.06
475.939	463.06
476.158	487.06
476.377	512.06
476.596	507.06
476.814	525.06
477.033	519.06
477.252	494.06
477.471	521.06
477.69	507.06
477.908	527.06
478.127	528.06
478.346	538.06
478.564	535.06
478.783	531.06
479.002	541.06
479.22	546.06
479.439	547.06
479.658	571.06
479.876	569.06
480.095	598.06
480.313	583.06
480.532	590.06
480.751	585.06
480.969	569.06
481.188	590.06
481.406	621.06
481.624	599.06
481.843	573.06
482.061	551.06
482.28	561.06
482.498	581.06
482.717	564.06
482.935	547.06
483.153	522.06
483.372	550.06
483.59	534.06
483.808	552.06
484.027	556.06
484.245	585.06
484.463	576.06
484.681	572.06
484.9	571.06
485.118	570.06
485.336	555.06
485.554	588.06
485.772	546.06
485.99	556.06
486.209	584.06
486.427	589.06
486.645	604.06
486.863	597.06
487.081	577.06
487.299	605.06
487.517	574.06
487.735	583.06
487.953	591.06
488.171	586.06
488.389	601.06
488.607	581.06
488.825	585.06
489.043	585.06
489.261	608.06
489.479	607.06
489.696	586.06
489.914	601.06
490.132	603.06
490.35	620.06
490.568	595.06
490.786	613.06
491.003	630.06
491.221	607.06
491.439	631.06
491.657	647.06
491.874	604.06
492.092	633.06
492.31	630.06
492.527	664.06
492.745	627.06
492.963	643.06
493.18	665.06
493.398	672.06
493.615	670.06
493.833	673.06
494.05	666.06
494.268	664.06
494.485	654.06
494.703	663.06
494.92	685.06
495.138	683.06
495.355	681.06
495.573	703.06
495.79	683.06
496.008	677.06
496.225	671.06
496.442	663.06
496.66	686.06
496.877	682.06
497.094	716.06
497.312	699.06
497.529	704.06
497.746	743.06
497.963	729.06
498.181	753.06
498.398	761.06
498.615	793.06
498.832	803.06
499.049	826.06
499.267	834.06
499.484	875.06
499.701	906.06
499.918	929.06
500.135	984.06
500.352	1036.06
500.569	1047.06
500.786	1008.06
501.003	1020.06
501.22	1005.06
501.437	958.06
501.654	932.06
501.871	882.06
