Data from 1978.PennyLincolnUp.Lamp.En5.5.200Scan.071719.P1_HRD10591_16-13-48-864.txt Node
Date: Thu Jul 18 16:13:48 EDT 2019
User: cochatt
Spectrometer: HR+D1059
Trigger mode: 1
Integration Time (sec): 1.000000E-1
Scans to average: 1
Electric dark correction enabled: true
Nonlinearity correction enabled: false
Boxcar width: 0
XAxis mode: Wavelengths
Number of Pixels in Spectrum: 2048
>>>>>Begin Spectral Data<<<<<
223.165	-28.38
223.4	-28.38
223.635	-28.38
223.869	-20.38
224.104	-13.38
224.338	-14.38
224.573	-8.38
224.808	-2.38
225.042	-13.38
225.277	-13.38
225.511	0.62
225.746	11.62
225.98	2.62
226.215	11.62
226.449	9.62
226.683	23.62
226.918	20.62
227.152	33.62
227.387	25.62
227.621	34.62
227.856	36.62
228.09	31.62
228.324	47.62
228.559	52.62
228.793	73.62
229.027	97.62
229.262	96.62
229.496	99.62
229.73	121.62
229.964	149.62
230.199	138.62
230.433	122.62
230.667	120.62
230.901	102.62
231.136	98.62
231.37	120.62
231.604	110.62
231.838	122.62
232.072	105.62
232.306	103.62
232.541	103.62
232.775	108.62
233.009	114.62
233.243	94.62
233.477	110.62
233.711	116.62
233.945	115.62
234.179	106.62
234.413	127.62
234.647	118.62
234.881	115.62
235.115	115.62
235.349	107.62
235.583	128.62
235.817	111.62
236.051	118.62
236.285	129.62
236.519	123.62
236.753	120.62
236.987	143.62
237.221	172.62
237.455	230.62
237.689	197.62
237.922	146.62
238.156	149.62
238.39	126.62
238.624	129.62
238.858	113.62
239.091	124.62
239.325	131.62
239.559	117.62
239.793	121.62
240.027	135.62
240.26	133.62
240.494	153.62
240.728	151.62
240.961	143.62
241.195	147.62
241.429	131.62
241.662	124.62
241.896	118.62
242.13	133.62
242.363	142.62
242.597	119.62
242.83	134.62
243.064	137.62
243.298	136.62
243.531	141.62
243.765	141.62
243.998	122.62
244.232	152.62
244.465	147.62
244.699	141.62
244.932	145.62
245.166	128.62
245.399	137.62
245.633	144.62
245.866	133.62
246.099	137.62
246.333	142.62
246.566	142.62
246.8	150.62
247.033	148.62
247.266	153.62
247.5	164.62
247.733	159.62
247.966	165.62
248.2	148.62
248.433	155.62
248.666	161.62
248.899	173.62
249.133	181.62
249.366	206.62
249.599	195.62
249.832	182.62
250.066	169.62
250.299	180.62
250.532	178.62
250.765	190.62
250.998	219.62
251.231	223.62
251.465	211.62
251.698	188.62
251.931	194.62
252.164	193.62
252.397	169.62
252.63	184.62
252.863	193.62
253.096	212.62
253.329	209.62
253.562	225.62
253.795	208.62
254.028	190.62
254.261	195.62
254.494	207.62
254.727	244.62
254.96	263.62
255.193	249.62
255.426	235.62
255.659	230.62
255.892	213.62
256.124	217.62
256.357	216.62
256.59	220.62
256.823	197.62
257.056	217.62
257.289	196.62
257.521	197.62
257.754	200.62
257.987	193.62
258.22	193.62
258.452	198.62
258.685	199.62
258.918	198.62
259.151	215.62
259.383	216.62
259.616	211.62
259.849	204.62
260.081	222.62
260.314	237.62
260.547	245.62
260.779	233.62
261.012	225.62
261.244	218.62
261.477	206.62
261.71	214.62
261.942	207.62
262.175	206.62
262.407	224.62
262.64	215.62
262.872	214.62
263.105	216.62
263.337	193.62
263.57	215.62
263.802	208.62
264.035	202.62
264.267	204.62
264.499	199.62
264.732	207.62
264.964	214.62
265.197	196.62
265.429	195.62
265.661	212.62
265.894	201.62
266.126	210.62
266.358	216.62
266.591	229.62
266.823	212.62
267.055	211.62
267.287	215.62
267.52	215.62
267.752	214.62
267.984	209.62
268.216	217.62
268.448	226.62
268.681	231.62
268.913	226.62
269.145	238.62
269.377	243.62
269.609	243.62
269.841	258.62
270.073	257.62
270.306	264.62
270.538	303.62
270.77	292.62
271.002	278.62
271.234	268.62
271.466	283.62
271.698	297.62
271.93	302.62
272.162	293.62
272.394	288.62
272.626	276.62
272.858	264.62
273.09	267.62
273.322	260.62
273.553	259.62
273.785	261.62
274.017	244.62
274.249	265.62
274.481	245.62
274.713	240.62
274.945	261.62
275.176	243.62
275.408	249.62
275.64	255.62
275.872	248.62
276.104	241.62
276.335	237.62
276.567	268.62
276.799	271.62
277.031	310.62
277.262	292.62
277.494	306.62
277.726	280.62
277.957	292.62
278.189	276.62
278.421	267.62
278.652	249.62
278.884	279.62
279.115	259.62
279.347	270.62
279.579	248.62
279.81	263.62
280.042	285.62
280.273	261.62
280.505	270.62
280.736	246.62
280.968	247.62
281.199	254.62
281.431	260.62
281.662	263.62
281.894	268.62
282.125	266.62
282.356	291.62
282.588	301.62
282.819	291.62
283.051	271.62
283.282	269.62
283.513	270.62
283.745	266.62
283.976	277.62
284.207	285.62
284.439	271.62
284.67	290.62
284.901	275.62
285.132	285.62
285.364	274.62
285.595	271.62
285.826	276.62
286.057	257.62
286.288	292.62
286.52	271.62
286.751	259.62
286.982	269.62
287.213	261.62
287.444	276.62
287.675	288.62
287.906	278.62
288.138	276.62
288.369	278.62
288.6	289.62
288.831	271.62
289.062	279.62
289.293	272.62
289.524	293.62
289.755	288.62
289.986	279.62
290.217	268.62
290.448	282.62
290.679	285.62
290.91	296.62
291.141	279.62
291.371	283.62
291.602	280.62
291.833	288.62
292.064	282.62
292.295	293.62
292.526	285.62
292.757	283.62
292.987	287.62
293.218	275.62
293.449	279.62
293.68	305.62
293.91	293.62
294.141	257.62
294.372	295.62
294.603	280.62
294.833	296.62
295.064	270.62
295.295	296.62
295.525	296.62
295.756	286.62
295.987	303.62
296.217	312.62
296.448	330.62
296.679	305.62
296.909	293.62
297.14	301.62
297.37	298.62
297.601	291.62
297.831	301.62
298.062	306.62
298.292	301.62
298.523	283.62
298.753	296.62
298.984	297.62
299.214	292.62
299.445	298.62
299.675	296.62
299.905	298.62
300.136	307.62
300.366	324.62
300.597	292.62
300.827	302.62
301.057	315.62
301.288	321.62
301.518	313.62
301.748	306.62
301.979	316.62
302.209	307.62
302.439	328.62
302.669	312.62
302.9	331.62
303.13	317.62
303.36	291.62
303.59	331.62
303.82	331.62
304.051	336.62
304.281	319.62
304.511	339.62
304.741	311.62
304.971	321.62
305.201	327.62
305.431	314.62
305.661	323.62
305.891	309.62
306.121	312.62
306.352	319.62
306.582	315.62
306.812	313.62
307.042	333.62
307.272	311.62
307.502	314.62
307.731	322.62
307.961	333.62
308.191	340.62
308.421	315.62
308.651	345.62
308.881	327.62
309.111	353.62
309.341	326.62
309.571	347.62
309.8	348.62
310.03	357.62
310.26	366.62
310.49	349.62
310.72	376.62
310.949	357.62
311.179	365.62
311.409	379.62
311.639	345.62
311.868	372.62
312.098	356.62
312.328	360.62
312.557	385.62
312.787	381.62
313.017	389.62
313.246	378.62
313.476	371.62
313.706	355.62
313.935	373.62
314.165	377.62
314.394	389.62
314.624	390.62
314.853	384.62
315.083	371.62
315.312	378.62
315.542	370.62
315.771	356.62
316.001	375.62
316.23	377.62
316.46	347.62
316.689	364.62
316.919	366.62
317.148	360.62
317.377	373.62
317.607	377.62
317.836	376.62
318.065	379.62
318.295	356.62
318.524	358.62
318.753	369.62
318.983	341.62
319.212	369.62
319.441	364.62
319.67	371.62
319.9	371.62
320.129	370.62
320.358	379.62
320.587	389.62
320.816	370.62
321.046	389.62
321.275	387.62
321.504	389.62
321.733	398.62
321.962	392.62
322.191	402.62
322.42	395.62
322.649	426.62
322.878	436.62
323.108	436.62
323.337	443.62
323.566	488.62
323.795	494.62
324.024	534.62
324.253	641.62
324.482	951.62
324.71	1525.62
324.939	2383.62
325.168	2026.62
325.397	973.62
325.626	665.62
325.855	534.62
326.084	511.62
326.313	513.62
326.542	500.62
326.77	544.62
326.999	628.62
327.228	861.62
327.457	1377.62
327.686	1741.62
327.914	1099.62
328.143	691.62
328.372	604.62
328.6	578.62
328.829	540.62
329.058	538.62
329.287	573.62
329.515	515.62
329.744	511.62
329.972	482.62
330.201	500.62
330.43	552.62
330.658	589.62
330.887	568.62
331.115	574.62
331.344	519.62
331.572	481.62
331.801	483.62
332.03	479.62
332.258	475.62
332.486	440.62
332.715	444.62
332.943	456.62
333.172	430.62
333.4	462.62
333.629	471.62
333.857	467.62
334.085	474.62
334.314	473.62
334.542	519.62
334.771	533.62
334.999	502.62
335.227	472.62
335.455	475.62
335.684	463.62
335.912	462.62
336.14	434.62
336.369	445.62
336.597	464.62
336.825	444.62
337.053	444.62
337.281	444.62
337.51	418.62
337.738	445.62
337.966	444.62
338.194	452.62
338.422	435.62
338.65	449.62
338.878	411.62
339.106	407.62
339.334	430.62
339.562	430.62
339.79	432.62
340.018	413.62
340.246	437.62
340.474	437.62
340.702	432.62
340.93	412.62
341.158	421.62
341.386	409.62
341.614	449.62
341.842	449.62
342.07	427.62
342.298	434.62
342.526	422.62
342.754	400.62
342.981	407.62
343.209	406.62
343.437	423.62
343.665	443.62
343.893	449.62
344.12	428.62
344.348	459.62
344.576	452.62
344.804	439.62
345.031	466.62
345.259	449.62
345.487	429.62
345.714	418.62
345.942	426.62
346.17	430.62
346.397	415.62
346.625	422.62
346.853	402.62
347.08	407.62
347.308	426.62
347.535	438.62
347.763	421.62
347.99	412.62
348.218	434.62
348.445	446.62
348.673	429.62
348.9	417.62
349.128	435.62
349.355	388.62
349.583	403.62
349.81	414.62
350.037	399.62
350.265	395.62
350.492	406.62
350.72	400.62
350.947	425.62
351.174	417.62
351.402	426.62
351.629	417.62
351.856	405.62
352.083	427.62
352.311	429.62
352.538	444.62
352.765	434.62
352.992	418.62
353.22	408.62
353.447	423.62
353.674	401.62
353.901	412.62
354.128	420.62
354.355	402.62
354.583	396.62
354.81	413.62
355.037	399.62
355.264	406.62
355.491	376.62
355.718	379.62
355.945	406.62
356.172	404.62
356.399	373.62
356.626	394.62
356.853	404.62
357.08	384.62
357.307	385.62
357.534	388.62
357.761	404.62
357.988	379.62
358.215	394.62
358.441	394.62
358.668	422.62
358.895	403.62
359.122	406.62
359.349	430.62
359.576	428.62
359.802	434.62
360.029	462.62
360.256	479.62
360.483	476.62
360.709	423.62
360.936	433.62
361.163	428.62
361.39	435.62
361.616	434.62
361.843	421.62
362.07	408.62
362.296	427.62
362.523	415.62
362.749	431.62
362.976	400.62
363.203	409.62
363.429	411.62
363.656	406.62
363.882	426.62
364.109	380.62
364.335	389.62
364.562	413.62
364.788	402.62
365.015	423.62
365.241	401.62
365.468	397.62
365.694	423.62
365.92	420.62
366.147	412.62
366.373	407.62
366.599	412.62
366.826	404.62
367.052	412.62
367.278	416.62
367.505	390.62
367.731	421.62
367.957	392.62
368.184	391.62
368.41	428.62
368.636	413.62
368.862	431.62
369.089	417.62
369.315	417.62
369.541	397.62
369.767	442.62
369.993	439.62
370.219	426.62
370.445	413.62
370.672	404.62
370.898	413.62
371.124	413.62
371.35	413.62
371.576	415.62
371.802	406.62
372.028	403.62
372.254	400.62
372.48	424.62
372.706	417.62
372.932	434.62
373.158	417.62
373.384	430.62
373.61	417.62
373.835	423.62
374.061	423.62
374.287	409.62
374.513	411.62
374.739	414.62
374.965	433.62
375.191	393.62
375.416	423.62
375.642	416.62
375.868	414.62
376.094	402.62
376.319	427.62
376.545	408.62
376.771	404.62
376.997	425.62
377.222	423.62
377.448	410.62
377.674	435.62
377.899	415.62
378.125	403.62
378.35	410.62
378.576	426.62
378.802	389.62
379.027	410.62
379.253	399.62
379.478	406.62
379.704	416.62
379.929	393.62
380.155	427.62
380.38	414.62
380.606	411.62
380.831	419.62
381.057	414.62
381.282	441.62
381.507	412.62
381.733	430.62
381.958	419.62
382.184	419.62
382.409	428.62
382.634	435.62
382.86	409.62
383.085	457.62
383.31	439.62
383.535	438.62
383.761	443.62
383.986	445.62
384.211	398.62
384.436	427.62
384.662	470.62
384.887	460.62
385.112	426.62
385.337	443.62
385.562	447.62
385.787	461.62
386.013	473.62
386.238	469.62
386.463	476.62
386.688	470.62
386.913	458.62
387.138	453.62
387.363	443.62
387.588	445.62
387.813	450.62
388.038	458.62
388.263	468.62
388.488	452.62
388.713	469.62
388.938	469.62
389.163	453.62
389.387	445.62
389.612	471.62
389.837	456.62
390.062	449.62
390.287	463.62
390.512	459.62
390.736	461.62
390.961	447.62
391.186	482.62
391.411	460.62
391.636	479.62
391.86	454.62
392.085	473.62
392.31	490.62
392.534	468.62
392.759	494.62
392.984	461.62
393.208	469.62
393.433	470.62
393.658	458.62
393.882	479.62
394.107	461.62
394.331	458.62
394.556	463.62
394.78	485.62
395.005	489.62
395.229	476.62
395.454	491.62
395.678	476.62
395.903	495.62
396.127	538.62
396.352	516.62
396.576	487.62
396.801	489.62
397.025	474.62
397.249	490.62
397.474	521.62
397.698	511.62
397.922	505.62
398.147	554.62
398.371	546.62
398.595	531.62
398.82	527.62
399.044	563.62
399.268	571.62
399.492	553.62
399.717	617.62
399.941	631.62
400.165	656.62
400.389	685.62
400.613	618.62
400.837	561.62
401.062	547.62
401.286	549.62
401.51	548.62
401.734	547.62
401.958	552.62
402.182	548.62
402.406	536.62
402.63	570.62
402.854	564.62
403.078	531.62
403.302	549.62
403.526	550.62
403.75	539.62
403.974	561.62
404.198	569.62
404.422	577.62
404.645	563.62
404.869	578.62
405.093	589.62
405.317	657.62
405.541	669.62
405.765	627.62
405.988	607.62
406.212	610.62
406.436	602.62
406.66	627.62
406.883	590.62
407.107	656.62
407.331	671.62
407.555	753.62
407.778	732.62
408.002	703.62
408.226	643.62
408.449	625.62
408.673	637.62
408.896	641.62
409.12	681.62
409.344	663.62
409.567	598.62
409.791	562.62
410.014	564.62
410.238	546.62
410.461	571.62
410.685	566.62
410.908	589.62
411.132	607.62
411.355	646.62
411.578	637.62
411.802	584.62
412.025	579.62
412.249	577.62
412.472	590.62
412.695	631.62
412.919	618.62
413.142	596.62
413.365	595.62
413.589	557.62
413.812	539.62
414.035	548.62
414.258	571.62
414.482	552.62
414.705	538.62
414.928	543.62
415.151	547.62
415.374	544.62
415.597	525.62
415.821	505.62
416.044	515.62
416.267	519.62
416.49	523.62
416.713	542.62
416.936	539.62
417.159	517.62
417.382	539.62
417.605	526.62
417.828	563.62
418.051	564.62
418.274	570.62
418.497	536.62
418.72	537.62
418.943	523.62
419.166	539.62
419.389	573.62
419.611	583.62
419.834	564.62
420.057	553.62
420.28	535.62
420.503	561.62
420.726	545.62
420.948	560.62
421.171	599.62
421.394	627.62
421.617	554.62
421.839	555.62
422.062	552.62
422.285	551.62
422.507	652.62
422.73	721.62
422.953	689.62
423.175	608.62
423.398	583.62
423.621	555.62
423.843	610.62
424.066	585.62
424.288	596.62
424.511	635.62
424.733	681.62
424.956	787.62
425.178	740.62
425.401	716.62
425.623	767.62
425.846	645.62
426.068	568.62
426.291	579.62
426.513	590.62
426.735	610.62
426.958	634.62
427.18	740.62
427.402	895.62
427.625	985.62
427.847	830.62
428.069	705.62
428.292	666.62
428.514	577.62
428.736	558.62
428.958	568.62
429.181	544.62
429.403	550.62
429.625	554.62
429.847	619.62
430.069	678.62
430.292	681.62
430.514	569.62
430.736	570.62
430.958	572.62
431.18	512.62
431.402	533.62
431.624	543.62
431.846	531.62
432.068	522.62
432.29	533.62
432.512	539.62
432.734	527.62
432.956	528.62
433.178	543.62
433.4	577.62
433.622	533.62
433.844	531.62
434.066	522.62
434.287	519.62
434.509	523.62
434.731	531.62
434.953	545.62
435.175	538.62
435.397	577.62
435.618	601.62
435.84	626.62
436.062	733.62
436.284	833.62
436.505	671.62
436.727	606.62
436.949	573.62
437.17	538.62
437.392	535.62
437.614	579.62
437.835	608.62
438.057	700.62
438.278	806.62
438.5	803.62
438.721	897.62
438.943	907.62
439.165	694.62
439.386	639.62
439.608	599.62
439.829	597.62
440.05	641.62
440.272	708.62
440.493	644.62
440.715	590.62
440.936	577.62
441.158	555.62
441.379	558.62
441.6	585.62
441.822	591.62
442.043	618.62
442.264	724.62
442.486	773.62
442.707	653.62
442.928	606.62
443.149	614.62
443.371	631.62
443.592	682.62
443.813	789.62
444.034	859.62
444.255	716.62
444.476	609.62
444.698	602.62
444.919	600.62
445.14	681.62
445.361	682.62
445.582	667.62
445.803	686.62
446.024	836.62
446.245	855.62
446.466	774.62
446.687	650.62
446.908	604.62
447.129	561.62
447.35	547.62
447.571	556.62
447.792	575.62
448.013	550.62
448.234	560.62
448.455	625.62
448.675	763.62
448.896	924.62
449.117	748.62
449.338	679.62
449.559	823.62
449.779	947.62
450	710.62
450.221	604.62
450.442	557.62
450.662	525.62
450.883	537.62
451.104	535.62
451.324	534.62
451.545	511.62
451.766	533.62
451.986	513.62
452.207	505.62
452.428	482.62
452.648	479.62
452.869	511.62
453.089	503.62
453.31	512.62
453.53	489.62
453.751	479.62
453.971	470.62
454.192	493.62
454.412	509.62
454.633	474.62
454.853	482.62
455.073	486.62
455.294	534.62
455.514	593.62
455.734	572.62
455.955	491.62
456.175	488.62
456.395	481.62
456.616	468.62
456.836	471.62
457.056	487.62
457.276	457.62
457.497	513.62
457.717	466.62
457.937	476.62
458.157	458.62
458.377	476.62
458.598	516.62
458.818	554.62
459.038	641.62
459.258	660.62
459.478	593.62
459.698	543.62
459.918	539.62
460.138	544.62
460.358	562.62
460.578	527.62
460.798	568.62
461.018	561.62
461.238	538.62
461.458	546.62
461.678	551.62
461.898	565.62
462.118	556.62
462.338	579.62
462.558	571.62
462.777	565.62
462.997	594.62
463.217	617.62
463.437	591.62
463.657	592.62
463.876	561.62
464.096	590.62
464.316	586.62
464.536	603.62
464.755	591.62
464.975	583.62
465.195	602.62
465.414	646.62
465.634	608.62
465.854	584.62
466.073	541.62
466.293	541.62
466.512	517.62
466.732	523.62
466.951	514.62
467.171	509.62
467.391	491.62
467.61	533.62
467.829	542.62
468.049	535.62
468.268	527.62
468.488	497.62
468.707	505.62
468.927	481.62
469.146	489.62
469.365	501.62
469.585	507.62
469.804	510.62
470.023	508.62
470.243	540.62
470.462	524.62
470.681	527.62
470.901	521.62
471.12	513.62
471.339	508.62
471.558	532.62
471.777	515.62
471.997	520.62
472.216	516.62
472.435	544.62
472.654	528.62
472.873	519.62
473.092	533.62
473.311	487.62
473.53	502.62
473.749	515.62
473.968	550.62
474.187	664.62
474.406	700.62
474.625	585.62
474.844	513.62
475.063	522.62
475.282	550.62
475.501	515.62
475.72	517.62
475.939	513.62
476.158	531.62
476.377	541.62
476.596	546.62
476.814	551.62
477.033	562.62
477.252	537.62
477.471	549.62
477.69	574.62
477.908	547.62
478.127	567.62
478.346	566.62
478.564	574.62
478.783	581.62
479.002	610.62
479.22	577.62
479.439	601.62
479.658	590.62
479.876	601.62
480.095	627.62
480.313	635.62
480.532	631.62
480.751	623.62
480.969	653.62
481.188	669.62
481.406	715.62
481.624	661.62
481.843	645.62
482.061	634.62
482.28	598.62
482.498	583.62
482.717	601.62
482.935	600.62
483.153	607.62
483.372	611.62
483.59	616.62
483.808	601.62
484.027	616.62
484.245	600.62
484.463	622.62
484.681	618.62
484.9	631.62
485.118	629.62
485.336	635.62
485.554	625.62
485.772	656.62
485.99	622.62
486.209	617.62
486.427	612.62
486.645	641.62
486.863	676.62
487.081	658.62
487.299	660.62
487.517	641.62
487.735	635.62
487.953	627.62
488.171	631.62
488.389	646.62
488.607	638.62
488.825	657.62
489.043	635.62
489.261	649.62
489.479	651.62
489.696	661.62
489.914	678.62
490.132	675.62
490.35	655.62
490.568	666.62
490.786	682.62
491.003	706.62
491.221	696.62
491.439	722.62
491.657	720.62
491.874	714.62
492.092	733.62
492.31	716.62
492.527	725.62
492.745	741.62
492.963	730.62
493.18	753.62
493.398	748.62
493.615	743.62
493.833	742.62
494.05	751.62
494.268	761.62
494.485	762.62
494.703	746.62
494.92	753.62
495.138	739.62
495.355	742.62
495.573	771.62
495.79	739.62
496.008	778.62
496.225	778.62
496.442	756.62
496.66	771.62
496.877	767.62
497.094	780.62
497.312	774.62
497.529	784.62
497.746	814.62
497.963	824.62
498.181	861.62
498.398	859.62
498.615	865.62
498.832	877.62
499.049	878.62
499.267	934.62
499.484	942.62
499.701	967.62
499.918	1022.62
500.135	1030.62
500.352	1113.62
500.569	1126.62
500.786	1087.62
501.003	1083.62
501.22	1072.62
501.437	1040.62
501.654	1015.62
501.871	1018.62
