Data from 1978.PennyLincolnUp.Lamp.En5.5.200Scan.071719.P1_HRD10591_16-12-19-867.txt Node
Date: Thu Jul 18 16:12:19 EDT 2019
User: cochatt
Spectrometer: HR+D1059
Trigger mode: 1
Integration Time (sec): 1.000000E-1
Scans to average: 1
Electric dark correction enabled: true
Nonlinearity correction enabled: false
Boxcar width: 0
XAxis mode: Wavelengths
Number of Pixels in Spectrum: 2048
>>>>>Begin Spectral Data<<<<<
223.165	-17.12
223.4	-17.12
223.635	-17.12
223.869	-13.12
224.104	-8.12
224.338	-11.12
224.573	-14.12
224.808	-19.12
225.042	-14.12
225.277	-6.12
225.511	-5.12
225.746	5.88
225.98	7.88
226.215	20.88
226.449	14.88
226.683	5.88
226.918	17.88
227.152	34.88
227.387	42.88
227.621	34.88
227.856	43.88
228.09	42.88
228.324	62.88
228.559	57.88
228.793	72.88
229.027	84.88
229.262	102.88
229.496	99.88
229.73	124.88
229.964	129.88
230.199	111.88
230.433	103.88
230.667	110.88
230.901	121.88
231.136	97.88
231.37	108.88
231.604	107.88
231.838	104.88
232.072	104.88
232.306	100.88
232.541	122.88
232.775	114.88
233.009	89.88
233.243	101.88
233.477	110.88
233.711	125.88
233.945	110.88
234.179	114.88
234.413	121.88
234.647	102.88
234.881	109.88
235.115	112.88
235.349	131.88
235.583	125.88
235.817	122.88
236.051	127.88
236.285	118.88
236.519	117.88
236.753	122.88
236.987	123.88
237.221	164.88
237.455	194.88
237.689	174.88
237.922	169.88
238.156	129.88
238.39	109.88
238.624	123.88
238.858	127.88
239.091	131.88
239.325	118.88
239.559	123.88
239.793	125.88
240.027	128.88
240.26	138.88
240.494	148.88
240.728	137.88
240.961	131.88
241.195	123.88
241.429	127.88
241.662	129.88
241.896	124.88
242.13	126.88
242.363	122.88
242.597	139.88
242.83	124.88
243.064	127.88
243.298	144.88
243.531	121.88
243.765	125.88
243.998	147.88
244.232	129.88
244.465	139.88
244.699	136.88
244.932	136.88
245.166	147.88
245.399	130.88
245.633	144.88
245.866	142.88
246.099	135.88
246.333	123.88
246.566	153.88
246.8	123.88
247.033	142.88
247.266	139.88
247.5	153.88
247.733	150.88
247.966	151.88
248.2	153.88
248.433	164.88
248.666	155.88
248.899	167.88
249.133	169.88
249.366	170.88
249.599	185.88
249.832	183.88
250.066	162.88
250.299	145.88
250.532	158.88
250.765	184.88
250.998	179.88
251.231	207.88
251.465	202.88
251.698	187.88
251.931	186.88
252.164	181.88
252.397	169.88
252.63	179.88
252.863	187.88
253.096	184.88
253.329	201.88
253.562	182.88
253.795	198.88
254.028	192.88
254.261	189.88
254.494	189.88
254.727	210.88
254.96	220.88
255.193	224.88
255.426	224.88
255.659	215.88
255.892	191.88
256.124	204.88
256.357	202.88
256.59	205.88
256.823	201.88
257.056	204.88
257.289	186.88
257.521	205.88
257.754	185.88
257.987	197.88
258.22	185.88
258.452	183.88
258.685	198.88
258.918	197.88
259.151	189.88
259.383	194.88
259.616	205.88
259.849	198.88
260.081	206.88
260.314	230.88
260.547	221.88
260.779	225.88
261.012	205.88
261.244	219.88
261.477	222.88
261.71	207.88
261.942	203.88
262.175	217.88
262.407	216.88
262.64	198.88
262.872	205.88
263.105	199.88
263.337	201.88
263.57	200.88
263.802	186.88
264.035	202.88
264.267	191.88
264.499	197.88
264.732	190.88
264.964	189.88
265.197	187.88
265.429	206.88
265.661	191.88
265.894	202.88
266.126	211.88
266.358	199.88
266.591	198.88
266.823	200.88
267.055	207.88
267.287	215.88
267.52	200.88
267.752	202.88
267.984	212.88
268.216	212.88
268.448	210.88
268.681	219.88
268.913	222.88
269.145	237.88
269.377	254.88
269.609	237.88
269.841	247.88
270.073	235.88
270.306	259.88
270.538	261.88
270.77	277.88
271.002	271.88
271.234	244.88
271.466	271.88
271.698	262.88
271.93	277.88
272.162	288.88
272.394	271.88
272.626	268.88
272.858	258.88
273.09	234.88
273.322	246.88
273.553	257.88
273.785	231.88
274.017	235.88
274.249	253.88
274.481	234.88
274.713	246.88
274.945	257.88
275.176	241.88
275.408	258.88
275.64	234.88
275.872	232.88
276.104	246.88
276.335	234.88
276.567	247.88
276.799	276.88
277.031	285.88
277.262	275.88
277.494	279.88
277.726	275.88
277.957	275.88
278.189	255.88
278.421	242.88
278.652	255.88
278.884	264.88
279.115	245.88
279.347	252.88
279.579	244.88
279.81	242.88
280.042	254.88
280.273	272.88
280.505	251.88
280.736	245.88
280.968	250.88
281.199	243.88
281.431	251.88
281.662	247.88
281.894	252.88
282.125	265.88
282.356	269.88
282.588	288.88
282.819	298.88
283.051	262.88
283.282	259.88
283.513	257.88
283.745	263.88
283.976	254.88
284.207	249.88
284.439	263.88
284.67	256.88
284.901	259.88
285.132	255.88
285.364	266.88
285.595	268.88
285.826	265.88
286.057	263.88
286.288	261.88
286.52	272.88
286.751	268.88
286.982	259.88
287.213	272.88
287.444	291.88
287.675	262.88
287.906	271.88
288.138	281.88
288.369	261.88
288.6	284.88
288.831	275.88
289.062	264.88
289.293	300.88
289.524	279.88
289.755	290.88
289.986	285.88
290.217	275.88
290.448	277.88
290.679	279.88
290.91	267.88
291.141	269.88
291.371	283.88
291.602	270.88
291.833	266.88
292.064	292.88
292.295	281.88
292.526	286.88
292.757	274.88
292.987	278.88
293.218	280.88
293.449	262.88
293.68	268.88
293.91	278.88
294.141	271.88
294.372	277.88
294.603	285.88
294.833	281.88
295.064	278.88
295.295	292.88
295.525	295.88
295.756	272.88
295.987	286.88
296.217	313.88
296.448	293.88
296.679	280.88
296.909	282.88
297.14	285.88
297.37	276.88
297.601	263.88
297.831	291.88
298.062	299.88
298.292	285.88
298.523	299.88
298.753	290.88
298.984	279.88
299.214	296.88
299.445	278.88
299.675	270.88
299.905	309.88
300.136	310.88
300.366	303.88
300.597	305.88
300.827	301.88
301.057	303.88
301.288	305.88
301.518	302.88
301.748	292.88
301.979	307.88
302.209	309.88
302.439	305.88
302.669	320.88
302.9	297.88
303.13	323.88
303.36	323.88
303.59	294.88
303.82	324.88
304.051	315.88
304.281	325.88
304.511	313.88
304.741	307.88
304.971	318.88
305.201	326.88
305.431	323.88
305.661	321.88
305.891	309.88
306.121	322.88
306.352	318.88
306.582	309.88
306.812	309.88
307.042	322.88
307.272	318.88
307.502	311.88
307.731	311.88
307.961	312.88
308.191	301.88
308.421	321.88
308.651	325.88
308.881	323.88
309.111	334.88
309.341	327.88
309.571	325.88
309.8	340.88
310.03	324.88
310.26	337.88
310.49	334.88
310.72	350.88
310.949	364.88
311.179	356.88
311.409	350.88
311.639	328.88
311.868	381.88
312.098	351.88
312.328	361.88
312.557	385.88
312.787	377.88
313.017	388.88
313.246	353.88
313.476	372.88
313.706	377.88
313.935	349.88
314.165	344.88
314.394	373.88
314.624	371.88
314.853	381.88
315.083	358.88
315.312	359.88
315.542	365.88
315.771	353.88
316.001	351.88
316.23	357.88
316.46	354.88
316.689	357.88
316.919	360.88
317.148	356.88
317.377	360.88
317.607	361.88
317.836	370.88
318.065	366.88
318.295	351.88
318.524	357.88
318.753	344.88
318.983	362.88
319.212	352.88
319.441	361.88
319.67	352.88
319.9	364.88
320.129	382.88
320.358	365.88
320.587	365.88
320.816	382.88
321.046	379.88
321.275	377.88
321.504	373.88
321.733	383.88
321.962	386.88
322.191	389.88
322.42	399.88
322.649	427.88
322.878	415.88
323.108	424.88
323.337	427.88
323.566	474.88
323.795	502.88
324.024	522.88
324.253	594.88
324.482	837.88
324.71	1319.88
324.939	1964.88
325.168	1693.88
325.397	841.88
325.626	565.88
325.855	493.88
326.084	468.88
326.313	471.88
326.542	449.88
326.77	514.88
326.999	578.88
327.228	788.88
327.457	1188.88
327.686	1495.88
327.914	981.88
328.143	625.88
328.372	575.88
328.6	539.88
328.829	470.88
329.058	491.88
329.287	521.88
329.515	479.88
329.744	473.88
329.972	453.88
330.201	480.88
330.43	489.88
330.658	511.88
330.887	532.88
331.115	528.88
331.344	459.88
331.572	438.88
331.801	470.88
332.03	461.88
332.258	434.88
332.486	417.88
332.715	423.88
332.943	413.88
333.172	427.88
333.4	430.88
333.629	450.88
333.857	451.88
334.085	470.88
334.314	463.88
334.542	481.88
334.771	495.88
334.999	480.88
335.227	468.88
335.455	447.88
335.684	458.88
335.912	439.88
336.14	456.88
336.369	445.88
336.597	436.88
336.825	437.88
337.053	421.88
337.281	440.88
337.51	433.88
337.738	456.88
337.966	435.88
338.194	425.88
338.422	439.88
338.65	424.88
338.878	423.88
339.106	412.88
339.334	437.88
339.562	420.88
339.79	415.88
340.018	422.88
340.246	414.88
340.474	410.88
340.702	421.88
340.93	405.88
341.158	421.88
341.386	397.88
341.614	417.88
341.842	410.88
342.07	420.88
342.298	409.88
342.526	410.88
342.754	394.88
342.981	411.88
343.209	393.88
343.437	399.88
343.665	415.88
343.893	445.88
344.12	442.88
344.348	429.88
344.576	414.88
344.804	438.88
345.031	429.88
345.259	406.88
345.487	422.88
345.714	437.88
345.942	432.88
346.17	421.88
346.397	403.88
346.625	409.88
346.853	376.88
347.08	395.88
347.308	426.88
347.535	411.88
347.763	406.88
347.99	405.88
348.218	411.88
348.445	429.88
348.673	422.88
348.9	392.88
349.128	413.88
349.355	375.88
349.583	409.88
349.81	393.88
350.037	378.88
350.265	400.88
350.492	387.88
350.72	396.88
350.947	409.88
351.174	417.88
351.402	420.88
351.629	396.88
351.856	388.88
352.083	401.88
352.311	412.88
352.538	421.88
352.765	417.88
352.992	415.88
353.22	401.88
353.447	413.88
353.674	400.88
353.901	387.88
354.128	402.88
354.355	385.88
354.583	380.88
354.81	391.88
355.037	384.88
355.264	386.88
355.491	375.88
355.718	380.88
355.945	380.88
356.172	395.88
356.399	385.88
356.626	382.88
356.853	381.88
357.08	370.88
357.307	376.88
357.534	366.88
357.761	370.88
357.988	403.88
358.215	402.88
358.441	380.88
358.668	393.88
358.895	389.88
359.122	385.88
359.349	391.88
359.576	407.88
359.802	425.88
360.029	428.88
360.256	438.88
360.483	426.88
360.709	430.88
360.936	408.88
361.163	405.88
361.39	405.88
361.616	415.88
361.843	402.88
362.07	409.88
362.296	426.88
362.523	393.88
362.749	407.88
362.976	396.88
363.203	407.88
363.429	405.88
363.656	396.88
363.882	405.88
364.109	391.88
364.335	392.88
364.562	395.88
364.788	398.88
365.015	415.88
365.241	370.88
365.468	411.88
365.694	415.88
365.92	407.88
366.147	411.88
366.373	401.88
366.599	382.88
366.826	397.88
367.052	410.88
367.278	408.88
367.505	379.88
367.731	386.88
367.957	405.88
368.184	398.88
368.41	400.88
368.636	412.88
368.862	426.88
369.089	399.88
369.315	391.88
369.541	393.88
369.767	401.88
369.993	422.88
370.219	411.88
370.445	405.88
370.672	398.88
370.898	399.88
371.124	414.88
371.35	419.88
371.576	391.88
371.802	391.88
372.028	394.88
372.254	395.88
372.48	398.88
372.706	405.88
372.932	412.88
373.158	418.88
373.384	395.88
373.61	399.88
373.835	410.88
374.061	421.88
374.287	403.88
374.513	418.88
374.739	421.88
374.965	420.88
375.191	423.88
375.416	425.88
375.642	408.88
375.868	408.88
376.094	404.88
376.319	405.88
376.545	421.88
376.771	423.88
376.997	382.88
377.222	402.88
377.448	396.88
377.674	411.88
377.899	409.88
378.125	414.88
378.35	406.88
378.576	392.88
378.802	392.88
379.027	414.88
379.253	393.88
379.478	388.88
379.704	396.88
379.929	394.88
380.155	407.88
380.38	405.88
380.606	413.88
380.831	394.88
381.057	413.88
381.282	407.88
381.507	415.88
381.733	414.88
381.958	410.88
382.184	417.88
382.409	430.88
382.634	423.88
382.86	417.88
383.085	425.88
383.31	422.88
383.535	427.88
383.761	425.88
383.986	426.88
384.211	432.88
384.436	435.88
384.662	433.88
384.887	437.88
385.112	422.88
385.337	475.88
385.562	456.88
385.787	457.88
386.013	437.88
386.238	453.88
386.463	438.88
386.688	465.88
386.913	451.88
387.138	449.88
387.363	471.88
387.588	457.88
387.813	460.88
388.038	450.88
388.263	454.88
388.488	446.88
388.713	463.88
388.938	447.88
389.163	458.88
389.387	452.88
389.612	454.88
389.837	441.88
390.062	453.88
390.287	470.88
390.512	459.88
390.736	451.88
390.961	465.88
391.186	452.88
391.411	471.88
391.636	450.88
391.86	451.88
392.085	486.88
392.31	465.88
392.534	477.88
392.759	470.88
392.984	445.88
393.208	443.88
393.433	480.88
393.658	466.88
393.882	475.88
394.107	477.88
394.331	461.88
394.556	461.88
394.78	462.88
395.005	462.88
395.229	475.88
395.454	486.88
395.678	492.88
395.903	500.88
396.127	492.88
396.352	475.88
396.576	509.88
396.801	480.88
397.025	494.88
397.249	479.88
397.474	485.88
397.698	504.88
397.922	492.88
398.147	532.88
398.371	522.88
398.595	531.88
398.82	541.88
399.044	550.88
399.268	561.88
399.492	563.88
399.717	589.88
399.941	631.88
400.165	619.88
400.389	650.88
400.613	622.88
400.837	579.88
401.062	571.88
401.286	541.88
401.51	555.88
401.734	538.88
401.958	514.88
402.182	562.88
402.406	528.88
402.63	528.88
402.854	539.88
403.078	545.88
403.302	538.88
403.526	561.88
403.75	557.88
403.974	554.88
404.198	539.88
404.422	565.88
404.645	545.88
404.869	569.88
405.093	568.88
405.317	604.88
405.541	665.88
405.765	594.88
405.988	587.88
406.212	576.88
406.436	583.88
406.66	632.88
406.883	574.88
407.107	621.88
407.331	656.88
407.555	716.88
407.778	723.88
408.002	635.88
408.226	634.88
408.449	618.88
408.673	612.88
408.896	637.88
409.12	665.88
409.344	639.88
409.567	590.88
409.791	564.88
410.014	583.88
410.238	551.88
410.461	546.88
410.685	559.88
410.908	583.88
411.132	611.88
411.355	612.88
411.578	600.88
411.802	539.88
412.025	535.88
412.249	545.88
412.472	558.88
412.695	601.88
412.919	588.88
413.142	558.88
413.365	565.88
413.589	554.88
413.812	529.88
414.035	523.88
414.258	525.88
414.482	532.88
414.705	529.88
414.928	531.88
415.151	532.88
415.374	513.88
415.597	515.88
415.821	521.88
416.044	532.88
416.267	505.88
416.49	497.88
416.713	517.88
416.936	532.88
417.159	523.88
417.382	518.88
417.605	522.88
417.828	523.88
418.051	540.88
418.274	523.88
418.497	525.88
418.72	501.88
418.943	518.88
419.166	543.88
419.389	577.88
419.611	569.88
419.834	573.88
420.057	564.88
420.28	537.88
420.503	529.88
420.726	529.88
420.948	549.88
421.171	583.88
421.394	615.88
421.617	546.88
421.839	538.88
422.062	552.88
422.285	558.88
422.507	597.88
422.73	657.88
422.953	661.88
423.175	591.88
423.398	558.88
423.621	557.88
423.843	583.88
424.066	580.88
424.288	577.88
424.511	605.88
424.733	623.88
424.956	726.88
425.178	694.88
425.401	671.88
425.623	711.88
425.846	617.88
426.068	555.88
426.291	588.88
426.513	577.88
426.735	586.88
426.958	636.88
427.18	693.88
427.402	833.88
427.625	905.88
427.847	810.88
428.069	663.88
428.292	597.88
428.514	593.88
428.736	539.88
428.958	555.88
429.181	538.88
429.403	531.88
429.625	545.88
429.847	556.88
430.069	623.88
430.292	629.88
430.514	555.88
430.736	526.88
430.958	539.88
431.18	512.88
431.402	483.88
431.624	507.88
431.846	500.88
432.068	494.88
432.29	526.88
432.512	511.88
432.734	521.88
432.956	511.88
433.178	531.88
433.4	523.88
433.622	550.88
433.844	522.88
434.066	517.88
434.287	535.88
434.509	531.88
434.731	528.88
434.953	528.88
435.175	547.88
435.397	577.88
435.618	566.88
435.84	602.88
436.062	687.88
436.284	765.88
436.505	641.88
436.727	581.88
436.949	557.88
437.17	543.88
437.392	542.88
437.614	535.88
437.835	563.88
438.057	673.88
438.278	753.88
438.5	743.88
438.721	851.88
438.943	832.88
439.165	638.88
439.386	566.88
439.608	604.88
439.829	581.88
440.05	590.88
440.272	625.88
440.493	602.88
440.715	561.88
440.936	548.88
441.158	534.88
441.379	548.88
441.6	548.88
441.822	567.88
442.043	591.88
442.264	653.88
442.486	749.88
442.707	614.88
442.928	587.88
443.149	596.88
443.371	591.88
443.592	634.88
443.813	736.88
444.034	819.88
444.255	673.88
444.476	604.88
444.698	586.88
444.919	585.88
445.14	667.88
445.361	637.88
445.582	599.88
445.803	661.88
446.024	773.88
446.245	789.88
446.466	703.88
446.687	622.88
446.908	581.88
447.129	551.88
447.35	534.88
447.571	532.88
447.792	542.88
448.013	548.88
448.234	554.88
448.455	576.88
448.675	713.88
448.896	847.88
449.117	703.88
449.338	649.88
449.559	725.88
449.779	853.88
450	698.88
450.221	595.88
450.442	537.88
450.662	542.88
450.883	528.88
451.104	540.88
451.324	519.88
451.545	513.88
451.766	507.88
451.986	471.88
452.207	452.88
452.428	480.88
452.648	474.88
452.869	471.88
453.089	472.88
453.31	479.88
453.53	465.88
453.751	472.88
453.971	474.88
454.192	493.88
454.412	473.88
454.633	471.88
454.853	444.88
455.073	472.88
455.294	492.88
455.514	555.88
455.734	527.88
455.955	488.88
456.175	467.88
456.395	450.88
456.616	472.88
456.836	465.88
457.056	465.88
457.276	441.88
457.497	469.88
457.717	469.88
457.937	431.88
458.157	482.88
458.377	468.88
458.598	499.88
458.818	554.88
459.038	593.88
459.258	593.88
459.478	554.88
459.698	527.88
459.918	509.88
460.138	517.88
460.358	520.88
460.578	537.88
460.798	539.88
461.018	530.88
461.238	524.88
461.458	517.88
461.678	530.88
461.898	539.88
462.118	565.88
462.338	521.88
462.558	571.88
462.777	564.88
462.997	595.88
463.217	607.88
463.437	607.88
463.657	582.88
463.876	573.88
464.096	590.88
464.316	550.88
464.536	577.88
464.755	579.88
464.975	569.88
465.195	595.88
465.414	638.88
465.634	581.88
465.854	569.88
466.073	541.88
466.293	513.88
466.512	519.88
466.732	491.88
466.951	505.88
467.171	483.88
467.391	492.88
467.61	517.88
467.829	498.88
468.049	506.88
468.268	495.88
468.488	494.88
468.707	485.88
468.927	460.88
469.146	493.88
469.365	519.88
469.585	492.88
469.804	494.88
470.023	500.88
470.243	497.88
470.462	516.88
470.681	493.88
470.901	500.88
471.12	505.88
471.339	486.88
471.558	513.88
471.777	492.88
471.997	483.88
472.216	495.88
472.435	523.88
472.654	519.88
472.873	502.88
473.092	503.88
473.311	493.88
473.53	491.88
473.749	511.88
473.968	539.88
474.187	643.88
474.406	659.88
474.625	557.88
474.844	505.88
475.063	508.88
475.282	497.88
475.501	488.88
475.72	501.88
475.939	523.88
476.158	513.88
476.377	534.88
476.596	532.88
476.814	551.88
477.033	552.88
477.252	537.88
477.471	526.88
477.69	547.88
477.908	549.88
478.127	563.88
478.346	551.88
478.564	551.88
478.783	580.88
479.002	563.88
479.22	571.88
479.439	602.88
479.658	604.88
479.876	608.88
480.095	595.88
480.313	612.88
480.532	611.88
480.751	612.88
480.969	634.88
481.188	635.88
481.406	670.88
481.624	630.88
481.843	605.88
482.061	610.88
482.28	592.88
482.498	589.88
482.717	589.88
482.935	590.88
483.153	587.88
483.372	596.88
483.59	606.88
483.808	585.88
484.027	597.88
484.245	591.88
484.463	573.88
484.681	592.88
484.9	590.88
485.118	596.88
485.336	607.88
485.554	590.88
485.772	620.88
485.99	613.88
486.209	597.88
486.427	590.88
486.645	604.88
486.863	648.88
487.081	647.88
487.299	637.88
487.517	620.88
487.735	612.88
487.953	612.88
488.171	620.88
488.389	627.88
488.607	643.88
488.825	642.88
489.043	640.88
489.261	635.88
489.479	632.88
489.696	632.88
489.914	613.88
490.132	673.88
490.35	665.88
490.568	636.88
490.786	669.88
491.003	670.88
491.221	664.88
491.439	692.88
491.657	673.88
491.874	685.88
492.092	667.88
492.31	678.88
492.527	678.88
492.745	703.88
492.963	727.88
493.18	694.88
493.398	703.88
493.615	725.88
493.833	686.88
494.05	704.88
494.268	703.88
494.485	721.88
494.703	718.88
494.92	717.88
495.138	725.88
495.355	731.88
495.573	750.88
495.79	737.88
496.008	741.88
496.225	750.88
496.442	730.88
496.66	741.88
496.877	743.88
497.094	735.88
497.312	761.88
497.529	755.88
497.746	757.88
497.963	781.88
498.181	823.88
498.398	837.88
498.615	847.88
498.832	868.88
499.049	879.88
499.267	902.88
499.484	943.88
499.701	924.88
499.918	1004.88
500.135	1023.88
500.352	1054.88
500.569	1069.88
500.786	1130.88
501.003	1057.88
501.22	1041.88
501.437	1005.88
501.654	995.88
501.871	955.88
