Data from 1978.PennyLincolnUp.Lamp.En5.5.200Scan.071719.P1_HRD10591_16-12-18-864.txt Node
Date: Thu Jul 18 16:12:18 EDT 2019
User: cochatt
Spectrometer: HR+D1059
Trigger mode: 1
Integration Time (sec): 1.000000E-1
Scans to average: 1
Electric dark correction enabled: true
Nonlinearity correction enabled: false
Boxcar width: 0
XAxis mode: Wavelengths
Number of Pixels in Spectrum: 2048
>>>>>Begin Spectral Data<<<<<
223.165	-17.69
223.4	-17.69
223.635	-17.69
223.869	-7.69
224.104	-16.69
224.338	-14.69
224.573	-5.69
224.808	-9.69
225.042	-11.69
225.277	9.31
225.511	14.31
225.746	1.31
225.98	-9.69
226.215	-11.69
226.449	22.31
226.683	20.31
226.918	13.31
227.152	24.31
227.387	38.31
227.621	42.31
227.856	44.31
228.09	42.31
228.324	50.31
228.559	61.31
228.793	41.31
229.027	101.31
229.262	103.31
229.496	109.31
229.73	114.31
229.964	151.31
230.199	124.31
230.433	111.31
230.667	110.31
230.901	107.31
231.136	124.31
231.37	98.31
231.604	92.31
231.838	112.31
232.072	117.31
232.306	104.31
232.541	114.31
232.775	118.31
233.009	90.31
233.243	117.31
233.477	95.31
233.711	117.31
233.945	114.31
234.179	113.31
234.413	118.31
234.647	131.31
234.881	104.31
235.115	113.31
235.349	107.31
235.583	96.31
235.817	109.31
236.051	118.31
236.285	120.31
236.519	127.31
236.753	106.31
236.987	132.31
237.221	152.31
237.455	202.31
237.689	174.31
237.922	126.31
238.156	120.31
238.39	107.31
238.624	125.31
238.858	122.31
239.091	128.31
239.325	121.31
239.559	109.31
239.793	134.31
240.027	122.31
240.26	127.31
240.494	148.31
240.728	132.31
240.961	152.31
241.195	119.31
241.429	141.31
241.662	133.31
241.896	132.31
242.13	117.31
242.363	116.31
242.597	111.31
242.83	111.31
243.064	120.31
243.298	136.31
243.531	138.31
243.765	134.31
243.998	127.31
244.232	140.31
244.465	140.31
244.699	130.31
244.932	118.31
245.166	142.31
245.399	128.31
245.633	141.31
245.866	145.31
246.099	142.31
246.333	140.31
246.566	140.31
246.8	148.31
247.033	154.31
247.266	136.31
247.5	164.31
247.733	142.31
247.966	140.31
248.2	162.31
248.433	162.31
248.666	134.31
248.899	169.31
249.133	181.31
249.366	188.31
249.599	171.31
249.832	164.31
250.066	156.31
250.299	162.31
250.532	172.31
250.765	191.31
250.998	193.31
251.231	196.31
251.465	173.31
251.698	185.31
251.931	171.31
252.164	161.31
252.397	188.31
252.63	191.31
252.863	180.31
253.096	187.31
253.329	198.31
253.562	211.31
253.795	206.31
254.028	185.31
254.261	198.31
254.494	202.31
254.727	222.31
254.96	244.31
255.193	204.31
255.426	207.31
255.659	194.31
255.892	191.31
256.124	213.31
256.357	203.31
256.59	196.31
256.823	182.31
257.056	190.31
257.289	204.31
257.521	194.31
257.754	189.31
257.987	205.31
258.22	191.31
258.452	198.31
258.685	180.31
258.918	176.31
259.151	192.31
259.383	200.31
259.616	182.31
259.849	191.31
260.081	202.31
260.314	217.31
260.547	219.31
260.779	215.31
261.012	204.31
261.244	219.31
261.477	196.31
261.71	200.31
261.942	203.31
262.175	212.31
262.407	202.31
262.64	192.31
262.872	208.31
263.105	190.31
263.337	200.31
263.57	188.31
263.802	187.31
264.035	183.31
264.267	198.31
264.499	200.31
264.732	211.31
264.964	202.31
265.197	204.31
265.429	202.31
265.661	197.31
265.894	183.31
266.126	208.31
266.358	200.31
266.591	206.31
266.823	211.31
267.055	212.31
267.287	222.31
267.52	205.31
267.752	209.31
267.984	217.31
268.216	198.31
268.448	220.31
268.681	225.31
268.913	223.31
269.145	232.31
269.377	242.31
269.609	244.31
269.841	247.31
270.073	248.31
270.306	255.31
270.538	278.31
270.77	266.31
271.002	251.31
271.234	262.31
271.466	249.31
271.698	275.31
271.93	273.31
272.162	250.31
272.394	255.31
272.626	259.31
272.858	265.31
273.09	235.31
273.322	235.31
273.553	235.31
273.785	230.31
274.017	246.31
274.249	237.31
274.481	256.31
274.713	244.31
274.945	236.31
275.176	259.31
275.408	250.31
275.64	237.31
275.872	232.31
276.104	247.31
276.335	233.31
276.567	248.31
276.799	251.31
277.031	267.31
277.262	276.31
277.494	287.31
277.726	261.31
277.957	249.31
278.189	242.31
278.421	241.31
278.652	249.31
278.884	235.31
279.115	237.31
279.347	226.31
279.579	246.31
279.81	266.31
280.042	237.31
280.273	246.31
280.505	236.31
280.736	237.31
280.968	239.31
281.199	251.31
281.431	258.31
281.662	252.31
281.894	260.31
282.125	270.31
282.356	283.31
282.588	292.31
282.819	301.31
283.051	268.31
283.282	258.31
283.513	247.31
283.745	253.31
283.976	259.31
284.207	256.31
284.439	254.31
284.67	276.31
284.901	247.31
285.132	250.31
285.364	270.31
285.595	255.31
285.826	266.31
286.057	262.31
286.288	251.31
286.52	276.31
286.751	263.31
286.982	266.31
287.213	278.31
287.444	267.31
287.675	261.31
287.906	278.31
288.138	272.31
288.369	267.31
288.6	284.31
288.831	287.31
289.062	272.31
289.293	284.31
289.524	279.31
289.755	259.31
289.986	267.31
290.217	268.31
290.448	275.31
290.679	287.31
290.91	273.31
291.141	284.31
291.371	265.31
291.602	267.31
291.833	269.31
292.064	266.31
292.295	263.31
292.526	266.31
292.757	262.31
292.987	301.31
293.218	275.31
293.449	271.31
293.68	278.31
293.91	269.31
294.141	267.31
294.372	278.31
294.603	274.31
294.833	282.31
295.064	279.31
295.295	269.31
295.525	264.31
295.756	278.31
295.987	297.31
296.217	314.31
296.448	295.31
296.679	306.31
296.909	284.31
297.14	276.31
297.37	279.31
297.601	279.31
297.831	284.31
298.062	289.31
298.292	296.31
298.523	281.31
298.753	305.31
298.984	277.31
299.214	280.31
299.445	283.31
299.675	310.31
299.905	281.31
300.136	278.31
300.366	274.31
300.597	280.31
300.827	299.31
301.057	281.31
301.288	312.31
301.518	308.31
301.748	319.31
301.979	281.31
302.209	284.31
302.439	300.31
302.669	303.31
302.9	312.31
303.13	302.31
303.36	321.31
303.59	306.31
303.82	316.31
304.051	317.31
304.281	301.31
304.511	294.31
304.741	317.31
304.971	324.31
305.201	301.31
305.431	302.31
305.661	297.31
305.891	313.31
306.121	318.31
306.352	312.31
306.582	332.31
306.812	315.31
307.042	341.31
307.272	314.31
307.502	320.31
307.731	315.31
307.961	331.31
308.191	310.31
308.421	317.31
308.651	308.31
308.881	301.31
309.111	304.31
309.341	334.31
309.571	335.31
309.8	341.31
310.03	346.31
310.26	338.31
310.49	351.31
310.72	347.31
310.949	377.31
311.179	362.31
311.409	342.31
311.639	324.31
311.868	331.31
312.098	338.31
312.328	356.31
312.557	348.31
312.787	364.31
313.017	364.31
313.246	356.31
313.476	347.31
313.706	351.31
313.935	350.31
314.165	352.31
314.394	361.31
314.624	373.31
314.853	360.31
315.083	338.31
315.312	356.31
315.542	344.31
315.771	344.31
316.001	336.31
316.23	330.31
316.46	330.31
316.689	341.31
316.919	360.31
317.148	343.31
317.377	366.31
317.607	355.31
317.836	352.31
318.065	343.31
318.295	348.31
318.524	346.31
318.753	355.31
318.983	351.31
319.212	332.31
319.441	368.31
319.67	375.31
319.9	373.31
320.129	345.31
320.358	378.31
320.587	344.31
320.816	374.31
321.046	394.31
321.275	382.31
321.504	372.31
321.733	376.31
321.962	372.31
322.191	396.31
322.42	417.31
322.649	395.31
322.878	400.31
323.108	429.31
323.337	428.31
323.566	427.31
323.795	456.31
324.024	486.31
324.253	591.31
324.482	816.31
324.71	1277.31
324.939	1900.31
325.168	1701.31
325.397	822.31
325.626	566.31
325.855	480.31
326.084	461.31
326.313	430.31
326.542	435.31
326.77	492.31
326.999	568.31
327.228	748.31
327.457	1144.31
327.686	1446.31
327.914	956.31
328.143	629.31
328.372	528.31
328.6	514.31
328.829	476.31
329.058	494.31
329.287	491.31
329.515	488.31
329.744	447.31
329.972	462.31
330.201	444.31
330.43	488.31
330.658	526.31
330.887	512.31
331.115	515.31
331.344	456.31
331.572	448.31
331.801	435.31
332.03	456.31
332.258	447.31
332.486	416.31
332.715	382.31
332.943	428.31
333.172	418.31
333.4	414.31
333.629	449.31
333.857	443.31
334.085	460.31
334.314	464.31
334.542	488.31
334.771	473.31
334.999	467.31
335.227	433.31
335.455	434.31
335.684	416.31
335.912	444.31
336.14	417.31
336.369	432.31
336.597	434.31
336.825	456.31
337.053	425.31
337.281	405.31
337.51	422.31
337.738	418.31
337.966	422.31
338.194	410.31
338.422	427.31
338.65	428.31
338.878	416.31
339.106	421.31
339.334	410.31
339.562	420.31
339.79	402.31
340.018	426.31
340.246	407.31
340.474	418.31
340.702	397.31
340.93	388.31
341.158	397.31
341.386	413.31
341.614	411.31
341.842	429.31
342.07	429.31
342.298	394.31
342.526	398.31
342.754	406.31
342.981	390.31
343.209	409.31
343.437	411.31
343.665	421.31
343.893	405.31
344.12	430.31
344.348	422.31
344.576	428.31
344.804	434.31
345.031	414.31
345.259	425.31
345.487	425.31
345.714	451.31
345.942	421.31
346.17	404.31
346.397	400.31
346.625	413.31
346.853	406.31
347.08	391.31
347.308	400.31
347.535	396.31
347.763	413.31
347.99	397.31
348.218	422.31
348.445	407.31
348.673	415.31
348.9	406.31
349.128	391.31
349.355	408.31
349.583	382.31
349.81	401.31
350.037	390.31
350.265	382.31
350.492	401.31
350.72	388.31
350.947	387.31
351.174	395.31
351.402	415.31
351.629	404.31
351.856	394.31
352.083	410.31
352.311	384.31
352.538	410.31
352.765	414.31
352.992	407.31
353.22	395.31
353.447	396.31
353.674	383.31
353.901	402.31
354.128	406.31
354.355	377.31
354.583	389.31
354.81	386.31
355.037	389.31
355.264	376.31
355.491	376.31
355.718	387.31
355.945	372.31
356.172	370.31
356.399	370.31
356.626	371.31
356.853	358.31
357.08	372.31
357.307	383.31
357.534	390.31
357.761	403.31
357.988	392.31
358.215	384.31
358.441	382.31
358.668	388.31
358.895	374.31
359.122	381.31
359.349	398.31
359.576	396.31
359.802	424.31
360.029	412.31
360.256	434.31
360.483	422.31
360.709	405.31
360.936	406.31
361.163	382.31
361.39	399.31
361.616	424.31
361.843	392.31
362.07	406.31
362.296	413.31
362.523	402.31
362.749	412.31
362.976	391.31
363.203	380.31
363.429	389.31
363.656	402.31
363.882	394.31
364.109	378.31
364.335	377.31
364.562	398.31
364.788	370.31
365.015	394.31
365.241	400.31
365.468	387.31
365.694	397.31
365.92	388.31
366.147	394.31
366.373	400.31
366.599	398.31
366.826	403.31
367.052	390.31
367.278	399.31
367.505	395.31
367.731	399.31
367.957	396.31
368.184	403.31
368.41	412.31
368.636	395.31
368.862	397.31
369.089	398.31
369.315	397.31
369.541	407.31
369.767	382.31
369.993	403.31
370.219	381.31
370.445	396.31
370.672	412.31
370.898	409.31
371.124	384.31
371.35	391.31
371.576	388.31
371.802	400.31
372.028	395.31
372.254	401.31
372.48	417.31
372.706	395.31
372.932	406.31
373.158	408.31
373.384	424.31
373.61	413.31
373.835	416.31
374.061	400.31
374.287	402.31
374.513	399.31
374.739	410.31
374.965	428.31
375.191	421.31
375.416	408.31
375.642	400.31
375.868	424.31
376.094	411.31
376.319	406.31
376.545	413.31
376.771	427.31
376.997	379.31
377.222	385.31
377.448	394.31
377.674	404.31
377.899	385.31
378.125	394.31
378.35	401.31
378.576	390.31
378.802	380.31
379.027	393.31
379.253	389.31
379.478	404.31
379.704	391.31
379.929	400.31
380.155	420.31
380.38	401.31
380.606	411.31
380.831	397.31
381.057	401.31
381.282	387.31
381.507	418.31
381.733	430.31
381.958	406.31
382.184	406.31
382.409	407.31
382.634	425.31
382.86	416.31
383.085	401.31
383.31	392.31
383.535	423.31
383.761	428.31
383.986	440.31
384.211	437.31
384.436	430.31
384.662	402.31
384.887	438.31
385.112	454.31
385.337	435.31
385.562	437.31
385.787	436.31
386.013	442.31
386.238	464.31
386.463	448.31
386.688	443.31
386.913	431.31
387.138	438.31
387.363	467.31
387.588	454.31
387.813	465.31
388.038	462.31
388.263	438.31
388.488	448.31
388.713	440.31
388.938	463.31
389.163	457.31
389.387	468.31
389.612	453.31
389.837	449.31
390.062	457.31
390.287	445.31
390.512	439.31
390.736	447.31
390.961	459.31
391.186	452.31
391.411	434.31
391.636	486.31
391.86	462.31
392.085	479.31
392.31	459.31
392.534	479.31
392.759	451.31
392.984	454.31
393.208	454.31
393.433	470.31
393.658	449.31
393.882	472.31
394.107	449.31
394.331	450.31
394.556	459.31
394.78	458.31
395.005	472.31
395.229	450.31
395.454	485.31
395.678	458.31
395.903	494.31
396.127	496.31
396.352	504.31
396.576	508.31
396.801	491.31
397.025	487.31
397.249	491.31
397.474	488.31
397.698	495.31
397.922	514.31
398.147	510.31
398.371	542.31
398.595	504.31
398.82	516.31
399.044	542.31
399.268	549.31
399.492	581.31
399.717	601.31
399.941	621.31
400.165	642.31
400.389	662.31
400.613	599.31
400.837	566.31
401.062	559.31
401.286	546.31
401.51	508.31
401.734	536.31
401.958	543.31
402.182	535.31
402.406	519.31
402.63	540.31
402.854	527.31
403.078	548.31
403.302	530.31
403.526	522.31
403.75	553.31
403.974	553.31
404.198	546.31
404.422	541.31
404.645	548.31
404.869	554.31
405.093	579.31
405.317	633.31
405.541	678.31
405.765	610.31
405.988	578.31
406.212	571.31
406.436	582.31
406.66	615.31
406.883	578.31
407.107	596.31
407.331	662.31
407.555	721.31
407.778	727.31
408.002	660.31
408.226	610.31
408.449	614.31
408.673	599.31
408.896	614.31
409.12	686.31
409.344	633.31
409.567	573.31
409.791	564.31
410.014	533.31
410.238	549.31
410.461	559.31
410.685	555.31
410.908	576.31
411.132	590.31
411.355	652.31
411.578	611.31
411.802	563.31
412.025	548.31
412.249	556.31
412.472	574.31
412.695	594.31
412.919	599.31
413.142	573.31
413.365	522.31
413.589	534.31
413.812	519.31
414.035	528.31
414.258	515.31
414.482	511.31
414.705	520.31
414.928	528.31
415.151	527.31
415.374	522.31
415.597	514.31
415.821	539.31
416.044	532.31
416.267	547.31
416.49	502.31
416.713	535.31
416.936	518.31
417.159	515.31
417.382	526.31
417.605	528.31
417.828	526.31
418.051	552.31
418.274	532.31
418.497	499.31
418.72	506.31
418.943	517.31
419.166	527.31
419.389	562.31
419.611	546.31
419.834	538.31
420.057	530.31
420.28	544.31
420.503	516.31
420.726	522.31
420.948	542.31
421.171	558.31
421.394	612.31
421.617	544.31
421.839	532.31
422.062	544.31
422.285	527.31
422.507	602.31
422.73	684.31
422.953	643.31
423.175	576.31
423.398	566.31
423.621	558.31
423.843	587.31
424.066	562.31
424.288	559.31
424.511	583.31
424.733	631.31
424.956	695.31
425.178	687.31
425.401	651.31
425.623	692.31
425.846	591.31
426.068	597.31
426.291	559.31
426.513	569.31
426.735	560.31
426.958	614.31
427.18	674.31
427.402	805.31
427.625	918.31
427.847	760.31
428.069	665.31
428.292	582.31
428.514	552.31
428.736	557.31
428.958	550.31
429.181	529.31
429.403	517.31
429.625	528.31
429.847	574.31
430.069	624.31
430.292	643.31
430.514	538.31
430.736	515.31
430.958	515.31
431.18	490.31
431.402	527.31
431.624	500.31
431.846	500.31
432.068	486.31
432.29	505.31
432.512	513.31
432.734	511.31
432.956	500.31
433.178	527.31
433.4	507.31
433.622	505.31
433.844	525.31
434.066	524.31
434.287	504.31
434.509	528.31
434.731	523.31
434.953	539.31
435.175	547.31
435.397	574.31
435.618	572.31
435.84	610.31
436.062	686.31
436.284	764.31
436.505	645.31
436.727	579.31
436.949	554.31
437.17	532.31
437.392	539.31
437.614	530.31
437.835	560.31
438.057	656.31
438.278	710.31
438.5	740.31
438.721	827.31
438.943	800.31
439.165	636.31
439.386	592.31
439.608	563.31
439.829	596.31
440.05	596.31
440.272	644.31
440.493	597.31
440.715	559.31
440.936	539.31
441.158	536.31
441.379	535.31
441.6	546.31
441.822	556.31
442.043	613.31
442.264	669.31
442.486	719.31
442.707	602.31
442.928	574.31
443.149	605.31
443.371	603.31
443.592	643.31
443.813	719.31
444.034	753.31
444.255	649.31
444.476	600.31
444.698	582.31
444.919	581.31
445.14	677.31
445.361	628.31
445.582	609.31
445.803	674.31
446.024	765.31
446.245	776.31
446.466	689.31
446.687	607.31
446.908	554.31
447.129	510.31
447.35	528.31
447.571	524.31
447.792	515.31
448.013	519.31
448.234	536.31
448.455	581.31
448.675	679.31
448.896	838.31
449.117	689.31
449.338	650.31
449.559	758.31
449.779	866.31
450	655.31
450.221	543.31
450.442	522.31
450.662	520.31
450.883	502.31
451.104	523.31
451.324	512.31
451.545	494.31
451.766	490.31
451.986	472.31
452.207	469.31
452.428	472.31
452.648	474.31
452.869	472.31
453.089	490.31
453.31	471.31
453.53	458.31
453.751	451.31
453.971	485.31
454.192	468.31
454.412	476.31
454.633	464.31
454.853	455.31
455.073	456.31
455.294	483.31
455.514	551.31
455.734	516.31
455.955	451.31
456.175	459.31
456.395	463.31
456.616	445.31
456.836	450.31
457.056	467.31
457.276	441.31
457.497	462.31
457.717	444.31
457.937	460.31
458.157	473.31
458.377	468.31
458.598	478.31
458.818	528.31
459.038	615.31
459.258	621.31
459.478	550.31
459.698	524.31
459.918	510.31
460.138	512.31
460.358	502.31
460.578	528.31
460.798	534.31
461.018	555.31
461.238	526.31
461.458	537.31
461.678	522.31
461.898	530.31
462.118	554.31
462.338	541.31
462.558	564.31
462.777	570.31
462.997	584.31
463.217	565.31
463.437	590.31
463.657	570.31
463.876	567.31
464.096	574.31
464.316	556.31
464.536	564.31
464.755	572.31
464.975	551.31
465.195	576.31
465.414	626.31
465.634	576.31
465.854	534.31
466.073	526.31
466.293	512.31
466.512	530.31
466.732	520.31
466.951	494.31
467.171	494.31
467.391	506.31
467.61	482.31
467.829	502.31
468.049	499.31
468.268	482.31
468.488	479.31
468.707	483.31
468.927	484.31
469.146	467.31
469.365	499.31
469.585	500.31
469.804	492.31
470.023	516.31
470.243	475.31
470.462	498.31
470.681	525.31
470.901	495.31
471.12	498.31
471.339	505.31
471.558	490.31
471.777	528.31
471.997	484.31
472.216	489.31
472.435	515.31
472.654	505.31
472.873	484.31
473.092	493.31
473.311	494.31
473.53	488.31
473.749	505.31
473.968	550.31
474.187	623.31
474.406	647.31
474.625	537.31
474.844	509.31
475.063	500.31
475.282	496.31
475.501	494.31
475.72	523.31
475.939	511.31
476.158	523.31
476.377	522.31
476.596	518.31
476.814	536.31
477.033	559.31
477.252	539.31
477.471	548.31
477.69	549.31
477.908	520.31
478.127	549.31
478.346	547.31
478.564	560.31
478.783	567.31
479.002	568.31
479.22	578.31
479.439	578.31
479.658	596.31
479.876	604.31
480.095	607.31
480.313	617.31
480.532	610.31
480.751	610.31
480.969	627.31
481.188	646.31
481.406	668.31
481.624	605.31
481.843	615.31
482.061	588.31
482.28	578.31
482.498	584.31
482.717	575.31
482.935	578.31
483.153	571.31
483.372	580.31
483.59	578.31
483.808	587.31
484.027	590.31
484.245	571.31
484.463	578.31
484.681	618.31
484.9	571.31
485.118	595.31
485.336	611.31
485.554	605.31
485.772	596.31
485.99	576.31
486.209	616.31
486.427	613.31
486.645	601.31
486.863	616.31
487.081	635.31
487.299	631.31
487.517	614.31
487.735	607.31
487.953	612.31
488.171	650.31
488.389	621.31
488.607	629.31
488.825	612.31
489.043	623.31
489.261	628.31
489.479	613.31
489.696	615.31
489.914	617.31
490.132	640.31
490.35	640.31
490.568	650.31
490.786	652.31
491.003	656.31
491.221	660.31
491.439	677.31
491.657	696.31
491.874	672.31
492.092	692.31
492.31	686.31
492.527	687.31
492.745	678.31
492.963	694.31
493.18	705.31
493.398	699.31
493.615	685.31
493.833	720.31
494.05	698.31
494.268	732.31
494.485	716.31
494.703	702.31
494.92	700.31
495.138	703.31
495.355	718.31
495.573	705.31
495.79	698.31
496.008	732.31
496.225	712.31
496.442	728.31
496.66	730.31
496.877	734.31
497.094	739.31
497.312	740.31
497.529	731.31
497.746	766.31
497.963	811.31
498.181	809.31
498.398	824.31
498.615	828.31
498.832	844.31
499.049	884.31
499.267	909.31
499.484	920.31
499.701	943.31
499.918	972.31
500.135	1035.31
500.352	1049.31
500.569	1093.31
500.786	1088.31
501.003	1059.31
501.22	1041.31
501.437	965.31
501.654	952.31
501.871	922.31
