Data from 1978.PennyLincolnUp.Lamp.En5.5.200Scan.071719.P1_HRD10591_16-12-01-864.txt Node
Date: Thu Jul 18 16:12:01 EDT 2019
User: cochatt
Spectrometer: HR+D1059
Trigger mode: 1
Integration Time (sec): 1.000000E-1
Scans to average: 1
Electric dark correction enabled: true
Nonlinearity correction enabled: false
Boxcar width: 0
XAxis mode: Wavelengths
Number of Pixels in Spectrum: 2048
>>>>>Begin Spectral Data<<<<<
223.165	-22.25
223.4	-22.25
223.635	-22.25
223.869	-22.25
224.104	-36.25
224.338	-7.25
224.573	-12.25
224.808	1.75
225.042	-22.25
225.277	4.75
225.511	-4.25
225.746	-9.25
225.98	0.75
226.215	7.75
226.449	15.75
226.683	32.75
226.918	29.75
227.152	42.75
227.387	37.75
227.621	43.75
227.856	46.75
228.09	43.75
228.324	42.75
228.559	64.75
228.793	66.75
229.027	90.75
229.262	95.75
229.496	103.75
229.73	120.75
229.964	136.75
230.199	116.75
230.433	116.75
230.667	105.75
230.901	126.75
231.136	97.75
231.37	109.75
231.604	114.75
231.838	104.75
232.072	104.75
232.306	115.75
232.541	122.75
232.775	108.75
233.009	106.75
233.243	96.75
233.477	116.75
233.711	126.75
233.945	107.75
234.179	115.75
234.413	109.75
234.647	119.75
234.881	110.75
235.115	109.75
235.349	114.75
235.583	109.75
235.817	115.75
236.051	106.75
236.285	109.75
236.519	114.75
236.753	119.75
236.987	123.75
237.221	164.75
237.455	198.75
237.689	169.75
237.922	124.75
238.156	114.75
238.39	106.75
238.624	127.75
238.858	128.75
239.091	125.75
239.325	124.75
239.559	112.75
239.793	130.75
240.027	131.75
240.26	126.75
240.494	141.75
240.728	126.75
240.961	148.75
241.195	138.75
241.429	141.75
241.662	131.75
241.896	138.75
242.13	127.75
242.363	132.75
242.597	130.75
242.83	121.75
243.064	120.75
243.298	116.75
243.531	125.75
243.765	136.75
243.998	123.75
244.232	155.75
244.465	120.75
244.699	132.75
244.932	136.75
245.166	116.75
245.399	123.75
245.633	148.75
245.866	165.75
246.099	140.75
246.333	136.75
246.566	143.75
246.8	131.75
247.033	144.75
247.266	129.75
247.5	150.75
247.733	130.75
247.966	148.75
248.2	150.75
248.433	142.75
248.666	140.75
248.899	162.75
249.133	163.75
249.366	193.75
249.599	163.75
249.832	165.75
250.066	158.75
250.299	167.75
250.532	156.75
250.765	186.75
250.998	187.75
251.231	180.75
251.465	186.75
251.698	164.75
251.931	166.75
252.164	166.75
252.397	184.75
252.63	180.75
252.863	167.75
253.096	196.75
253.329	196.75
253.562	192.75
253.795	172.75
254.028	184.75
254.261	194.75
254.494	189.75
254.727	211.75
254.96	212.75
255.193	211.75
255.426	203.75
255.659	197.75
255.892	182.75
256.124	185.75
256.357	189.75
256.59	179.75
256.823	199.75
257.056	188.75
257.289	183.75
257.521	200.75
257.754	202.75
257.987	186.75
258.22	175.75
258.452	172.75
258.685	176.75
258.918	182.75
259.151	202.75
259.383	191.75
259.616	199.75
259.849	216.75
260.081	209.75
260.314	211.75
260.547	224.75
260.779	211.75
261.012	202.75
261.244	202.75
261.477	182.75
261.71	181.75
261.942	197.75
262.175	217.75
262.407	198.75
262.64	195.75
262.872	201.75
263.105	176.75
263.337	199.75
263.57	194.75
263.802	195.75
264.035	195.75
264.267	188.75
264.499	197.75
264.732	189.75
264.964	196.75
265.197	198.75
265.429	187.75
265.661	196.75
265.894	201.75
266.126	190.75
266.358	200.75
266.591	187.75
266.823	202.75
267.055	199.75
267.287	212.75
267.52	217.75
267.752	215.75
267.984	223.75
268.216	202.75
268.448	201.75
268.681	216.75
268.913	199.75
269.145	222.75
269.377	223.75
269.609	229.75
269.841	214.75
270.073	228.75
270.306	219.75
270.538	271.75
270.77	276.75
271.002	262.75
271.234	246.75
271.466	251.75
271.698	260.75
271.93	262.75
272.162	260.75
272.394	254.75
272.626	256.75
272.858	234.75
273.09	229.75
273.322	227.75
273.553	228.75
273.785	229.75
274.017	211.75
274.249	229.75
274.481	239.75
274.713	251.75
274.945	246.75
275.176	229.75
275.408	231.75
275.64	245.75
275.872	219.75
276.104	244.75
276.335	231.75
276.567	240.75
276.799	261.75
277.031	267.75
277.262	255.75
277.494	271.75
277.726	244.75
277.957	252.75
278.189	247.75
278.421	247.75
278.652	239.75
278.884	245.75
279.115	245.75
279.347	244.75
279.579	252.75
279.81	234.75
280.042	272.75
280.273	250.75
280.505	242.75
280.736	228.75
280.968	249.75
281.199	250.75
281.431	256.75
281.662	252.75
281.894	241.75
282.125	244.75
282.356	264.75
282.588	271.75
282.819	264.75
283.051	271.75
283.282	256.75
283.513	262.75
283.745	249.75
283.976	251.75
284.207	253.75
284.439	246.75
284.67	256.75
284.901	262.75
285.132	257.75
285.364	248.75
285.595	264.75
285.826	245.75
286.057	261.75
286.288	263.75
286.52	265.75
286.751	248.75
286.982	246.75
287.213	247.75
287.444	257.75
287.675	264.75
287.906	273.75
288.138	261.75
288.369	270.75
288.6	263.75
288.831	278.75
289.062	264.75
289.293	263.75
289.524	268.75
289.755	281.75
289.986	289.75
290.217	254.75
290.448	255.75
290.679	270.75
290.91	263.75
291.141	270.75
291.371	253.75
291.602	271.75
291.833	275.75
292.064	252.75
292.295	284.75
292.526	281.75
292.757	249.75
292.987	239.75
293.218	266.75
293.449	265.75
293.68	268.75
293.91	301.75
294.141	276.75
294.372	268.75
294.603	279.75
294.833	290.75
295.064	250.75
295.295	274.75
295.525	259.75
295.756	274.75
295.987	282.75
296.217	278.75
296.448	319.75
296.679	272.75
296.909	280.75
297.14	267.75
297.37	277.75
297.601	284.75
297.831	294.75
298.062	281.75
298.292	285.75
298.523	278.75
298.753	296.75
298.984	285.75
299.214	293.75
299.445	285.75
299.675	274.75
299.905	286.75
300.136	288.75
300.366	284.75
300.597	285.75
300.827	306.75
301.057	288.75
301.288	312.75
301.518	313.75
301.748	289.75
301.979	320.75
302.209	303.75
302.439	309.75
302.669	299.75
302.9	301.75
303.13	298.75
303.36	303.75
303.59	288.75
303.82	306.75
304.051	303.75
304.281	305.75
304.511	307.75
304.741	303.75
304.971	314.75
305.201	288.75
305.431	308.75
305.661	300.75
305.891	309.75
306.121	298.75
306.352	298.75
306.582	306.75
306.812	296.75
307.042	309.75
307.272	327.75
307.502	305.75
307.731	301.75
307.961	319.75
308.191	298.75
308.421	315.75
308.651	311.75
308.881	295.75
309.111	296.75
309.341	320.75
309.571	302.75
309.8	328.75
310.03	330.75
310.26	330.75
310.49	349.75
310.72	338.75
310.949	330.75
311.179	349.75
311.409	343.75
311.639	335.75
311.868	345.75
312.098	346.75
312.328	347.75
312.557	346.75
312.787	359.75
313.017	344.75
313.246	332.75
313.476	336.75
313.706	339.75
313.935	348.75
314.165	347.75
314.394	358.75
314.624	354.75
314.853	367.75
315.083	352.75
315.312	339.75
315.542	349.75
315.771	346.75
316.001	340.75
316.23	330.75
316.46	337.75
316.689	341.75
316.919	366.75
317.148	355.75
317.377	352.75
317.607	363.75
317.836	366.75
318.065	338.75
318.295	353.75
318.524	347.75
318.753	340.75
318.983	352.75
319.212	323.75
319.441	346.75
319.67	351.75
319.9	357.75
320.129	345.75
320.358	368.75
320.587	360.75
320.816	367.75
321.046	359.75
321.275	365.75
321.504	370.75
321.733	370.75
321.962	373.75
322.191	386.75
322.42	390.75
322.649	379.75
322.878	388.75
323.108	384.75
323.337	420.75
323.566	410.75
323.795	457.75
324.024	473.75
324.253	571.75
324.482	767.75
324.71	1176.75
324.939	1816.75
325.168	1557.75
325.397	746.75
325.626	520.75
325.855	476.75
326.084	430.75
326.313	443.75
326.542	442.75
326.77	475.75
326.999	538.75
327.228	707.75
327.457	1050.75
327.686	1336.75
327.914	880.75
328.143	564.75
328.372	519.75
328.6	476.75
328.829	474.75
329.058	471.75
329.287	482.75
329.515	484.75
329.744	455.75
329.972	448.75
330.201	454.75
330.43	479.75
330.658	482.75
330.887	505.75
331.115	488.75
331.344	460.75
331.572	411.75
331.801	443.75
332.03	456.75
332.258	419.75
332.486	424.75
332.715	413.75
332.943	400.75
333.172	402.75
333.4	427.75
333.629	436.75
333.857	441.75
334.085	458.75
334.314	454.75
334.542	479.75
334.771	477.75
334.999	453.75
335.227	447.75
335.455	413.75
335.684	417.75
335.912	425.75
336.14	426.75
336.369	442.75
336.597	427.75
336.825	421.75
337.053	419.75
337.281	402.75
337.51	414.75
337.738	423.75
337.966	415.75
338.194	405.75
338.422	413.75
338.65	427.75
338.878	414.75
339.106	418.75
339.334	407.75
339.562	411.75
339.79	405.75
340.018	424.75
340.246	409.75
340.474	428.75
340.702	415.75
340.93	385.75
341.158	398.75
341.386	410.75
341.614	404.75
341.842	385.75
342.07	422.75
342.298	401.75
342.526	391.75
342.754	383.75
342.981	388.75
343.209	399.75
343.437	400.75
343.665	397.75
343.893	429.75
344.12	422.75
344.348	420.75
344.576	408.75
344.804	425.75
345.031	437.75
345.259	430.75
345.487	404.75
345.714	406.75
345.942	400.75
346.17	378.75
346.397	403.75
346.625	388.75
346.853	394.75
347.08	383.75
347.308	398.75
347.535	405.75
347.763	399.75
347.99	390.75
348.218	399.75
348.445	400.75
348.673	393.75
348.9	394.75
349.128	394.75
349.355	380.75
349.583	389.75
349.81	379.75
350.037	390.75
350.265	392.75
350.492	393.75
350.72	388.75
350.947	377.75
351.174	393.75
351.402	407.75
351.629	394.75
351.856	387.75
352.083	389.75
352.311	397.75
352.538	404.75
352.765	390.75
352.992	402.75
353.22	388.75
353.447	400.75
353.674	400.75
353.901	367.75
354.128	379.75
354.355	395.75
354.583	374.75
354.81	373.75
355.037	370.75
355.264	377.75
355.491	370.75
355.718	363.75
355.945	347.75
356.172	353.75
356.399	377.75
356.626	383.75
356.853	392.75
357.08	378.75
357.307	377.75
357.534	375.75
357.761	376.75
357.988	380.75
358.215	395.75
358.441	372.75
358.668	395.75
358.895	391.75
359.122	374.75
359.349	380.75
359.576	409.75
359.802	404.75
360.029	421.75
360.256	427.75
360.483	418.75
360.709	413.75
360.936	411.75
361.163	394.75
361.39	404.75
361.616	410.75
361.843	412.75
362.07	394.75
362.296	402.75
362.523	396.75
362.749	390.75
362.976	401.75
363.203	379.75
363.429	372.75
363.656	396.75
363.882	409.75
364.109	393.75
364.335	392.75
364.562	408.75
364.788	384.75
365.015	389.75
365.241	379.75
365.468	387.75
365.694	401.75
365.92	392.75
366.147	398.75
366.373	385.75
366.599	386.75
366.826	383.75
367.052	403.75
367.278	395.75
367.505	393.75
367.731	392.75
367.957	385.75
368.184	382.75
368.41	396.75
368.636	409.75
368.862	402.75
369.089	406.75
369.315	396.75
369.541	400.75
369.767	376.75
369.993	393.75
370.219	399.75
370.445	395.75
370.672	382.75
370.898	401.75
371.124	401.75
371.35	405.75
371.576	388.75
371.802	396.75
372.028	390.75
372.254	400.75
372.48	370.75
372.706	416.75
372.932	405.75
373.158	388.75
373.384	406.75
373.61	379.75
373.835	414.75
374.061	411.75
374.287	401.75
374.513	387.75
374.739	401.75
374.965	407.75
375.191	408.75
375.416	418.75
375.642	400.75
375.868	411.75
376.094	397.75
376.319	419.75
376.545	401.75
376.771	393.75
376.997	396.75
377.222	386.75
377.448	396.75
377.674	408.75
377.899	424.75
378.125	395.75
378.35	398.75
378.576	404.75
378.802	408.75
379.027	408.75
379.253	378.75
379.478	391.75
379.704	418.75
379.929	404.75
380.155	418.75
380.38	416.75
380.606	399.75
380.831	405.75
381.057	416.75
381.282	399.75
381.507	416.75
381.733	424.75
381.958	412.75
382.184	416.75
382.409	422.75
382.634	413.75
382.86	409.75
383.085	414.75
383.31	416.75
383.535	427.75
383.761	410.75
383.986	414.75
384.211	422.75
384.436	446.75
384.662	411.75
384.887	423.75
385.112	446.75
385.337	450.75
385.562	438.75
385.787	431.75
386.013	426.75
386.238	461.75
386.463	453.75
386.688	453.75
386.913	427.75
387.138	441.75
387.363	470.75
387.588	453.75
387.813	441.75
388.038	448.75
388.263	466.75
388.488	448.75
388.713	461.75
388.938	455.75
389.163	456.75
389.387	457.75
389.612	466.75
389.837	453.75
390.062	450.75
390.287	453.75
390.512	477.75
390.736	456.75
390.961	456.75
391.186	443.75
391.411	456.75
391.636	443.75
391.86	477.75
392.085	457.75
392.31	465.75
392.534	470.75
392.759	476.75
392.984	457.75
393.208	446.75
393.433	450.75
393.658	469.75
393.882	442.75
394.107	451.75
394.331	456.75
394.556	482.75
394.78	463.75
395.005	469.75
395.229	452.75
395.454	501.75
395.678	488.75
395.903	492.75
396.127	480.75
396.352	485.75
396.576	491.75
396.801	491.75
397.025	486.75
397.249	502.75
397.474	500.75
397.698	472.75
397.922	516.75
398.147	506.75
398.371	515.75
398.595	531.75
398.82	518.75
399.044	526.75
399.268	528.75
399.492	564.75
399.717	607.75
399.941	637.75
400.165	636.75
400.389	651.75
400.613	579.75
400.837	553.75
401.062	528.75
401.286	515.75
401.51	520.75
401.734	519.75
401.958	513.75
402.182	517.75
402.406	545.75
402.63	536.75
402.854	516.75
403.078	537.75
403.302	528.75
403.526	522.75
403.75	532.75
403.974	538.75
404.198	530.75
404.422	542.75
404.645	543.75
404.869	557.75
405.093	585.75
405.317	600.75
405.541	638.75
405.765	580.75
405.988	586.75
406.212	587.75
406.436	598.75
406.66	592.75
406.883	585.75
407.107	590.75
407.331	645.75
407.555	696.75
407.778	716.75
408.002	651.75
408.226	610.75
408.449	601.75
408.673	592.75
408.896	637.75
409.12	638.75
409.344	626.75
409.567	584.75
409.791	552.75
410.014	552.75
410.238	546.75
410.461	539.75
410.685	555.75
410.908	562.75
411.132	604.75
411.355	603.75
411.578	595.75
411.802	547.75
412.025	566.75
412.249	545.75
412.472	571.75
412.695	627.75
412.919	563.75
413.142	548.75
413.365	531.75
413.589	538.75
413.812	529.75
414.035	502.75
414.258	526.75
414.482	524.75
414.705	523.75
414.928	532.75
415.151	504.75
415.374	522.75
415.597	523.75
415.821	531.75
416.044	516.75
416.267	491.75
416.49	516.75
416.713	508.75
416.936	531.75
417.159	504.75
417.382	522.75
417.605	537.75
417.828	532.75
418.051	498.75
418.274	514.75
418.497	506.75
418.72	521.75
418.943	538.75
419.166	526.75
419.389	549.75
419.611	543.75
419.834	552.75
420.057	547.75
420.28	523.75
420.503	538.75
420.726	515.75
420.948	536.75
421.171	575.75
421.394	591.75
421.617	533.75
421.839	511.75
422.062	532.75
422.285	539.75
422.507	571.75
422.73	682.75
422.953	622.75
423.175	569.75
423.398	544.75
423.621	562.75
423.843	553.75
424.066	565.75
424.288	568.75
424.511	575.75
424.733	610.75
424.956	706.75
425.178	642.75
425.401	677.75
425.623	681.75
425.846	607.75
426.068	554.75
426.291	550.75
426.513	549.75
426.735	566.75
426.958	590.75
427.18	644.75
427.402	792.75
427.625	891.75
427.847	751.75
428.069	640.75
428.292	597.75
428.514	564.75
428.736	535.75
428.958	542.75
429.181	503.75
429.403	505.75
429.625	517.75
429.847	535.75
430.069	604.75
430.292	612.75
430.514	523.75
430.736	515.75
430.958	509.75
431.18	508.75
431.402	509.75
431.624	526.75
431.846	499.75
432.068	502.75
432.29	492.75
432.512	492.75
432.734	508.75
432.956	499.75
433.178	518.75
433.4	526.75
433.622	515.75
433.844	524.75
434.066	485.75
434.287	502.75
434.509	518.75
434.731	517.75
434.953	517.75
435.175	539.75
435.397	581.75
435.618	548.75
435.84	570.75
436.062	694.75
436.284	744.75
436.505	622.75
436.727	574.75
436.949	528.75
437.17	546.75
437.392	522.75
437.614	535.75
437.835	580.75
438.057	627.75
438.278	708.75
438.5	706.75
438.721	785.75
438.943	755.75
439.165	624.75
439.386	593.75
439.608	559.75
439.829	582.75
440.05	564.75
440.272	614.75
440.493	583.75
440.715	572.75
440.936	528.75
441.158	538.75
441.379	522.75
441.6	540.75
441.822	539.75
442.043	597.75
442.264	627.75
442.486	722.75
442.707	612.75
442.928	575.75
443.149	590.75
443.371	598.75
443.592	624.75
443.813	724.75
444.034	770.75
444.255	644.75
444.476	576.75
444.698	576.75
444.919	561.75
445.14	692.75
445.361	621.75
445.582	616.75
445.803	675.75
446.024	724.75
446.245	759.75
446.466	683.75
446.687	596.75
446.908	545.75
447.129	554.75
447.35	513.75
447.571	517.75
447.792	491.75
448.013	515.75
448.234	533.75
448.455	554.75
448.675	660.75
448.896	802.75
449.117	655.75
449.338	614.75
449.559	718.75
449.779	840.75
450	656.75
450.221	553.75
450.442	514.75
450.662	512.75
450.883	511.75
451.104	499.75
451.324	491.75
451.545	500.75
451.766	510.75
451.986	480.75
452.207	466.75
452.428	470.75
452.648	472.75
452.869	462.75
453.089	462.75
453.31	473.75
453.53	481.75
453.751	450.75
453.971	468.75
454.192	471.75
454.412	459.75
454.633	458.75
454.853	476.75
455.073	446.75
455.294	469.75
455.514	536.75
455.734	516.75
455.955	464.75
456.175	446.75
456.395	440.75
456.616	457.75
456.836	449.75
457.056	453.75
457.276	456.75
457.497	460.75
457.717	462.75
457.937	450.75
458.157	454.75
458.377	441.75
458.598	498.75
458.818	510.75
459.038	576.75
459.258	602.75
459.478	541.75
459.698	520.75
459.918	518.75
460.138	527.75
460.358	505.75
460.578	538.75
460.798	530.75
461.018	521.75
461.238	540.75
461.458	543.75
461.678	532.75
461.898	543.75
462.118	533.75
462.338	535.75
462.558	547.75
462.777	569.75
462.997	579.75
463.217	584.75
463.437	607.75
463.657	556.75
463.876	575.75
464.096	564.75
464.316	555.75
464.536	592.75
464.755	565.75
464.975	582.75
465.195	558.75
465.414	611.75
465.634	570.75
465.854	539.75
466.073	515.75
466.293	528.75
466.512	517.75
466.732	472.75
466.951	477.75
467.171	501.75
467.391	478.75
467.61	505.75
467.829	534.75
468.049	535.75
468.268	483.75
468.488	482.75
468.707	464.75
468.927	455.75
469.146	481.75
469.365	503.75
469.585	481.75
469.804	490.75
470.023	470.75
470.243	477.75
470.462	512.75
470.681	503.75
470.901	483.75
471.12	479.75
471.339	479.75
471.558	488.75
471.777	487.75
471.997	502.75
472.216	491.75
472.435	495.75
472.654	515.75
472.873	475.75
473.092	501.75
473.311	512.75
473.53	500.75
473.749	492.75
473.968	535.75
474.187	604.75
474.406	644.75
474.625	533.75
474.844	512.75
475.063	506.75
475.282	493.75
475.501	472.75
475.72	513.75
475.939	521.75
476.158	490.75
476.377	504.75
476.596	501.75
476.814	527.75
477.033	546.75
477.252	540.75
477.471	548.75
477.69	546.75
477.908	558.75
478.127	543.75
478.346	541.75
478.564	564.75
478.783	568.75
479.002	560.75
479.22	566.75
479.439	569.75
479.658	598.75
479.876	610.75
480.095	592.75
480.313	616.75
480.532	620.75
480.751	603.75
480.969	591.75
481.188	625.75
481.406	646.75
481.624	610.75
481.843	584.75
482.061	576.75
482.28	585.75
482.498	574.75
482.717	592.75
482.935	564.75
483.153	587.75
483.372	582.75
483.59	578.75
483.808	577.75
484.027	597.75
484.245	577.75
484.463	580.75
484.681	598.75
484.9	582.75
485.118	595.75
485.336	575.75
485.554	602.75
485.772	597.75
485.99	611.75
486.209	595.75
486.427	614.75
486.645	616.75
486.863	599.75
487.081	632.75
487.299	623.75
487.517	607.75
487.735	572.75
487.953	583.75
488.171	601.75
488.389	632.75
488.607	626.75
488.825	598.75
489.043	624.75
489.261	626.75
489.479	589.75
489.696	616.75
489.914	615.75
490.132	639.75
490.35	642.75
490.568	642.75
490.786	639.75
491.003	648.75
491.221	669.75
491.439	662.75
491.657	660.75
491.874	678.75
492.092	679.75
492.31	662.75
492.527	668.75
492.745	679.75
492.963	703.75
493.18	693.75
493.398	692.75
493.615	689.75
493.833	683.75
494.05	687.75
494.268	695.75
494.485	703.75
494.703	676.75
494.92	698.75
495.138	696.75
495.355	709.75
495.573	688.75
495.79	692.75
496.008	708.75
496.225	724.75
496.442	728.75
496.66	729.75
496.877	701.75
497.094	708.75
497.312	746.75
497.529	729.75
497.746	749.75
497.963	741.75
498.181	813.75
498.398	810.75
498.615	815.75
498.832	820.75
499.049	854.75
499.267	883.75
499.484	902.75
499.701	927.75
499.918	990.75
500.135	1038.75
500.352	1053.75
500.569	1098.75
500.786	1093.75
501.003	1092.75
501.22	1034.75
501.437	1008.75
501.654	933.75
501.871	956.75
