Data from 1978.PennyLincolnUp.Lamp.En5.5.200Scan.071719.P1_HRD10591_16-13-33-864.txt Node
Date: Thu Jul 18 16:13:33 EDT 2019
User: cochatt
Spectrometer: HR+D1059
Trigger mode: 1
Integration Time (sec): 1.000000E-1
Scans to average: 1
Electric dark correction enabled: true
Nonlinearity correction enabled: false
Boxcar width: 0
XAxis mode: Wavelengths
Number of Pixels in Spectrum: 2048
>>>>>Begin Spectral Data<<<<<
223.165	-15.19
223.4	-15.19
223.635	-15.19
223.869	-19.19
224.104	-20.19
224.338	-9.19
224.573	-8.19
224.808	-11.19
225.042	-7.19
225.277	-3.19
225.511	1.81
225.746	-0.19
225.98	8.81
226.215	21.81
226.449	10.81
226.683	21.81
226.918	15.81
227.152	12.81
227.387	27.81
227.621	32.81
227.856	52.81
228.09	39.81
228.324	48.81
228.559	60.81
228.793	64.81
229.027	85.81
229.262	118.81
229.496	97.81
229.73	138.81
229.964	168.81
230.199	125.81
230.433	127.81
230.667	122.81
230.901	115.81
231.136	112.81
231.37	118.81
231.604	113.81
231.838	106.81
232.072	112.81
232.306	124.81
232.541	97.81
232.775	123.81
233.009	90.81
233.243	98.81
233.477	116.81
233.711	117.81
233.945	100.81
234.179	121.81
234.413	104.81
234.647	107.81
234.881	124.81
235.115	123.81
235.349	120.81
235.583	118.81
235.817	123.81
236.051	106.81
236.285	109.81
236.519	124.81
236.753	124.81
236.987	150.81
237.221	171.81
237.455	229.81
237.689	173.81
237.922	144.81
238.156	134.81
238.39	132.81
238.624	125.81
238.858	136.81
239.091	125.81
239.325	137.81
239.559	118.81
239.793	115.81
240.027	130.81
240.26	149.81
240.494	161.81
240.728	156.81
240.961	133.81
241.195	141.81
241.429	129.81
241.662	131.81
241.896	122.81
242.13	146.81
242.363	130.81
242.597	130.81
242.83	141.81
243.064	136.81
243.298	122.81
243.531	145.81
243.765	134.81
243.998	131.81
244.232	143.81
244.465	148.81
244.699	142.81
244.932	138.81
245.166	129.81
245.399	132.81
245.633	152.81
245.866	127.81
246.099	136.81
246.333	152.81
246.566	147.81
246.8	149.81
247.033	145.81
247.266	143.81
247.5	161.81
247.733	154.81
247.966	160.81
248.2	162.81
248.433	163.81
248.666	162.81
248.899	166.81
249.133	192.81
249.366	208.81
249.599	179.81
249.832	172.81
250.066	179.81
250.299	171.81
250.532	186.81
250.765	187.81
250.998	198.81
251.231	192.81
251.465	199.81
251.698	181.81
251.931	194.81
252.164	208.81
252.397	182.81
252.63	177.81
252.863	178.81
253.096	197.81
253.329	197.81
253.562	221.81
253.795	216.81
254.028	204.81
254.261	193.81
254.494	196.81
254.727	224.81
254.96	251.81
255.193	253.81
255.426	228.81
255.659	220.81
255.892	203.81
256.124	216.81
256.357	212.81
256.59	234.81
256.823	205.81
257.056	210.81
257.289	209.81
257.521	183.81
257.754	212.81
257.987	204.81
258.22	196.81
258.452	204.81
258.685	212.81
258.918	194.81
259.151	202.81
259.383	205.81
259.616	214.81
259.849	208.81
260.081	218.81
260.314	221.81
260.547	245.81
260.779	248.81
261.012	219.81
261.244	210.81
261.477	217.81
261.71	198.81
261.942	209.81
262.175	214.81
262.407	225.81
262.64	204.81
262.872	213.81
263.105	216.81
263.337	212.81
263.57	203.81
263.802	198.81
264.035	193.81
264.267	211.81
264.499	207.81
264.732	205.81
264.964	225.81
265.197	198.81
265.429	195.81
265.661	211.81
265.894	199.81
266.126	216.81
266.358	213.81
266.591	214.81
266.823	217.81
267.055	229.81
267.287	224.81
267.52	220.81
267.752	234.81
267.984	227.81
268.216	221.81
268.448	218.81
268.681	208.81
268.913	258.81
269.145	247.81
269.377	270.81
269.609	256.81
269.841	260.81
270.073	245.81
270.306	249.81
270.538	292.81
270.77	274.81
271.002	273.81
271.234	256.81
271.466	283.81
271.698	291.81
271.93	286.81
272.162	297.81
272.394	304.81
272.626	294.81
272.858	264.81
273.09	261.81
273.322	261.81
273.553	251.81
273.785	262.81
274.017	228.81
274.249	257.81
274.481	266.81
274.713	263.81
274.945	251.81
275.176	243.81
275.408	235.81
275.64	254.81
275.872	239.81
276.104	257.81
276.335	261.81
276.567	235.81
276.799	289.81
277.031	282.81
277.262	312.81
277.494	291.81
277.726	274.81
277.957	264.81
278.189	276.81
278.421	266.81
278.652	256.81
278.884	246.81
279.115	266.81
279.347	260.81
279.579	250.81
279.81	265.81
280.042	263.81
280.273	264.81
280.505	252.81
280.736	252.81
280.968	277.81
281.199	272.81
281.431	264.81
281.662	260.81
281.894	266.81
282.125	279.81
282.356	262.81
282.588	266.81
282.819	295.81
283.051	278.81
283.282	265.81
283.513	282.81
283.745	268.81
283.976	264.81
284.207	278.81
284.439	278.81
284.67	275.81
284.901	279.81
285.132	265.81
285.364	272.81
285.595	263.81
285.826	275.81
286.057	273.81
286.288	268.81
286.52	291.81
286.751	279.81
286.982	282.81
287.213	281.81
287.444	293.81
287.675	289.81
287.906	285.81
288.138	302.81
288.369	285.81
288.6	298.81
288.831	283.81
289.062	292.81
289.293	284.81
289.524	297.81
289.755	293.81
289.986	290.81
290.217	291.81
290.448	296.81
290.679	277.81
290.91	285.81
291.141	296.81
291.371	294.81
291.602	274.81
291.833	288.81
292.064	288.81
292.295	290.81
292.526	277.81
292.757	278.81
292.987	302.81
293.218	276.81
293.449	302.81
293.68	298.81
293.91	292.81
294.141	305.81
294.372	272.81
294.603	266.81
294.833	300.81
295.064	297.81
295.295	276.81
295.525	289.81
295.756	299.81
295.987	300.81
296.217	330.81
296.448	323.81
296.679	299.81
296.909	309.81
297.14	295.81
297.37	312.81
297.601	300.81
297.831	300.81
298.062	293.81
298.292	291.81
298.523	301.81
298.753	301.81
298.984	316.81
299.214	312.81
299.445	302.81
299.675	292.81
299.905	308.81
300.136	300.81
300.366	320.81
300.597	301.81
300.827	317.81
301.057	308.81
301.288	329.81
301.518	329.81
301.748	306.81
301.979	331.81
302.209	324.81
302.439	306.81
302.669	309.81
302.9	332.81
303.13	316.81
303.36	340.81
303.59	325.81
303.82	340.81
304.051	340.81
304.281	339.81
304.511	311.81
304.741	341.81
304.971	330.81
305.201	320.81
305.431	321.81
305.661	320.81
305.891	324.81
306.121	332.81
306.352	331.81
306.582	317.81
306.812	345.81
307.042	321.81
307.272	327.81
307.502	326.81
307.731	332.81
307.961	328.81
308.191	326.81
308.421	332.81
308.651	349.81
308.881	350.81
309.111	342.81
309.341	340.81
309.571	341.81
309.8	343.81
310.03	354.81
310.26	348.81
310.49	362.81
310.72	368.81
310.949	381.81
311.179	388.81
311.409	358.81
311.639	363.81
311.868	368.81
312.098	366.81
312.328	384.81
312.557	382.81
312.787	407.81
313.017	398.81
313.246	408.81
313.476	372.81
313.706	368.81
313.935	372.81
314.165	394.81
314.394	386.81
314.624	397.81
314.853	374.81
315.083	390.81
315.312	370.81
315.542	374.81
315.771	375.81
316.001	356.81
316.23	354.81
316.46	376.81
316.689	367.81
316.919	383.81
317.148	378.81
317.377	378.81
317.607	370.81
317.836	379.81
318.065	368.81
318.295	365.81
318.524	373.81
318.753	368.81
318.983	328.81
319.212	382.81
319.441	384.81
319.67	377.81
319.9	362.81
320.129	376.81
320.358	391.81
320.587	398.81
320.816	408.81
321.046	399.81
321.275	410.81
321.504	407.81
321.733	396.81
321.962	391.81
322.191	416.81
322.42	425.81
322.649	443.81
322.878	440.81
323.108	451.81
323.337	473.81
323.566	470.81
323.795	508.81
324.024	567.81
324.253	657.81
324.482	920.81
324.71	1491.81
324.939	2278.81
325.168	1992.81
325.397	946.81
325.626	638.81
325.855	550.81
326.084	493.81
326.313	504.81
326.542	480.81
326.77	535.81
326.999	624.81
327.228	861.81
327.457	1340.81
327.686	1682.81
327.914	1081.81
328.143	698.81
328.372	594.81
328.6	578.81
328.829	557.81
329.058	548.81
329.287	576.81
329.515	556.81
329.744	505.81
329.972	490.81
330.201	518.81
330.43	540.81
330.658	558.81
330.887	566.81
331.115	554.81
331.344	520.81
331.572	481.81
331.801	492.81
332.03	479.81
332.258	464.81
332.486	436.81
332.715	431.81
332.943	453.81
333.172	456.81
333.4	434.81
333.629	460.81
333.857	500.81
334.085	481.81
334.314	483.81
334.542	530.81
334.771	538.81
334.999	501.81
335.227	485.81
335.455	453.81
335.684	452.81
335.912	450.81
336.14	439.81
336.369	458.81
336.597	468.81
336.825	468.81
337.053	453.81
337.281	446.81
337.51	455.81
337.738	464.81
337.966	468.81
338.194	434.81
338.422	442.81
338.65	446.81
338.878	424.81
339.106	422.81
339.334	428.81
339.562	425.81
339.79	443.81
340.018	438.81
340.246	438.81
340.474	441.81
340.702	433.81
340.93	445.81
341.158	399.81
341.386	422.81
341.614	425.81
341.842	445.81
342.07	448.81
342.298	420.81
342.526	424.81
342.754	437.81
342.981	427.81
343.209	414.81
343.437	422.81
343.665	425.81
343.893	450.81
344.12	448.81
344.348	450.81
344.576	442.81
344.804	440.81
345.031	459.81
345.259	450.81
345.487	447.81
345.714	426.81
345.942	422.81
346.17	422.81
346.397	448.81
346.625	409.81
346.853	445.81
347.08	428.81
347.308	449.81
347.535	439.81
347.763	436.81
347.99	423.81
348.218	446.81
348.445	450.81
348.673	438.81
348.9	429.81
349.128	426.81
349.355	416.81
349.583	416.81
349.81	420.81
350.037	396.81
350.265	404.81
350.492	416.81
350.72	408.81
350.947	413.81
351.174	418.81
351.402	422.81
351.629	417.81
351.856	411.81
352.083	428.81
352.311	429.81
352.538	428.81
352.765	442.81
352.992	418.81
353.22	417.81
353.447	420.81
353.674	425.81
353.901	421.81
354.128	427.81
354.355	392.81
354.583	396.81
354.81	390.81
355.037	394.81
355.264	402.81
355.491	413.81
355.718	411.81
355.945	397.81
356.172	403.81
356.399	403.81
356.626	397.81
356.853	396.81
357.08	397.81
357.307	406.81
357.534	391.81
357.761	390.81
357.988	404.81
358.215	398.81
358.441	392.81
358.668	373.81
358.895	416.81
359.122	425.81
359.349	397.81
359.576	392.81
359.802	448.81
360.029	465.81
360.256	479.81
360.483	448.81
360.709	438.81
360.936	428.81
361.163	432.81
361.39	415.81
361.616	435.81
361.843	419.81
362.07	429.81
362.296	426.81
362.523	433.81
362.749	426.81
362.976	409.81
363.203	406.81
363.429	406.81
363.656	394.81
363.882	401.81
364.109	399.81
364.335	414.81
364.562	418.81
364.788	402.81
365.015	413.81
365.241	394.81
365.468	431.81
365.694	421.81
365.92	425.81
366.147	408.81
366.373	410.81
366.599	418.81
366.826	393.81
367.052	409.81
367.278	425.81
367.505	414.81
367.731	403.81
367.957	407.81
368.184	406.81
368.41	425.81
368.636	424.81
368.862	431.81
369.089	428.81
369.315	430.81
369.541	399.81
369.767	402.81
369.993	420.81
370.219	411.81
370.445	438.81
370.672	421.81
370.898	417.81
371.124	402.81
371.35	402.81
371.576	432.81
371.802	415.81
372.028	423.81
372.254	411.81
372.48	406.81
372.706	407.81
372.932	408.81
373.158	419.81
373.384	426.81
373.61	436.81
373.835	420.81
374.061	406.81
374.287	432.81
374.513	439.81
374.739	446.81
374.965	434.81
375.191	426.81
375.416	448.81
375.642	406.81
375.868	419.81
376.094	421.81
376.319	413.81
376.545	398.81
376.771	429.81
376.997	412.81
377.222	422.81
377.448	417.81
377.674	424.81
377.899	408.81
378.125	399.81
378.35	406.81
378.576	415.81
378.802	428.81
379.027	416.81
379.253	413.81
379.478	411.81
379.704	418.81
379.929	434.81
380.155	428.81
380.38	423.81
380.606	444.81
380.831	440.81
381.057	430.81
381.282	415.81
381.507	429.81
381.733	412.81
381.958	411.81
382.184	414.81
382.409	419.81
382.634	421.81
382.86	421.81
383.085	438.81
383.31	439.81
383.535	451.81
383.761	422.81
383.986	428.81
384.211	439.81
384.436	465.81
384.662	422.81
384.887	459.81
385.112	445.81
385.337	468.81
385.562	462.81
385.787	455.81
386.013	478.81
386.238	477.81
386.463	460.81
386.688	466.81
386.913	453.81
387.138	454.81
387.363	466.81
387.588	460.81
387.813	460.81
388.038	461.81
388.263	481.81
388.488	473.81
388.713	458.81
388.938	473.81
389.163	472.81
389.387	461.81
389.612	473.81
389.837	470.81
390.062	471.81
390.287	468.81
390.512	477.81
390.736	467.81
390.961	451.81
391.186	483.81
391.411	475.81
391.636	481.81
391.86	481.81
392.085	472.81
392.31	488.81
392.534	497.81
392.759	487.81
392.984	485.81
393.208	478.81
393.433	459.81
393.658	476.81
393.882	491.81
394.107	476.81
394.331	486.81
394.556	470.81
394.78	491.81
395.005	470.81
395.229	491.81
395.454	493.81
395.678	497.81
395.903	514.81
396.127	533.81
396.352	502.81
396.576	523.81
396.801	488.81
397.025	492.81
397.249	516.81
397.474	505.81
397.698	493.81
397.922	543.81
398.147	536.81
398.371	526.81
398.595	544.81
398.82	541.81
399.044	549.81
399.268	548.81
399.492	602.81
399.717	631.81
399.941	651.81
400.165	677.81
400.389	672.81
400.613	652.81
400.837	604.81
401.062	577.81
401.286	557.81
401.51	561.81
401.734	543.81
401.958	554.81
402.182	564.81
402.406	562.81
402.63	565.81
402.854	564.81
403.078	546.81
403.302	561.81
403.526	592.81
403.75	579.81
403.974	563.81
404.198	585.81
404.422	581.81
404.645	572.81
404.869	572.81
405.093	609.81
405.317	646.81
405.541	712.81
405.765	634.81
405.988	576.81
406.212	614.81
406.436	620.81
406.66	626.81
406.883	619.81
407.107	637.81
407.331	672.81
407.555	773.81
407.778	743.81
408.002	694.81
408.226	672.81
408.449	652.81
408.673	622.81
408.896	640.81
409.12	678.81
409.344	678.81
409.567	602.81
409.791	608.81
410.014	563.81
410.238	576.81
410.461	585.81
410.685	602.81
410.908	601.81
411.132	620.81
411.355	667.81
411.578	636.81
411.802	578.81
412.025	571.81
412.249	597.81
412.472	588.81
412.695	634.81
412.919	652.81
413.142	594.81
413.365	570.81
413.589	570.81
413.812	544.81
414.035	539.81
414.258	557.81
414.482	554.81
414.705	540.81
414.928	547.81
415.151	536.81
415.374	534.81
415.597	542.81
415.821	533.81
416.044	526.81
416.267	532.81
416.49	539.81
416.713	528.81
416.936	532.81
417.159	520.81
417.382	553.81
417.605	539.81
417.828	533.81
418.051	565.81
418.274	547.81
418.497	523.81
418.72	536.81
418.943	511.81
419.166	561.81
419.389	599.81
419.611	571.81
419.834	582.81
420.057	547.81
420.28	557.81
420.503	567.81
420.726	549.81
420.948	572.81
421.171	608.81
421.394	647.81
421.617	598.81
421.839	553.81
422.062	575.81
422.285	579.81
422.507	632.81
422.73	699.81
422.953	693.81
423.175	601.81
423.398	585.81
423.621	597.81
423.843	605.81
424.066	589.81
424.288	584.81
424.511	613.81
424.733	680.81
424.956	749.81
425.178	706.81
425.401	734.81
425.623	718.81
425.846	635.81
426.068	595.81
426.291	575.81
426.513	566.81
426.735	631.81
426.958	659.81
427.18	738.81
427.402	906.81
427.625	998.81
427.847	831.81
428.069	734.81
428.292	645.81
428.514	598.81
428.736	571.81
428.958	566.81
429.181	556.81
429.403	542.81
429.625	563.81
429.847	594.81
430.069	681.81
430.292	682.81
430.514	585.81
430.736	560.81
430.958	557.81
431.18	539.81
431.402	544.81
431.624	536.81
431.846	531.81
432.068	511.81
432.29	533.81
432.512	537.81
432.734	547.81
432.956	541.81
433.178	551.81
433.4	560.81
433.622	547.81
433.844	554.81
434.066	550.81
434.287	537.81
434.509	541.81
434.731	527.81
434.953	562.81
435.175	571.81
435.397	613.81
435.618	608.81
435.84	644.81
436.062	755.81
436.284	835.81
436.505	683.81
436.727	602.81
436.949	582.81
437.17	579.81
437.392	555.81
437.614	574.81
437.835	605.81
438.057	710.81
438.278	796.81
438.5	796.81
438.721	881.81
438.943	856.81
439.165	662.81
439.386	628.81
439.608	610.81
439.829	594.81
440.05	631.81
440.272	684.81
440.493	644.81
440.715	594.81
440.936	582.81
441.158	563.81
441.379	560.81
441.6	573.81
441.822	602.81
442.043	632.81
442.264	733.81
442.486	797.81
442.707	649.81
442.928	619.81
443.149	628.81
443.371	621.81
443.592	679.81
443.813	805.81
444.034	874.81
444.255	718.81
444.476	634.81
444.698	614.81
444.919	599.81
445.14	674.81
445.361	676.81
445.582	661.81
445.803	706.81
446.024	825.81
446.245	824.81
446.466	739.81
446.687	648.81
446.908	605.81
447.129	583.81
447.35	554.81
447.571	575.81
447.792	552.81
448.013	575.81
448.234	577.81
448.455	644.81
448.675	746.81
448.896	900.81
449.117	756.81
449.338	679.81
449.559	826.81
449.779	928.81
450	758.81
450.221	605.81
450.442	580.81
450.662	568.81
450.883	526.81
451.104	549.81
451.324	542.81
451.545	522.81
451.766	522.81
451.986	491.81
452.207	509.81
452.428	501.81
452.648	518.81
452.869	513.81
453.089	512.81
453.31	516.81
453.53	525.81
453.751	507.81
453.971	499.81
454.192	521.81
454.412	500.81
454.633	510.81
454.853	492.81
455.073	506.81
455.294	527.81
455.514	586.81
455.734	548.81
455.955	496.81
456.175	476.81
456.395	463.81
456.616	457.81
456.836	456.81
457.056	461.81
457.276	453.81
457.497	516.81
457.717	513.81
457.937	514.81
458.157	473.81
458.377	481.81
458.598	521.81
458.818	570.81
459.038	652.81
459.258	652.81
459.478	582.81
459.698	544.81
459.918	542.81
460.138	524.81
460.358	536.81
460.578	564.81
460.798	554.81
461.018	543.81
461.238	532.81
461.458	561.81
461.678	556.81
461.898	545.81
462.118	570.81
462.338	564.81
462.558	590.81
462.777	576.81
462.997	586.81
463.217	578.81
463.437	590.81
463.657	599.81
463.876	584.81
464.096	609.81
464.316	595.81
464.536	593.81
464.755	579.81
464.975	597.81
465.195	616.81
465.414	663.81
465.634	619.81
465.854	584.81
466.073	562.81
466.293	545.81
466.512	525.81
466.732	525.81
466.951	516.81
467.171	542.81
467.391	525.81
467.61	501.81
467.829	537.81
468.049	530.81
468.268	520.81
468.488	512.81
468.707	520.81
468.927	488.81
469.146	504.81
469.365	518.81
469.585	502.81
469.804	513.81
470.023	523.81
470.243	514.81
470.462	509.81
470.681	549.81
470.901	540.81
471.12	518.81
471.339	508.81
471.558	522.81
471.777	535.81
471.997	523.81
472.216	523.81
472.435	528.81
472.654	549.81
472.873	527.81
473.092	516.81
473.311	520.81
473.53	522.81
473.749	549.81
473.968	566.81
474.187	674.81
474.406	704.81
474.625	569.81
474.844	525.81
475.063	524.81
475.282	521.81
475.501	540.81
475.72	553.81
475.939	537.81
476.158	525.81
476.377	553.81
476.596	546.81
476.814	560.81
477.033	556.81
477.252	581.81
477.471	572.81
477.69	576.81
477.908	569.81
478.127	568.81
478.346	591.81
478.564	606.81
478.783	579.81
479.002	606.81
479.22	589.81
479.439	596.81
479.658	637.81
479.876	636.81
480.095	648.81
480.313	674.81
480.532	651.81
480.751	645.81
480.969	653.81
481.188	677.81
481.406	721.81
481.624	672.81
481.843	648.81
482.061	637.81
482.28	600.81
482.498	599.81
482.717	608.81
482.935	601.81
483.153	627.81
483.372	611.81
483.59	644.81
483.808	606.81
484.027	614.81
484.245	612.81
484.463	626.81
484.681	613.81
484.9	610.81
485.118	617.81
485.336	622.81
485.554	643.81
485.772	631.81
485.99	622.81
486.209	638.81
486.427	667.81
486.645	635.81
486.863	637.81
487.081	655.81
487.299	648.81
487.517	662.81
487.735	667.81
487.953	642.81
488.171	648.81
488.389	649.81
488.607	654.81
488.825	660.81
489.043	662.81
489.261	669.81
489.479	664.81
489.696	663.81
489.914	657.81
490.132	681.81
490.35	681.81
490.568	664.81
490.786	676.81
491.003	704.81
491.221	695.81
491.439	713.81
491.657	712.81
491.874	691.81
492.092	725.81
492.31	742.81
492.527	722.81
492.745	764.81
492.963	762.81
493.18	751.81
493.398	736.81
493.615	748.81
493.833	744.81
494.05	724.81
494.268	768.81
494.485	739.81
494.703	747.81
494.92	752.81
495.138	738.81
495.355	760.81
495.573	756.81
495.79	742.81
496.008	783.81
496.225	754.81
496.442	771.81
496.66	762.81
496.877	798.81
497.094	779.81
497.312	780.81
497.529	794.81
497.746	818.81
497.963	808.81
498.181	835.81
498.398	840.81
498.615	865.81
498.832	918.81
499.049	906.81
499.267	937.81
499.484	969.81
499.701	978.81
499.918	1007.81
500.135	1084.81
500.352	1097.81
500.569	1119.81
500.786	1142.81
501.003	1100.81
501.22	1076.81
501.437	1052.81
501.654	1012.81
501.871	1012.81
