Data from 1978.PennyLincolnUp.Lamp.En5.5.200Scan.071719.P1_HRD10591_16-14-49-865.txt Node
Date: Thu Jul 18 16:14:49 EDT 2019
User: cochatt
Spectrometer: HR+D1059
Trigger mode: 1
Integration Time (sec): 1.000000E-1
Scans to average: 1
Electric dark correction enabled: true
Nonlinearity correction enabled: false
Boxcar width: 0
XAxis mode: Wavelengths
Number of Pixels in Spectrum: 2048
>>>>>Begin Spectral Data<<<<<
223.165	-15.75
223.4	-15.75
223.635	-15.75
223.869	-22.75
224.104	-30.75
224.338	-13.75
224.573	-32.75
224.808	-6.75
225.042	-0.75
225.277	2.25
225.511	-5.75
225.746	6.25
225.98	-2.75
226.215	9.25
226.449	16.25
226.683	20.25
226.918	33.25
227.152	44.25
227.387	38.25
227.621	51.25
227.856	52.25
228.09	42.25
228.324	55.25
228.559	47.25
228.793	64.25
229.027	88.25
229.262	95.25
229.496	111.25
229.73	139.25
229.964	150.25
230.199	142.25
230.433	111.25
230.667	124.25
230.901	104.25
231.136	120.25
231.37	111.25
231.604	116.25
231.838	112.25
232.072	118.25
232.306	117.25
232.541	112.25
232.775	122.25
233.009	121.25
233.243	121.25
233.477	116.25
233.711	133.25
233.945	132.25
234.179	121.25
234.413	122.25
234.647	126.25
234.881	143.25
235.115	123.25
235.349	123.25
235.583	119.25
235.817	126.25
236.051	128.25
236.285	122.25
236.519	129.25
236.753	134.25
236.987	143.25
237.221	184.25
237.455	247.25
237.689	182.25
237.922	130.25
238.156	142.25
238.39	144.25
238.624	132.25
238.858	142.25
239.091	118.25
239.325	131.25
239.559	124.25
239.793	122.25
240.027	140.25
240.26	149.25
240.494	158.25
240.728	132.25
240.961	134.25
241.195	149.25
241.429	150.25
241.662	121.25
241.896	132.25
242.13	133.25
242.363	144.25
242.597	138.25
242.83	138.25
243.064	143.25
243.298	144.25
243.531	136.25
243.765	131.25
243.998	143.25
244.232	153.25
244.465	153.25
244.699	146.25
244.932	126.25
245.166	154.25
245.399	143.25
245.633	142.25
245.866	143.25
246.099	140.25
246.333	167.25
246.566	151.25
246.8	153.25
247.033	151.25
247.266	160.25
247.5	163.25
247.733	157.25
247.966	155.25
248.2	172.25
248.433	162.25
248.666	172.25
248.899	179.25
249.133	186.25
249.366	198.25
249.599	199.25
249.832	194.25
250.066	176.25
250.299	184.25
250.532	174.25
250.765	182.25
250.998	201.25
251.231	215.25
251.465	201.25
251.698	207.25
251.931	195.25
252.164	190.25
252.397	201.25
252.63	190.25
252.863	202.25
253.096	219.25
253.329	236.25
253.562	224.25
253.795	208.25
254.028	182.25
254.261	209.25
254.494	225.25
254.727	247.25
254.96	270.25
255.193	239.25
255.426	226.25
255.659	228.25
255.892	212.25
256.124	222.25
256.357	228.25
256.59	221.25
256.823	220.25
257.056	203.25
257.289	214.25
257.521	194.25
257.754	190.25
257.987	199.25
258.22	209.25
258.452	208.25
258.685	188.25
258.918	204.25
259.151	225.25
259.383	223.25
259.616	227.25
259.849	217.25
260.081	236.25
260.314	243.25
260.547	231.25
260.779	237.25
261.012	235.25
261.244	227.25
261.477	226.25
261.71	224.25
261.942	213.25
262.175	231.25
262.407	219.25
262.64	219.25
262.872	206.25
263.105	224.25
263.337	229.25
263.57	216.25
263.802	199.25
264.035	197.25
264.267	201.25
264.499	194.25
264.732	219.25
264.964	215.25
265.197	218.25
265.429	228.25
265.661	206.25
265.894	212.25
266.126	218.25
266.358	214.25
266.591	217.25
266.823	232.25
267.055	234.25
267.287	219.25
267.52	231.25
267.752	234.25
267.984	219.25
268.216	214.25
268.448	225.25
268.681	212.25
268.913	239.25
269.145	252.25
269.377	267.25
269.609	266.25
269.841	274.25
270.073	260.25
270.306	273.25
270.538	290.25
270.77	298.25
271.002	300.25
271.234	298.25
271.466	275.25
271.698	295.25
271.93	292.25
272.162	299.25
272.394	301.25
272.626	292.25
272.858	272.25
273.09	286.25
273.322	278.25
273.553	275.25
273.785	274.25
274.017	245.25
274.249	258.25
274.481	262.25
274.713	263.25
274.945	266.25
275.176	258.25
275.408	257.25
275.64	272.25
275.872	250.25
276.104	280.25
276.335	246.25
276.567	263.25
276.799	279.25
277.031	287.25
277.262	302.25
277.494	331.25
277.726	306.25
277.957	274.25
278.189	272.25
278.421	252.25
278.652	274.25
278.884	272.25
279.115	278.25
279.347	256.25
279.579	254.25
279.81	245.25
280.042	264.25
280.273	268.25
280.505	259.25
280.736	284.25
280.968	268.25
281.199	283.25
281.431	292.25
281.662	255.25
281.894	249.25
282.125	279.25
282.356	293.25
282.588	306.25
282.819	308.25
283.051	289.25
283.282	271.25
283.513	279.25
283.745	300.25
283.976	281.25
284.207	295.25
284.439	280.25
284.67	281.25
284.901	280.25
285.132	259.25
285.364	277.25
285.595	268.25
285.826	290.25
286.057	276.25
286.288	289.25
286.52	285.25
286.751	281.25
286.982	263.25
287.213	295.25
287.444	283.25
287.675	280.25
287.906	288.25
288.138	285.25
288.369	314.25
288.6	307.25
288.831	303.25
289.062	300.25
289.293	288.25
289.524	295.25
289.755	283.25
289.986	299.25
290.217	277.25
290.448	290.25
290.679	298.25
290.91	299.25
291.141	290.25
291.371	281.25
291.602	281.25
291.833	290.25
292.064	283.25
292.295	285.25
292.526	285.25
292.757	273.25
292.987	284.25
293.218	293.25
293.449	300.25
293.68	308.25
293.91	296.25
294.141	296.25
294.372	277.25
294.603	307.25
294.833	301.25
295.064	307.25
295.295	275.25
295.525	292.25
295.756	301.25
295.987	297.25
296.217	338.25
296.448	369.25
296.679	316.25
296.909	303.25
297.14	310.25
297.37	305.25
297.601	322.25
297.831	299.25
298.062	312.25
298.292	328.25
298.523	303.25
298.753	314.25
298.984	313.25
299.214	301.25
299.445	313.25
299.675	319.25
299.905	321.25
300.136	338.25
300.366	325.25
300.597	297.25
300.827	307.25
301.057	328.25
301.288	332.25
301.518	325.25
301.748	348.25
301.979	350.25
302.209	313.25
302.439	333.25
302.669	313.25
302.9	324.25
303.13	314.25
303.36	326.25
303.59	331.25
303.82	338.25
304.051	340.25
304.281	337.25
304.511	331.25
304.741	311.25
304.971	327.25
305.201	329.25
305.431	336.25
305.661	330.25
305.891	317.25
306.121	337.25
306.352	344.25
306.582	329.25
306.812	347.25
307.042	333.25
307.272	324.25
307.502	322.25
307.731	336.25
307.961	328.25
308.191	335.25
308.421	328.25
308.651	332.25
308.881	345.25
309.111	345.25
309.341	343.25
309.571	336.25
309.8	366.25
310.03	375.25
310.26	360.25
310.49	390.25
310.72	381.25
310.949	389.25
311.179	396.25
311.409	380.25
311.639	383.25
311.868	362.25
312.098	366.25
312.328	396.25
312.557	392.25
312.787	414.25
313.017	413.25
313.246	390.25
313.476	388.25
313.706	380.25
313.935	379.25
314.165	387.25
314.394	415.25
314.624	397.25
314.853	396.25
315.083	390.25
315.312	384.25
315.542	398.25
315.771	380.25
316.001	379.25
316.23	370.25
316.46	342.25
316.689	380.25
316.919	405.25
317.148	386.25
317.377	389.25
317.607	387.25
317.836	404.25
318.065	395.25
318.295	362.25
318.524	375.25
318.753	363.25
318.983	380.25
319.212	386.25
319.441	400.25
319.67	373.25
319.9	389.25
320.129	376.25
320.358	380.25
320.587	375.25
320.816	395.25
321.046	408.25
321.275	407.25
321.504	387.25
321.733	410.25
321.962	422.25
322.191	426.25
322.42	423.25
322.649	408.25
322.878	464.25
323.108	472.25
323.337	472.25
323.566	510.25
323.795	537.25
324.024	591.25
324.253	688.25
324.482	1018.25
324.71	1622.25
324.939	2483.25
325.168	2147.25
325.397	1036.25
325.626	683.25
325.855	554.25
326.084	528.25
326.313	509.25
326.542	519.25
326.77	558.25
326.999	680.25
327.228	909.25
327.457	1474.25
327.686	1902.25
327.914	1200.25
328.143	719.25
328.372	647.25
328.6	608.25
328.829	580.25
329.058	582.25
329.287	588.25
329.515	554.25
329.744	495.25
329.972	534.25
330.201	558.25
330.43	578.25
330.658	600.25
330.887	604.25
331.115	600.25
331.344	519.25
331.572	517.25
331.801	505.25
332.03	489.25
332.258	476.25
332.486	470.25
332.715	458.25
332.943	460.25
333.172	473.25
333.4	460.25
333.629	477.25
333.857	485.25
334.085	504.25
334.314	501.25
334.542	540.25
334.771	548.25
334.999	517.25
335.227	503.25
335.455	499.25
335.684	472.25
335.912	461.25
336.14	438.25
336.369	444.25
336.597	471.25
336.825	473.25
337.053	480.25
337.281	443.25
337.51	461.25
337.738	466.25
337.966	440.25
338.194	461.25
338.422	469.25
338.65	449.25
338.878	440.25
339.106	453.25
339.334	435.25
339.562	438.25
339.79	447.25
340.018	439.25
340.246	444.25
340.474	439.25
340.702	447.25
340.93	453.25
341.158	436.25
341.386	430.25
341.614	439.25
341.842	423.25
342.07	436.25
342.298	430.25
342.526	442.25
342.754	418.25
342.981	426.25
343.209	429.25
343.437	444.25
343.665	432.25
343.893	431.25
344.12	455.25
344.348	433.25
344.576	466.25
344.804	445.25
345.031	462.25
345.259	466.25
345.487	450.25
345.714	433.25
345.942	445.25
346.17	427.25
346.397	426.25
346.625	432.25
346.853	443.25
347.08	434.25
347.308	449.25
347.535	447.25
347.763	448.25
347.99	450.25
348.218	454.25
348.445	447.25
348.673	446.25
348.9	439.25
349.128	431.25
349.355	428.25
349.583	430.25
349.81	403.25
350.037	412.25
350.265	410.25
350.492	400.25
350.72	405.25
350.947	410.25
351.174	456.25
351.402	447.25
351.629	450.25
351.856	426.25
352.083	426.25
352.311	437.25
352.538	445.25
352.765	448.25
352.992	448.25
353.22	429.25
353.447	447.25
353.674	422.25
353.901	423.25
354.128	426.25
354.355	407.25
354.583	419.25
354.81	408.25
355.037	410.25
355.264	418.25
355.491	414.25
355.718	380.25
355.945	406.25
356.172	397.25
356.399	396.25
356.626	395.25
356.853	404.25
357.08	409.25
357.307	411.25
357.534	389.25
357.761	398.25
357.988	403.25
358.215	406.25
358.441	404.25
358.668	413.25
358.895	425.25
359.122	415.25
359.349	417.25
359.576	427.25
359.802	456.25
360.029	453.25
360.256	508.25
360.483	465.25
360.709	436.25
360.936	441.25
361.163	422.25
361.39	422.25
361.616	442.25
361.843	438.25
362.07	419.25
362.296	430.25
362.523	450.25
362.749	440.25
362.976	412.25
363.203	412.25
363.429	437.25
363.656	414.25
363.882	423.25
364.109	396.25
364.335	427.25
364.562	431.25
364.788	403.25
365.015	422.25
365.241	410.25
365.468	413.25
365.694	430.25
365.92	426.25
366.147	421.25
366.373	429.25
366.599	426.25
366.826	431.25
367.052	440.25
367.278	428.25
367.505	432.25
367.731	432.25
367.957	399.25
368.184	427.25
368.41	427.25
368.636	428.25
368.862	439.25
369.089	419.25
369.315	394.25
369.541	426.25
369.767	425.25
369.993	436.25
370.219	426.25
370.445	408.25
370.672	415.25
370.898	425.25
371.124	414.25
371.35	434.25
371.576	440.25
371.802	413.25
372.028	422.25
372.254	412.25
372.48	437.25
372.706	434.25
372.932	422.25
373.158	424.25
373.384	445.25
373.61	424.25
373.835	424.25
374.061	422.25
374.287	429.25
374.513	416.25
374.739	409.25
374.965	431.25
375.191	447.25
375.416	461.25
375.642	419.25
375.868	440.25
376.094	436.25
376.319	455.25
376.545	420.25
376.771	435.25
376.997	442.25
377.222	416.25
377.448	408.25
377.674	422.25
377.899	427.25
378.125	428.25
378.35	443.25
378.576	428.25
378.802	412.25
379.027	424.25
379.253	432.25
379.478	424.25
379.704	428.25
379.929	423.25
380.155	412.25
380.38	430.25
380.606	431.25
380.831	431.25
381.057	443.25
381.282	442.25
381.507	437.25
381.733	444.25
381.958	419.25
382.184	431.25
382.409	427.25
382.634	444.25
382.86	437.25
383.085	452.25
383.31	440.25
383.535	441.25
383.761	443.25
383.986	443.25
384.211	438.25
384.436	459.25
384.662	459.25
384.887	456.25
385.112	451.25
385.337	459.25
385.562	456.25
385.787	473.25
386.013	487.25
386.238	465.25
386.463	475.25
386.688	474.25
386.913	473.25
387.138	475.25
387.363	466.25
387.588	475.25
387.813	478.25
388.038	479.25
388.263	463.25
388.488	469.25
388.713	478.25
388.938	470.25
389.163	468.25
389.387	484.25
389.612	477.25
389.837	462.25
390.062	467.25
390.287	484.25
390.512	491.25
390.736	456.25
390.961	483.25
391.186	502.25
391.411	476.25
391.636	512.25
391.86	474.25
392.085	499.25
392.31	496.25
392.534	495.25
392.759	497.25
392.984	484.25
393.208	475.25
393.433	501.25
393.658	498.25
393.882	499.25
394.107	477.25
394.331	477.25
394.556	483.25
394.78	477.25
395.005	494.25
395.229	493.25
395.454	495.25
395.678	492.25
395.903	528.25
396.127	530.25
396.352	527.25
396.576	534.25
396.801	488.25
397.025	504.25
397.249	506.25
397.474	522.25
397.698	503.25
397.922	541.25
398.147	552.25
398.371	551.25
398.595	551.25
398.82	556.25
399.044	558.25
399.268	573.25
399.492	606.25
399.717	618.25
399.941	643.25
400.165	686.25
400.389	692.25
400.613	663.25
400.837	582.25
401.062	584.25
401.286	576.25
401.51	528.25
401.734	567.25
401.958	546.25
402.182	572.25
402.406	591.25
402.63	574.25
402.854	564.25
403.078	578.25
403.302	570.25
403.526	590.25
403.75	573.25
403.974	556.25
404.198	580.25
404.422	575.25
404.645	572.25
404.869	598.25
405.093	624.25
405.317	675.25
405.541	696.25
405.765	623.25
405.988	601.25
406.212	597.25
406.436	611.25
406.66	636.25
406.883	638.25
407.107	674.25
407.331	691.25
407.555	803.25
407.778	764.25
408.002	694.25
408.226	651.25
408.449	654.25
408.673	673.25
408.896	676.25
409.12	723.25
409.344	678.25
409.567	596.25
409.791	599.25
410.014	587.25
410.238	580.25
410.461	570.25
410.685	585.25
410.908	630.25
411.132	661.25
411.355	684.25
411.578	636.25
411.802	603.25
412.025	575.25
412.249	593.25
412.472	634.25
412.695	684.25
412.919	644.25
413.142	596.25
413.365	554.25
413.589	573.25
413.812	565.25
414.035	557.25
414.258	544.25
414.482	570.25
414.705	534.25
414.928	534.25
415.151	569.25
415.374	555.25
415.597	550.25
415.821	531.25
416.044	564.25
416.267	554.25
416.49	556.25
416.713	549.25
416.936	544.25
417.159	527.25
417.382	549.25
417.605	562.25
417.828	545.25
418.051	543.25
418.274	569.25
418.497	559.25
418.72	577.25
418.943	518.25
419.166	563.25
419.389	603.25
419.611	581.25
419.834	588.25
420.057	566.25
420.28	571.25
420.503	555.25
420.726	575.25
420.948	572.25
421.171	654.25
421.394	649.25
421.617	566.25
421.839	534.25
422.062	581.25
422.285	581.25
422.507	647.25
422.73	755.25
422.953	711.25
423.175	626.25
423.398	583.25
423.621	588.25
423.843	604.25
424.066	606.25
424.288	591.25
424.511	636.25
424.733	684.25
424.956	772.25
425.178	749.25
425.401	759.25
425.623	784.25
425.846	666.25
426.068	615.25
426.291	591.25
426.513	582.25
426.735	615.25
426.958	661.25
427.18	743.25
427.402	917.25
427.625	991.25
427.847	850.25
428.069	762.25
428.292	661.25
428.514	597.25
428.736	565.25
428.958	603.25
429.181	561.25
429.403	568.25
429.625	583.25
429.847	627.25
430.069	677.25
430.292	680.25
430.514	585.25
430.736	565.25
430.958	537.25
431.18	542.25
431.402	540.25
431.624	543.25
431.846	545.25
432.068	531.25
432.29	519.25
432.512	534.25
432.734	544.25
432.956	554.25
433.178	544.25
433.4	546.25
433.622	548.25
433.844	554.25
434.066	532.25
434.287	542.25
434.509	556.25
434.731	556.25
434.953	544.25
435.175	575.25
435.397	611.25
435.618	618.25
435.84	680.25
436.062	795.25
436.284	878.25
436.505	693.25
436.727	647.25
436.949	590.25
437.17	573.25
437.392	543.25
437.614	565.25
437.835	599.25
438.057	721.25
438.278	867.25
438.5	840.25
438.721	926.25
438.943	922.25
439.165	695.25
439.386	648.25
439.608	620.25
439.829	646.25
440.05	656.25
440.272	724.25
440.493	663.25
440.715	608.25
440.936	580.25
441.158	583.25
441.379	551.25
441.6	580.25
441.822	606.25
442.043	644.25
442.264	732.25
442.486	825.25
442.707	686.25
442.928	626.25
443.149	638.25
443.371	657.25
443.592	698.25
443.813	815.25
444.034	886.25
444.255	743.25
444.476	643.25
444.698	622.25
444.919	612.25
445.14	685.25
445.361	690.25
445.582	692.25
445.803	735.25
446.024	855.25
446.245	896.25
446.466	796.25
446.687	690.25
446.908	628.25
447.129	589.25
447.35	580.25
447.571	570.25
447.792	571.25
448.013	556.25
448.234	572.25
448.455	632.25
448.675	778.25
448.896	930.25
449.117	772.25
449.338	718.25
449.559	839.25
449.779	974.25
450	764.25
450.221	627.25
450.442	566.25
450.662	558.25
450.883	578.25
451.104	599.25
451.324	556.25
451.545	564.25
451.766	543.25
451.986	518.25
452.207	503.25
452.428	496.25
452.648	517.25
452.869	500.25
453.089	531.25
453.31	547.25
453.53	496.25
453.751	500.25
453.971	520.25
454.192	543.25
454.412	521.25
454.633	484.25
454.853	510.25
455.073	501.25
455.294	538.25
455.514	623.25
455.734	583.25
455.955	506.25
456.175	500.25
456.395	493.25
456.616	485.25
456.836	498.25
457.056	474.25
457.276	466.25
457.497	487.25
457.717	502.25
457.937	509.25
458.157	500.25
458.377	508.25
458.598	528.25
458.818	585.25
459.038	656.25
459.258	724.25
459.478	626.25
459.698	541.25
459.918	556.25
460.138	570.25
460.358	530.25
460.578	539.25
460.798	571.25
461.018	552.25
461.238	570.25
461.458	542.25
461.678	550.25
461.898	583.25
462.118	557.25
462.338	573.25
462.558	567.25
462.777	591.25
462.997	597.25
463.217	627.25
463.437	628.25
463.657	592.25
463.876	594.25
464.096	597.25
464.316	589.25
464.536	589.25
464.755	620.25
464.975	619.25
465.195	646.25
465.414	682.25
465.634	623.25
465.854	583.25
466.073	554.25
466.293	543.25
466.512	570.25
466.732	540.25
466.951	538.25
467.171	513.25
467.391	509.25
467.61	531.25
467.829	541.25
468.049	564.25
468.268	520.25
468.488	511.25
468.707	500.25
468.927	508.25
469.146	485.25
469.365	518.25
469.585	504.25
469.804	500.25
470.023	531.25
470.243	532.25
470.462	541.25
470.681	592.25
470.901	544.25
471.12	553.25
471.339	553.25
471.558	520.25
471.777	538.25
471.997	537.25
472.216	532.25
472.435	554.25
472.654	551.25
472.873	528.25
473.092	548.25
473.311	524.25
473.53	534.25
473.749	540.25
473.968	566.25
474.187	668.25
474.406	700.25
474.625	578.25
474.844	544.25
475.063	534.25
475.282	537.25
475.501	527.25
475.72	544.25
475.939	544.25
476.158	533.25
476.377	552.25
476.596	560.25
476.814	571.25
477.033	581.25
477.252	582.25
477.471	577.25
477.69	587.25
477.908	589.25
478.127	572.25
478.346	558.25
478.564	571.25
478.783	599.25
479.002	584.25
479.22	594.25
479.439	602.25
479.658	629.25
479.876	648.25
480.095	659.25
480.313	692.25
480.532	655.25
480.751	646.25
480.969	654.25
481.188	732.25
481.406	738.25
481.624	678.25
481.843	643.25
482.061	672.25
482.28	646.25
482.498	614.25
482.717	630.25
482.935	638.25
483.153	591.25
483.372	628.25
483.59	599.25
483.808	624.25
484.027	628.25
484.245	620.25
484.463	637.25
484.681	640.25
484.9	669.25
485.118	638.25
485.336	630.25
485.554	629.25
485.772	654.25
485.99	636.25
486.209	631.25
486.427	657.25
486.645	656.25
486.863	690.25
487.081	687.25
487.299	650.25
487.517	665.25
487.735	675.25
487.953	662.25
488.171	649.25
488.389	638.25
488.607	657.25
488.825	668.25
489.043	686.25
489.261	698.25
489.479	671.25
489.696	676.25
489.914	690.25
490.132	680.25
490.35	691.25
490.568	717.25
490.786	712.25
491.003	698.25
491.221	720.25
491.439	734.25
491.657	714.25
491.874	733.25
492.092	754.25
492.31	766.25
492.527	772.25
492.745	744.25
492.963	756.25
493.18	766.25
493.398	780.25
493.615	763.25
493.833	771.25
494.05	778.25
494.268	798.25
494.485	776.25
494.703	772.25
494.92	779.25
495.138	777.25
495.355	774.25
495.573	762.25
495.79	772.25
496.008	796.25
496.225	788.25
496.442	776.25
496.66	809.25
496.877	813.25
497.094	780.25
497.312	816.25
497.529	819.25
497.746	810.25
497.963	811.25
498.181	858.25
498.398	865.25
498.615	885.25
498.832	920.25
499.049	948.25
499.267	953.25
499.484	966.25
499.701	1003.25
499.918	1030.25
500.135	1080.25
500.352	1117.25
500.569	1127.25
500.786	1133.25
501.003	1124.25
501.22	1090.25
501.437	1076.25
501.654	1043.25
501.871	1003.25
