Data from 1978.PennyLincolnUp.Lamp.En5.5.200Scan.071719.P1_HRD10591_16-12-52-864.txt Node
Date: Thu Jul 18 16:12:52 EDT 2019
User: cochatt
Spectrometer: HR+D1059
Trigger mode: 1
Integration Time (sec): 1.000000E-1
Scans to average: 1
Electric dark correction enabled: true
Nonlinearity correction enabled: false
Boxcar width: 0
XAxis mode: Wavelengths
Number of Pixels in Spectrum: 2048
>>>>>Begin Spectral Data<<<<<
223.165	-15.44
223.4	-15.44
223.635	-15.44
223.869	-24.44
224.104	-12.44
224.338	-5.44
224.573	-20.44
224.808	-19.44
225.042	-2.44
225.277	-23.44
225.511	-12.44
225.746	23.56
225.98	5.56
226.215	19.56
226.449	17.56
226.683	17.56
226.918	24.56
227.152	27.56
227.387	32.56
227.621	45.56
227.856	42.56
228.09	36.56
228.324	46.56
228.559	61.56
228.793	43.56
229.027	101.56
229.262	92.56
229.496	110.56
229.73	115.56
229.964	148.56
230.199	131.56
230.433	121.56
230.667	112.56
230.901	105.56
231.136	103.56
231.37	108.56
231.604	102.56
231.838	128.56
232.072	125.56
232.306	101.56
232.541	119.56
232.775	115.56
233.009	112.56
233.243	124.56
233.477	118.56
233.711	97.56
233.945	109.56
234.179	127.56
234.413	131.56
234.647	121.56
234.881	121.56
235.115	97.56
235.349	112.56
235.583	116.56
235.817	121.56
236.051	132.56
236.285	121.56
236.519	127.56
236.753	131.56
236.987	144.56
237.221	182.56
237.455	223.56
237.689	181.56
237.922	139.56
238.156	128.56
238.39	139.56
238.624	132.56
238.858	111.56
239.091	120.56
239.325	130.56
239.559	124.56
239.793	132.56
240.027	127.56
240.26	129.56
240.494	140.56
240.728	150.56
240.961	131.56
241.195	138.56
241.429	135.56
241.662	114.56
241.896	126.56
242.13	140.56
242.363	126.56
242.597	139.56
242.83	129.56
243.064	143.56
243.298	126.56
243.531	131.56
243.765	147.56
243.998	147.56
244.232	149.56
244.465	131.56
244.699	144.56
244.932	135.56
245.166	143.56
245.399	151.56
245.633	135.56
245.866	138.56
246.099	133.56
246.333	154.56
246.566	156.56
246.8	157.56
247.033	144.56
247.266	145.56
247.5	158.56
247.733	164.56
247.966	163.56
248.2	158.56
248.433	143.56
248.666	146.56
248.899	165.56
249.133	166.56
249.366	173.56
249.599	184.56
249.832	172.56
250.066	182.56
250.299	167.56
250.532	185.56
250.765	200.56
250.998	213.56
251.231	196.56
251.465	188.56
251.698	202.56
251.931	187.56
252.164	177.56
252.397	185.56
252.63	197.56
252.863	191.56
253.096	190.56
253.329	207.56
253.562	203.56
253.795	199.56
254.028	193.56
254.261	192.56
254.494	198.56
254.727	232.56
254.96	231.56
255.193	240.56
255.426	217.56
255.659	205.56
255.892	188.56
256.124	198.56
256.357	215.56
256.59	184.56
256.823	198.56
257.056	201.56
257.289	197.56
257.521	204.56
257.754	188.56
257.987	188.56
258.22	191.56
258.452	205.56
258.685	182.56
258.918	181.56
259.151	188.56
259.383	217.56
259.616	196.56
259.849	212.56
260.081	209.56
260.314	233.56
260.547	245.56
260.779	234.56
261.012	211.56
261.244	205.56
261.477	205.56
261.71	203.56
261.942	209.56
262.175	220.56
262.407	214.56
262.64	208.56
262.872	193.56
263.105	199.56
263.337	202.56
263.57	212.56
263.802	195.56
264.035	200.56
264.267	186.56
264.499	192.56
264.732	216.56
264.964	208.56
265.197	200.56
265.429	217.56
265.661	195.56
265.894	196.56
266.126	212.56
266.358	213.56
266.591	216.56
266.823	220.56
267.055	220.56
267.287	209.56
267.52	213.56
267.752	200.56
267.984	204.56
268.216	219.56
268.448	223.56
268.681	222.56
268.913	235.56
269.145	233.56
269.377	257.56
269.609	240.56
269.841	238.56
270.073	235.56
270.306	270.56
270.538	269.56
270.77	297.56
271.002	291.56
271.234	266.56
271.466	267.56
271.698	276.56
271.93	297.56
272.162	286.56
272.394	272.56
272.626	274.56
272.858	264.56
273.09	254.56
273.322	267.56
273.553	245.56
273.785	246.56
274.017	228.56
274.249	247.56
274.481	257.56
274.713	256.56
274.945	238.56
275.176	251.56
275.408	237.56
275.64	238.56
275.872	245.56
276.104	248.56
276.335	250.56
276.567	255.56
276.799	255.56
277.031	281.56
277.262	283.56
277.494	303.56
277.726	271.56
277.957	259.56
278.189	285.56
278.421	260.56
278.652	275.56
278.884	240.56
279.115	261.56
279.347	267.56
279.579	267.56
279.81	246.56
280.042	271.56
280.273	265.56
280.505	252.56
280.736	249.56
280.968	257.56
281.199	263.56
281.431	249.56
281.662	253.56
281.894	259.56
282.125	264.56
282.356	277.56
282.588	295.56
282.819	308.56
283.051	252.56
283.282	262.56
283.513	277.56
283.745	275.56
283.976	272.56
284.207	265.56
284.439	255.56
284.67	271.56
284.901	249.56
285.132	287.56
285.364	275.56
285.595	270.56
285.826	279.56
286.057	294.56
286.288	272.56
286.52	279.56
286.751	262.56
286.982	247.56
287.213	273.56
287.444	264.56
287.675	262.56
287.906	292.56
288.138	281.56
288.369	280.56
288.6	280.56
288.831	273.56
289.062	271.56
289.293	263.56
289.524	283.56
289.755	285.56
289.986	286.56
290.217	272.56
290.448	284.56
290.679	277.56
290.91	297.56
291.141	274.56
291.371	286.56
291.602	276.56
291.833	284.56
292.064	281.56
292.295	268.56
292.526	269.56
292.757	282.56
292.987	282.56
293.218	267.56
293.449	281.56
293.68	279.56
293.91	302.56
294.141	281.56
294.372	275.56
294.603	300.56
294.833	287.56
295.064	283.56
295.295	282.56
295.525	276.56
295.756	300.56
295.987	280.56
296.217	311.56
296.448	332.56
296.679	291.56
296.909	307.56
297.14	272.56
297.37	299.56
297.601	303.56
297.831	299.56
298.062	314.56
298.292	296.56
298.523	297.56
298.753	307.56
298.984	300.56
299.214	307.56
299.445	290.56
299.675	286.56
299.905	303.56
300.136	314.56
300.366	301.56
300.597	302.56
300.827	328.56
301.057	311.56
301.288	323.56
301.518	305.56
301.748	309.56
301.979	323.56
302.209	328.56
302.439	315.56
302.669	333.56
302.9	310.56
303.13	311.56
303.36	319.56
303.59	322.56
303.82	332.56
304.051	322.56
304.281	316.56
304.511	318.56
304.741	321.56
304.971	308.56
305.201	314.56
305.431	330.56
305.661	335.56
305.891	311.56
306.121	313.56
306.352	320.56
306.582	343.56
306.812	346.56
307.042	318.56
307.272	321.56
307.502	301.56
307.731	313.56
307.961	331.56
308.191	321.56
308.421	332.56
308.651	323.56
308.881	319.56
309.111	328.56
309.341	336.56
309.571	332.56
309.8	343.56
310.03	351.56
310.26	361.56
310.49	338.56
310.72	367.56
310.949	369.56
311.179	374.56
311.409	370.56
311.639	352.56
311.868	345.56
312.098	349.56
312.328	359.56
312.557	395.56
312.787	381.56
313.017	387.56
313.246	358.56
313.476	357.56
313.706	363.56
313.935	371.56
314.165	377.56
314.394	379.56
314.624	367.56
314.853	371.56
315.083	367.56
315.312	343.56
315.542	357.56
315.771	364.56
316.001	359.56
316.23	379.56
316.46	377.56
316.689	376.56
316.919	377.56
317.148	362.56
317.377	355.56
317.607	372.56
317.836	366.56
318.065	382.56
318.295	359.56
318.524	360.56
318.753	357.56
318.983	361.56
319.212	362.56
319.441	371.56
319.67	387.56
319.9	355.56
320.129	389.56
320.358	379.56
320.587	380.56
320.816	374.56
321.046	367.56
321.275	372.56
321.504	376.56
321.733	387.56
321.962	368.56
322.191	399.56
322.42	394.56
322.649	402.56
322.878	435.56
323.108	440.56
323.337	452.56
323.566	473.56
323.795	478.56
324.024	545.56
324.253	610.56
324.482	888.56
324.71	1395.56
324.939	2131.56
325.168	1854.56
325.397	873.56
325.626	633.56
325.855	538.56
326.084	455.56
326.313	471.56
326.542	503.56
326.77	523.56
326.999	603.56
327.228	821.56
327.457	1277.56
327.686	1601.56
327.914	1029.56
328.143	662.56
328.372	587.56
328.6	547.56
328.829	517.56
329.058	540.56
329.287	549.56
329.515	491.56
329.744	471.56
329.972	472.56
330.201	480.56
330.43	526.56
330.658	531.56
330.887	546.56
331.115	557.56
331.344	527.56
331.572	476.56
331.801	459.56
332.03	473.56
332.258	445.56
332.486	428.56
332.715	455.56
332.943	431.56
333.172	430.56
333.4	448.56
333.629	463.56
333.857	445.56
334.085	468.56
334.314	471.56
334.542	483.56
334.771	510.56
334.999	471.56
335.227	461.56
335.455	422.56
335.684	462.56
335.912	458.56
336.14	427.56
336.369	450.56
336.597	452.56
336.825	455.56
337.053	448.56
337.281	446.56
337.51	413.56
337.738	432.56
337.966	440.56
338.194	408.56
338.422	429.56
338.65	430.56
338.878	421.56
339.106	433.56
339.334	435.56
339.562	428.56
339.79	411.56
340.018	408.56
340.246	423.56
340.474	440.56
340.702	427.56
340.93	429.56
341.158	423.56
341.386	427.56
341.614	435.56
341.842	414.56
342.07	398.56
342.298	394.56
342.526	408.56
342.754	420.56
342.981	400.56
343.209	393.56
343.437	401.56
343.665	452.56
343.893	429.56
344.12	437.56
344.348	425.56
344.576	436.56
344.804	450.56
345.031	461.56
345.259	450.56
345.487	432.56
345.714	441.56
345.942	421.56
346.17	415.56
346.397	414.56
346.625	408.56
346.853	415.56
347.08	412.56
347.308	437.56
347.535	412.56
347.763	429.56
347.99	413.56
348.218	440.56
348.445	424.56
348.673	416.56
348.9	413.56
349.128	395.56
349.355	401.56
349.583	401.56
349.81	389.56
350.037	417.56
350.265	406.56
350.492	419.56
350.72	430.56
350.947	395.56
351.174	394.56
351.402	414.56
351.629	407.56
351.856	408.56
352.083	424.56
352.311	429.56
352.538	429.56
352.765	440.56
352.992	405.56
353.22	401.56
353.447	421.56
353.674	409.56
353.901	388.56
354.128	396.56
354.355	392.56
354.583	393.56
354.81	393.56
355.037	386.56
355.264	393.56
355.491	392.56
355.718	402.56
355.945	406.56
356.172	395.56
356.399	379.56
356.626	389.56
356.853	384.56
357.08	391.56
357.307	399.56
357.534	392.56
357.761	397.56
357.988	377.56
358.215	409.56
358.441	399.56
358.668	400.56
358.895	401.56
359.122	388.56
359.349	396.56
359.576	417.56
359.802	427.56
360.029	436.56
360.256	457.56
360.483	460.56
360.709	419.56
360.936	423.56
361.163	414.56
361.39	402.56
361.616	412.56
361.843	411.56
362.07	414.56
362.296	404.56
362.523	425.56
362.749	417.56
362.976	400.56
363.203	405.56
363.429	412.56
363.656	411.56
363.882	398.56
364.109	369.56
364.335	406.56
364.562	409.56
364.788	413.56
365.015	397.56
365.241	407.56
365.468	404.56
365.694	412.56
365.92	410.56
366.147	414.56
366.373	401.56
366.599	402.56
366.826	425.56
367.052	400.56
367.278	413.56
367.505	411.56
367.731	404.56
367.957	415.56
368.184	413.56
368.41	419.56
368.636	423.56
368.862	417.56
369.089	425.56
369.315	415.56
369.541	411.56
369.767	418.56
369.993	408.56
370.219	399.56
370.445	422.56
370.672	407.56
370.898	399.56
371.124	424.56
371.35	381.56
371.576	408.56
371.802	413.56
372.028	409.56
372.254	409.56
372.48	408.56
372.706	392.56
372.932	396.56
373.158	417.56
373.384	420.56
373.61	406.56
373.835	426.56
374.061	422.56
374.287	416.56
374.513	422.56
374.739	406.56
374.965	417.56
375.191	414.56
375.416	413.56
375.642	402.56
375.868	389.56
376.094	425.56
376.319	394.56
376.545	417.56
376.771	412.56
376.997	396.56
377.222	404.56
377.448	421.56
377.674	409.56
377.899	391.56
378.125	423.56
378.35	411.56
378.576	407.56
378.802	400.56
379.027	399.56
379.253	419.56
379.478	411.56
379.704	411.56
379.929	394.56
380.155	395.56
380.38	396.56
380.606	412.56
380.831	414.56
381.057	413.56
381.282	412.56
381.507	440.56
381.733	436.56
381.958	425.56
382.184	426.56
382.409	420.56
382.634	422.56
382.86	424.56
383.085	442.56
383.31	439.56
383.535	433.56
383.761	422.56
383.986	422.56
384.211	420.56
384.436	448.56
384.662	422.56
384.887	455.56
385.112	457.56
385.337	464.56
385.562	454.56
385.787	446.56
386.013	451.56
386.238	455.56
386.463	463.56
386.688	453.56
386.913	457.56
387.138	453.56
387.363	443.56
387.588	461.56
387.813	472.56
388.038	458.56
388.263	447.56
388.488	456.56
388.713	470.56
388.938	451.56
389.163	464.56
389.387	453.56
389.612	454.56
389.837	461.56
390.062	460.56
390.287	454.56
390.512	464.56
390.736	448.56
390.961	470.56
391.186	466.56
391.411	460.56
391.636	470.56
391.86	474.56
392.085	473.56
392.31	478.56
392.534	472.56
392.759	472.56
392.984	465.56
393.208	482.56
393.433	478.56
393.658	485.56
393.882	478.56
394.107	475.56
394.331	479.56
394.556	465.56
394.78	470.56
395.005	488.56
395.229	484.56
395.454	468.56
395.678	479.56
395.903	501.56
396.127	504.56
396.352	501.56
396.576	488.56
396.801	473.56
397.025	494.56
397.249	494.56
397.474	500.56
397.698	496.56
397.922	503.56
398.147	507.56
398.371	523.56
398.595	531.56
398.82	523.56
399.044	539.56
399.268	550.56
399.492	576.56
399.717	614.56
399.941	616.56
400.165	682.56
400.389	693.56
400.613	603.56
400.837	586.56
401.062	544.56
401.286	559.56
401.51	544.56
401.734	521.56
401.958	524.56
402.182	529.56
402.406	528.56
402.63	546.56
402.854	539.56
403.078	543.56
403.302	567.56
403.526	573.56
403.75	561.56
403.974	558.56
404.198	554.56
404.422	574.56
404.645	558.56
404.869	559.56
405.093	590.56
405.317	615.56
405.541	662.56
405.765	607.56
405.988	580.56
406.212	582.56
406.436	592.56
406.66	599.56
406.883	602.56
407.107	608.56
407.331	662.56
407.555	711.56
407.778	727.56
408.002	667.56
408.226	624.56
408.449	633.56
408.673	635.56
408.896	636.56
409.12	709.56
409.344	651.56
409.567	601.56
409.791	595.56
410.014	571.56
410.238	544.56
410.461	583.56
410.685	585.56
410.908	574.56
411.132	605.56
411.355	647.56
411.578	640.56
411.802	572.56
412.025	558.56
412.249	563.56
412.472	582.56
412.695	631.56
412.919	612.56
413.142	563.56
413.365	558.56
413.589	528.56
413.812	539.56
414.035	521.56
414.258	517.56
414.482	533.56
414.705	541.56
414.928	524.56
415.151	535.56
415.374	541.56
415.597	539.56
415.821	507.56
416.044	509.56
416.267	529.56
416.49	527.56
416.713	522.56
416.936	520.56
417.159	527.56
417.382	514.56
417.605	532.56
417.828	534.56
418.051	564.56
418.274	542.56
418.497	521.56
418.72	515.56
418.943	517.56
419.166	542.56
419.389	560.56
419.611	547.56
419.834	541.56
420.057	557.56
420.28	560.56
420.503	530.56
420.726	555.56
420.948	547.56
421.171	588.56
421.394	607.56
421.617	576.56
421.839	543.56
422.062	544.56
422.285	569.56
422.507	613.56
422.73	700.56
422.953	663.56
423.175	599.56
423.398	563.56
423.621	570.56
423.843	578.56
424.066	585.56
424.288	577.56
424.511	589.56
424.733	643.56
424.956	738.56
425.178	708.56
425.401	701.56
425.623	765.56
425.846	641.56
426.068	573.56
426.291	600.56
426.513	596.56
426.735	605.56
426.958	629.56
427.18	700.56
427.402	873.56
427.625	955.56
427.847	785.56
428.069	704.56
428.292	624.56
428.514	565.56
428.736	569.56
428.958	552.56
429.181	528.56
429.403	543.56
429.625	533.56
429.847	599.56
430.069	647.56
430.292	659.56
430.514	543.56
430.736	556.56
430.958	540.56
431.18	519.56
431.402	528.56
431.624	533.56
431.846	509.56
432.068	522.56
432.29	534.56
432.512	519.56
432.734	530.56
432.956	534.56
433.178	534.56
433.4	528.56
433.622	536.56
433.844	521.56
434.066	513.56
434.287	532.56
434.509	542.56
434.731	549.56
434.953	529.56
435.175	553.56
435.397	584.56
435.618	581.56
435.84	609.56
436.062	701.56
436.284	799.56
436.505	678.56
436.727	613.56
436.949	573.56
437.17	554.56
437.392	543.56
437.614	545.56
437.835	573.56
438.057	659.56
438.278	779.56
438.5	785.56
438.721	881.56
438.943	837.56
439.165	671.56
439.386	612.56
439.608	573.56
439.829	595.56
440.05	601.56
440.272	681.56
440.493	644.56
440.715	604.56
440.936	565.56
441.158	552.56
441.379	559.56
441.6	560.56
441.822	594.56
442.043	621.56
442.264	708.56
442.486	763.56
442.707	664.56
442.928	589.56
443.149	599.56
443.371	630.56
443.592	667.56
443.813	748.56
444.034	823.56
444.255	685.56
444.476	605.56
444.698	618.56
444.919	598.56
445.14	726.56
445.361	657.56
445.582	643.56
445.803	665.56
446.024	772.56
446.245	803.56
446.466	718.56
446.687	622.56
446.908	584.56
447.129	557.56
447.35	548.56
447.571	536.56
447.792	553.56
448.013	550.56
448.234	558.56
448.455	594.56
448.675	707.56
448.896	866.56
449.117	705.56
449.338	669.56
449.559	796.56
449.779	912.56
450	714.56
450.221	624.56
450.442	525.56
450.662	515.56
450.883	530.56
451.104	527.56
451.324	561.56
451.545	525.56
451.766	501.56
451.986	504.56
452.207	485.56
452.428	491.56
452.648	484.56
452.869	474.56
453.089	476.56
453.31	487.56
453.53	495.56
453.751	492.56
453.971	466.56
454.192	512.56
454.412	489.56
454.633	483.56
454.853	480.56
455.073	488.56
455.294	517.56
455.514	560.56
455.734	565.56
455.955	481.56
456.175	493.56
456.395	454.56
456.616	454.56
456.836	465.56
457.056	479.56
457.276	455.56
457.497	449.56
457.717	461.56
457.937	483.56
458.157	478.56
458.377	461.56
458.598	496.56
458.818	560.56
459.038	596.56
459.258	648.56
459.478	584.56
459.698	527.56
459.918	517.56
460.138	540.56
460.358	519.56
460.578	540.56
460.798	544.56
461.018	556.56
461.238	526.56
461.458	545.56
461.678	534.56
461.898	549.56
462.118	537.56
462.338	542.56
462.558	550.56
462.777	563.56
462.997	576.56
463.217	584.56
463.437	587.56
463.657	582.56
463.876	589.56
464.096	575.56
464.316	567.56
464.536	570.56
464.755	568.56
464.975	610.56
465.195	586.56
465.414	666.56
465.634	606.56
465.854	581.56
466.073	540.56
466.293	543.56
466.512	531.56
466.732	518.56
466.951	535.56
467.171	515.56
467.391	488.56
467.61	517.56
467.829	501.56
468.049	504.56
468.268	507.56
468.488	499.56
468.707	505.56
468.927	497.56
469.146	465.56
469.365	500.56
469.585	492.56
469.804	515.56
470.023	507.56
470.243	476.56
470.462	516.56
470.681	510.56
470.901	539.56
471.12	511.56
471.339	509.56
471.558	518.56
471.777	492.56
471.997	506.56
472.216	519.56
472.435	541.56
472.654	517.56
472.873	512.56
473.092	534.56
473.311	502.56
473.53	508.56
473.749	505.56
473.968	539.56
474.187	647.56
474.406	669.56
474.625	569.56
474.844	515.56
475.063	511.56
475.282	523.56
475.501	518.56
475.72	521.56
475.939	523.56
476.158	518.56
476.377	524.56
476.596	538.56
476.814	547.56
477.033	570.56
477.252	558.56
477.471	549.56
477.69	559.56
477.908	553.56
478.127	542.56
478.346	560.56
478.564	573.56
478.783	589.56
479.002	596.56
479.22	565.56
479.439	593.56
479.658	616.56
479.876	612.56
480.095	619.56
480.313	645.56
480.532	659.56
480.751	613.56
480.969	654.56
481.188	678.56
481.406	713.56
481.624	635.56
481.843	619.56
482.061	612.56
482.28	607.56
482.498	591.56
482.717	601.56
482.935	584.56
483.153	567.56
483.372	597.56
483.59	601.56
483.808	572.56
484.027	585.56
484.245	602.56
484.463	605.56
484.681	598.56
484.9	609.56
485.118	621.56
485.336	609.56
485.554	608.56
485.772	600.56
485.99	611.56
486.209	597.56
486.427	614.56
486.645	635.56
486.863	642.56
487.081	631.56
487.299	644.56
487.517	629.56
487.735	657.56
487.953	634.56
488.171	632.56
488.389	628.56
488.607	636.56
488.825	637.56
489.043	616.56
489.261	639.56
489.479	625.56
489.696	639.56
489.914	645.56
490.132	641.56
490.35	654.56
490.568	645.56
490.786	661.56
491.003	681.56
491.221	702.56
491.439	695.56
491.657	696.56
491.874	691.56
492.092	695.56
492.31	704.56
492.527	710.56
492.745	718.56
492.963	708.56
493.18	735.56
493.398	739.56
493.615	732.56
493.833	732.56
494.05	727.56
494.268	713.56
494.485	724.56
494.703	726.56
494.92	722.56
495.138	725.56
495.355	729.56
495.573	775.56
495.79	752.56
496.008	733.56
496.225	735.56
496.442	764.56
496.66	748.56
496.877	741.56
497.094	773.56
497.312	788.56
497.529	789.56
497.746	775.56
497.963	792.56
498.181	816.56
498.398	852.56
498.615	864.56
498.832	867.56
499.049	869.56
499.267	884.56
499.484	958.56
499.701	940.56
499.918	983.56
500.135	1023.56
500.352	1091.56
500.569	1113.56
500.786	1113.56
501.003	1047.56
501.22	1050.56
501.437	1023.56
501.654	1018.56
501.871	969.56
