Data from 1978.PennyLincolnUp.Lamp.En5.5.200Scan.071719.P1_HRD10591_16-14-27-863.txt Node
Date: Thu Jul 18 16:14:27 EDT 2019
User: cochatt
Spectrometer: HR+D1059
Trigger mode: 1
Integration Time (sec): 1.000000E-1
Scans to average: 1
Electric dark correction enabled: true
Nonlinearity correction enabled: false
Boxcar width: 0
XAxis mode: Wavelengths
Number of Pixels in Spectrum: 2048
>>>>>Begin Spectral Data<<<<<
223.165	-31.56
223.4	-31.56
223.635	-31.56
223.869	-9.56
224.104	-27.56
224.338	-26.56
224.573	-1.56
224.808	-20.56
225.042	-16.56
225.277	0.44
225.511	-1.56
225.746	2.44
225.98	8.44
226.215	5.44
226.449	18.44
226.683	30.44
226.918	34.44
227.152	35.44
227.387	36.44
227.621	29.44
227.856	40.44
228.09	37.44
228.324	43.44
228.559	46.44
228.793	58.44
229.027	102.44
229.262	104.44
229.496	123.44
229.73	130.44
229.964	163.44
230.199	124.44
230.433	111.44
230.667	106.44
230.901	115.44
231.136	102.44
231.37	105.44
231.604	107.44
231.838	120.44
232.072	115.44
232.306	124.44
232.541	104.44
232.775	126.44
233.009	118.44
233.243	114.44
233.477	107.44
233.711	106.44
233.945	125.44
234.179	114.44
234.413	121.44
234.647	112.44
234.881	103.44
235.115	125.44
235.349	115.44
235.583	117.44
235.817	126.44
236.051	138.44
236.285	122.44
236.519	127.44
236.753	130.44
236.987	148.44
237.221	184.44
237.455	224.44
237.689	208.44
237.922	143.44
238.156	137.44
238.39	132.44
238.624	140.44
238.858	138.44
239.091	130.44
239.325	127.44
239.559	133.44
239.793	124.44
240.027	140.44
240.26	143.44
240.494	181.44
240.728	166.44
240.961	158.44
241.195	143.44
241.429	152.44
241.662	140.44
241.896	152.44
242.13	132.44
242.363	136.44
242.597	121.44
242.83	141.44
243.064	145.44
243.298	146.44
243.531	144.44
243.765	132.44
243.998	136.44
244.232	138.44
244.465	134.44
244.699	138.44
244.932	144.44
245.166	133.44
245.399	153.44
245.633	144.44
245.866	154.44
246.099	144.44
246.333	162.44
246.566	143.44
246.8	148.44
247.033	147.44
247.266	154.44
247.5	156.44
247.733	163.44
247.966	166.44
248.2	186.44
248.433	181.44
248.666	160.44
248.899	190.44
249.133	193.44
249.366	218.44
249.599	205.44
249.832	191.44
250.066	192.44
250.299	176.44
250.532	177.44
250.765	202.44
250.998	237.44
251.231	231.44
251.465	201.44
251.698	214.44
251.931	186.44
252.164	191.44
252.397	189.44
252.63	203.44
252.863	199.44
253.096	191.44
253.329	224.44
253.562	216.44
253.795	222.44
254.028	219.44
254.261	207.44
254.494	217.44
254.727	240.44
254.96	275.44
255.193	257.44
255.426	231.44
255.659	226.44
255.892	229.44
256.124	207.44
256.357	222.44
256.59	205.44
256.823	204.44
257.056	208.44
257.289	222.44
257.521	208.44
257.754	200.44
257.987	206.44
258.22	196.44
258.452	185.44
258.685	196.44
258.918	204.44
259.151	219.44
259.383	227.44
259.616	216.44
259.849	212.44
260.081	215.44
260.314	244.44
260.547	258.44
260.779	243.44
261.012	230.44
261.244	217.44
261.477	206.44
261.71	229.44
261.942	228.44
262.175	234.44
262.407	238.44
262.64	218.44
262.872	205.44
263.105	204.44
263.337	200.44
263.57	208.44
263.802	207.44
264.035	214.44
264.267	214.44
264.499	218.44
264.732	224.44
264.964	217.44
265.197	198.44
265.429	217.44
265.661	213.44
265.894	213.44
266.126	228.44
266.358	223.44
266.591	219.44
266.823	223.44
267.055	230.44
267.287	230.44
267.52	237.44
267.752	216.44
267.984	221.44
268.216	236.44
268.448	225.44
268.681	236.44
268.913	260.44
269.145	270.44
269.377	272.44
269.609	261.44
269.841	259.44
270.073	271.44
270.306	281.44
270.538	295.44
270.77	295.44
271.002	292.44
271.234	288.44
271.466	294.44
271.698	294.44
271.93	341.44
272.162	303.44
272.394	315.44
272.626	301.44
272.858	286.44
273.09	297.44
273.322	268.44
273.553	262.44
273.785	270.44
274.017	265.44
274.249	266.44
274.481	272.44
274.713	260.44
274.945	283.44
275.176	268.44
275.408	269.44
275.64	258.44
275.872	251.44
276.104	282.44
276.335	262.44
276.567	260.44
276.799	276.44
277.031	299.44
277.262	312.44
277.494	302.44
277.726	292.44
277.957	286.44
278.189	292.44
278.421	251.44
278.652	276.44
278.884	284.44
279.115	264.44
279.347	263.44
279.579	259.44
279.81	266.44
280.042	271.44
280.273	268.44
280.505	262.44
280.736	272.44
280.968	279.44
281.199	285.44
281.431	263.44
281.662	285.44
281.894	276.44
282.125	279.44
282.356	278.44
282.588	318.44
282.819	313.44
283.051	293.44
283.282	300.44
283.513	282.44
283.745	291.44
283.976	275.44
284.207	294.44
284.439	274.44
284.67	278.44
284.901	286.44
285.132	296.44
285.364	293.44
285.595	275.44
285.826	292.44
286.057	291.44
286.288	302.44
286.52	294.44
286.751	278.44
286.982	282.44
287.213	299.44
287.444	286.44
287.675	292.44
287.906	312.44
288.138	299.44
288.369	318.44
288.6	304.44
288.831	300.44
289.062	309.44
289.293	304.44
289.524	293.44
289.755	294.44
289.986	311.44
290.217	288.44
290.448	281.44
290.679	276.44
290.91	285.44
291.141	294.44
291.371	290.44
291.602	295.44
291.833	295.44
292.064	307.44
292.295	292.44
292.526	292.44
292.757	296.44
292.987	311.44
293.218	299.44
293.449	302.44
293.68	322.44
293.91	319.44
294.141	290.44
294.372	286.44
294.603	296.44
294.833	285.44
295.064	279.44
295.295	283.44
295.525	316.44
295.756	300.44
295.987	320.44
296.217	325.44
296.448	333.44
296.679	316.44
296.909	294.44
297.14	299.44
297.37	303.44
297.601	341.44
297.831	312.44
298.062	315.44
298.292	306.44
298.523	309.44
298.753	315.44
298.984	319.44
299.214	322.44
299.445	322.44
299.675	306.44
299.905	343.44
300.136	331.44
300.366	326.44
300.597	321.44
300.827	326.44
301.057	352.44
301.288	348.44
301.518	330.44
301.748	348.44
301.979	331.44
302.209	327.44
302.439	328.44
302.669	333.44
302.9	334.44
303.13	312.44
303.36	341.44
303.59	320.44
303.82	354.44
304.051	341.44
304.281	349.44
304.511	344.44
304.741	347.44
304.971	339.44
305.201	339.44
305.431	335.44
305.661	329.44
305.891	327.44
306.121	333.44
306.352	339.44
306.582	358.44
306.812	331.44
307.042	340.44
307.272	346.44
307.502	345.44
307.731	346.44
307.961	346.44
308.191	331.44
308.421	326.44
308.651	341.44
308.881	341.44
309.111	347.44
309.341	345.44
309.571	380.44
309.8	398.44
310.03	388.44
310.26	397.44
310.49	376.44
310.72	385.44
310.949	392.44
311.179	408.44
311.409	388.44
311.639	387.44
311.868	371.44
312.098	390.44
312.328	394.44
312.557	412.44
312.787	426.44
313.017	412.44
313.246	411.44
313.476	393.44
313.706	401.44
313.935	391.44
314.165	401.44
314.394	422.44
314.624	386.44
314.853	399.44
315.083	375.44
315.312	386.44
315.542	386.44
315.771	362.44
316.001	378.44
316.23	385.44
316.46	408.44
316.689	399.44
316.919	420.44
317.148	402.44
317.377	387.44
317.607	395.44
317.836	405.44
318.065	407.44
318.295	384.44
318.524	407.44
318.753	373.44
318.983	376.44
319.212	386.44
319.441	386.44
319.67	405.44
319.9	408.44
320.129	389.44
320.358	380.44
320.587	386.44
320.816	413.44
321.046	405.44
321.275	407.44
321.504	407.44
321.733	414.44
321.962	420.44
322.191	428.44
322.42	427.44
322.649	471.44
322.878	455.44
323.108	475.44
323.337	454.44
323.566	494.44
323.795	547.44
324.024	584.44
324.253	694.44
324.482	1014.44
324.71	1656.44
324.939	2485.44
325.168	2111.44
325.397	1035.44
325.626	687.44
325.855	565.44
326.084	516.44
326.313	530.44
326.542	540.44
326.77	564.44
326.999	679.44
327.228	911.44
327.457	1442.44
327.686	1804.44
327.914	1154.44
328.143	752.44
328.372	662.44
328.6	610.44
328.829	592.44
329.058	582.44
329.287	588.44
329.515	550.44
329.744	532.44
329.972	519.44
330.201	542.44
330.43	588.44
330.658	589.44
330.887	619.44
331.115	611.44
331.344	535.44
331.572	515.44
331.801	517.44
332.03	506.44
332.258	491.44
332.486	484.44
332.715	469.44
332.943	477.44
333.172	463.44
333.4	482.44
333.629	492.44
333.857	493.44
334.085	516.44
334.314	504.44
334.542	553.44
334.771	560.44
334.999	506.44
335.227	488.44
335.455	485.44
335.684	480.44
335.912	495.44
336.14	476.44
336.369	465.44
336.597	492.44
336.825	465.44
337.053	477.44
337.281	462.44
337.51	454.44
337.738	444.44
337.966	456.44
338.194	476.44
338.422	461.44
338.65	464.44
338.878	459.44
339.106	425.44
339.334	444.44
339.562	446.44
339.79	445.44
340.018	461.44
340.246	449.44
340.474	448.44
340.702	448.44
340.93	467.44
341.158	462.44
341.386	452.44
341.614	461.44
341.842	453.44
342.07	471.44
342.298	450.44
342.526	449.44
342.754	430.44
342.981	415.44
343.209	430.44
343.437	457.44
343.665	438.44
343.893	450.44
344.12	462.44
344.348	450.44
344.576	446.44
344.804	465.44
345.031	473.44
345.259	493.44
345.487	481.44
345.714	464.44
345.942	434.44
346.17	448.44
346.397	450.44
346.625	439.44
346.853	432.44
347.08	418.44
347.308	434.44
347.535	462.44
347.763	440.44
347.99	444.44
348.218	460.44
348.445	453.44
348.673	441.44
348.9	456.44
349.128	438.44
349.355	423.44
349.583	437.44
349.81	426.44
350.037	422.44
350.265	419.44
350.492	411.44
350.72	434.44
350.947	448.44
351.174	443.44
351.402	454.44
351.629	450.44
351.856	450.44
352.083	447.44
352.311	463.44
352.538	457.44
352.765	459.44
352.992	441.44
353.22	464.44
353.447	427.44
353.674	427.44
353.901	423.44
354.128	412.44
354.355	418.44
354.583	404.44
354.81	406.44
355.037	429.44
355.264	409.44
355.491	407.44
355.718	395.44
355.945	414.44
356.172	418.44
356.399	404.44
356.626	434.44
356.853	425.44
357.08	386.44
357.307	410.44
357.534	424.44
357.761	416.44
357.988	445.44
358.215	415.44
358.441	411.44
358.668	412.44
358.895	434.44
359.122	426.44
359.349	454.44
359.576	450.44
359.802	461.44
360.029	478.44
360.256	502.44
360.483	472.44
360.709	443.44
360.936	454.44
361.163	446.44
361.39	454.44
361.616	442.44
361.843	454.44
362.07	452.44
362.296	447.44
362.523	444.44
362.749	440.44
362.976	452.44
363.203	436.44
363.429	445.44
363.656	438.44
363.882	426.44
364.109	430.44
364.335	415.44
364.562	420.44
364.788	431.44
365.015	416.44
365.241	455.44
365.468	444.44
365.694	452.44
365.92	435.44
366.147	435.44
366.373	438.44
366.599	420.44
366.826	421.44
367.052	419.44
367.278	445.44
367.505	413.44
367.731	436.44
367.957	445.44
368.184	426.44
368.41	421.44
368.636	438.44
368.862	458.44
369.089	429.44
369.315	434.44
369.541	426.44
369.767	427.44
369.993	436.44
370.219	427.44
370.445	429.44
370.672	443.44
370.898	425.44
371.124	446.44
371.35	423.44
371.576	430.44
371.802	442.44
372.028	440.44
372.254	435.44
372.48	428.44
372.706	436.44
372.932	412.44
373.158	436.44
373.384	441.44
373.61	420.44
373.835	422.44
374.061	424.44
374.287	451.44
374.513	444.44
374.739	451.44
374.965	449.44
375.191	461.44
375.416	447.44
375.642	439.44
375.868	421.44
376.094	432.44
376.319	432.44
376.545	445.44
376.771	433.44
376.997	434.44
377.222	420.44
377.448	451.44
377.674	434.44
377.899	418.44
378.125	422.44
378.35	426.44
378.576	420.44
378.802	449.44
379.027	421.44
379.253	434.44
379.478	420.44
379.704	442.44
379.929	434.44
380.155	448.44
380.38	429.44
380.606	429.44
380.831	448.44
381.057	426.44
381.282	436.44
381.507	442.44
381.733	432.44
381.958	452.44
382.184	453.44
382.409	450.44
382.634	440.44
382.86	448.44
383.085	452.44
383.31	472.44
383.535	462.44
383.761	426.44
383.986	459.44
384.211	437.44
384.436	461.44
384.662	451.44
384.887	482.44
385.112	450.44
385.337	461.44
385.562	482.44
385.787	493.44
386.013	482.44
386.238	484.44
386.463	492.44
386.688	498.44
386.913	474.44
387.138	485.44
387.363	476.44
387.588	492.44
387.813	479.44
388.038	475.44
388.263	479.44
388.488	472.44
388.713	491.44
388.938	517.44
389.163	499.44
389.387	480.44
389.612	464.44
389.837	488.44
390.062	473.44
390.287	485.44
390.512	474.44
390.736	484.44
390.961	478.44
391.186	484.44
391.411	506.44
391.636	532.44
391.86	500.44
392.085	475.44
392.31	517.44
392.534	514.44
392.759	505.44
392.984	489.44
393.208	486.44
393.433	490.44
393.658	491.44
393.882	493.44
394.107	493.44
394.331	499.44
394.556	495.44
394.78	504.44
395.005	487.44
395.229	506.44
395.454	484.44
395.678	500.44
395.903	521.44
396.127	535.44
396.352	532.44
396.576	506.44
396.801	515.44
397.025	511.44
397.249	501.44
397.474	522.44
397.698	518.44
397.922	548.44
398.147	553.44
398.371	570.44
398.595	561.44
398.82	558.44
399.044	571.44
399.268	580.44
399.492	602.44
399.717	622.44
399.941	687.44
400.165	687.44
400.389	713.44
400.613	643.44
400.837	609.44
401.062	582.44
401.286	567.44
401.51	574.44
401.734	564.44
401.958	557.44
402.182	559.44
402.406	558.44
402.63	588.44
402.854	578.44
403.078	564.44
403.302	584.44
403.526	585.44
403.75	600.44
403.974	580.44
404.198	591.44
404.422	594.44
404.645	606.44
404.869	614.44
405.093	630.44
405.317	672.44
405.541	686.44
405.765	636.44
405.988	626.44
406.212	626.44
406.436	623.44
406.66	670.44
406.883	640.44
407.107	666.44
407.331	698.44
407.555	796.44
407.778	798.44
408.002	721.44
408.226	669.44
408.449	679.44
408.673	655.44
408.896	642.44
409.12	738.44
409.344	689.44
409.567	613.44
409.791	604.44
410.014	592.44
410.238	583.44
410.461	598.44
410.685	609.44
410.908	597.44
411.132	650.44
411.355	682.44
411.578	672.44
411.802	628.44
412.025	584.44
412.249	594.44
412.472	621.44
412.695	664.44
412.919	666.44
413.142	598.44
413.365	590.44
413.589	577.44
413.812	580.44
414.035	565.44
414.258	555.44
414.482	570.44
414.705	555.44
414.928	548.44
415.151	553.44
415.374	558.44
415.597	573.44
415.821	538.44
416.044	548.44
416.267	553.44
416.49	547.44
416.713	579.44
416.936	544.44
417.159	553.44
417.382	555.44
417.605	567.44
417.828	546.44
418.051	575.44
418.274	559.44
418.497	541.44
418.72	551.44
418.943	556.44
419.166	556.44
419.389	581.44
419.611	600.44
419.834	589.44
420.057	580.44
420.28	586.44
420.503	568.44
420.726	580.44
420.948	601.44
421.171	656.44
421.394	681.44
421.617	595.44
421.839	568.44
422.062	575.44
422.285	596.44
422.507	659.44
422.73	744.44
422.953	712.44
423.175	637.44
423.398	621.44
423.621	606.44
423.843	605.44
424.066	633.44
424.288	638.44
424.511	639.44
424.733	706.44
424.956	798.44
425.178	761.44
425.401	748.44
425.623	806.44
425.846	678.44
426.068	642.44
426.291	607.44
426.513	605.44
426.735	634.44
426.958	662.44
427.18	772.44
427.402	926.44
427.625	1026.44
427.847	859.44
428.069	757.44
428.292	664.44
428.514	640.44
428.736	598.44
428.958	592.44
429.181	568.44
429.403	584.44
429.625	587.44
429.847	632.44
430.069	695.44
430.292	694.44
430.514	607.44
430.736	590.44
430.958	592.44
431.18	558.44
431.402	563.44
431.624	531.44
431.846	540.44
432.068	543.44
432.29	576.44
432.512	568.44
432.734	579.44
432.956	554.44
433.178	555.44
433.4	568.44
433.622	559.44
433.844	544.44
434.066	544.44
434.287	562.44
434.509	549.44
434.731	561.44
434.953	586.44
435.175	572.44
435.397	638.44
435.618	630.44
435.84	663.44
436.062	799.44
436.284	864.44
436.505	738.44
436.727	649.44
436.949	609.44
437.17	578.44
437.392	569.44
437.614	607.44
437.835	634.44
438.057	742.44
438.278	834.44
438.5	852.44
438.721	921.44
438.943	906.44
439.165	708.44
439.386	637.44
439.608	644.44
439.829	649.44
440.05	664.44
440.272	736.44
440.493	682.44
440.715	620.44
440.936	589.44
441.158	604.44
441.379	588.44
441.6	592.44
441.822	618.44
442.043	651.44
442.264	760.44
442.486	820.44
442.707	701.44
442.928	647.44
443.149	660.44
443.371	660.44
443.592	730.44
443.813	841.44
444.034	896.44
444.255	720.44
444.476	644.44
444.698	606.44
444.919	634.44
445.14	730.44
445.361	666.44
445.582	671.44
445.803	731.44
446.024	845.44
446.245	864.44
446.466	828.44
446.687	656.44
446.908	646.44
447.129	595.44
447.35	564.44
447.571	571.44
447.792	559.44
448.013	574.44
448.234	590.44
448.455	647.44
448.675	776.44
448.896	928.44
449.117	774.44
449.338	735.44
449.559	866.44
449.779	991.44
450	786.44
450.221	632.44
450.442	589.44
450.662	553.44
450.883	570.44
451.104	570.44
451.324	565.44
451.545	549.44
451.766	537.44
451.986	510.44
452.207	524.44
452.428	526.44
452.648	511.44
452.869	517.44
453.089	536.44
453.31	539.44
453.53	531.44
453.751	518.44
453.971	516.44
454.192	546.44
454.412	531.44
454.633	510.44
454.853	522.44
455.073	506.44
455.294	532.44
455.514	626.44
455.734	596.44
455.955	536.44
456.175	486.44
456.395	468.44
456.616	504.44
456.836	489.44
457.056	483.44
457.276	487.44
457.497	493.44
457.717	506.44
457.937	499.44
458.157	512.44
458.377	525.44
458.598	542.44
458.818	591.44
459.038	682.44
459.258	708.44
459.478	596.44
459.698	591.44
459.918	543.44
460.138	556.44
460.358	558.44
460.578	568.44
460.798	560.44
461.018	564.44
461.238	562.44
461.458	539.44
461.678	567.44
461.898	574.44
462.118	573.44
462.338	579.44
462.558	572.44
462.777	575.44
462.997	611.44
463.217	617.44
463.437	632.44
463.657	601.44
463.876	621.44
464.096	611.44
464.316	616.44
464.536	616.44
464.755	600.44
464.975	615.44
465.195	665.44
465.414	705.44
465.634	612.44
465.854	599.44
466.073	554.44
466.293	558.44
466.512	559.44
466.732	534.44
466.951	528.44
467.171	536.44
467.391	539.44
467.61	552.44
467.829	540.44
468.049	552.44
468.268	542.44
468.488	519.44
468.707	512.44
468.927	519.44
469.146	520.44
469.365	547.44
469.585	530.44
469.804	532.44
470.023	540.44
470.243	541.44
470.462	551.44
470.681	547.44
470.901	531.44
471.12	559.44
471.339	533.44
471.558	527.44
471.777	535.44
471.997	529.44
472.216	525.44
472.435	535.44
472.654	542.44
472.873	541.44
473.092	542.44
473.311	519.44
473.53	543.44
473.749	539.44
473.968	575.44
474.187	704.44
474.406	739.44
474.625	595.44
474.844	573.44
475.063	558.44
475.282	540.44
475.501	547.44
475.72	554.44
475.939	574.44
476.158	551.44
476.377	566.44
476.596	555.44
476.814	572.44
477.033	578.44
477.252	572.44
477.471	551.44
477.69	602.44
477.908	612.44
478.127	610.44
478.346	584.44
478.564	590.44
478.783	587.44
479.002	611.44
479.22	621.44
479.439	627.44
479.658	649.44
479.876	650.44
480.095	655.44
480.313	666.44
480.532	666.44
480.751	646.44
480.969	664.44
481.188	698.44
481.406	744.44
481.624	676.44
481.843	649.44
482.061	659.44
482.28	622.44
482.498	638.44
482.717	618.44
482.935	606.44
483.153	645.44
483.372	624.44
483.59	652.44
483.808	634.44
484.027	634.44
484.245	635.44
484.463	626.44
484.681	636.44
484.9	643.44
485.118	653.44
485.336	636.44
485.554	630.44
485.772	649.44
485.99	652.44
486.209	666.44
486.427	661.44
486.645	655.44
486.863	660.44
487.081	663.44
487.299	697.44
487.517	685.44
487.735	678.44
487.953	690.44
488.171	676.44
488.389	686.44
488.607	692.44
488.825	679.44
489.043	671.44
489.261	688.44
489.479	670.44
489.696	706.44
489.914	671.44
490.132	698.44
490.35	683.44
490.568	685.44
490.786	698.44
491.003	740.44
491.221	736.44
491.439	770.44
491.657	735.44
491.874	755.44
492.092	758.44
492.31	761.44
492.527	757.44
492.745	786.44
492.963	746.44
493.18	792.44
493.398	794.44
493.615	783.44
493.833	785.44
494.05	784.44
494.268	781.44
494.485	783.44
494.703	779.44
494.92	784.44
495.138	802.44
495.355	797.44
495.573	801.44
495.79	811.44
496.008	795.44
496.225	784.44
496.442	804.44
496.66	808.44
496.877	819.44
497.094	807.44
497.312	814.44
497.529	829.44
497.746	860.44
497.963	860.44
498.181	902.44
498.398	904.44
498.615	902.44
498.832	928.44
499.049	914.44
499.267	926.44
499.484	979.44
499.701	1020.44
499.918	1030.44
500.135	1099.44
500.352	1126.44
500.569	1183.44
500.786	1149.44
501.003	1139.44
501.22	1082.44
501.437	1106.44
501.654	1091.44
501.871	1037.44
