Data from 1978.PennyLincolnUp.Lamp.En5.5.200Scan.071719.P1_HRD10591_16-14-05-863.txt Node
Date: Thu Jul 18 16:14:05 EDT 2019
User: cochatt
Spectrometer: HR+D1059
Trigger mode: 1
Integration Time (sec): 1.000000E-1
Scans to average: 1
Electric dark correction enabled: true
Nonlinearity correction enabled: false
Boxcar width: 0
XAxis mode: Wavelengths
Number of Pixels in Spectrum: 2048
>>>>>Begin Spectral Data<<<<<
223.165	-13.19
223.4	-13.19
223.635	-13.19
223.869	-11.19
224.104	-23.19
224.338	-7.19
224.573	-10.19
224.808	-25.19
225.042	-19.19
225.277	-14.19
225.511	1.81
225.746	7.81
225.98	13.81
226.215	37.81
226.449	6.81
226.683	8.81
226.918	24.81
227.152	21.81
227.387	29.81
227.621	39.81
227.856	36.81
228.09	42.81
228.324	45.81
228.559	62.81
228.793	66.81
229.027	83.81
229.262	85.81
229.496	99.81
229.73	119.81
229.964	161.81
230.199	136.81
230.433	102.81
230.667	115.81
230.901	118.81
231.136	112.81
231.37	117.81
231.604	105.81
231.838	85.81
232.072	98.81
232.306	94.81
232.541	108.81
232.775	108.81
233.009	119.81
233.243	121.81
233.477	96.81
233.711	111.81
233.945	108.81
234.179	102.81
234.413	121.81
234.647	108.81
234.881	106.81
235.115	112.81
235.349	122.81
235.583	125.81
235.817	100.81
236.051	136.81
236.285	119.81
236.519	114.81
236.753	148.81
236.987	139.81
237.221	175.81
237.455	231.81
237.689	198.81
237.922	149.81
238.156	130.81
238.39	121.81
238.624	129.81
238.858	123.81
239.091	112.81
239.325	131.81
239.559	129.81
239.793	136.81
240.027	112.81
240.26	139.81
240.494	156.81
240.728	130.81
240.961	149.81
241.195	135.81
241.429	127.81
241.662	133.81
241.896	132.81
242.13	144.81
242.363	132.81
242.597	133.81
242.83	137.81
243.064	123.81
243.298	141.81
243.531	127.81
243.765	123.81
243.998	133.81
244.232	134.81
244.465	137.81
244.699	133.81
244.932	144.81
245.166	140.81
245.399	153.81
245.633	151.81
245.866	153.81
246.099	145.81
246.333	144.81
246.566	141.81
246.8	130.81
247.033	156.81
247.266	179.81
247.5	169.81
247.733	153.81
247.966	158.81
248.2	180.81
248.433	150.81
248.666	163.81
248.899	175.81
249.133	193.81
249.366	205.81
249.599	199.81
249.832	172.81
250.066	166.81
250.299	180.81
250.532	194.81
250.765	206.81
250.998	209.81
251.231	221.81
251.465	213.81
251.698	188.81
251.931	167.81
252.164	184.81
252.397	181.81
252.63	179.81
252.863	193.81
253.096	204.81
253.329	220.81
253.562	203.81
253.795	215.81
254.028	198.81
254.261	201.81
254.494	208.81
254.727	232.81
254.96	242.81
255.193	237.81
255.426	221.81
255.659	209.81
255.892	226.81
256.124	204.81
256.357	226.81
256.59	211.81
256.823	203.81
257.056	193.81
257.289	218.81
257.521	205.81
257.754	185.81
257.987	197.81
258.22	203.81
258.452	191.81
258.685	215.81
258.918	193.81
259.151	211.81
259.383	210.81
259.616	206.81
259.849	229.81
260.081	203.81
260.314	231.81
260.547	247.81
260.779	235.81
261.012	212.81
261.244	221.81
261.477	216.81
261.71	200.81
261.942	203.81
262.175	228.81
262.407	230.81
262.64	209.81
262.872	219.81
263.105	219.81
263.337	215.81
263.57	208.81
263.802	217.81
264.035	194.81
264.267	207.81
264.499	192.81
264.732	221.81
264.964	199.81
265.197	210.81
265.429	212.81
265.661	213.81
265.894	198.81
266.126	223.81
266.358	230.81
266.591	217.81
266.823	207.81
267.055	222.81
267.287	202.81
267.52	204.81
267.752	226.81
267.984	218.81
268.216	227.81
268.448	233.81
268.681	224.81
268.913	228.81
269.145	236.81
269.377	244.81
269.609	256.81
269.841	260.81
270.073	256.81
270.306	275.81
270.538	297.81
270.77	299.81
271.002	289.81
271.234	276.81
271.466	281.81
271.698	295.81
271.93	285.81
272.162	306.81
272.394	295.81
272.626	309.81
272.858	281.81
273.09	259.81
273.322	247.81
273.553	264.81
273.785	255.81
274.017	258.81
274.249	248.81
274.481	249.81
274.713	251.81
274.945	266.81
275.176	263.81
275.408	243.81
275.64	253.81
275.872	252.81
276.104	269.81
276.335	269.81
276.567	247.81
276.799	268.81
277.031	292.81
277.262	309.81
277.494	305.81
277.726	310.81
277.957	288.81
278.189	278.81
278.421	257.81
278.652	263.81
278.884	263.81
279.115	278.81
279.347	262.81
279.579	274.81
279.81	251.81
280.042	252.81
280.273	250.81
280.505	255.81
280.736	263.81
280.968	257.81
281.199	261.81
281.431	280.81
281.662	263.81
281.894	271.81
282.125	277.81
282.356	288.81
282.588	291.81
282.819	310.81
283.051	280.81
283.282	277.81
283.513	281.81
283.745	278.81
283.976	284.81
284.207	279.81
284.439	277.81
284.67	249.81
284.901	265.81
285.132	261.81
285.364	260.81
285.595	281.81
285.826	284.81
286.057	273.81
286.288	264.81
286.52	279.81
286.751	275.81
286.982	272.81
287.213	284.81
287.444	291.81
287.675	268.81
287.906	300.81
288.138	299.81
288.369	298.81
288.6	319.81
288.831	309.81
289.062	278.81
289.293	277.81
289.524	294.81
289.755	280.81
289.986	288.81
290.217	288.81
290.448	283.81
290.679	288.81
290.91	282.81
291.141	284.81
291.371	273.81
291.602	279.81
291.833	287.81
292.064	281.81
292.295	294.81
292.526	291.81
292.757	282.81
292.987	304.81
293.218	283.81
293.449	293.81
293.68	273.81
293.91	270.81
294.141	282.81
294.372	279.81
294.603	288.81
294.833	281.81
295.064	296.81
295.295	291.81
295.525	301.81
295.756	291.81
295.987	311.81
296.217	311.81
296.448	342.81
296.679	311.81
296.909	299.81
297.14	297.81
297.37	305.81
297.601	283.81
297.831	306.81
298.062	307.81
298.292	309.81
298.523	298.81
298.753	311.81
298.984	311.81
299.214	314.81
299.445	315.81
299.675	314.81
299.905	319.81
300.136	311.81
300.366	290.81
300.597	300.81
300.827	316.81
301.057	307.81
301.288	330.81
301.518	323.81
301.748	314.81
301.979	308.81
302.209	315.81
302.439	329.81
302.669	325.81
302.9	321.81
303.13	318.81
303.36	338.81
303.59	336.81
303.82	328.81
304.051	336.81
304.281	333.81
304.511	323.81
304.741	312.81
304.971	319.81
305.201	346.81
305.431	321.81
305.661	326.81
305.891	313.81
306.121	334.81
306.352	340.81
306.582	320.81
306.812	315.81
307.042	332.81
307.272	322.81
307.502	336.81
307.731	326.81
307.961	323.81
308.191	331.81
308.421	333.81
308.651	331.81
308.881	332.81
309.111	329.81
309.341	322.81
309.571	346.81
309.8	362.81
310.03	386.81
310.26	358.81
310.49	354.81
310.72	372.81
310.949	375.81
311.179	376.81
311.409	388.81
311.639	350.81
311.868	345.81
312.098	354.81
312.328	372.81
312.557	389.81
312.787	417.81
313.017	403.81
313.246	393.81
313.476	377.81
313.706	371.81
313.935	386.81
314.165	381.81
314.394	391.81
314.624	401.81
314.853	379.81
315.083	401.81
315.312	377.81
315.542	393.81
315.771	373.81
316.001	372.81
316.23	361.81
316.46	371.81
316.689	369.81
316.919	371.81
317.148	378.81
317.377	385.81
317.607	376.81
317.836	386.81
318.065	396.81
318.295	373.81
318.524	378.81
318.753	362.81
318.983	409.81
319.212	369.81
319.441	381.81
319.67	387.81
319.9	370.81
320.129	375.81
320.358	373.81
320.587	405.81
320.816	407.81
321.046	412.81
321.275	388.81
321.504	388.81
321.733	396.81
321.962	401.81
322.191	422.81
322.42	406.81
322.649	462.81
322.878	464.81
323.108	461.81
323.337	454.81
323.566	513.81
323.795	515.81
324.024	585.81
324.253	684.81
324.482	991.81
324.71	1580.81
324.939	2443.81
325.168	2084.81
325.397	1004.81
325.626	642.81
325.855	539.81
326.084	513.81
326.313	514.81
326.542	516.81
326.77	568.81
326.999	644.81
327.228	913.81
327.457	1425.81
327.686	1801.81
327.914	1121.81
328.143	711.81
328.372	635.81
328.6	594.81
328.829	550.81
329.058	559.81
329.287	584.81
329.515	545.81
329.744	517.81
329.972	492.81
330.201	544.81
330.43	538.81
330.658	583.81
330.887	611.81
331.115	589.81
331.344	527.81
331.572	499.81
331.801	475.81
332.03	483.81
332.258	479.81
332.486	485.81
332.715	482.81
332.943	465.81
333.172	468.81
333.4	473.81
333.629	485.81
333.857	496.81
334.085	496.81
334.314	496.81
334.542	531.81
334.771	532.81
334.999	522.81
335.227	486.81
335.455	476.81
335.684	476.81
335.912	473.81
336.14	452.81
336.369	456.81
336.597	457.81
336.825	472.81
337.053	461.81
337.281	458.81
337.51	463.81
337.738	430.81
337.966	439.81
338.194	467.81
338.422	463.81
338.65	440.81
338.878	429.81
339.106	432.81
339.334	434.81
339.562	444.81
339.79	429.81
340.018	427.81
340.246	435.81
340.474	444.81
340.702	439.81
340.93	434.81
341.158	424.81
341.386	452.81
341.614	437.81
341.842	436.81
342.07	459.81
342.298	440.81
342.526	415.81
342.754	418.81
342.981	409.81
343.209	403.81
343.437	438.81
343.665	449.81
343.893	440.81
344.12	473.81
344.348	441.81
344.576	458.81
344.804	461.81
345.031	460.81
345.259	451.81
345.487	460.81
345.714	443.81
345.942	440.81
346.17	453.81
346.397	427.81
346.625	429.81
346.853	446.81
347.08	412.81
347.308	436.81
347.535	445.81
347.763	433.81
347.99	435.81
348.218	435.81
348.445	423.81
348.673	437.81
348.9	423.81
349.128	440.81
349.355	421.81
349.583	383.81
349.81	416.81
350.037	425.81
350.265	393.81
350.492	401.81
350.72	422.81
350.947	421.81
351.174	412.81
351.402	432.81
351.629	455.81
351.856	405.81
352.083	433.81
352.311	440.81
352.538	436.81
352.765	454.81
352.992	426.81
353.22	440.81
353.447	401.81
353.674	395.81
353.901	408.81
354.128	384.81
354.355	407.81
354.583	397.81
354.81	385.81
355.037	381.81
355.264	380.81
355.491	412.81
355.718	396.81
355.945	393.81
356.172	380.81
356.399	425.81
356.626	389.81
356.853	392.81
357.08	415.81
357.307	407.81
357.534	395.81
357.761	412.81
357.988	408.81
358.215	417.81
358.441	404.81
358.668	420.81
358.895	403.81
359.122	405.81
359.349	406.81
359.576	447.81
359.802	438.81
360.029	456.81
360.256	487.81
360.483	470.81
360.709	428.81
360.936	424.81
361.163	409.81
361.39	425.81
361.616	424.81
361.843	429.81
362.07	416.81
362.296	423.81
362.523	429.81
362.749	424.81
362.976	424.81
363.203	432.81
363.429	410.81
363.656	426.81
363.882	417.81
364.109	415.81
364.335	432.81
364.562	405.81
364.788	387.81
365.015	420.81
365.241	418.81
365.468	428.81
365.694	415.81
365.92	419.81
366.147	411.81
366.373	404.81
366.599	412.81
366.826	410.81
367.052	425.81
367.278	438.81
367.505	419.81
367.731	412.81
367.957	416.81
368.184	437.81
368.41	422.81
368.636	424.81
368.862	417.81
369.089	424.81
369.315	418.81
369.541	423.81
369.767	409.81
369.993	424.81
370.219	422.81
370.445	425.81
370.672	397.81
370.898	418.81
371.124	447.81
371.35	423.81
371.576	426.81
371.802	417.81
372.028	420.81
372.254	413.81
372.48	416.81
372.706	412.81
372.932	416.81
373.158	422.81
373.384	429.81
373.61	419.81
373.835	432.81
374.061	423.81
374.287	428.81
374.513	416.81
374.739	431.81
374.965	427.81
375.191	419.81
375.416	428.81
375.642	419.81
375.868	428.81
376.094	424.81
376.319	430.81
376.545	411.81
376.771	402.81
376.997	407.81
377.222	427.81
377.448	422.81
377.674	439.81
377.899	402.81
378.125	407.81
378.35	392.81
378.576	421.81
378.802	391.81
379.027	434.81
379.253	436.81
379.478	405.81
379.704	433.81
379.929	423.81
380.155	420.81
380.38	435.81
380.606	416.81
380.831	434.81
381.057	412.81
381.282	416.81
381.507	415.81
381.733	430.81
381.958	415.81
382.184	409.81
382.409	427.81
382.634	439.81
382.86	423.81
383.085	441.81
383.31	409.81
383.535	413.81
383.761	438.81
383.986	448.81
384.211	435.81
384.436	444.81
384.662	436.81
384.887	459.81
385.112	471.81
385.337	455.81
385.562	453.81
385.787	457.81
386.013	484.81
386.238	483.81
386.463	456.81
386.688	461.81
386.913	484.81
387.138	466.81
387.363	463.81
387.588	468.81
387.813	469.81
388.038	460.81
388.263	478.81
388.488	480.81
388.713	457.81
388.938	473.81
389.163	518.81
389.387	476.81
389.612	487.81
389.837	482.81
390.062	466.81
390.287	468.81
390.512	476.81
390.736	475.81
390.961	477.81
391.186	475.81
391.411	472.81
391.636	482.81
391.86	475.81
392.085	487.81
392.31	498.81
392.534	475.81
392.759	516.81
392.984	483.81
393.208	477.81
393.433	470.81
393.658	471.81
393.882	472.81
394.107	477.81
394.331	468.81
394.556	468.81
394.78	493.81
395.005	483.81
395.229	472.81
395.454	491.81
395.678	485.81
395.903	523.81
396.127	521.81
396.352	539.81
396.576	513.81
396.801	477.81
397.025	511.81
397.249	509.81
397.474	488.81
397.698	497.81
397.922	510.81
398.147	520.81
398.371	544.81
398.595	541.81
398.82	546.81
399.044	537.81
399.268	563.81
399.492	600.81
399.717	620.81
399.941	668.81
400.165	652.81
400.389	672.81
400.613	597.81
400.837	584.81
401.062	570.81
401.286	572.81
401.51	553.81
401.734	561.81
401.958	541.81
402.182	547.81
402.406	564.81
402.63	548.81
402.854	578.81
403.078	564.81
403.302	539.81
403.526	571.81
403.75	578.81
403.974	585.81
404.198	563.81
404.422	573.81
404.645	582.81
404.869	604.81
405.093	604.81
405.317	667.81
405.541	704.81
405.765	636.81
405.988	594.81
406.212	611.81
406.436	610.81
406.66	636.81
406.883	637.81
407.107	637.81
407.331	689.81
407.555	765.81
407.778	797.81
408.002	705.81
408.226	653.81
408.449	641.81
408.673	624.81
408.896	682.81
409.12	715.81
409.344	674.81
409.567	645.81
409.791	608.81
410.014	583.81
410.238	571.81
410.461	597.81
410.685	577.81
410.908	627.81
411.132	625.81
411.355	673.81
411.578	646.81
411.802	612.81
412.025	593.81
412.249	588.81
412.472	601.81
412.695	649.81
412.919	632.81
413.142	589.81
413.365	572.81
413.589	565.81
413.812	554.81
414.035	579.81
414.258	559.81
414.482	541.81
414.705	544.81
414.928	555.81
415.151	527.81
415.374	530.81
415.597	531.81
415.821	547.81
416.044	545.81
416.267	514.81
416.49	553.81
416.713	546.81
416.936	534.81
417.159	549.81
417.382	534.81
417.605	551.81
417.828	565.81
418.051	563.81
418.274	562.81
418.497	533.81
418.72	550.81
418.943	552.81
419.166	565.81
419.389	595.81
419.611	577.81
419.834	575.81
420.057	561.81
420.28	566.81
420.503	562.81
420.726	561.81
420.948	569.81
421.171	600.81
421.394	662.81
421.617	597.81
421.839	551.81
422.062	535.81
422.285	590.81
422.507	628.81
422.73	722.81
422.953	683.81
423.175	615.81
423.398	581.81
423.621	591.81
423.843	594.81
424.066	592.81
424.288	602.81
424.511	631.81
424.733	672.81
424.956	771.81
425.178	727.81
425.401	719.81
425.623	777.81
425.846	646.81
426.068	605.81
426.291	586.81
426.513	605.81
426.735	608.81
426.958	655.81
427.18	769.81
427.402	889.81
427.625	983.81
427.847	846.81
428.069	719.81
428.292	659.81
428.514	613.81
428.736	576.81
428.958	585.81
429.181	551.81
429.403	568.81
429.625	581.81
429.847	609.81
430.069	683.81
430.292	669.81
430.514	583.81
430.736	573.81
430.958	564.81
431.18	534.81
431.402	530.81
431.624	543.81
431.846	533.81
432.068	536.81
432.29	527.81
432.512	520.81
432.734	557.81
432.956	539.81
433.178	533.81
433.4	544.81
433.622	538.81
433.844	533.81
434.066	532.81
434.287	525.81
434.509	554.81
434.731	564.81
434.953	554.81
435.175	568.81
435.397	595.81
435.618	608.81
435.84	654.81
436.062	738.81
436.284	841.81
436.505	694.81
436.727	610.81
436.949	571.81
437.17	551.81
437.392	570.81
437.614	576.81
437.835	596.81
438.057	699.81
438.278	811.81
438.5	822.81
438.721	889.81
438.943	851.81
439.165	675.81
439.386	625.81
439.608	616.81
439.829	610.81
440.05	619.81
440.272	693.81
440.493	662.81
440.715	587.81
440.936	567.81
441.158	567.81
441.379	545.81
441.6	565.81
441.822	593.81
442.043	628.81
442.264	749.81
442.486	787.81
442.707	659.81
442.928	629.81
443.149	628.81
443.371	634.81
443.592	679.81
443.813	811.81
444.034	865.81
444.255	716.81
444.476	626.81
444.698	613.81
444.919	614.81
445.14	693.81
445.361	655.81
445.582	655.81
445.803	758.81
446.024	843.81
446.245	843.81
446.466	777.81
446.687	641.81
446.908	609.81
447.129	589.81
447.35	559.81
447.571	573.81
447.792	565.81
448.013	553.81
448.234	575.81
448.455	620.81
448.675	754.81
448.896	919.81
449.117	751.81
449.338	700.81
449.559	827.81
449.779	971.81
450	756.81
450.221	630.81
450.442	583.81
450.662	552.81
450.883	551.81
451.104	557.81
451.324	520.81
451.545	519.81
451.766	533.81
451.986	481.81
452.207	509.81
452.428	485.81
452.648	484.81
452.869	507.81
453.089	512.81
453.31	524.81
453.53	495.81
453.751	499.81
453.971	484.81
454.192	524.81
454.412	509.81
454.633	504.81
454.853	510.81
455.073	497.81
455.294	544.81
455.514	599.81
455.734	572.81
455.955	494.81
456.175	484.81
456.395	471.81
456.616	472.81
456.836	471.81
457.056	471.81
457.276	461.81
457.497	485.81
457.717	470.81
457.937	481.81
458.157	500.81
458.377	483.81
458.598	516.81
458.818	588.81
459.038	660.81
459.258	657.81
459.478	597.81
459.698	551.81
459.918	540.81
460.138	546.81
460.358	549.81
460.578	545.81
460.798	551.81
461.018	557.81
461.238	552.81
461.458	551.81
461.678	546.81
461.898	565.81
462.118	549.81
462.338	572.81
462.558	573.81
462.777	588.81
462.997	574.81
463.217	594.81
463.437	611.81
463.657	586.81
463.876	590.81
464.096	601.81
464.316	608.81
464.536	589.81
464.755	599.81
464.975	604.81
465.195	610.81
465.414	670.81
465.634	627.81
465.854	575.81
466.073	546.81
466.293	551.81
466.512	525.81
466.732	526.81
466.951	509.81
467.171	509.81
467.391	504.81
467.61	536.81
467.829	541.81
468.049	528.81
468.268	520.81
468.488	521.81
468.707	516.81
468.927	523.81
469.146	481.81
469.365	502.81
469.585	521.81
469.804	505.81
470.023	514.81
470.243	531.81
470.462	546.81
470.681	533.81
470.901	549.81
471.12	524.81
471.339	524.81
471.558	536.81
471.777	524.81
471.997	534.81
472.216	532.81
472.435	585.81
472.654	531.81
472.873	513.81
473.092	520.81
473.311	520.81
473.53	517.81
473.749	558.81
473.968	572.81
474.187	680.81
474.406	703.81
474.625	580.81
474.844	559.81
475.063	526.81
475.282	505.81
475.501	529.81
475.72	537.81
475.939	541.81
476.158	549.81
476.377	533.81
476.596	566.81
476.814	575.81
477.033	569.81
477.252	571.81
477.471	571.81
477.69	548.81
477.908	572.81
478.127	572.81
478.346	576.81
478.564	575.81
478.783	585.81
479.002	581.81
479.22	601.81
479.439	605.81
479.658	645.81
479.876	667.81
480.095	626.81
480.313	659.81
480.532	671.81
480.751	639.81
480.969	650.81
481.188	691.81
481.406	725.81
481.624	662.81
481.843	664.81
482.061	637.81
482.28	632.81
482.498	600.81
482.717	618.81
482.935	616.81
483.153	623.81
483.372	620.81
483.59	627.81
483.808	611.81
484.027	608.81
484.245	615.81
484.463	630.81
484.681	633.81
484.9	628.81
485.118	633.81
485.336	623.81
485.554	637.81
485.772	625.81
485.99	635.81
486.209	642.81
486.427	659.81
486.645	645.81
486.863	673.81
487.081	652.81
487.299	674.81
487.517	661.81
487.735	663.81
487.953	646.81
488.171	645.81
488.389	643.81
488.607	669.81
488.825	652.81
489.043	639.81
489.261	648.81
489.479	677.81
489.696	657.81
489.914	668.81
490.132	678.81
490.35	692.81
490.568	681.81
490.786	679.81
491.003	718.81
491.221	705.81
491.439	700.81
491.657	716.81
491.874	752.81
492.092	727.81
492.31	721.81
492.527	743.81
492.745	754.81
492.963	732.81
493.18	758.81
493.398	741.81
493.615	765.81
493.833	738.81
494.05	760.81
494.268	760.81
494.485	767.81
494.703	753.81
494.92	758.81
495.138	740.81
495.355	738.81
495.573	767.81
495.79	779.81
496.008	775.81
496.225	768.81
496.442	760.81
496.66	771.81
496.877	776.81
497.094	766.81
497.312	796.81
497.529	804.81
497.746	820.81
497.963	809.81
498.181	865.81
498.398	859.81
498.615	887.81
498.832	931.81
499.049	907.81
499.267	913.81
499.484	960.81
499.701	983.81
499.918	1016.81
500.135	1093.81
500.352	1123.81
500.569	1133.81
500.786	1106.81
501.003	1159.81
501.22	1112.81
501.437	1073.81
501.654	1019.81
501.871	1010.81
