Data from 1978.PennyLincolnUp.Lamp.En5.5.200Scan.071719.P1_HRD10591_16-12-12-865.txt Node
Date: Thu Jul 18 16:12:12 EDT 2019
User: cochatt
Spectrometer: HR+D1059
Trigger mode: 1
Integration Time (sec): 1.000000E-1
Scans to average: 1
Electric dark correction enabled: true
Nonlinearity correction enabled: false
Boxcar width: 0
XAxis mode: Wavelengths
Number of Pixels in Spectrum: 2048
>>>>>Begin Spectral Data<<<<<
223.165	-20.44
223.4	-20.44
223.635	-20.44
223.869	-17.44
224.104	-24.44
224.338	-10.44
224.573	-15.44
224.808	-23.44
225.042	-9.44
225.277	2.56
225.511	-8.44
225.746	14.56
225.98	20.56
226.215	11.56
226.449	11.56
226.683	10.56
226.918	24.56
227.152	33.56
227.387	17.56
227.621	36.56
227.856	49.56
228.09	43.56
228.324	43.56
228.559	41.56
228.793	44.56
229.027	73.56
229.262	106.56
229.496	103.56
229.73	111.56
229.964	138.56
230.199	116.56
230.433	113.56
230.667	105.56
230.901	105.56
231.136	114.56
231.37	108.56
231.604	103.56
231.838	112.56
232.072	116.56
232.306	109.56
232.541	101.56
232.775	105.56
233.009	112.56
233.243	93.56
233.477	108.56
233.711	100.56
233.945	103.56
234.179	99.56
234.413	103.56
234.647	106.56
234.881	105.56
235.115	102.56
235.349	104.56
235.583	107.56
235.817	111.56
236.051	115.56
236.285	118.56
236.519	122.56
236.753	118.56
236.987	133.56
237.221	151.56
237.455	201.56
237.689	171.56
237.922	123.56
238.156	113.56
238.39	105.56
238.624	112.56
238.858	123.56
239.091	118.56
239.325	110.56
239.559	128.56
239.793	112.56
240.027	116.56
240.26	140.56
240.494	161.56
240.728	122.56
240.961	133.56
241.195	149.56
241.429	122.56
241.662	114.56
241.896	118.56
242.13	116.56
242.363	111.56
242.597	118.56
242.83	119.56
243.064	135.56
243.298	119.56
243.531	128.56
243.765	104.56
243.998	139.56
244.232	134.56
244.465	132.56
244.699	139.56
244.932	136.56
245.166	120.56
245.399	129.56
245.633	138.56
245.866	133.56
246.099	134.56
246.333	130.56
246.566	125.56
246.8	126.56
247.033	128.56
247.266	135.56
247.5	132.56
247.733	157.56
247.966	155.56
248.2	145.56
248.433	158.56
248.666	133.56
248.899	155.56
249.133	177.56
249.366	160.56
249.599	163.56
249.832	159.56
250.066	163.56
250.299	162.56
250.532	155.56
250.765	189.56
250.998	185.56
251.231	185.56
251.465	196.56
251.698	166.56
251.931	158.56
252.164	164.56
252.397	159.56
252.63	158.56
252.863	170.56
253.096	198.56
253.329	176.56
253.562	179.56
253.795	184.56
254.028	182.56
254.261	192.56
254.494	174.56
254.727	202.56
254.96	219.56
255.193	232.56
255.426	211.56
255.659	192.56
255.892	194.56
256.124	196.56
256.357	188.56
256.59	186.56
256.823	174.56
257.056	187.56
257.289	169.56
257.521	187.56
257.754	180.56
257.987	190.56
258.22	187.56
258.452	167.56
258.685	190.56
258.918	178.56
259.151	186.56
259.383	187.56
259.616	195.56
259.849	192.56
260.081	204.56
260.314	224.56
260.547	213.56
260.779	199.56
261.012	187.56
261.244	201.56
261.477	208.56
261.71	195.56
261.942	194.56
262.175	201.56
262.407	198.56
262.64	195.56
262.872	196.56
263.105	200.56
263.337	184.56
263.57	180.56
263.802	189.56
264.035	193.56
264.267	193.56
264.499	191.56
264.732	195.56
264.964	185.56
265.197	190.56
265.429	187.56
265.661	170.56
265.894	186.56
266.126	187.56
266.358	174.56
266.591	199.56
266.823	200.56
267.055	197.56
267.287	194.56
267.52	207.56
267.752	189.56
267.984	185.56
268.216	197.56
268.448	200.56
268.681	204.56
268.913	210.56
269.145	224.56
269.377	239.56
269.609	238.56
269.841	229.56
270.073	216.56
270.306	236.56
270.538	263.56
270.77	268.56
271.002	266.56
271.234	231.56
271.466	240.56
271.698	258.56
271.93	256.56
272.162	261.56
272.394	258.56
272.626	256.56
272.858	236.56
273.09	252.56
273.322	247.56
273.553	240.56
273.785	231.56
274.017	224.56
274.249	216.56
274.481	230.56
274.713	226.56
274.945	246.56
275.176	240.56
275.408	222.56
275.64	230.56
275.872	232.56
276.104	241.56
276.335	224.56
276.567	223.56
276.799	244.56
277.031	246.56
277.262	258.56
277.494	271.56
277.726	265.56
277.957	244.56
278.189	243.56
278.421	243.56
278.652	239.56
278.884	238.56
279.115	238.56
279.347	262.56
279.579	222.56
279.81	241.56
280.042	238.56
280.273	251.56
280.505	242.56
280.736	250.56
280.968	247.56
281.199	240.56
281.431	226.56
281.662	231.56
281.894	239.56
282.125	236.56
282.356	256.56
282.588	271.56
282.819	262.56
283.051	248.56
283.282	241.56
283.513	269.56
283.745	248.56
283.976	232.56
284.207	258.56
284.439	255.56
284.67	248.56
284.901	235.56
285.132	228.56
285.364	259.56
285.595	248.56
285.826	255.56
286.057	265.56
286.288	259.56
286.52	256.56
286.751	266.56
286.982	250.56
287.213	259.56
287.444	257.56
287.675	251.56
287.906	260.56
288.138	267.56
288.369	262.56
288.6	281.56
288.831	269.56
289.062	256.56
289.293	287.56
289.524	273.56
289.755	264.56
289.986	267.56
290.217	268.56
290.448	243.56
290.679	262.56
290.91	270.56
291.141	259.56
291.371	246.56
291.602	261.56
291.833	265.56
292.064	265.56
292.295	270.56
292.526	259.56
292.757	281.56
292.987	271.56
293.218	263.56
293.449	255.56
293.68	283.56
293.91	254.56
294.141	258.56
294.372	256.56
294.603	261.56
294.833	274.56
295.064	282.56
295.295	266.56
295.525	269.56
295.756	276.56
295.987	286.56
296.217	290.56
296.448	297.56
296.679	281.56
296.909	276.56
297.14	271.56
297.37	257.56
297.601	279.56
297.831	278.56
298.062	285.56
298.292	270.56
298.523	276.56
298.753	270.56
298.984	267.56
299.214	281.56
299.445	259.56
299.675	272.56
299.905	291.56
300.136	290.56
300.366	280.56
300.597	284.56
300.827	297.56
301.057	291.56
301.288	281.56
301.518	292.56
301.748	290.56
301.979	298.56
302.209	268.56
302.439	304.56
302.669	297.56
302.9	304.56
303.13	279.56
303.36	297.56
303.59	293.56
303.82	299.56
304.051	288.56
304.281	282.56
304.511	293.56
304.741	298.56
304.971	306.56
305.201	290.56
305.431	314.56
305.661	299.56
305.891	279.56
306.121	289.56
306.352	305.56
306.582	295.56
306.812	292.56
307.042	298.56
307.272	316.56
307.502	312.56
307.731	301.56
307.961	313.56
308.191	303.56
308.421	295.56
308.651	316.56
308.881	301.56
309.111	314.56
309.341	309.56
309.571	327.56
309.8	334.56
310.03	339.56
310.26	330.56
310.49	340.56
310.72	342.56
310.949	344.56
311.179	360.56
311.409	348.56
311.639	331.56
311.868	345.56
312.098	328.56
312.328	336.56
312.557	353.56
312.787	355.56
313.017	369.56
313.246	355.56
313.476	337.56
313.706	337.56
313.935	309.56
314.165	361.56
314.394	368.56
314.624	350.56
314.853	350.56
315.083	350.56
315.312	339.56
315.542	330.56
315.771	331.56
316.001	331.56
316.23	345.56
316.46	327.56
316.689	342.56
316.919	340.56
317.148	338.56
317.377	344.56
317.607	348.56
317.836	339.56
318.065	340.56
318.295	344.56
318.524	354.56
318.753	337.56
318.983	347.56
319.212	332.56
319.441	332.56
319.67	350.56
319.9	355.56
320.129	348.56
320.358	337.56
320.587	351.56
320.816	355.56
321.046	360.56
321.275	350.56
321.504	376.56
321.733	370.56
321.962	379.56
322.191	361.56
322.42	373.56
322.649	406.56
322.878	402.56
323.108	403.56
323.337	421.56
323.566	440.56
323.795	471.56
324.024	498.56
324.253	589.56
324.482	792.56
324.71	1264.56
324.939	1909.56
325.168	1650.56
325.397	796.56
325.626	565.56
325.855	467.56
326.084	436.56
326.313	432.56
326.542	451.56
326.77	483.56
326.999	560.56
327.228	738.56
327.457	1150.56
327.686	1407.56
327.914	932.56
328.143	622.56
328.372	529.56
328.6	510.56
328.829	480.56
329.058	487.56
329.287	510.56
329.515	485.56
329.744	440.56
329.972	444.56
330.201	441.56
330.43	477.56
330.658	526.56
330.887	544.56
331.115	503.56
331.344	440.56
331.572	439.56
331.801	438.56
332.03	446.56
332.258	432.56
332.486	396.56
332.715	408.56
332.943	419.56
333.172	392.56
333.4	407.56
333.629	418.56
333.857	424.56
334.085	462.56
334.314	443.56
334.542	460.56
334.771	482.56
334.999	480.56
335.227	434.56
335.455	448.56
335.684	402.56
335.912	428.56
336.14	416.56
336.369	427.56
336.597	442.56
336.825	418.56
337.053	418.56
337.281	399.56
337.51	396.56
337.738	402.56
337.966	387.56
338.194	403.56
338.422	427.56
338.65	412.56
338.878	414.56
339.106	400.56
339.334	395.56
339.562	405.56
339.79	393.56
340.018	410.56
340.246	404.56
340.474	408.56
340.702	407.56
340.93	402.56
341.158	378.56
341.386	389.56
341.614	398.56
341.842	399.56
342.07	417.56
342.298	406.56
342.526	398.56
342.754	396.56
342.981	387.56
343.209	380.56
343.437	393.56
343.665	408.56
343.893	402.56
344.12	413.56
344.348	424.56
344.576	434.56
344.804	428.56
345.031	413.56
345.259	436.56
345.487	401.56
345.714	422.56
345.942	407.56
346.17	407.56
346.397	402.56
346.625	404.56
346.853	406.56
347.08	382.56
347.308	387.56
347.535	384.56
347.763	421.56
347.99	400.56
348.218	410.56
348.445	379.56
348.673	393.56
348.9	389.56
349.128	384.56
349.355	384.56
349.583	382.56
349.81	376.56
350.037	366.56
350.265	389.56
350.492	392.56
350.72	381.56
350.947	398.56
351.174	421.56
351.402	416.56
351.629	412.56
351.856	412.56
352.083	385.56
352.311	407.56
352.538	411.56
352.765	402.56
352.992	399.56
353.22	412.56
353.447	385.56
353.674	404.56
353.901	378.56
354.128	361.56
354.355	378.56
354.583	394.56
354.81	387.56
355.037	366.56
355.264	389.56
355.491	377.56
355.718	386.56
355.945	355.56
356.172	360.56
356.399	367.56
356.626	372.56
356.853	362.56
357.08	358.56
357.307	383.56
357.534	360.56
357.761	367.56
357.988	354.56
358.215	394.56
358.441	361.56
358.668	362.56
358.895	363.56
359.122	376.56
359.349	382.56
359.576	396.56
359.802	412.56
360.029	431.56
360.256	450.56
360.483	420.56
360.709	395.56
360.936	402.56
361.163	383.56
361.39	396.56
361.616	392.56
361.843	388.56
362.07	396.56
362.296	408.56
362.523	393.56
362.749	382.56
362.976	395.56
363.203	375.56
363.429	360.56
363.656	392.56
363.882	383.56
364.109	379.56
364.335	372.56
364.562	358.56
364.788	381.56
365.015	399.56
365.241	374.56
365.468	369.56
365.694	378.56
365.92	380.56
366.147	390.56
366.373	384.56
366.599	382.56
366.826	395.56
367.052	386.56
367.278	394.56
367.505	409.56
367.731	377.56
367.957	396.56
368.184	374.56
368.41	394.56
368.636	387.56
368.862	389.56
369.089	394.56
369.315	396.56
369.541	388.56
369.767	408.56
369.993	403.56
370.219	383.56
370.445	397.56
370.672	375.56
370.898	370.56
371.124	392.56
371.35	424.56
371.576	361.56
371.802	382.56
372.028	370.56
372.254	386.56
372.48	381.56
372.706	395.56
372.932	395.56
373.158	403.56
373.384	408.56
373.61	394.56
373.835	409.56
374.061	392.56
374.287	390.56
374.513	401.56
374.739	403.56
374.965	416.56
375.191	402.56
375.416	410.56
375.642	391.56
375.868	414.56
376.094	388.56
376.319	394.56
376.545	414.56
376.771	403.56
376.997	389.56
377.222	389.56
377.448	388.56
377.674	389.56
377.899	374.56
378.125	382.56
378.35	393.56
378.576	388.56
378.802	384.56
379.027	397.56
379.253	388.56
379.478	376.56
379.704	412.56
379.929	406.56
380.155	399.56
380.38	383.56
380.606	388.56
380.831	400.56
381.057	411.56
381.282	404.56
381.507	401.56
381.733	397.56
381.958	394.56
382.184	378.56
382.409	408.56
382.634	409.56
382.86	406.56
383.085	410.56
383.31	404.56
383.535	399.56
383.761	413.56
383.986	419.56
384.211	413.56
384.436	420.56
384.662	433.56
384.887	421.56
385.112	415.56
385.337	436.56
385.562	454.56
385.787	430.56
386.013	436.56
386.238	427.56
386.463	444.56
386.688	438.56
386.913	423.56
387.138	446.56
387.363	439.56
387.588	444.56
387.813	433.56
388.038	436.56
388.263	441.56
388.488	438.56
388.713	460.56
388.938	446.56
389.163	450.56
389.387	439.56
389.612	428.56
389.837	434.56
390.062	447.56
390.287	434.56
390.512	445.56
390.736	446.56
390.961	438.56
391.186	436.56
391.411	456.56
391.636	454.56
391.86	479.56
392.085	457.56
392.31	451.56
392.534	466.56
392.759	452.56
392.984	465.56
393.208	449.56
393.433	455.56
393.658	448.56
393.882	460.56
394.107	465.56
394.331	444.56
394.556	454.56
394.78	433.56
395.005	450.56
395.229	443.56
395.454	454.56
395.678	455.56
395.903	455.56
396.127	481.56
396.352	477.56
396.576	467.56
396.801	454.56
397.025	467.56
397.249	474.56
397.474	460.56
397.698	501.56
397.922	481.56
398.147	494.56
398.371	523.56
398.595	490.56
398.82	512.56
399.044	520.56
399.268	544.56
399.492	582.56
399.717	592.56
399.941	609.56
400.165	627.56
400.389	631.56
400.613	575.56
400.837	564.56
401.062	526.56
401.286	510.56
401.51	512.56
401.734	504.56
401.958	523.56
402.182	525.56
402.406	540.56
402.63	530.56
402.854	537.56
403.078	517.56
403.302	525.56
403.526	526.56
403.75	547.56
403.974	523.56
404.198	530.56
404.422	539.56
404.645	534.56
404.869	515.56
405.093	560.56
405.317	619.56
405.541	640.56
405.765	594.56
405.988	564.56
406.212	572.56
406.436	603.56
406.66	583.56
406.883	582.56
407.107	584.56
407.331	625.56
407.555	683.56
407.778	695.56
408.002	619.56
408.226	620.56
408.449	624.56
408.673	588.56
408.896	600.56
409.12	650.56
409.344	646.56
409.567	564.56
409.791	544.56
410.014	546.56
410.238	522.56
410.461	546.56
410.685	554.56
410.908	556.56
411.132	594.56
411.355	608.56
411.578	588.56
411.802	560.56
412.025	553.56
412.249	550.56
412.472	571.56
412.695	576.56
412.919	588.56
413.142	565.56
413.365	520.56
413.589	518.56
413.812	520.56
414.035	543.56
414.258	526.56
414.482	520.56
414.705	528.56
414.928	525.56
415.151	528.56
415.374	497.56
415.597	500.56
415.821	487.56
416.044	530.56
416.267	508.56
416.49	502.56
416.713	513.56
416.936	485.56
417.159	498.56
417.382	514.56
417.605	485.56
417.828	514.56
418.051	525.56
418.274	512.56
418.497	516.56
418.72	508.56
418.943	510.56
419.166	509.56
419.389	550.56
419.611	572.56
419.834	531.56
420.057	556.56
420.28	538.56
420.503	500.56
420.726	505.56
420.948	537.56
421.171	567.56
421.394	590.56
421.617	528.56
421.839	500.56
422.062	538.56
422.285	539.56
422.507	586.56
422.73	650.56
422.953	629.56
423.175	558.56
423.398	541.56
423.621	534.56
423.843	543.56
424.066	556.56
424.288	543.56
424.511	562.56
424.733	632.56
424.956	692.56
425.178	645.56
425.401	675.56
425.623	662.56
425.846	590.56
426.068	587.56
426.291	556.56
426.513	552.56
426.735	551.56
426.958	599.56
427.18	651.56
427.402	824.56
427.625	860.56
427.847	774.56
428.069	658.56
428.292	610.56
428.514	548.56
428.736	535.56
428.958	528.56
429.181	496.56
429.403	509.56
429.625	516.56
429.847	543.56
430.069	593.56
430.292	609.56
430.514	537.56
430.736	521.56
430.958	520.56
431.18	506.56
431.402	503.56
431.624	514.56
431.846	493.56
432.068	474.56
432.29	487.56
432.512	488.56
432.734	513.56
432.956	496.56
433.178	528.56
433.4	508.56
433.622	494.56
433.844	520.56
434.066	509.56
434.287	510.56
434.509	490.56
434.731	510.56
434.953	507.56
435.175	515.56
435.397	550.56
435.618	574.56
435.84	601.56
436.062	698.56
436.284	747.56
436.505	644.56
436.727	564.56
436.949	536.56
437.17	516.56
437.392	526.56
437.614	522.56
437.835	558.56
438.057	632.56
438.278	740.56
438.5	752.56
438.721	798.56
438.943	812.56
439.165	609.56
439.386	563.56
439.608	568.56
439.829	547.56
440.05	571.56
440.272	620.56
440.493	584.56
440.715	527.56
440.936	527.56
441.158	536.56
441.379	531.56
441.6	518.56
441.822	533.56
442.043	586.56
442.264	670.56
442.486	713.56
442.707	606.56
442.928	550.56
443.149	567.56
443.371	592.56
443.592	626.56
443.813	748.56
444.034	790.56
444.255	650.56
444.476	572.56
444.698	564.56
444.919	582.56
445.14	664.56
445.361	603.56
445.582	590.56
445.803	638.56
446.024	753.56
446.245	741.56
446.466	678.56
446.687	600.56
446.908	568.56
447.129	531.56
447.35	496.56
447.571	497.56
447.792	491.56
448.013	520.56
448.234	514.56
448.455	538.56
448.675	678.56
448.896	814.56
449.117	670.56
449.338	629.56
449.559	756.56
449.779	843.56
450	644.56
450.221	560.56
450.442	539.56
450.662	530.56
450.883	507.56
451.104	501.56
451.324	491.56
451.545	494.56
451.766	467.56
451.986	458.56
452.207	468.56
452.428	452.56
452.648	480.56
452.869	447.56
453.089	471.56
453.31	484.56
453.53	470.56
453.751	471.56
453.971	449.56
454.192	475.56
454.412	469.56
454.633	450.56
454.853	472.56
455.073	448.56
455.294	475.56
455.514	546.56
455.734	526.56
455.955	470.56
456.175	453.56
456.395	450.56
456.616	458.56
456.836	436.56
457.056	447.56
457.276	424.56
457.497	448.56
457.717	465.56
457.937	470.56
458.157	437.56
458.377	473.56
458.598	487.56
458.818	488.56
459.038	562.56
459.258	613.56
459.478	555.56
459.698	544.56
459.918	523.56
460.138	491.56
460.358	522.56
460.578	507.56
460.798	520.56
461.018	516.56
461.238	523.56
461.458	520.56
461.678	510.56
461.898	519.56
462.118	516.56
462.338	516.56
462.558	548.56
462.777	534.56
462.997	555.56
463.217	548.56
463.437	583.56
463.657	558.56
463.876	546.56
464.096	553.56
464.316	555.56
464.536	545.56
464.755	572.56
464.975	552.56
465.195	568.56
465.414	626.56
465.634	575.56
465.854	538.56
466.073	526.56
466.293	506.56
466.512	504.56
466.732	481.56
466.951	475.56
467.171	487.56
467.391	487.56
467.61	503.56
467.829	487.56
468.049	492.56
468.268	483.56
468.488	471.56
468.707	478.56
468.927	490.56
469.146	475.56
469.365	482.56
469.585	470.56
469.804	495.56
470.023	512.56
470.243	486.56
470.462	470.56
470.681	499.56
470.901	490.56
471.12	470.56
471.339	484.56
471.558	476.56
471.777	482.56
471.997	475.56
472.216	500.56
472.435	492.56
472.654	510.56
472.873	499.56
473.092	519.56
473.311	502.56
473.53	482.56
473.749	515.56
473.968	542.56
474.187	605.56
474.406	618.56
474.625	520.56
474.844	499.56
475.063	475.56
475.282	480.56
475.501	505.56
475.72	510.56
475.939	500.56
476.158	494.56
476.377	488.56
476.596	520.56
476.814	510.56
477.033	523.56
477.252	519.56
477.471	526.56
477.69	517.56
477.908	523.56
478.127	530.56
478.346	542.56
478.564	570.56
478.783	558.56
479.002	539.56
479.22	548.56
479.439	571.56
479.658	589.56
479.876	578.56
480.095	591.56
480.313	610.56
480.532	582.56
480.751	611.56
480.969	626.56
481.188	661.56
481.406	654.56
481.624	606.56
481.843	590.56
482.061	578.56
482.28	592.56
482.498	582.56
482.717	576.56
482.935	571.56
483.153	578.56
483.372	567.56
483.59	565.56
483.808	601.56
484.027	578.56
484.245	579.56
484.463	574.56
484.681	587.56
484.9	575.56
485.118	593.56
485.336	596.56
485.554	582.56
485.772	589.56
485.99	576.56
486.209	581.56
486.427	596.56
486.645	595.56
486.863	610.56
487.081	593.56
487.299	593.56
487.517	620.56
487.735	596.56
487.953	595.56
488.171	619.56
488.389	587.56
488.607	610.56
488.825	605.56
489.043	615.56
489.261	610.56
489.479	638.56
489.696	626.56
489.914	592.56
490.132	629.56
490.35	631.56
490.568	651.56
490.786	651.56
491.003	648.56
491.221	667.56
491.439	673.56
491.657	665.56
491.874	680.56
492.092	666.56
492.31	669.56
492.527	644.56
492.745	679.56
492.963	691.56
493.18	671.56
493.398	687.56
493.615	696.56
493.833	700.56
494.05	713.56
494.268	693.56
494.485	678.56
494.703	702.56
494.92	679.56
495.138	679.56
495.355	713.56
495.573	698.56
495.79	708.56
496.008	690.56
496.225	707.56
496.442	713.56
496.66	693.56
496.877	726.56
497.094	735.56
497.312	727.56
497.529	720.56
497.746	756.56
497.963	800.56
498.181	755.56
498.398	784.56
498.615	798.56
498.832	847.56
499.049	838.56
499.267	866.56
499.484	922.56
499.701	950.56
499.918	923.56
500.135	999.56
500.352	1034.56
500.569	1046.56
500.786	1064.56
501.003	1044.56
501.22	1015.56
501.437	1006.56
501.654	963.56
501.871	915.56
