Data from 1978.PennyLincolnUp.Lamp.En5.5.200Scan.071719.P1_HRD10591_16-13-04-863.txt Node
Date: Thu Jul 18 16:13:04 EDT 2019
User: cochatt
Spectrometer: HR+D1059
Trigger mode: 1
Integration Time (sec): 1.000000E-1
Scans to average: 1
Electric dark correction enabled: true
Nonlinearity correction enabled: false
Boxcar width: 0
XAxis mode: Wavelengths
Number of Pixels in Spectrum: 2048
>>>>>Begin Spectral Data<<<<<
223.165	-14.38
223.4	-14.38
223.635	-14.38
223.869	-15.38
224.104	-16.38
224.338	1.62
224.573	-20.38
224.808	-20.38
225.042	2.62
225.277	-9.38
225.511	11.62
225.746	1.62
225.98	7.62
226.215	-10.38
226.449	8.62
226.683	13.62
226.918	35.62
227.152	23.62
227.387	32.62
227.621	41.62
227.856	33.62
228.09	45.62
228.324	50.62
228.559	49.62
228.793	59.62
229.027	91.62
229.262	95.62
229.496	120.62
229.73	115.62
229.964	144.62
230.199	130.62
230.433	103.62
230.667	125.62
230.901	107.62
231.136	106.62
231.37	120.62
231.604	114.62
231.838	111.62
232.072	117.62
232.306	108.62
232.541	115.62
232.775	114.62
233.009	120.62
233.243	132.62
233.477	117.62
233.711	107.62
233.945	116.62
234.179	122.62
234.413	132.62
234.647	127.62
234.881	110.62
235.115	102.62
235.349	114.62
235.583	113.62
235.817	117.62
236.051	123.62
236.285	120.62
236.519	132.62
236.753	136.62
236.987	125.62
237.221	169.62
237.455	214.62
237.689	179.62
237.922	141.62
238.156	139.62
238.39	130.62
238.624	130.62
238.858	127.62
239.091	114.62
239.325	124.62
239.559	136.62
239.793	134.62
240.027	129.62
240.26	148.62
240.494	158.62
240.728	150.62
240.961	150.62
241.195	141.62
241.429	149.62
241.662	131.62
241.896	129.62
242.13	139.62
242.363	141.62
242.597	123.62
242.83	144.62
243.064	147.62
243.298	141.62
243.531	140.62
243.765	129.62
243.998	130.62
244.232	130.62
244.465	110.62
244.699	153.62
244.932	133.62
245.166	142.62
245.399	137.62
245.633	150.62
245.866	153.62
246.099	137.62
246.333	150.62
246.566	149.62
246.8	159.62
247.033	144.62
247.266	151.62
247.5	148.62
247.733	160.62
247.966	164.62
248.2	164.62
248.433	163.62
248.666	166.62
248.899	163.62
249.133	169.62
249.366	199.62
249.599	194.62
249.832	159.62
250.066	187.62
250.299	170.62
250.532	190.62
250.765	206.62
250.998	205.62
251.231	210.62
251.465	189.62
251.698	200.62
251.931	184.62
252.164	188.62
252.397	180.62
252.63	190.62
252.863	188.62
253.096	197.62
253.329	199.62
253.562	205.62
253.795	205.62
254.028	211.62
254.261	205.62
254.494	204.62
254.727	222.62
254.96	262.62
255.193	238.62
255.426	231.62
255.659	226.62
255.892	230.62
256.124	218.62
256.357	215.62
256.59	218.62
256.823	198.62
257.056	204.62
257.289	216.62
257.521	200.62
257.754	206.62
257.987	186.62
258.22	201.62
258.452	203.62
258.685	192.62
258.918	196.62
259.151	201.62
259.383	199.62
259.616	201.62
259.849	209.62
260.081	218.62
260.314	221.62
260.547	257.62
260.779	236.62
261.012	208.62
261.244	219.62
261.477	205.62
261.71	205.62
261.942	207.62
262.175	220.62
262.407	210.62
262.64	214.62
262.872	211.62
263.105	188.62
263.337	207.62
263.57	196.62
263.802	199.62
264.035	224.62
264.267	196.62
264.499	190.62
264.732	197.62
264.964	191.62
265.197	196.62
265.429	198.62
265.661	209.62
265.894	206.62
266.126	219.62
266.358	209.62
266.591	193.62
266.823	219.62
267.055	216.62
267.287	214.62
267.52	254.62
267.752	213.62
267.984	217.62
268.216	234.62
268.448	222.62
268.681	229.62
268.913	219.62
269.145	252.62
269.377	250.62
269.609	264.62
269.841	254.62
270.073	249.62
270.306	249.62
270.538	278.62
270.77	294.62
271.002	255.62
271.234	243.62
271.466	285.62
271.698	285.62
271.93	293.62
272.162	299.62
272.394	308.62
272.626	288.62
272.858	270.62
273.09	261.62
273.322	259.62
273.553	249.62
273.785	245.62
274.017	238.62
274.249	241.62
274.481	253.62
274.713	241.62
274.945	254.62
275.176	247.62
275.408	260.62
275.64	265.62
275.872	265.62
276.104	242.62
276.335	261.62
276.567	238.62
276.799	264.62
277.031	299.62
277.262	310.62
277.494	301.62
277.726	288.62
277.957	275.62
278.189	281.62
278.421	253.62
278.652	259.62
278.884	265.62
279.115	266.62
279.347	252.62
279.579	261.62
279.81	259.62
280.042	255.62
280.273	233.62
280.505	262.62
280.736	255.62
280.968	250.62
281.199	264.62
281.431	282.62
281.662	276.62
281.894	270.62
282.125	275.62
282.356	294.62
282.588	279.62
282.819	301.62
283.051	273.62
283.282	268.62
283.513	276.62
283.745	280.62
283.976	267.62
284.207	259.62
284.439	282.62
284.67	276.62
284.901	260.62
285.132	281.62
285.364	272.62
285.595	291.62
285.826	278.62
286.057	270.62
286.288	270.62
286.52	276.62
286.751	276.62
286.982	273.62
287.213	277.62
287.444	289.62
287.675	270.62
287.906	268.62
288.138	293.62
288.369	299.62
288.6	275.62
288.831	294.62
289.062	283.62
289.293	267.62
289.524	286.62
289.755	281.62
289.986	306.62
290.217	269.62
290.448	270.62
290.679	267.62
290.91	277.62
291.141	286.62
291.371	285.62
291.602	283.62
291.833	282.62
292.064	289.62
292.295	297.62
292.526	292.62
292.757	277.62
292.987	288.62
293.218	270.62
293.449	299.62
293.68	295.62
293.91	288.62
294.141	291.62
294.372	275.62
294.603	289.62
294.833	294.62
295.064	294.62
295.295	293.62
295.525	293.62
295.756	286.62
295.987	306.62
296.217	307.62
296.448	312.62
296.679	293.62
296.909	299.62
297.14	297.62
297.37	320.62
297.601	307.62
297.831	295.62
298.062	305.62
298.292	292.62
298.523	300.62
298.753	292.62
298.984	291.62
299.214	320.62
299.445	304.62
299.675	301.62
299.905	309.62
300.136	299.62
300.366	309.62
300.597	322.62
300.827	329.62
301.057	300.62
301.288	327.62
301.518	323.62
301.748	331.62
301.979	329.62
302.209	324.62
302.439	310.62
302.669	313.62
302.9	307.62
303.13	317.62
303.36	327.62
303.59	344.62
303.82	323.62
304.051	343.62
304.281	318.62
304.511	301.62
304.741	323.62
304.971	321.62
305.201	310.62
305.431	315.62
305.661	312.62
305.891	333.62
306.121	333.62
306.352	333.62
306.582	332.62
306.812	324.62
307.042	311.62
307.272	344.62
307.502	328.62
307.731	348.62
307.961	341.62
308.191	334.62
308.421	340.62
308.651	339.62
308.881	318.62
309.111	350.62
309.341	346.62
309.571	329.62
309.8	355.62
310.03	359.62
310.26	360.62
310.49	362.62
310.72	366.62
310.949	387.62
311.179	374.62
311.409	349.62
311.639	352.62
311.868	366.62
312.098	342.62
312.328	378.62
312.557	389.62
312.787	384.62
313.017	390.62
313.246	367.62
313.476	365.62
313.706	361.62
313.935	370.62
314.165	390.62
314.394	407.62
314.624	384.62
314.853	366.62
315.083	375.62
315.312	353.62
315.542	363.62
315.771	358.62
316.001	374.62
316.23	343.62
316.46	377.62
316.689	366.62
316.919	374.62
317.148	389.62
317.377	381.62
317.607	378.62
317.836	370.62
318.065	376.62
318.295	371.62
318.524	370.62
318.753	371.62
318.983	366.62
319.212	374.62
319.441	385.62
319.67	397.62
319.9	381.62
320.129	361.62
320.358	370.62
320.587	382.62
320.816	395.62
321.046	396.62
321.275	355.62
321.504	389.62
321.733	396.62
321.962	397.62
322.191	425.62
322.42	419.62
322.649	417.62
322.878	423.62
323.108	466.62
323.337	458.62
323.566	472.62
323.795	518.62
324.024	561.62
324.253	651.62
324.482	918.62
324.71	1455.62
324.939	2232.62
325.168	1933.62
325.397	943.62
325.626	630.62
325.855	545.62
326.084	499.62
326.313	478.62
326.542	495.62
326.77	540.62
326.999	633.62
327.228	845.62
327.457	1326.62
327.686	1685.62
327.914	1061.62
328.143	689.62
328.372	588.62
328.6	581.62
328.829	531.62
329.058	513.62
329.287	555.62
329.515	521.62
329.744	485.62
329.972	474.62
330.201	517.62
330.43	535.62
330.658	563.62
330.887	583.62
331.115	577.62
331.344	488.62
331.572	493.62
331.801	481.62
332.03	491.62
332.258	476.62
332.486	443.62
332.715	455.62
332.943	449.62
333.172	463.62
333.4	437.62
333.629	466.62
333.857	461.62
334.085	494.62
334.314	513.62
334.542	490.62
334.771	536.62
334.999	474.62
335.227	483.62
335.455	461.62
335.684	482.62
335.912	461.62
336.14	459.62
336.369	459.62
336.597	474.62
336.825	463.62
337.053	430.62
337.281	430.62
337.51	463.62
337.738	466.62
337.966	425.62
338.194	454.62
338.422	431.62
338.65	439.62
338.878	421.62
339.106	439.62
339.334	427.62
339.562	428.62
339.79	421.62
340.018	442.62
340.246	441.62
340.474	419.62
340.702	437.62
340.93	428.62
341.158	428.62
341.386	425.62
341.614	429.62
341.842	424.62
342.07	436.62
342.298	418.62
342.526	427.62
342.754	429.62
342.981	420.62
343.209	426.62
343.437	438.62
343.665	416.62
343.893	452.62
344.12	431.62
344.348	431.62
344.576	466.62
344.804	462.62
345.031	420.62
345.259	455.62
345.487	457.62
345.714	452.62
345.942	426.62
346.17	435.62
346.397	409.62
346.625	424.62
346.853	430.62
347.08	413.62
347.308	419.62
347.535	424.62
347.763	439.62
347.99	401.62
348.218	426.62
348.445	443.62
348.673	438.62
348.9	442.62
349.128	422.62
349.355	406.62
349.583	430.62
349.81	424.62
350.037	410.62
350.265	406.62
350.492	418.62
350.72	404.62
350.947	435.62
351.174	421.62
351.402	438.62
351.629	423.62
351.856	433.62
352.083	425.62
352.311	439.62
352.538	424.62
352.765	419.62
352.992	432.62
353.22	426.62
353.447	414.62
353.674	409.62
353.901	406.62
354.128	400.62
354.355	382.62
354.583	424.62
354.81	402.62
355.037	400.62
355.264	385.62
355.491	390.62
355.718	391.62
355.945	387.62
356.172	382.62
356.399	401.62
356.626	388.62
356.853	400.62
357.08	398.62
357.307	399.62
357.534	396.62
357.761	402.62
357.988	397.62
358.215	413.62
358.441	429.62
358.668	385.62
358.895	412.62
359.122	408.62
359.349	415.62
359.576	420.62
359.802	425.62
360.029	444.62
360.256	497.62
360.483	437.62
360.709	406.62
360.936	420.62
361.163	428.62
361.39	444.62
361.616	406.62
361.843	439.62
362.07	404.62
362.296	412.62
362.523	418.62
362.749	433.62
362.976	431.62
363.203	422.62
363.429	401.62
363.656	400.62
363.882	400.62
364.109	428.62
364.335	401.62
364.562	417.62
364.788	422.62
365.015	414.62
365.241	413.62
365.468	425.62
365.694	402.62
365.92	411.62
366.147	414.62
366.373	406.62
366.599	408.62
366.826	405.62
367.052	428.62
367.278	414.62
367.505	428.62
367.731	417.62
367.957	413.62
368.184	393.62
368.41	416.62
368.636	435.62
368.862	425.62
369.089	448.62
369.315	426.62
369.541	420.62
369.767	411.62
369.993	413.62
370.219	399.62
370.445	423.62
370.672	410.62
370.898	411.62
371.124	393.62
371.35	407.62
371.576	419.62
371.802	412.62
372.028	411.62
372.254	389.62
372.48	407.62
372.706	412.62
372.932	416.62
373.158	419.62
373.384	414.62
373.61	444.62
373.835	429.62
374.061	419.62
374.287	434.62
374.513	414.62
374.739	421.62
374.965	451.62
375.191	407.62
375.416	419.62
375.642	431.62
375.868	441.62
376.094	403.62
376.319	417.62
376.545	425.62
376.771	417.62
376.997	412.62
377.222	405.62
377.448	430.62
377.674	415.62
377.899	444.62
378.125	401.62
378.35	412.62
378.576	411.62
378.802	385.62
379.027	424.62
379.253	417.62
379.478	423.62
379.704	430.62
379.929	443.62
380.155	422.62
380.38	422.62
380.606	415.62
380.831	423.62
381.057	417.62
381.282	399.62
381.507	413.62
381.733	427.62
381.958	419.62
382.184	439.62
382.409	431.62
382.634	443.62
382.86	415.62
383.085	440.62
383.31	443.62
383.535	445.62
383.761	448.62
383.986	444.62
384.211	450.62
384.436	440.62
384.662	467.62
384.887	459.62
385.112	439.62
385.337	459.62
385.562	465.62
385.787	455.62
386.013	473.62
386.238	470.62
386.463	489.62
386.688	462.62
386.913	474.62
387.138	452.62
387.363	459.62
387.588	472.62
387.813	461.62
388.038	466.62
388.263	474.62
388.488	501.62
388.713	468.62
388.938	481.62
389.163	473.62
389.387	476.62
389.612	478.62
389.837	468.62
390.062	467.62
390.287	471.62
390.512	468.62
390.736	467.62
390.961	476.62
391.186	482.62
391.411	483.62
391.636	481.62
391.86	501.62
392.085	487.62
392.31	482.62
392.534	464.62
392.759	499.62
392.984	498.62
393.208	476.62
393.433	492.62
393.658	488.62
393.882	494.62
394.107	475.62
394.331	474.62
394.556	462.62
394.78	476.62
395.005	467.62
395.229	515.62
395.454	488.62
395.678	464.62
395.903	511.62
396.127	508.62
396.352	532.62
396.576	510.62
396.801	499.62
397.025	479.62
397.249	506.62
397.474	519.62
397.698	491.62
397.922	542.62
398.147	523.62
398.371	538.62
398.595	548.62
398.82	532.62
399.044	540.62
399.268	583.62
399.492	605.62
399.717	632.62
399.941	647.62
400.165	653.62
400.389	696.62
400.613	629.62
400.837	608.62
401.062	602.62
401.286	552.62
401.51	565.62
401.734	575.62
401.958	569.62
402.182	555.62
402.406	551.62
402.63	559.62
402.854	573.62
403.078	556.62
403.302	563.62
403.526	587.62
403.75	567.62
403.974	551.62
404.198	591.62
404.422	594.62
404.645	569.62
404.869	586.62
405.093	615.62
405.317	643.62
405.541	700.62
405.765	619.62
405.988	603.62
406.212	616.62
406.436	612.62
406.66	623.62
406.883	620.62
407.107	623.62
407.331	704.62
407.555	768.62
407.778	742.62
408.002	701.62
408.226	655.62
408.449	631.62
408.673	612.62
408.896	645.62
409.12	702.62
409.344	671.62
409.567	611.62
409.791	588.62
410.014	566.62
410.238	570.62
410.461	596.62
410.685	600.62
410.908	605.62
411.132	615.62
411.355	664.62
411.578	643.62
411.802	590.62
412.025	571.62
412.249	589.62
412.472	618.62
412.695	647.62
412.919	634.62
413.142	600.62
413.365	557.62
413.589	559.62
413.812	559.62
414.035	547.62
414.258	542.62
414.482	548.62
414.705	564.62
414.928	543.62
415.151	541.62
415.374	533.62
415.597	557.62
415.821	536.62
416.044	551.62
416.267	551.62
416.49	542.62
416.713	537.62
416.936	540.62
417.159	531.62
417.382	539.62
417.605	550.62
417.828	532.62
418.051	543.62
418.274	561.62
418.497	551.62
418.72	534.62
418.943	542.62
419.166	552.62
419.389	550.62
419.611	578.62
419.834	583.62
420.057	566.62
420.28	575.62
420.503	565.62
420.726	571.62
420.948	580.62
421.171	609.62
421.394	637.62
421.617	579.62
421.839	535.62
422.062	571.62
422.285	599.62
422.507	629.62
422.73	744.62
422.953	691.62
423.175	606.62
423.398	596.62
423.621	570.62
423.843	609.62
424.066	594.62
424.288	614.62
424.511	607.62
424.733	661.62
424.956	782.62
425.178	723.62
425.401	721.62
425.623	731.62
425.846	641.62
426.068	609.62
426.291	591.62
426.513	591.62
426.735	608.62
426.958	622.62
427.18	725.62
427.402	879.62
427.625	980.62
427.847	831.62
428.069	715.62
428.292	638.62
428.514	608.62
428.736	589.62
428.958	575.62
429.181	560.62
429.403	567.62
429.625	544.62
429.847	604.62
430.069	650.62
430.292	680.62
430.514	574.62
430.736	550.62
430.958	531.62
431.18	533.62
431.402	524.62
431.624	525.62
431.846	531.62
432.068	522.62
432.29	525.62
432.512	521.62
432.734	554.62
432.956	543.62
433.178	533.62
433.4	545.62
433.622	547.62
433.844	529.62
434.066	520.62
434.287	528.62
434.509	535.62
434.731	573.62
434.953	558.62
435.175	566.62
435.397	588.62
435.618	614.62
435.84	645.62
436.062	741.62
436.284	847.62
436.505	684.62
436.727	622.62
436.949	574.62
437.17	548.62
437.392	554.62
437.614	566.62
437.835	587.62
438.057	696.62
438.278	802.62
438.5	820.62
438.721	891.62
438.943	869.62
439.165	653.62
439.386	591.62
439.608	613.62
439.829	610.62
440.05	635.62
440.272	679.62
440.493	630.62
440.715	582.62
440.936	579.62
441.158	557.62
441.379	586.62
441.6	587.62
441.822	606.62
442.043	637.62
442.264	720.62
442.486	793.62
442.707	660.62
442.928	610.62
443.149	633.62
443.371	641.62
443.592	679.62
443.813	795.62
444.034	885.62
444.255	726.62
444.476	627.62
444.698	637.62
444.919	610.62
445.14	744.62
445.361	665.62
445.582	647.62
445.803	725.62
446.024	819.62
446.245	823.62
446.466	758.62
446.687	649.62
446.908	615.62
447.129	582.62
447.35	583.62
447.571	554.62
447.792	546.62
448.013	562.62
448.234	586.62
448.455	611.62
448.675	756.62
448.896	911.62
449.117	742.62
449.338	685.62
449.559	796.62
449.779	932.62
450	751.62
450.221	600.62
450.442	551.62
450.662	533.62
450.883	533.62
451.104	555.62
451.324	557.62
451.545	526.62
451.766	520.62
451.986	491.62
452.207	468.62
452.428	479.62
452.648	490.62
452.869	513.62
453.089	499.62
453.31	535.62
453.53	509.62
453.751	485.62
453.971	490.62
454.192	487.62
454.412	503.62
454.633	500.62
454.853	504.62
455.073	501.62
455.294	512.62
455.514	598.62
455.734	580.62
455.955	501.62
456.175	491.62
456.395	482.62
456.616	474.62
456.836	485.62
457.056	470.62
457.276	470.62
457.497	477.62
457.717	469.62
457.937	488.62
458.157	501.62
458.377	494.62
458.598	550.62
458.818	573.62
459.038	637.62
459.258	670.62
459.478	581.62
459.698	533.62
459.918	549.62
460.138	527.62
460.358	558.62
460.578	551.62
460.798	557.62
461.018	555.62
461.238	548.62
461.458	558.62
461.678	546.62
461.898	561.62
462.118	564.62
462.338	563.62
462.558	570.62
462.777	589.62
462.997	597.62
463.217	605.62
463.437	587.62
463.657	598.62
463.876	612.62
464.096	600.62
464.316	608.62
464.536	579.62
464.755	613.62
464.975	580.62
465.195	607.62
465.414	646.62
465.634	582.62
465.854	586.62
466.073	570.62
466.293	530.62
466.512	545.62
466.732	503.62
466.951	513.62
467.171	522.62
467.391	560.62
467.61	529.62
467.829	531.62
468.049	531.62
468.268	521.62
468.488	508.62
468.707	524.62
468.927	510.62
469.146	500.62
469.365	502.62
469.585	486.62
469.804	516.62
470.023	528.62
470.243	505.62
470.462	545.62
470.681	553.62
470.901	526.62
471.12	509.62
471.339	529.62
471.558	528.62
471.777	521.62
471.997	509.62
472.216	549.62
472.435	545.62
472.654	561.62
472.873	535.62
473.092	515.62
473.311	513.62
473.53	542.62
473.749	509.62
473.968	587.62
474.187	656.62
474.406	701.62
474.625	565.62
474.844	530.62
475.063	522.62
475.282	536.62
475.501	527.62
475.72	552.62
475.939	553.62
476.158	553.62
476.377	527.62
476.596	563.62
476.814	536.62
477.033	581.62
477.252	562.62
477.471	559.62
477.69	565.62
477.908	577.62
478.127	589.62
478.346	577.62
478.564	587.62
478.783	585.62
479.002	578.62
479.22	580.62
479.439	607.62
479.658	630.62
479.876	632.62
480.095	638.62
480.313	658.62
480.532	652.62
480.751	651.62
480.969	661.62
481.188	687.62
481.406	716.62
481.624	664.62
481.843	641.62
482.061	621.62
482.28	617.62
482.498	602.62
482.717	606.62
482.935	610.62
483.153	606.62
483.372	618.62
483.59	610.62
483.808	586.62
484.027	611.62
484.245	630.62
484.463	605.62
484.681	621.62
484.9	604.62
485.118	645.62
485.336	623.62
485.554	630.62
485.772	639.62
485.99	650.62
486.209	636.62
486.427	628.62
486.645	646.62
486.863	641.62
487.081	663.62
487.299	646.62
487.517	631.62
487.735	647.62
487.953	656.62
488.171	651.62
488.389	655.62
488.607	675.62
488.825	641.62
489.043	642.62
489.261	652.62
489.479	665.62
489.696	654.62
489.914	641.62
490.132	667.62
490.35	692.62
490.568	684.62
490.786	683.62
491.003	679.62
491.221	698.62
491.439	697.62
491.657	719.62
491.874	717.62
492.092	735.62
492.31	726.62
492.527	742.62
492.745	745.62
492.963	769.62
493.18	722.62
493.398	751.62
493.615	769.62
493.833	748.62
494.05	763.62
494.268	740.62
494.485	746.62
494.703	749.62
494.92	738.62
495.138	797.62
495.355	788.62
495.573	763.62
495.79	791.62
496.008	773.62
496.225	773.62
496.442	791.62
496.66	789.62
496.877	786.62
497.094	787.62
497.312	777.62
497.529	783.62
497.746	804.62
497.963	825.62
498.181	860.62
498.398	849.62
498.615	858.62
498.832	899.62
499.049	907.62
499.267	931.62
499.484	961.62
499.701	998.62
499.918	1052.62
500.135	1049.62
500.352	1114.62
500.569	1147.62
500.786	1166.62
501.003	1122.62
501.22	1084.62
501.437	1053.62
501.654	1051.62
501.871	992.62
