Data from 1978.PennyLincolnUp.Lamp.En5.5.200Scan.071719.P1_HRD10591_16-11-57-866.txt Node
Date: Thu Jul 18 16:11:57 EDT 2019
User: cochatt
Spectrometer: HR+D1059
Trigger mode: 1
Integration Time (sec): 1.000000E-1
Scans to average: 1
Electric dark correction enabled: true
Nonlinearity correction enabled: false
Boxcar width: 0
XAxis mode: Wavelengths
Number of Pixels in Spectrum: 2048
>>>>>Begin Spectral Data<<<<<
223.165	-14.81
223.4	-14.81
223.635	-14.81
223.869	-9.81
224.104	-14.81
224.338	-6.81
224.573	-9.81
224.808	-11.81
225.042	-2.81
225.277	-9.81
225.511	-6.81
225.746	3.19
225.98	15.19
226.215	20.19
226.449	11.19
226.683	16.19
226.918	2.19
227.152	19.19
227.387	29.19
227.621	26.19
227.856	38.19
228.09	37.19
228.324	40.19
228.559	56.19
228.793	59.19
229.027	91.19
229.262	102.19
229.496	91.19
229.73	112.19
229.964	134.19
230.199	128.19
230.433	105.19
230.667	91.19
230.901	109.19
231.136	112.19
231.37	109.19
231.604	107.19
231.838	97.19
232.072	99.19
232.306	101.19
232.541	127.19
232.775	102.19
233.009	118.19
233.243	96.19
233.477	102.19
233.711	120.19
233.945	113.19
234.179	102.19
234.413	90.19
234.647	94.19
234.881	112.19
235.115	109.19
235.349	107.19
235.583	118.19
235.817	104.19
236.051	109.19
236.285	100.19
236.519	122.19
236.753	122.19
236.987	139.19
237.221	151.19
237.455	196.19
237.689	142.19
237.922	124.19
238.156	139.19
238.39	119.19
238.624	113.19
238.858	128.19
239.091	118.19
239.325	117.19
239.559	116.19
239.793	108.19
240.027	120.19
240.26	131.19
240.494	142.19
240.728	145.19
240.961	124.19
241.195	130.19
241.429	134.19
241.662	130.19
241.896	115.19
242.13	111.19
242.363	91.19
242.597	119.19
242.83	130.19
243.064	128.19
243.298	118.19
243.531	120.19
243.765	125.19
243.998	131.19
244.232	122.19
244.465	132.19
244.699	134.19
244.932	132.19
245.166	121.19
245.399	137.19
245.633	130.19
245.866	137.19
246.099	125.19
246.333	133.19
246.566	135.19
246.8	131.19
247.033	132.19
247.266	142.19
247.5	158.19
247.733	164.19
247.966	150.19
248.2	141.19
248.433	158.19
248.666	157.19
248.899	164.19
249.133	171.19
249.366	174.19
249.599	164.19
249.832	160.19
250.066	169.19
250.299	167.19
250.532	171.19
250.765	180.19
250.998	176.19
251.231	180.19
251.465	171.19
251.698	173.19
251.931	174.19
252.164	181.19
252.397	170.19
252.63	179.19
252.863	167.19
253.096	177.19
253.329	178.19
253.562	180.19
253.795	201.19
254.028	199.19
254.261	165.19
254.494	180.19
254.727	194.19
254.96	232.19
255.193	215.19
255.426	203.19
255.659	202.19
255.892	202.19
256.124	182.19
256.357	179.19
256.59	184.19
256.823	169.19
257.056	157.19
257.289	182.19
257.521	180.19
257.754	185.19
257.987	173.19
258.22	169.19
258.452	184.19
258.685	186.19
258.918	169.19
259.151	192.19
259.383	180.19
259.616	176.19
259.849	192.19
260.081	203.19
260.314	195.19
260.547	210.19
260.779	208.19
261.012	203.19
261.244	192.19
261.477	188.19
261.71	201.19
261.942	195.19
262.175	189.19
262.407	187.19
262.64	186.19
262.872	202.19
263.105	192.19
263.337	203.19
263.57	179.19
263.802	187.19
264.035	182.19
264.267	187.19
264.499	202.19
264.732	189.19
264.964	189.19
265.197	197.19
265.429	196.19
265.661	177.19
265.894	189.19
266.126	195.19
266.358	204.19
266.591	192.19
266.823	197.19
267.055	194.19
267.287	192.19
267.52	216.19
267.752	192.19
267.984	206.19
268.216	200.19
268.448	195.19
268.681	199.19
268.913	206.19
269.145	211.19
269.377	210.19
269.609	236.19
269.841	224.19
270.073	234.19
270.306	238.19
270.538	250.19
270.77	262.19
271.002	243.19
271.234	228.19
271.466	237.19
271.698	229.19
271.93	252.19
272.162	250.19
272.394	228.19
272.626	240.19
272.858	240.19
273.09	234.19
273.322	240.19
273.553	220.19
273.785	230.19
274.017	220.19
274.249	233.19
274.481	222.19
274.713	231.19
274.945	236.19
275.176	248.19
275.408	218.19
275.64	237.19
275.872	220.19
276.104	249.19
276.335	241.19
276.567	217.19
276.799	232.19
277.031	264.19
277.262	270.19
277.494	258.19
277.726	256.19
277.957	250.19
278.189	238.19
278.421	244.19
278.652	238.19
278.884	244.19
279.115	223.19
279.347	233.19
279.579	237.19
279.81	252.19
280.042	234.19
280.273	248.19
280.505	231.19
280.736	237.19
280.968	249.19
281.199	240.19
281.431	251.19
281.662	249.19
281.894	237.19
282.125	244.19
282.356	256.19
282.588	263.19
282.819	285.19
283.051	249.19
283.282	238.19
283.513	262.19
283.745	254.19
283.976	249.19
284.207	258.19
284.439	250.19
284.67	246.19
284.901	254.19
285.132	248.19
285.364	241.19
285.595	258.19
285.826	237.19
286.057	264.19
286.288	258.19
286.52	238.19
286.751	250.19
286.982	253.19
287.213	259.19
287.444	253.19
287.675	256.19
287.906	272.19
288.138	262.19
288.369	276.19
288.6	267.19
288.831	244.19
289.062	266.19
289.293	265.19
289.524	256.19
289.755	257.19
289.986	256.19
290.217	250.19
290.448	277.19
290.679	262.19
290.91	276.19
291.141	254.19
291.371	252.19
291.602	279.19
291.833	250.19
292.064	260.19
292.295	269.19
292.526	269.19
292.757	257.19
292.987	281.19
293.218	276.19
293.449	266.19
293.68	240.19
293.91	261.19
294.141	270.19
294.372	271.19
294.603	277.19
294.833	286.19
295.064	281.19
295.295	286.19
295.525	262.19
295.756	273.19
295.987	265.19
296.217	278.19
296.448	286.19
296.679	269.19
296.909	273.19
297.14	267.19
297.37	265.19
297.601	280.19
297.831	276.19
298.062	268.19
298.292	282.19
298.523	288.19
298.753	278.19
298.984	258.19
299.214	278.19
299.445	275.19
299.675	283.19
299.905	275.19
300.136	265.19
300.366	284.19
300.597	287.19
300.827	284.19
301.057	298.19
301.288	298.19
301.518	282.19
301.748	292.19
301.979	302.19
302.209	299.19
302.439	291.19
302.669	306.19
302.9	308.19
303.13	285.19
303.36	286.19
303.59	302.19
303.82	304.19
304.051	308.19
304.281	298.19
304.511	296.19
304.741	307.19
304.971	278.19
305.201	288.19
305.431	292.19
305.661	289.19
305.891	299.19
306.121	316.19
306.352	314.19
306.582	322.19
306.812	280.19
307.042	300.19
307.272	308.19
307.502	307.19
307.731	305.19
307.961	304.19
308.191	311.19
308.421	312.19
308.651	290.19
308.881	288.19
309.111	307.19
309.341	311.19
309.571	323.19
309.8	307.19
310.03	313.19
310.26	325.19
310.49	313.19
310.72	329.19
310.949	346.19
311.179	347.19
311.409	338.19
311.639	337.19
311.868	330.19
312.098	345.19
312.328	324.19
312.557	336.19
312.787	348.19
313.017	346.19
313.246	362.19
313.476	332.19
313.706	346.19
313.935	340.19
314.165	364.19
314.394	350.19
314.624	379.19
314.853	369.19
315.083	326.19
315.312	340.19
315.542	321.19
315.771	333.19
316.001	330.19
316.23	344.19
316.46	345.19
316.689	345.19
316.919	347.19
317.148	325.19
317.377	336.19
317.607	338.19
317.836	352.19
318.065	337.19
318.295	345.19
318.524	338.19
318.753	315.19
318.983	336.19
319.212	347.19
319.441	350.19
319.67	345.19
319.9	327.19
320.129	324.19
320.358	357.19
320.587	344.19
320.816	368.19
321.046	361.19
321.275	363.19
321.504	368.19
321.733	355.19
321.962	356.19
322.191	361.19
322.42	387.19
322.649	379.19
322.878	396.19
323.108	375.19
323.337	391.19
323.566	421.19
323.795	426.19
324.024	455.19
324.253	550.19
324.482	730.19
324.71	1136.19
324.939	1698.19
325.168	1475.19
325.397	724.19
325.626	520.19
325.855	449.19
326.084	431.19
326.313	443.19
326.542	413.19
326.77	456.19
326.999	518.19
327.228	686.19
327.457	1016.19
327.686	1256.19
327.914	833.19
328.143	565.19
328.372	494.19
328.6	478.19
328.829	444.19
329.058	458.19
329.287	463.19
329.515	447.19
329.744	438.19
329.972	418.19
330.201	448.19
330.43	460.19
330.658	480.19
330.887	499.19
331.115	489.19
331.344	447.19
331.572	427.19
331.801	425.19
332.03	446.19
332.258	417.19
332.486	391.19
332.715	404.19
332.943	411.19
333.172	405.19
333.4	427.19
333.629	419.19
333.857	421.19
334.085	441.19
334.314	435.19
334.542	448.19
334.771	461.19
334.999	445.19
335.227	421.19
335.455	438.19
335.684	409.19
335.912	410.19
336.14	419.19
336.369	411.19
336.597	424.19
336.825	432.19
337.053	413.19
337.281	411.19
337.51	412.19
337.738	413.19
337.966	402.19
338.194	391.19
338.422	413.19
338.65	406.19
338.878	395.19
339.106	403.19
339.334	401.19
339.562	395.19
339.79	391.19
340.018	393.19
340.246	402.19
340.474	390.19
340.702	389.19
340.93	388.19
341.158	378.19
341.386	384.19
341.614	401.19
341.842	388.19
342.07	402.19
342.298	413.19
342.526	380.19
342.754	395.19
342.981	405.19
343.209	390.19
343.437	387.19
343.665	394.19
343.893	416.19
344.12	432.19
344.348	435.19
344.576	403.19
344.804	420.19
345.031	432.19
345.259	418.19
345.487	402.19
345.714	399.19
345.942	388.19
346.17	379.19
346.397	397.19
346.625	381.19
346.853	398.19
347.08	393.19
347.308	354.19
347.535	395.19
347.763	391.19
347.99	398.19
348.218	402.19
348.445	392.19
348.673	393.19
348.9	388.19
349.128	381.19
349.355	376.19
349.583	393.19
349.81	399.19
350.037	387.19
350.265	381.19
350.492	382.19
350.72	397.19
350.947	382.19
351.174	391.19
351.402	402.19
351.629	402.19
351.856	383.19
352.083	408.19
352.311	396.19
352.538	419.19
352.765	361.19
352.992	389.19
353.22	378.19
353.447	381.19
353.674	393.19
353.901	373.19
354.128	379.19
354.355	386.19
354.583	382.19
354.81	364.19
355.037	357.19
355.264	373.19
355.491	351.19
355.718	357.19
355.945	381.19
356.172	368.19
356.399	379.19
356.626	363.19
356.853	358.19
357.08	378.19
357.307	369.19
357.534	371.19
357.761	370.19
357.988	364.19
358.215	384.19
358.441	389.19
358.668	371.19
358.895	374.19
359.122	388.19
359.349	388.19
359.576	387.19
359.802	412.19
360.029	432.19
360.256	424.19
360.483	437.19
360.709	387.19
360.936	409.19
361.163	392.19
361.39	381.19
361.616	379.19
361.843	373.19
362.07	395.19
362.296	393.19
362.523	393.19
362.749	382.19
362.976	384.19
363.203	388.19
363.429	361.19
363.656	376.19
363.882	392.19
364.109	401.19
364.335	382.19
364.562	378.19
364.788	361.19
365.015	368.19
365.241	388.19
365.468	385.19
365.694	370.19
365.92	394.19
366.147	380.19
366.373	376.19
366.599	393.19
366.826	380.19
367.052	365.19
367.278	372.19
367.505	392.19
367.731	372.19
367.957	376.19
368.184	376.19
368.41	383.19
368.636	403.19
368.862	402.19
369.089	398.19
369.315	379.19
369.541	425.19
369.767	391.19
369.993	403.19
370.219	403.19
370.445	408.19
370.672	378.19
370.898	384.19
371.124	398.19
371.35	381.19
371.576	383.19
371.802	404.19
372.028	401.19
372.254	399.19
372.48	405.19
372.706	396.19
372.932	397.19
373.158	408.19
373.384	389.19
373.61	397.19
373.835	417.19
374.061	388.19
374.287	406.19
374.513	410.19
374.739	398.19
374.965	403.19
375.191	410.19
375.416	405.19
375.642	410.19
375.868	404.19
376.094	417.19
376.319	393.19
376.545	389.19
376.771	404.19
376.997	403.19
377.222	396.19
377.448	388.19
377.674	407.19
377.899	386.19
378.125	398.19
378.35	388.19
378.576	383.19
378.802	397.19
379.027	386.19
379.253	386.19
379.478	394.19
379.704	398.19
379.929	386.19
380.155	396.19
380.38	394.19
380.606	388.19
380.831	421.19
381.057	382.19
381.282	416.19
381.507	391.19
381.733	405.19
381.958	397.19
382.184	400.19
382.409	405.19
382.634	408.19
382.86	414.19
383.085	406.19
383.31	427.19
383.535	413.19
383.761	394.19
383.986	413.19
384.211	421.19
384.436	429.19
384.662	413.19
384.887	419.19
385.112	419.19
385.337	428.19
385.562	429.19
385.787	458.19
386.013	459.19
386.238	445.19
386.463	419.19
386.688	441.19
386.913	442.19
387.138	460.19
387.363	440.19
387.588	434.19
387.813	435.19
388.038	441.19
388.263	467.19
388.488	458.19
388.713	429.19
388.938	453.19
389.163	448.19
389.387	436.19
389.612	451.19
389.837	435.19
390.062	449.19
390.287	457.19
390.512	445.19
390.736	454.19
390.961	445.19
391.186	454.19
391.411	450.19
391.636	440.19
391.86	462.19
392.085	462.19
392.31	496.19
392.534	458.19
392.759	451.19
392.984	459.19
393.208	435.19
393.433	476.19
393.658	485.19
393.882	467.19
394.107	459.19
394.331	456.19
394.556	447.19
394.78	458.19
395.005	455.19
395.229	462.19
395.454	476.19
395.678	483.19
395.903	467.19
396.127	468.19
396.352	494.19
396.576	461.19
396.801	474.19
397.025	470.19
397.249	485.19
397.474	468.19
397.698	472.19
397.922	500.19
398.147	508.19
398.371	505.19
398.595	511.19
398.82	506.19
399.044	514.19
399.268	560.19
399.492	568.19
399.717	584.19
399.941	609.19
400.165	633.19
400.389	636.19
400.613	585.19
400.837	560.19
401.062	552.19
401.286	521.19
401.51	533.19
401.734	508.19
401.958	493.19
402.182	520.19
402.406	509.19
402.63	536.19
402.854	539.19
403.078	530.19
403.302	529.19
403.526	518.19
403.75	513.19
403.974	506.19
404.198	516.19
404.422	509.19
404.645	550.19
404.869	541.19
405.093	566.19
405.317	597.19
405.541	631.19
405.765	577.19
405.988	582.19
406.212	565.19
406.436	561.19
406.66	566.19
406.883	569.19
407.107	605.19
407.331	652.19
407.555	679.19
407.778	678.19
408.002	657.19
408.226	619.19
408.449	600.19
408.673	575.19
408.896	602.19
409.12	657.19
409.344	603.19
409.567	602.19
409.791	565.19
410.014	560.19
410.238	545.19
410.461	542.19
410.685	562.19
410.908	560.19
411.132	578.19
411.355	620.19
411.578	602.19
411.802	551.19
412.025	533.19
412.249	561.19
412.472	588.19
412.695	600.19
412.919	598.19
413.142	550.19
413.365	523.19
413.589	530.19
413.812	534.19
414.035	539.19
414.258	503.19
414.482	528.19
414.705	520.19
414.928	517.19
415.151	520.19
415.374	521.19
415.597	486.19
415.821	500.19
416.044	522.19
416.267	514.19
416.49	508.19
416.713	508.19
416.936	514.19
417.159	509.19
417.382	517.19
417.605	511.19
417.828	509.19
418.051	518.19
418.274	530.19
418.497	525.19
418.72	526.19
418.943	504.19
419.166	526.19
419.389	560.19
419.611	544.19
419.834	529.19
420.057	547.19
420.28	505.19
420.503	512.19
420.726	555.19
420.948	551.19
421.171	563.19
421.394	573.19
421.617	537.19
421.839	507.19
422.062	510.19
422.285	528.19
422.507	609.19
422.73	648.19
422.953	600.19
423.175	563.19
423.398	554.19
423.621	539.19
423.843	562.19
424.066	568.19
424.288	554.19
424.511	560.19
424.733	613.19
424.956	681.19
425.178	655.19
425.401	662.19
425.623	678.19
425.846	590.19
426.068	553.19
426.291	522.19
426.513	537.19
426.735	553.19
426.958	581.19
427.18	640.19
427.402	772.19
427.625	875.19
427.847	748.19
428.069	651.19
428.292	583.19
428.514	525.19
428.736	515.19
428.958	522.19
429.181	488.19
429.403	508.19
429.625	538.19
429.847	538.19
430.069	592.19
430.292	609.19
430.514	548.19
430.736	491.19
430.958	496.19
431.18	482.19
431.402	478.19
431.624	487.19
431.846	499.19
432.068	478.19
432.29	524.19
432.512	514.19
432.734	480.19
432.956	506.19
433.178	516.19
433.4	509.19
433.622	481.19
433.844	512.19
434.066	520.19
434.287	497.19
434.509	491.19
434.731	521.19
434.953	510.19
435.175	533.19
435.397	547.19
435.618	534.19
435.84	597.19
436.062	669.19
436.284	722.19
436.505	600.19
436.727	556.19
436.949	549.19
437.17	517.19
437.392	536.19
437.614	520.19
437.835	555.19
438.057	624.19
438.278	713.19
438.5	706.19
438.721	792.19
438.943	759.19
439.165	609.19
439.386	556.19
439.608	536.19
439.829	530.19
440.05	567.19
440.272	598.19
440.493	574.19
440.715	534.19
440.936	522.19
441.158	519.19
441.379	519.19
441.6	513.19
441.822	529.19
442.043	578.19
442.264	632.19
442.486	684.19
442.707	601.19
442.928	580.19
443.149	582.19
443.371	571.19
443.592	630.19
443.813	688.19
444.034	752.19
444.255	626.19
444.476	578.19
444.698	557.19
444.919	576.19
445.14	681.19
445.361	631.19
445.582	582.19
445.803	631.19
446.024	733.19
446.245	734.19
446.466	649.19
446.687	583.19
446.908	548.19
447.129	534.19
447.35	507.19
447.571	507.19
447.792	478.19
448.013	523.19
448.234	507.19
448.455	564.19
448.675	656.19
448.896	762.19
449.117	642.19
449.338	593.19
449.559	707.19
449.779	804.19
450	649.19
450.221	553.19
450.442	530.19
450.662	496.19
450.883	496.19
451.104	499.19
451.324	503.19
451.545	478.19
451.766	448.19
451.986	478.19
452.207	451.19
452.428	463.19
452.648	477.19
452.869	447.19
453.089	452.19
453.31	460.19
453.53	466.19
453.751	441.19
453.971	455.19
454.192	456.19
454.412	466.19
454.633	471.19
454.853	440.19
455.073	488.19
455.294	477.19
455.514	515.19
455.734	517.19
455.955	465.19
456.175	458.19
456.395	457.19
456.616	436.19
456.836	430.19
457.056	452.19
457.276	419.19
457.497	436.19
457.717	443.19
457.937	450.19
458.157	463.19
458.377	456.19
458.598	473.19
458.818	513.19
459.038	576.19
459.258	595.19
459.478	532.19
459.698	499.19
459.918	489.19
460.138	496.19
460.358	497.19
460.578	506.19
460.798	557.19
461.018	523.19
461.238	525.19
461.458	526.19
461.678	514.19
461.898	550.19
462.118	537.19
462.338	529.19
462.558	549.19
462.777	546.19
462.997	566.19
463.217	587.19
463.437	576.19
463.657	580.19
463.876	567.19
464.096	569.19
464.316	574.19
464.536	585.19
464.755	550.19
464.975	557.19
465.195	574.19
465.414	603.19
465.634	577.19
465.854	542.19
466.073	490.19
466.293	506.19
466.512	496.19
466.732	474.19
466.951	497.19
467.171	465.19
467.391	486.19
467.61	491.19
467.829	495.19
468.049	477.19
468.268	482.19
468.488	489.19
468.707	489.19
468.927	474.19
469.146	489.19
469.365	461.19
469.585	481.19
469.804	477.19
470.023	476.19
470.243	504.19
470.462	474.19
470.681	516.19
470.901	487.19
471.12	487.19
471.339	485.19
471.558	469.19
471.777	476.19
471.997	486.19
472.216	483.19
472.435	500.19
472.654	489.19
472.873	498.19
473.092	498.19
473.311	489.19
473.53	498.19
473.749	468.19
473.968	526.19
474.187	621.19
474.406	598.19
474.625	539.19
474.844	512.19
475.063	512.19
475.282	492.19
475.501	483.19
475.72	512.19
475.939	496.19
476.158	499.19
476.377	480.19
476.596	500.19
476.814	475.19
477.033	502.19
477.252	526.19
477.471	516.19
477.69	544.19
477.908	530.19
478.127	567.19
478.346	534.19
478.564	555.19
478.783	532.19
479.002	578.19
479.22	561.19
479.439	568.19
479.658	602.19
479.876	613.19
480.095	608.19
480.313	605.19
480.532	598.19
480.751	590.19
480.969	588.19
481.188	636.19
481.406	647.19
481.624	602.19
481.843	578.19
482.061	589.19
482.28	589.19
482.498	568.19
482.717	557.19
482.935	562.19
483.153	544.19
483.372	562.19
483.59	554.19
483.808	570.19
484.027	564.19
484.245	567.19
484.463	568.19
484.681	605.19
484.9	596.19
485.118	570.19
485.336	606.19
485.554	585.19
485.772	601.19
485.99	600.19
486.209	605.19
486.427	590.19
486.645	600.19
486.863	606.19
487.081	615.19
487.299	614.19
487.517	608.19
487.735	591.19
487.953	613.19
488.171	595.19
488.389	614.19
488.607	585.19
488.825	634.19
489.043	629.19
489.261	616.19
489.479	621.19
489.696	634.19
489.914	619.19
490.132	606.19
490.35	624.19
490.568	642.19
490.786	643.19
491.003	634.19
491.221	637.19
491.439	648.19
491.657	671.19
491.874	640.19
492.092	661.19
492.31	651.19
492.527	682.19
492.745	700.19
492.963	638.19
493.18	669.19
493.398	673.19
493.615	659.19
493.833	690.19
494.05	682.19
494.268	664.19
494.485	689.19
494.703	680.19
494.92	694.19
495.138	704.19
495.355	737.19
495.573	724.19
495.79	714.19
496.008	717.19
496.225	725.19
496.442	720.19
496.66	741.19
496.877	717.19
497.094	751.19
497.312	720.19
497.529	753.19
497.746	729.19
497.963	768.19
498.181	757.19
498.398	801.19
498.615	797.19
498.832	817.19
499.049	843.19
499.267	884.19
499.484	896.19
499.701	963.19
499.918	978.19
500.135	1012.19
500.352	1047.19
500.569	1082.19
500.786	1093.19
501.003	1083.19
501.22	1057.19
501.437	980.19
501.654	984.19
501.871	938.19
502.088	905.19
