Data from 1978.PennyLincolnUp.Lamp.En5.5.200Scan.071719.P1_HRD10591_16-12-41-864.txt Node
Date: Thu Jul 18 16:12:41 EDT 2019
User: cochatt
Spectrometer: HR+D1059
Trigger mode: 1
Integration Time (sec): 1.000000E-1
Scans to average: 1
Electric dark correction enabled: true
Nonlinearity correction enabled: false
Boxcar width: 0
XAxis mode: Wavelengths
Number of Pixels in Spectrum: 2048
>>>>>Begin Spectral Data<<<<<
223.165	-19.31
223.4	-19.31
223.635	-19.31
223.869	-6.31
224.104	-33.31
224.338	-13.31
224.573	-8.31
224.808	-4.31
225.042	-6.31
225.277	-0.31
225.511	-7.31
225.746	-2.31
225.98	2.69
226.215	7.69
226.449	16.69
226.683	31.69
226.918	31.69
227.152	10.69
227.387	37.69
227.621	30.69
227.856	36.69
228.09	36.69
228.324	56.69
228.559	49.69
228.793	61.69
229.027	94.69
229.262	88.69
229.496	101.69
229.73	115.69
229.964	148.69
230.199	123.69
230.433	109.69
230.667	92.69
230.901	102.69
231.136	102.69
231.37	108.69
231.604	95.69
231.838	113.69
232.072	114.69
232.306	115.69
232.541	108.69
232.775	112.69
233.009	119.69
233.243	112.69
233.477	99.69
233.711	111.69
233.945	116.69
234.179	106.69
234.413	119.69
234.647	102.69
234.881	116.69
235.115	111.69
235.349	113.69
235.583	126.69
235.817	122.69
236.051	127.69
236.285	107.69
236.519	105.69
236.753	122.69
236.987	134.69
237.221	187.69
237.455	201.69
237.689	180.69
237.922	124.69
238.156	122.69
238.39	129.69
238.624	120.69
238.858	135.69
239.091	116.69
239.325	115.69
239.559	109.69
239.793	121.69
240.027	121.69
240.26	118.69
240.494	148.69
240.728	128.69
240.961	144.69
241.195	144.69
241.429	135.69
241.662	135.69
241.896	121.69
242.13	123.69
242.363	121.69
242.597	142.69
242.83	139.69
243.064	130.69
243.298	131.69
243.531	131.69
243.765	146.69
243.998	151.69
244.232	148.69
244.465	145.69
244.699	133.69
244.932	152.69
245.166	135.69
245.399	131.69
245.633	121.69
245.866	138.69
246.099	131.69
246.333	135.69
246.566	135.69
246.8	133.69
247.033	144.69
247.266	138.69
247.5	141.69
247.733	144.69
247.966	160.69
248.2	155.69
248.433	149.69
248.666	150.69
248.899	168.69
249.133	186.69
249.366	184.69
249.599	187.69
249.832	166.69
250.066	165.69
250.299	157.69
250.532	171.69
250.765	179.69
250.998	197.69
251.231	215.69
251.465	207.69
251.698	198.69
251.931	185.69
252.164	183.69
252.397	186.69
252.63	185.69
252.863	187.69
253.096	199.69
253.329	212.69
253.562	194.69
253.795	206.69
254.028	200.69
254.261	172.69
254.494	210.69
254.727	224.69
254.96	248.69
255.193	234.69
255.426	217.69
255.659	205.69
255.892	217.69
256.124	215.69
256.357	204.69
256.59	200.69
256.823	210.69
257.056	191.69
257.289	193.69
257.521	197.69
257.754	191.69
257.987	192.69
258.22	184.69
258.452	199.69
258.685	181.69
258.918	186.69
259.151	197.69
259.383	183.69
259.616	205.69
259.849	189.69
260.081	219.69
260.314	243.69
260.547	222.69
260.779	234.69
261.012	230.69
261.244	208.69
261.477	210.69
261.71	207.69
261.942	208.69
262.175	217.69
262.407	210.69
262.64	203.69
262.872	196.69
263.105	201.69
263.337	195.69
263.57	195.69
263.802	210.69
264.035	198.69
264.267	202.69
264.499	188.69
264.732	182.69
264.964	204.69
265.197	209.69
265.429	204.69
265.661	207.69
265.894	225.69
266.126	195.69
266.358	222.69
266.591	220.69
266.823	213.69
267.055	217.69
267.287	227.69
267.52	203.69
267.752	217.69
267.984	201.69
268.216	201.69
268.448	223.69
268.681	227.69
268.913	242.69
269.145	242.69
269.377	260.69
269.609	241.69
269.841	245.69
270.073	225.69
270.306	268.69
270.538	289.69
270.77	277.69
271.002	260.69
271.234	266.69
271.466	255.69
271.698	273.69
271.93	275.69
272.162	271.69
272.394	272.69
272.626	283.69
272.858	265.69
273.09	237.69
273.322	259.69
273.553	250.69
273.785	248.69
274.017	241.69
274.249	252.69
274.481	246.69
274.713	235.69
274.945	239.69
275.176	239.69
275.408	259.69
275.64	282.69
275.872	246.69
276.104	236.69
276.335	240.69
276.567	266.69
276.799	270.69
277.031	278.69
277.262	297.69
277.494	272.69
277.726	273.69
277.957	267.69
278.189	265.69
278.421	255.69
278.652	244.69
278.884	248.69
279.115	266.69
279.347	263.69
279.579	274.69
279.81	261.69
280.042	251.69
280.273	245.69
280.505	260.69
280.736	275.69
280.968	273.69
281.199	262.69
281.431	261.69
281.662	260.69
281.894	265.69
282.125	261.69
282.356	271.69
282.588	290.69
282.819	301.69
283.051	268.69
283.282	275.69
283.513	274.69
283.745	256.69
283.976	270.69
284.207	262.69
284.439	275.69
284.67	271.69
284.901	264.69
285.132	257.69
285.364	266.69
285.595	263.69
285.826	269.69
286.057	259.69
286.288	267.69
286.52	258.69
286.751	257.69
286.982	280.69
287.213	281.69
287.444	266.69
287.675	282.69
287.906	284.69
288.138	274.69
288.369	290.69
288.6	282.69
288.831	276.69
289.062	283.69
289.293	279.69
289.524	285.69
289.755	270.69
289.986	287.69
290.217	289.69
290.448	288.69
290.679	283.69
290.91	293.69
291.141	275.69
291.371	274.69
291.602	269.69
291.833	270.69
292.064	289.69
292.295	278.69
292.526	298.69
292.757	287.69
292.987	271.69
293.218	257.69
293.449	277.69
293.68	263.69
293.91	285.69
294.141	266.69
294.372	277.69
294.603	288.69
294.833	284.69
295.064	280.69
295.295	283.69
295.525	289.69
295.756	297.69
295.987	290.69
296.217	327.69
296.448	309.69
296.679	298.69
296.909	291.69
297.14	280.69
297.37	293.69
297.601	294.69
297.831	291.69
298.062	294.69
298.292	281.69
298.523	326.69
298.753	287.69
298.984	305.69
299.214	306.69
299.445	301.69
299.675	304.69
299.905	304.69
300.136	305.69
300.366	290.69
300.597	300.69
300.827	308.69
301.057	303.69
301.288	319.69
301.518	305.69
301.748	307.69
301.979	313.69
302.209	305.69
302.439	312.69
302.669	338.69
302.9	309.69
303.13	301.69
303.36	315.69
303.59	345.69
303.82	323.69
304.051	334.69
304.281	323.69
304.511	320.69
304.741	322.69
304.971	316.69
305.201	309.69
305.431	308.69
305.661	304.69
305.891	325.69
306.121	312.69
306.352	314.69
306.582	329.69
306.812	341.69
307.042	304.69
307.272	331.69
307.502	321.69
307.731	330.69
307.961	306.69
308.191	328.69
308.421	343.69
308.651	340.69
308.881	325.69
309.111	343.69
309.341	341.69
309.571	343.69
309.8	333.69
310.03	359.69
310.26	356.69
310.49	368.69
310.72	361.69
310.949	381.69
311.179	379.69
311.409	361.69
311.639	367.69
311.868	361.69
312.098	363.69
312.328	367.69
312.557	377.69
312.787	395.69
313.017	419.69
313.246	375.69
313.476	364.69
313.706	360.69
313.935	369.69
314.165	363.69
314.394	383.69
314.624	390.69
314.853	367.69
315.083	357.69
315.312	375.69
315.542	345.69
315.771	371.69
316.001	360.69
316.23	375.69
316.46	357.69
316.689	375.69
316.919	385.69
317.148	385.69
317.377	394.69
317.607	364.69
317.836	363.69
318.065	385.69
318.295	367.69
318.524	356.69
318.753	335.69
318.983	353.69
319.212	396.69
319.441	379.69
319.67	389.69
319.9	388.69
320.129	372.69
320.358	369.69
320.587	369.69
320.816	383.69
321.046	396.69
321.275	409.69
321.504	386.69
321.733	389.69
321.962	402.69
322.191	401.69
322.42	384.69
322.649	427.69
322.878	410.69
323.108	422.69
323.337	462.69
323.566	471.69
323.795	486.69
324.024	529.69
324.253	623.69
324.482	873.69
324.71	1381.69
324.939	2140.69
325.168	1856.69
325.397	908.69
325.626	623.69
325.855	513.69
326.084	476.69
326.313	486.69
326.542	490.69
326.77	517.69
326.999	604.69
327.228	810.69
327.457	1276.69
327.686	1615.69
327.914	1027.69
328.143	661.69
328.372	571.69
328.6	542.69
328.829	532.69
329.058	510.69
329.287	541.69
329.515	521.69
329.744	499.69
329.972	487.69
330.201	490.69
330.43	524.69
330.658	536.69
330.887	562.69
331.115	540.69
331.344	502.69
331.572	476.69
331.801	478.69
332.03	480.69
332.258	477.69
332.486	452.69
332.715	446.69
332.943	442.69
333.172	445.69
333.4	450.69
333.629	474.69
333.857	458.69
334.085	472.69
334.314	495.69
334.542	500.69
334.771	523.69
334.999	487.69
335.227	468.69
335.455	438.69
335.684	449.69
335.912	454.69
336.14	442.69
336.369	438.69
336.597	464.69
336.825	461.69
337.053	455.69
337.281	437.69
337.51	437.69
337.738	437.69
337.966	410.69
338.194	439.69
338.422	442.69
338.65	427.69
338.878	429.69
339.106	439.69
339.334	443.69
339.562	408.69
339.79	417.69
340.018	423.69
340.246	427.69
340.474	431.69
340.702	434.69
340.93	420.69
341.158	423.69
341.386	425.69
341.614	440.69
341.842	443.69
342.07	428.69
342.298	432.69
342.526	406.69
342.754	412.69
342.981	402.69
343.209	407.69
343.437	434.69
343.665	418.69
343.893	431.69
344.12	448.69
344.348	458.69
344.576	435.69
344.804	433.69
345.031	442.69
345.259	465.69
345.487	440.69
345.714	436.69
345.942	419.69
346.17	415.69
346.397	416.69
346.625	398.69
346.853	407.69
347.08	405.69
347.308	424.69
347.535	423.69
347.763	428.69
347.99	431.69
348.218	417.69
348.445	424.69
348.673	421.69
348.9	416.69
349.128	407.69
349.355	418.69
349.583	418.69
349.81	420.69
350.037	403.69
350.265	423.69
350.492	415.69
350.72	407.69
350.947	425.69
351.174	408.69
351.402	432.69
351.629	399.69
351.856	409.69
352.083	424.69
352.311	442.69
352.538	416.69
352.765	423.69
352.992	417.69
353.22	412.69
353.447	416.69
353.674	411.69
353.901	411.69
354.128	402.69
354.355	383.69
354.583	399.69
354.81	388.69
355.037	392.69
355.264	399.69
355.491	393.69
355.718	379.69
355.945	377.69
356.172	400.69
356.399	378.69
356.626	391.69
356.853	379.69
357.08	376.69
357.307	407.69
357.534	399.69
357.761	400.69
357.988	402.69
358.215	400.69
358.441	412.69
358.668	386.69
358.895	409.69
359.122	396.69
359.349	395.69
359.576	423.69
359.802	442.69
360.029	437.69
360.256	460.69
360.483	459.69
360.709	445.69
360.936	426.69
361.163	418.69
361.39	426.69
361.616	429.69
361.843	422.69
362.07	419.69
362.296	414.69
362.523	426.69
362.749	415.69
362.976	410.69
363.203	415.69
363.429	397.69
363.656	415.69
363.882	408.69
364.109	394.69
364.335	408.69
364.562	403.69
364.788	410.69
365.015	413.69
365.241	409.69
365.468	401.69
365.694	418.69
365.92	424.69
366.147	392.69
366.373	415.69
366.599	421.69
366.826	416.69
367.052	408.69
367.278	419.69
367.505	422.69
367.731	399.69
367.957	437.69
368.184	409.69
368.41	411.69
368.636	427.69
368.862	429.69
369.089	442.69
369.315	400.69
369.541	404.69
369.767	405.69
369.993	421.69
370.219	398.69
370.445	403.69
370.672	400.69
370.898	396.69
371.124	429.69
371.35	416.69
371.576	387.69
371.802	416.69
372.028	411.69
372.254	406.69
372.48	388.69
372.706	415.69
372.932	432.69
373.158	415.69
373.384	433.69
373.61	443.69
373.835	416.69
374.061	401.69
374.287	437.69
374.513	431.69
374.739	435.69
374.965	442.69
375.191	405.69
375.416	444.69
375.642	412.69
375.868	429.69
376.094	402.69
376.319	402.69
376.545	405.69
376.771	408.69
376.997	438.69
377.222	437.69
377.448	421.69
377.674	417.69
377.899	412.69
378.125	431.69
378.35	416.69
378.576	407.69
378.802	425.69
379.027	424.69
379.253	401.69
379.478	423.69
379.704	431.69
379.929	421.69
380.155	429.69
380.38	437.69
380.606	416.69
380.831	435.69
381.057	410.69
381.282	419.69
381.507	413.69
381.733	421.69
381.958	432.69
382.184	427.69
382.409	435.69
382.634	436.69
382.86	444.69
383.085	441.69
383.31	427.69
383.535	422.69
383.761	450.69
383.986	453.69
384.211	457.69
384.436	443.69
384.662	439.69
384.887	449.69
385.112	456.69
385.337	464.69
385.562	452.69
385.787	453.69
386.013	466.69
386.238	468.69
386.463	478.69
386.688	483.69
386.913	460.69
387.138	469.69
387.363	460.69
387.588	455.69
387.813	458.69
388.038	450.69
388.263	460.69
388.488	469.69
388.713	456.69
388.938	446.69
389.163	476.69
389.387	464.69
389.612	483.69
389.837	469.69
390.062	480.69
390.287	441.69
390.512	473.69
390.736	469.69
390.961	491.69
391.186	465.69
391.411	476.69
391.636	491.69
391.86	500.69
392.085	479.69
392.31	488.69
392.534	484.69
392.759	485.69
392.984	511.69
393.208	472.69
393.433	481.69
393.658	489.69
393.882	472.69
394.107	480.69
394.331	500.69
394.556	481.69
394.78	467.69
395.005	498.69
395.229	468.69
395.454	497.69
395.678	497.69
395.903	489.69
396.127	518.69
396.352	529.69
396.576	503.69
396.801	492.69
397.025	477.69
397.249	498.69
397.474	511.69
397.698	513.69
397.922	531.69
398.147	533.69
398.371	538.69
398.595	523.69
398.82	541.69
399.044	561.69
399.268	557.69
399.492	598.69
399.717	638.69
399.941	633.69
400.165	679.69
400.389	668.69
400.613	614.69
400.837	570.69
401.062	567.69
401.286	564.69
401.51	552.69
401.734	510.69
401.958	535.69
402.182	516.69
402.406	573.69
402.63	577.69
402.854	547.69
403.078	557.69
403.302	553.69
403.526	573.69
403.75	574.69
403.974	546.69
404.198	572.69
404.422	565.69
404.645	567.69
404.869	565.69
405.093	616.69
405.317	631.69
405.541	675.69
405.765	629.69
405.988	596.69
406.212	613.69
406.436	612.69
406.66	627.69
406.883	617.69
407.107	652.69
407.331	669.69
407.555	765.69
407.778	767.69
408.002	685.69
408.226	605.69
408.449	641.69
408.673	617.69
408.896	649.69
409.12	681.69
409.344	685.69
409.567	603.69
409.791	596.69
410.014	584.69
410.238	547.69
410.461	565.69
410.685	581.69
410.908	613.69
411.132	619.69
411.355	657.69
411.578	627.69
411.802	584.69
412.025	563.69
412.249	556.69
412.472	592.69
412.695	626.69
412.919	634.69
413.142	565.69
413.365	548.69
413.589	544.69
413.812	561.69
414.035	539.69
414.258	548.69
414.482	526.69
414.705	534.69
414.928	552.69
415.151	551.69
415.374	535.69
415.597	526.69
415.821	546.69
416.044	535.69
416.267	545.69
416.49	528.69
416.713	529.69
416.936	518.69
417.159	534.69
417.382	506.69
417.605	530.69
417.828	548.69
418.051	551.69
418.274	555.69
418.497	542.69
418.72	535.69
418.943	511.69
419.166	547.69
419.389	578.69
419.611	579.69
419.834	588.69
420.057	569.69
420.28	553.69
420.503	557.69
420.726	567.69
420.948	545.69
421.171	594.69
421.394	639.69
421.617	572.69
421.839	569.69
422.062	585.69
422.285	547.69
422.507	635.69
422.73	701.69
422.953	658.69
423.175	604.69
423.398	580.69
423.621	584.69
423.843	605.69
424.066	600.69
424.288	591.69
424.511	607.69
424.733	665.69
424.956	740.69
425.178	704.69
425.401	718.69
425.623	740.69
425.846	639.69
426.068	612.69
426.291	593.69
426.513	582.69
426.735	602.69
426.958	636.69
427.18	682.69
427.402	883.69
427.625	956.69
427.847	810.69
428.069	727.69
428.292	625.69
428.514	594.69
428.736	583.69
428.958	586.69
429.181	560.69
429.403	533.69
429.625	539.69
429.847	596.69
430.069	653.69
430.292	645.69
430.514	554.69
430.736	543.69
430.958	550.69
431.18	531.69
431.402	531.69
431.624	528.69
431.846	538.69
432.068	525.69
432.29	525.69
432.512	525.69
432.734	523.69
432.956	522.69
433.178	525.69
433.4	526.69
433.622	523.69
433.844	523.69
434.066	521.69
434.287	530.69
434.509	535.69
434.731	540.69
434.953	554.69
435.175	587.69
435.397	591.69
435.618	578.69
435.84	636.69
436.062	745.69
436.284	812.69
436.505	667.69
436.727	599.69
436.949	560.69
437.17	564.69
437.392	547.69
437.614	561.69
437.835	588.69
438.057	696.69
438.278	806.69
438.5	800.69
438.721	881.69
438.943	846.69
439.165	657.69
439.386	617.69
439.608	611.69
439.829	583.69
440.05	612.69
440.272	668.69
440.493	627.69
440.715	575.69
440.936	578.69
441.158	562.69
441.379	541.69
441.6	585.69
441.822	580.69
442.043	636.69
442.264	714.69
442.486	809.69
442.707	659.69
442.928	639.69
443.149	610.69
443.371	645.69
443.592	673.69
443.813	744.69
444.034	858.69
444.255	723.69
444.476	596.69
444.698	605.69
444.919	612.69
445.14	705.69
445.361	677.69
445.582	664.69
445.803	682.69
446.024	795.69
446.245	843.69
446.466	731.69
446.687	616.69
446.908	591.69
447.129	567.69
447.35	572.69
447.571	543.69
447.792	529.69
448.013	559.69
448.234	547.69
448.455	605.69
448.675	749.69
448.896	861.69
449.117	724.69
449.338	671.69
449.559	833.69
449.779	911.69
450	726.69
450.221	594.69
450.442	589.69
450.662	537.69
450.883	561.69
451.104	560.69
451.324	517.69
451.545	501.69
451.766	537.69
451.986	479.69
452.207	499.69
452.428	487.69
452.648	466.69
452.869	491.69
453.089	514.69
453.31	513.69
453.53	484.69
453.751	485.69
453.971	482.69
454.192	524.69
454.412	507.69
454.633	492.69
454.853	484.69
455.073	498.69
455.294	515.69
455.514	565.69
455.734	544.69
455.955	490.69
456.175	475.69
456.395	459.69
456.616	481.69
456.836	463.69
457.056	463.69
457.276	446.69
457.497	474.69
457.717	459.69
457.937	475.69
458.157	462.69
458.377	481.69
458.598	498.69
458.818	544.69
459.038	607.69
459.258	643.69
459.478	550.69
459.698	539.69
459.918	541.69
460.138	540.69
460.358	555.69
460.578	522.69
460.798	530.69
461.018	544.69
461.238	569.69
461.458	550.69
461.678	545.69
461.898	567.69
462.118	561.69
462.338	555.69
462.558	573.69
462.777	578.69
462.997	581.69
463.217	611.69
463.437	626.69
463.657	578.69
463.876	572.69
464.096	589.69
464.316	582.69
464.536	589.69
464.755	593.69
464.975	592.69
465.195	613.69
465.414	644.69
465.634	594.69
465.854	541.69
466.073	538.69
466.293	536.69
466.512	514.69
466.732	526.69
466.951	504.69
467.171	526.69
467.391	522.69
467.61	518.69
467.829	530.69
468.049	531.69
468.268	518.69
468.488	491.69
468.707	507.69
468.927	496.69
469.146	491.69
469.365	501.69
469.585	497.69
469.804	503.69
470.023	530.69
470.243	525.69
470.462	531.69
470.681	520.69
470.901	539.69
471.12	541.69
471.339	538.69
471.558	521.69
471.777	545.69
471.997	500.69
472.216	509.69
472.435	537.69
472.654	530.69
472.873	505.69
473.092	493.69
473.311	530.69
473.53	528.69
473.749	517.69
473.968	547.69
474.187	634.69
474.406	667.69
474.625	598.69
474.844	535.69
475.063	523.69
475.282	507.69
475.501	528.69
475.72	515.69
475.939	525.69
476.158	543.69
476.377	529.69
476.596	532.69
476.814	546.69
477.033	567.69
477.252	539.69
477.471	563.69
477.69	550.69
477.908	567.69
478.127	564.69
478.346	581.69
478.564	572.69
478.783	588.69
479.002	588.69
479.22	596.69
479.439	609.69
479.658	625.69
479.876	634.69
480.095	618.69
480.313	666.69
480.532	636.69
480.751	647.69
480.969	634.69
481.188	673.69
481.406	689.69
481.624	649.69
481.843	629.69
482.061	615.69
482.28	626.69
482.498	605.69
482.717	600.69
482.935	625.69
483.153	604.69
483.372	595.69
483.59	613.69
483.808	587.69
484.027	621.69
484.245	629.69
484.463	615.69
484.681	623.69
484.9	610.69
485.118	615.69
485.336	597.69
485.554	625.69
485.772	627.69
485.99	623.69
486.209	616.69
486.427	629.69
486.645	632.69
486.863	655.69
487.081	641.69
487.299	645.69
487.517	633.69
487.735	638.69
487.953	646.69
488.171	637.69
488.389	625.69
488.607	664.69
488.825	649.69
489.043	629.69
489.261	662.69
489.479	653.69
489.696	636.69
489.914	669.69
490.132	665.69
490.35	661.69
490.568	671.69
490.786	688.69
491.003	692.69
491.221	700.69
491.439	703.69
491.657	701.69
491.874	712.69
492.092	709.69
492.31	704.69
492.527	723.69
492.745	713.69
492.963	730.69
493.18	723.69
493.398	730.69
493.615	710.69
493.833	771.69
494.05	755.69
494.268	758.69
494.485	775.69
494.703	752.69
494.92	747.69
495.138	753.69
495.355	739.69
495.573	753.69
495.79	747.69
496.008	763.69
496.225	764.69
496.442	757.69
496.66	793.69
496.877	757.69
497.094	775.69
497.312	759.69
497.529	793.69
497.746	800.69
497.963	817.69
498.181	829.69
498.398	847.69
498.615	881.69
498.832	903.69
499.049	913.69
499.267	899.69
499.484	984.69
499.701	1007.69
499.918	1012.69
500.135	1063.69
500.352	1103.69
500.569	1126.69
500.786	1150.69
501.003	1099.69
501.22	1082.69
501.437	1047.69
501.654	1015.69
501.871	1032.69
