Data from 1978.PennyLincolnUp.Lamp.En5.5.200Scan.071719.P1_HRD10591_16-14-46-862.txt Node
Date: Thu Jul 18 16:14:46 EDT 2019
User: cochatt
Spectrometer: HR+D1059
Trigger mode: 1
Integration Time (sec): 1.000000E-1
Scans to average: 1
Electric dark correction enabled: true
Nonlinearity correction enabled: false
Boxcar width: 0
XAxis mode: Wavelengths
Number of Pixels in Spectrum: 2048
>>>>>Begin Spectral Data<<<<<
223.165	-26.38
223.4	-26.38
223.635	-26.38
223.869	-17.38
224.104	-15.38
224.338	-17.38
224.573	-10.38
224.808	-19.38
225.042	2.62
225.277	-9.38
225.511	7.62
225.746	7.62
225.98	16.62
226.215	-1.38
226.449	11.62
226.683	18.62
226.918	22.62
227.152	29.62
227.387	13.62
227.621	43.62
227.856	39.62
228.09	48.62
228.324	55.62
228.559	51.62
228.793	64.62
229.027	89.62
229.262	114.62
229.496	122.62
229.73	115.62
229.964	158.62
230.199	121.62
230.433	98.62
230.667	124.62
230.901	117.62
231.136	103.62
231.37	124.62
231.604	98.62
231.838	117.62
232.072	110.62
232.306	104.62
232.541	111.62
232.775	114.62
233.009	118.62
233.243	119.62
233.477	109.62
233.711	112.62
233.945	91.62
234.179	123.62
234.413	126.62
234.647	127.62
234.881	102.62
235.115	114.62
235.349	128.62
235.583	128.62
235.817	123.62
236.051	123.62
236.285	123.62
236.519	127.62
236.753	129.62
236.987	144.62
237.221	195.62
237.455	242.62
237.689	206.62
237.922	136.62
238.156	115.62
238.39	121.62
238.624	122.62
238.858	127.62
239.091	119.62
239.325	134.62
239.559	134.62
239.793	138.62
240.027	139.62
240.26	160.62
240.494	164.62
240.728	159.62
240.961	143.62
241.195	154.62
241.429	134.62
241.662	132.62
241.896	141.62
242.13	123.62
242.363	130.62
242.597	141.62
242.83	133.62
243.064	133.62
243.298	130.62
243.531	130.62
243.765	139.62
243.998	140.62
244.232	146.62
244.465	136.62
244.699	148.62
244.932	141.62
245.166	148.62
245.399	151.62
245.633	132.62
245.866	148.62
246.099	150.62
246.333	143.62
246.566	153.62
246.8	146.62
247.033	138.62
247.266	161.62
247.5	153.62
247.733	160.62
247.966	162.62
248.2	163.62
248.433	156.62
248.666	164.62
248.899	171.62
249.133	182.62
249.366	213.62
249.599	203.62
249.832	156.62
250.066	174.62
250.299	189.62
250.532	172.62
250.765	186.62
250.998	207.62
251.231	209.62
251.465	189.62
251.698	196.62
251.931	199.62
252.164	199.62
252.397	185.62
252.63	214.62
252.863	206.62
253.096	216.62
253.329	209.62
253.562	235.62
253.795	205.62
254.028	211.62
254.261	212.62
254.494	215.62
254.727	262.62
254.96	267.62
255.193	262.62
255.426	239.62
255.659	210.62
255.892	225.62
256.124	226.62
256.357	221.62
256.59	213.62
256.823	204.62
257.056	200.62
257.289	200.62
257.521	208.62
257.754	186.62
257.987	196.62
258.22	212.62
258.452	200.62
258.685	200.62
258.918	201.62
259.151	223.62
259.383	204.62
259.616	214.62
259.849	213.62
260.081	225.62
260.314	257.62
260.547	246.62
260.779	221.62
261.012	238.62
261.244	213.62
261.477	204.62
261.71	219.62
261.942	229.62
262.175	229.62
262.407	219.62
262.64	200.62
262.872	212.62
263.105	210.62
263.337	218.62
263.57	217.62
263.802	214.62
264.035	204.62
264.267	202.62
264.499	209.62
264.732	222.62
264.964	217.62
265.197	218.62
265.429	216.62
265.661	215.62
265.894	213.62
266.126	210.62
266.358	213.62
266.591	218.62
266.823	206.62
267.055	231.62
267.287	243.62
267.52	242.62
267.752	224.62
267.984	233.62
268.216	244.62
268.448	219.62
268.681	238.62
268.913	246.62
269.145	261.62
269.377	266.62
269.609	259.62
269.841	248.62
270.073	258.62
270.306	280.62
270.538	294.62
270.77	304.62
271.002	286.62
271.234	291.62
271.466	296.62
271.698	287.62
271.93	316.62
272.162	304.62
272.394	299.62
272.626	307.62
272.858	275.62
273.09	244.62
273.322	265.62
273.553	237.62
273.785	250.62
274.017	255.62
274.249	252.62
274.481	280.62
274.713	265.62
274.945	264.62
275.176	266.62
275.408	263.62
275.64	262.62
275.872	264.62
276.104	266.62
276.335	255.62
276.567	271.62
276.799	283.62
277.031	273.62
277.262	324.62
277.494	305.62
277.726	312.62
277.957	291.62
278.189	269.62
278.421	270.62
278.652	274.62
278.884	258.62
279.115	279.62
279.347	271.62
279.579	244.62
279.81	255.62
280.042	271.62
280.273	250.62
280.505	272.62
280.736	260.62
280.968	263.62
281.199	254.62
281.431	268.62
281.662	265.62
281.894	271.62
282.125	280.62
282.356	277.62
282.588	293.62
282.819	291.62
283.051	287.62
283.282	275.62
283.513	264.62
283.745	280.62
283.976	268.62
284.207	280.62
284.439	267.62
284.67	272.62
284.901	250.62
285.132	280.62
285.364	275.62
285.595	284.62
285.826	279.62
286.057	281.62
286.288	290.62
286.52	269.62
286.751	279.62
286.982	286.62
287.213	276.62
287.444	291.62
287.675	290.62
287.906	285.62
288.138	286.62
288.369	307.62
288.6	310.62
288.831	299.62
289.062	292.62
289.293	310.62
289.524	299.62
289.755	295.62
289.986	287.62
290.217	284.62
290.448	292.62
290.679	288.62
290.91	300.62
291.141	275.62
291.371	285.62
291.602	272.62
291.833	283.62
292.064	289.62
292.295	299.62
292.526	293.62
292.757	297.62
292.987	292.62
293.218	304.62
293.449	280.62
293.68	287.62
293.91	281.62
294.141	282.62
294.372	296.62
294.603	286.62
294.833	298.62
295.064	297.62
295.295	299.62
295.525	297.62
295.756	295.62
295.987	326.62
296.217	319.62
296.448	348.62
296.679	305.62
296.909	292.62
297.14	300.62
297.37	291.62
297.601	303.62
297.831	300.62
298.062	308.62
298.292	299.62
298.523	322.62
298.753	302.62
298.984	303.62
299.214	286.62
299.445	293.62
299.675	306.62
299.905	323.62
300.136	307.62
300.366	328.62
300.597	312.62
300.827	335.62
301.057	336.62
301.288	333.62
301.518	322.62
301.748	328.62
301.979	331.62
302.209	336.62
302.439	324.62
302.669	325.62
302.9	329.62
303.13	334.62
303.36	334.62
303.59	337.62
303.82	351.62
304.051	333.62
304.281	329.62
304.511	321.62
304.741	317.62
304.971	315.62
305.201	325.62
305.431	330.62
305.661	327.62
305.891	308.62
306.121	328.62
306.352	332.62
306.582	333.62
306.812	303.62
307.042	337.62
307.272	338.62
307.502	350.62
307.731	352.62
307.961	324.62
308.191	344.62
308.421	328.62
308.651	326.62
308.881	342.62
309.111	347.62
309.341	340.62
309.571	329.62
309.8	360.62
310.03	378.62
310.26	362.62
310.49	374.62
310.72	363.62
310.949	397.62
311.179	394.62
311.409	384.62
311.639	370.62
311.868	363.62
312.098	374.62
312.328	380.62
312.557	386.62
312.787	391.62
313.017	400.62
313.246	386.62
313.476	392.62
313.706	388.62
313.935	390.62
314.165	398.62
314.394	388.62
314.624	386.62
314.853	388.62
315.083	408.62
315.312	366.62
315.542	381.62
315.771	390.62
316.001	367.62
316.23	380.62
316.46	376.62
316.689	372.62
316.919	367.62
317.148	409.62
317.377	390.62
317.607	388.62
317.836	378.62
318.065	386.62
318.295	387.62
318.524	390.62
318.753	366.62
318.983	392.62
319.212	382.62
319.441	406.62
319.67	390.62
319.9	390.62
320.129	394.62
320.358	381.62
320.587	396.62
320.816	382.62
321.046	423.62
321.275	410.62
321.504	404.62
321.733	410.62
321.962	398.62
322.191	414.62
322.42	421.62
322.649	429.62
322.878	439.62
323.108	464.62
323.337	499.62
323.566	498.62
323.795	534.62
324.024	565.62
324.253	695.62
324.482	1035.62
324.71	1627.62
324.939	2525.62
325.168	2198.62
325.397	1017.62
325.626	666.62
325.855	556.62
326.084	514.62
326.313	516.62
326.542	499.62
326.77	553.62
326.999	650.62
327.228	911.62
327.457	1470.62
327.686	1877.62
327.914	1179.62
328.143	708.62
328.372	649.62
328.6	613.62
328.829	588.62
329.058	598.62
329.287	574.62
329.515	570.62
329.744	521.62
329.972	507.62
330.201	556.62
330.43	568.62
330.658	590.62
330.887	620.62
331.115	595.62
331.344	537.62
331.572	523.62
331.801	487.62
332.03	496.62
332.258	469.62
332.486	476.62
332.715	439.62
332.943	463.62
333.172	464.62
333.4	479.62
333.629	466.62
333.857	492.62
334.085	494.62
334.314	500.62
334.542	520.62
334.771	569.62
334.999	526.62
335.227	485.62
335.455	473.62
335.684	461.62
335.912	460.62
336.14	450.62
336.369	435.62
336.597	461.62
336.825	478.62
337.053	469.62
337.281	456.62
337.51	461.62
337.738	460.62
337.966	459.62
338.194	453.62
338.422	471.62
338.65	467.62
338.878	459.62
339.106	432.62
339.334	435.62
339.562	445.62
339.79	444.62
340.018	448.62
340.246	438.62
340.474	449.62
340.702	472.62
340.93	432.62
341.158	431.62
341.386	443.62
341.614	439.62
341.842	454.62
342.07	435.62
342.298	440.62
342.526	453.62
342.754	426.62
342.981	438.62
343.209	428.62
343.437	429.62
343.665	437.62
343.893	441.62
344.12	438.62
344.348	450.62
344.576	445.62
344.804	428.62
345.031	472.62
345.259	468.62
345.487	476.62
345.714	447.62
345.942	455.62
346.17	454.62
346.397	413.62
346.625	422.62
346.853	394.62
347.08	447.62
347.308	440.62
347.535	451.62
347.763	441.62
347.99	446.62
348.218	443.62
348.445	455.62
348.673	450.62
348.9	434.62
349.128	421.62
349.355	413.62
349.583	389.62
349.81	424.62
350.037	420.62
350.265	440.62
350.492	417.62
350.72	426.62
350.947	427.62
351.174	425.62
351.402	454.62
351.629	447.62
351.856	446.62
352.083	437.62
352.311	451.62
352.538	449.62
352.765	458.62
352.992	436.62
353.22	440.62
353.447	443.62
353.674	418.62
353.901	412.62
354.128	396.62
354.355	428.62
354.583	409.62
354.81	425.62
355.037	410.62
355.264	416.62
355.491	414.62
355.718	403.62
355.945	380.62
356.172	420.62
356.399	399.62
356.626	423.62
356.853	413.62
357.08	397.62
357.307	393.62
357.534	422.62
357.761	424.62
357.988	397.62
358.215	420.62
358.441	406.62
358.668	413.62
358.895	436.62
359.122	426.62
359.349	438.62
359.576	429.62
359.802	456.62
360.029	478.62
360.256	480.62
360.483	468.62
360.709	470.62
360.936	443.62
361.163	428.62
361.39	470.62
361.616	425.62
361.843	418.62
362.07	432.62
362.296	443.62
362.523	432.62
362.749	444.62
362.976	429.62
363.203	406.62
363.429	446.62
363.656	411.62
363.882	414.62
364.109	429.62
364.335	427.62
364.562	413.62
364.788	414.62
365.015	407.62
365.241	424.62
365.468	434.62
365.694	421.62
365.92	450.62
366.147	435.62
366.373	441.62
366.599	399.62
366.826	407.62
367.052	414.62
367.278	400.62
367.505	410.62
367.731	429.62
367.957	416.62
368.184	428.62
368.41	432.62
368.636	418.62
368.862	456.62
369.089	428.62
369.315	423.62
369.541	432.62
369.767	421.62
369.993	414.62
370.219	432.62
370.445	430.62
370.672	431.62
370.898	436.62
371.124	422.62
371.35	425.62
371.576	451.62
371.802	446.62
372.028	412.62
372.254	420.62
372.48	435.62
372.706	429.62
372.932	429.62
373.158	434.62
373.384	436.62
373.61	410.62
373.835	430.62
374.061	434.62
374.287	436.62
374.513	435.62
374.739	436.62
374.965	447.62
375.191	436.62
375.416	446.62
375.642	420.62
375.868	435.62
376.094	422.62
376.319	428.62
376.545	417.62
376.771	444.62
376.997	442.62
377.222	419.62
377.448	428.62
377.674	431.62
377.899	426.62
378.125	420.62
378.35	423.62
378.576	407.62
378.802	428.62
379.027	426.62
379.253	413.62
379.478	440.62
379.704	430.62
379.929	438.62
380.155	424.62
380.38	431.62
380.606	428.62
380.831	430.62
381.057	422.62
381.282	435.62
381.507	440.62
381.733	410.62
381.958	425.62
382.184	428.62
382.409	446.62
382.634	448.62
382.86	449.62
383.085	434.62
383.31	426.62
383.535	443.62
383.761	462.62
383.986	444.62
384.211	439.62
384.436	448.62
384.662	474.62
384.887	455.62
385.112	457.62
385.337	480.62
385.562	458.62
385.787	474.62
386.013	474.62
386.238	484.62
386.463	487.62
386.688	496.62
386.913	458.62
387.138	470.62
387.363	463.62
387.588	475.62
387.813	485.62
388.038	484.62
388.263	464.62
388.488	486.62
388.713	473.62
388.938	478.62
389.163	475.62
389.387	487.62
389.612	479.62
389.837	482.62
390.062	489.62
390.287	488.62
390.512	476.62
390.736	489.62
390.961	481.62
391.186	478.62
391.411	477.62
391.636	501.62
391.86	475.62
392.085	504.62
392.31	490.62
392.534	499.62
392.759	479.62
392.984	478.62
393.208	487.62
393.433	464.62
393.658	459.62
393.882	484.62
394.107	456.62
394.331	496.62
394.556	472.62
394.78	484.62
395.005	480.62
395.229	498.62
395.454	512.62
395.678	524.62
395.903	526.62
396.127	544.62
396.352	562.62
396.576	513.62
396.801	519.62
397.025	502.62
397.249	510.62
397.474	501.62
397.698	516.62
397.922	549.62
398.147	554.62
398.371	566.62
398.595	540.62
398.82	554.62
399.044	554.62
399.268	567.62
399.492	606.62
399.717	651.62
399.941	659.62
400.165	674.62
400.389	707.62
400.613	619.62
400.837	601.62
401.062	570.62
401.286	557.62
401.51	573.62
401.734	572.62
401.958	563.62
402.182	566.62
402.406	578.62
402.63	586.62
402.854	571.62
403.078	564.62
403.302	568.62
403.526	576.62
403.75	579.62
403.974	581.62
404.198	586.62
404.422	588.62
404.645	574.62
404.869	610.62
405.093	635.62
405.317	664.62
405.541	702.62
405.765	639.62
405.988	597.62
406.212	619.62
406.436	637.62
406.66	644.62
406.883	635.62
407.107	635.62
407.331	701.62
407.555	762.62
407.778	790.62
408.002	715.62
408.226	656.62
408.449	640.62
408.673	644.62
408.896	660.62
409.12	714.62
409.344	702.62
409.567	639.62
409.791	614.62
410.014	598.62
410.238	589.62
410.461	584.62
410.685	615.62
410.908	615.62
411.132	633.62
411.355	653.62
411.578	669.62
411.802	573.62
412.025	592.62
412.249	582.62
412.472	622.62
412.695	653.62
412.919	666.62
413.142	605.62
413.365	585.62
413.589	572.62
413.812	565.62
414.035	550.62
414.258	543.62
414.482	532.62
414.705	514.62
414.928	578.62
415.151	579.62
415.374	536.62
415.597	562.62
415.821	540.62
416.044	565.62
416.267	562.62
416.49	531.62
416.713	530.62
416.936	548.62
417.159	553.62
417.382	561.62
417.605	554.62
417.828	582.62
418.051	554.62
418.274	557.62
418.497	560.62
418.72	576.62
418.943	556.62
419.166	549.62
419.389	592.62
419.611	618.62
419.834	564.62
420.057	565.62
420.28	586.62
420.503	563.62
420.726	578.62
420.948	603.62
421.171	660.62
421.394	706.62
421.617	614.62
421.839	573.62
422.062	564.62
422.285	587.62
422.507	637.62
422.73	742.62
422.953	720.62
423.175	642.62
423.398	609.62
423.621	583.62
423.843	616.62
424.066	591.62
424.288	601.62
424.511	629.62
424.733	696.62
424.956	788.62
425.178	752.62
425.401	748.62
425.623	793.62
425.846	694.62
426.068	631.62
426.291	592.62
426.513	604.62
426.735	607.62
426.958	653.62
427.18	746.62
427.402	918.62
427.625	1010.62
427.847	864.62
428.069	754.62
428.292	662.62
428.514	610.62
428.736	582.62
428.958	597.62
429.181	580.62
429.403	552.62
429.625	560.62
429.847	611.62
430.069	694.62
430.292	669.62
430.514	590.62
430.736	582.62
430.958	568.62
431.18	550.62
431.402	572.62
431.624	513.62
431.846	554.62
432.068	548.62
432.29	543.62
432.512	535.62
432.734	567.62
432.956	546.62
433.178	552.62
433.4	560.62
433.622	554.62
433.844	537.62
434.066	554.62
434.287	537.62
434.509	539.62
434.731	569.62
434.953	583.62
435.175	578.62
435.397	615.62
435.618	596.62
435.84	684.62
436.062	768.62
436.284	863.62
436.505	716.62
436.727	634.62
436.949	565.62
437.17	591.62
437.392	591.62
437.614	610.62
437.835	602.62
438.057	701.62
438.278	834.62
438.5	843.62
438.721	928.62
438.943	868.62
439.165	687.62
439.386	646.62
439.608	621.62
439.829	613.62
440.05	669.62
440.272	717.62
440.493	686.62
440.715	612.62
440.936	596.62
441.158	588.62
441.379	576.62
441.6	582.62
441.822	599.62
442.043	632.62
442.264	749.62
442.486	808.62
442.707	682.62
442.928	640.62
443.149	656.62
443.371	655.62
443.592	714.62
443.813	824.62
444.034	897.62
444.255	710.62
444.476	643.62
444.698	626.62
444.919	628.62
445.14	697.62
445.361	662.62
445.582	678.62
445.803	772.62
446.024	883.62
446.245	890.62
446.466	804.62
446.687	677.62
446.908	608.62
447.129	562.62
447.35	582.62
447.571	557.62
447.792	548.62
448.013	557.62
448.234	585.62
448.455	638.62
448.675	811.62
448.896	934.62
449.117	794.62
449.338	731.62
449.559	831.62
449.779	955.62
450	790.62
450.221	628.62
450.442	587.62
450.662	568.62
450.883	546.62
451.104	581.62
451.324	577.62
451.545	542.62
451.766	534.62
451.986	506.62
452.207	514.62
452.428	509.62
452.648	507.62
452.869	506.62
453.089	524.62
453.31	529.62
453.53	519.62
453.751	499.62
453.971	508.62
454.192	547.62
454.412	519.62
454.633	510.62
454.853	490.62
455.073	515.62
455.294	543.62
455.514	596.62
455.734	592.62
455.955	508.62
456.175	484.62
456.395	506.62
456.616	491.62
456.836	476.62
457.056	474.62
457.276	465.62
457.497	480.62
457.717	464.62
457.937	474.62
458.157	514.62
458.377	516.62
458.598	516.62
458.818	592.62
459.038	674.62
459.258	704.62
459.478	599.62
459.698	551.62
459.918	563.62
460.138	556.62
460.358	524.62
460.578	562.62
460.798	543.62
461.018	550.62
461.238	572.62
461.458	559.62
461.678	549.62
461.898	564.62
462.118	558.62
462.338	551.62
462.558	580.62
462.777	597.62
462.997	594.62
463.217	607.62
463.437	603.62
463.657	594.62
463.876	613.62
464.096	602.62
464.316	599.62
464.536	605.62
464.755	595.62
464.975	572.62
465.195	633.62
465.414	714.62
465.634	626.62
465.854	600.62
466.073	569.62
466.293	550.62
466.512	536.62
466.732	550.62
466.951	547.62
467.171	542.62
467.391	522.62
467.61	538.62
467.829	536.62
468.049	526.62
468.268	547.62
468.488	496.62
468.707	518.62
468.927	499.62
469.146	506.62
469.365	514.62
469.585	501.62
469.804	526.62
470.023	525.62
470.243	527.62
470.462	515.62
470.681	544.62
470.901	570.62
471.12	522.62
471.339	542.62
471.558	542.62
471.777	512.62
471.997	491.62
472.216	525.62
472.435	577.62
472.654	547.62
472.873	546.62
473.092	555.62
473.311	554.62
473.53	539.62
473.749	555.62
473.968	585.62
474.187	706.62
474.406	772.62
474.625	590.62
474.844	538.62
475.063	544.62
475.282	536.62
475.501	556.62
475.72	547.62
475.939	545.62
476.158	549.62
476.377	553.62
476.596	551.62
476.814	543.62
477.033	571.62
477.252	563.62
477.471	550.62
477.69	574.62
477.908	567.62
478.127	583.62
478.346	575.62
478.564	587.62
478.783	602.62
479.002	612.62
479.22	610.62
479.439	622.62
479.658	633.62
479.876	638.62
480.095	650.62
480.313	672.62
480.532	657.62
480.751	637.62
480.969	666.62
481.188	699.62
481.406	763.62
481.624	657.62
481.843	629.62
482.061	634.62
482.28	648.62
482.498	615.62
482.717	623.62
482.935	631.62
483.153	598.62
483.372	636.62
483.59	615.62
483.808	618.62
484.027	616.62
484.245	623.62
484.463	620.62
484.681	639.62
484.9	632.62
485.118	630.62
485.336	639.62
485.554	646.62
485.772	625.62
485.99	661.62
486.209	647.62
486.427	632.62
486.645	653.62
486.863	685.62
487.081	672.62
487.299	652.62
487.517	662.62
487.735	636.62
487.953	668.62
488.171	677.62
488.389	657.62
488.607	651.62
488.825	660.62
489.043	654.62
489.261	656.62
489.479	686.62
489.696	684.62
489.914	692.62
490.132	695.62
490.35	699.62
490.568	714.62
490.786	717.62
491.003	702.62
491.221	711.62
491.439	717.62
491.657	701.62
491.874	756.62
492.092	751.62
492.31	734.62
492.527	745.62
492.745	736.62
492.963	772.62
493.18	726.62
493.398	766.62
493.615	763.62
493.833	775.62
494.05	810.62
494.268	778.62
494.485	752.62
494.703	764.62
494.92	767.62
495.138	781.62
495.355	782.62
495.573	796.62
495.79	756.62
496.008	807.62
496.225	790.62
496.442	809.62
496.66	790.62
496.877	799.62
497.094	811.62
497.312	790.62
497.529	805.62
497.746	855.62
497.963	825.62
498.181	831.62
498.398	878.62
498.615	870.62
498.832	909.62
499.049	916.62
499.267	952.62
499.484	971.62
499.701	991.62
499.918	1045.62
500.135	1035.62
500.352	1127.62
500.569	1119.62
500.786	1131.62
501.003	1118.62
501.22	1083.62
501.437	1060.62
501.654	1042.62
501.871	1019.62
