Data from 1978.PennyLincolnUp.Lamp.En5.5.200Scan.071719.P1_HRD10591_16-11-35-865.txt Node
Date: Thu Jul 18 16:11:35 EDT 2019
User: cochatt
Spectrometer: HR+D1059
Trigger mode: 1
Integration Time (sec): 1.000000E-1
Scans to average: 1
Electric dark correction enabled: true
Nonlinearity correction enabled: false
Boxcar width: 0
XAxis mode: Wavelengths
Number of Pixels in Spectrum: 2048
>>>>>Begin Spectral Data<<<<<
223.165	-6.88
223.4	-6.88
223.635	-6.88
223.869	-13.88
224.104	-28.88
224.338	-11.88
224.573	-24.88
224.808	-12.88
225.042	8.12
225.277	-6.88
225.511	5.12
225.746	14.12
225.98	3.12
226.215	21.12
226.449	9.12
226.683	-1.88
226.918	13.12
227.152	34.12
227.387	25.12
227.621	22.12
227.856	57.12
228.09	54.12
228.324	56.12
228.559	62.12
228.793	74.12
229.027	85.12
229.262	87.12
229.496	95.12
229.73	111.12
229.964	105.12
230.199	106.12
230.433	100.12
230.667	102.12
230.901	108.12
231.136	86.12
231.37	106.12
231.604	108.12
231.838	104.12
232.072	111.12
232.306	92.12
232.541	95.12
232.775	105.12
233.009	99.12
233.243	98.12
233.477	117.12
233.711	110.12
233.945	93.12
234.179	108.12
234.413	119.12
234.647	117.12
234.881	90.12
235.115	109.12
235.349	122.12
235.583	109.12
235.817	102.12
236.051	114.12
236.285	118.12
236.519	111.12
236.753	111.12
236.987	116.12
237.221	126.12
237.455	147.12
237.689	130.12
237.922	92.12
238.156	121.12
238.39	108.12
238.624	101.12
238.858	114.12
239.091	113.12
239.325	115.12
239.559	127.12
239.793	123.12
240.027	110.12
240.26	113.12
240.494	133.12
240.728	117.12
240.961	118.12
241.195	123.12
241.429	129.12
241.662	126.12
241.896	110.12
242.13	125.12
242.363	102.12
242.597	131.12
242.83	124.12
243.064	128.12
243.298	129.12
243.531	123.12
243.765	125.12
243.998	114.12
244.232	121.12
244.465	139.12
244.699	137.12
244.932	127.12
245.166	135.12
245.399	135.12
245.633	123.12
245.866	127.12
246.099	138.12
246.333	125.12
246.566	142.12
246.8	133.12
247.033	127.12
247.266	153.12
247.5	137.12
247.733	141.12
247.966	144.12
248.2	141.12
248.433	143.12
248.666	150.12
248.899	133.12
249.133	159.12
249.366	157.12
249.599	157.12
249.832	165.12
250.066	153.12
250.299	162.12
250.532	153.12
250.765	154.12
250.998	159.12
251.231	167.12
251.465	157.12
251.698	155.12
251.931	159.12
252.164	149.12
252.397	163.12
252.63	145.12
252.863	166.12
253.096	165.12
253.329	171.12
253.562	179.12
253.795	183.12
254.028	169.12
254.261	163.12
254.494	179.12
254.727	183.12
254.96	184.12
255.193	181.12
255.426	177.12
255.659	171.12
255.892	177.12
256.124	169.12
256.357	163.12
256.59	175.12
256.823	147.12
257.056	175.12
257.289	165.12
257.521	167.12
257.754	159.12
257.987	177.12
258.22	159.12
258.452	171.12
258.685	163.12
258.918	162.12
259.151	175.12
259.383	167.12
259.616	165.12
259.849	169.12
260.081	184.12
260.314	198.12
260.547	182.12
260.779	189.12
261.012	179.12
261.244	174.12
261.477	177.12
261.71	169.12
261.942	178.12
262.175	165.12
262.407	181.12
262.64	179.12
262.872	155.12
263.105	159.12
263.337	181.12
263.57	188.12
263.802	176.12
264.035	193.12
264.267	177.12
264.499	179.12
264.732	196.12
264.964	186.12
265.197	193.12
265.429	197.12
265.661	185.12
265.894	179.12
266.126	176.12
266.358	193.12
266.591	170.12
266.823	178.12
267.055	185.12
267.287	193.12
267.52	206.12
267.752	197.12
267.984	179.12
268.216	180.12
268.448	204.12
268.681	190.12
268.913	195.12
269.145	193.12
269.377	201.12
269.609	179.12
269.841	211.12
270.073	205.12
270.306	230.12
270.538	222.12
270.77	223.12
271.002	227.12
271.234	207.12
271.466	213.12
271.698	215.12
271.93	221.12
272.162	214.12
272.394	227.12
272.626	217.12
272.858	218.12
273.09	220.12
273.322	214.12
273.553	205.12
273.785	223.12
274.017	206.12
274.249	206.12
274.481	194.12
274.713	202.12
274.945	211.12
275.176	216.12
275.408	223.12
275.64	210.12
275.872	214.12
276.104	202.12
276.335	219.12
276.567	216.12
276.799	218.12
277.031	214.12
277.262	249.12
277.494	217.12
277.726	205.12
277.957	222.12
278.189	225.12
278.421	220.12
278.652	221.12
278.884	213.12
279.115	205.12
279.347	222.12
279.579	241.12
279.81	246.12
280.042	228.12
280.273	225.12
280.505	219.12
280.736	228.12
280.968	227.12
281.199	226.12
281.431	228.12
281.662	216.12
281.894	227.12
282.125	225.12
282.356	241.12
282.588	231.12
282.819	239.12
283.051	232.12
283.282	233.12
283.513	227.12
283.745	229.12
283.976	241.12
284.207	229.12
284.439	229.12
284.67	234.12
284.901	225.12
285.132	247.12
285.364	223.12
285.595	241.12
285.826	228.12
286.057	242.12
286.288	237.12
286.52	224.12
286.751	223.12
286.982	257.12
287.213	248.12
287.444	247.12
287.675	227.12
287.906	249.12
288.138	234.12
288.369	224.12
288.6	253.12
288.831	233.12
289.062	241.12
289.293	227.12
289.524	247.12
289.755	263.12
289.986	256.12
290.217	250.12
290.448	237.12
290.679	230.12
290.91	245.12
291.141	267.12
291.371	249.12
291.602	249.12
291.833	260.12
292.064	240.12
292.295	233.12
292.526	243.12
292.757	253.12
292.987	235.12
293.218	241.12
293.449	251.12
293.68	242.12
293.91	260.12
294.141	242.12
294.372	245.12
294.603	264.12
294.833	258.12
295.064	255.12
295.295	249.12
295.525	264.12
295.756	237.12
295.987	237.12
296.217	251.12
296.448	263.12
296.679	263.12
296.909	273.12
297.14	253.12
297.37	244.12
297.601	258.12
297.831	248.12
298.062	266.12
298.292	269.12
298.523	256.12
298.753	260.12
298.984	261.12
299.214	271.12
299.445	271.12
299.675	259.12
299.905	255.12
300.136	270.12
300.366	274.12
300.597	253.12
300.827	265.12
301.057	261.12
301.288	273.12
301.518	263.12
301.748	279.12
301.979	289.12
302.209	269.12
302.439	297.12
302.669	275.12
302.9	278.12
303.13	269.12
303.36	287.12
303.59	278.12
303.82	277.12
304.051	283.12
304.281	273.12
304.511	283.12
304.741	279.12
304.971	278.12
305.201	278.12
305.431	269.12
305.661	271.12
305.891	291.12
306.121	275.12
306.352	276.12
306.582	278.12
306.812	264.12
307.042	294.12
307.272	296.12
307.502	278.12
307.731	285.12
307.961	283.12
308.191	298.12
308.421	295.12
308.651	293.12
308.881	276.12
309.111	286.12
309.341	297.12
309.571	313.12
309.8	296.12
310.03	303.12
310.26	298.12
310.49	299.12
310.72	294.12
310.949	313.12
311.179	301.12
311.409	303.12
311.639	313.12
311.868	315.12
312.098	307.12
312.328	293.12
312.557	314.12
312.787	307.12
313.017	306.12
313.246	300.12
313.476	300.12
313.706	281.12
313.935	298.12
314.165	326.12
314.394	321.12
314.624	310.12
314.853	313.12
315.083	307.12
315.312	295.12
315.542	305.12
315.771	308.12
316.001	319.12
316.23	321.12
316.46	308.12
316.689	300.12
316.919	300.12
317.148	305.12
317.377	323.12
317.607	315.12
317.836	293.12
318.065	319.12
318.295	307.12
318.524	294.12
318.753	324.12
318.983	309.12
319.212	318.12
319.441	303.12
319.67	314.12
319.9	313.12
320.129	311.12
320.358	309.12
320.587	312.12
320.816	300.12
321.046	329.12
321.275	325.12
321.504	322.12
321.733	329.12
321.962	325.12
322.191	321.12
322.42	328.12
322.649	317.12
322.878	340.12
323.108	337.12
323.337	345.12
323.566	352.12
323.795	371.12
324.024	375.12
324.253	432.12
324.482	547.12
324.71	812.12
324.939	1176.12
325.168	1000.12
325.397	538.12
325.626	405.12
325.855	363.12
326.084	364.12
326.313	366.12
326.542	359.12
326.77	380.12
326.999	434.12
327.228	523.12
327.457	748.12
327.686	903.12
327.914	614.12
328.143	455.12
328.372	411.12
328.6	391.12
328.829	395.12
329.058	391.12
329.287	397.12
329.515	383.12
329.744	370.12
329.972	381.12
330.201	384.12
330.43	383.12
330.658	403.12
330.887	396.12
331.115	398.12
331.344	397.12
331.572	373.12
331.801	358.12
332.03	377.12
332.258	377.12
332.486	376.12
332.715	379.12
332.943	402.12
333.172	372.12
333.4	370.12
333.629	386.12
333.857	375.12
334.085	383.12
334.314	394.12
334.542	385.12
334.771	415.12
334.999	395.12
335.227	391.12
335.455	400.12
335.684	394.12
335.912	395.12
336.14	377.12
336.369	379.12
336.597	382.12
336.825	389.12
337.053	373.12
337.281	370.12
337.51	383.12
337.738	397.12
337.966	390.12
338.194	366.12
338.422	373.12
338.65	351.12
338.878	371.12
339.106	373.12
339.334	380.12
339.562	361.12
339.79	378.12
340.018	355.12
340.246	379.12
340.474	374.12
340.702	359.12
340.93	373.12
341.158	365.12
341.386	349.12
341.614	366.12
341.842	371.12
342.07	343.12
342.298	376.12
342.526	366.12
342.754	369.12
342.981	370.12
343.209	355.12
343.437	366.12
343.665	357.12
343.893	371.12
344.12	388.12
344.348	395.12
344.576	373.12
344.804	370.12
345.031	371.12
345.259	378.12
345.487	381.12
345.714	379.12
345.942	355.12
346.17	362.12
346.397	344.12
346.625	353.12
346.853	366.12
347.08	359.12
347.308	361.12
347.535	357.12
347.763	351.12
347.99	355.12
348.218	357.12
348.445	374.12
348.673	353.12
348.9	363.12
349.128	350.12
349.355	358.12
349.583	365.12
349.81	329.12
350.037	352.12
350.265	326.12
350.492	359.12
350.72	349.12
350.947	341.12
351.174	351.12
351.402	364.12
351.629	347.12
351.856	347.12
352.083	364.12
352.311	354.12
352.538	347.12
352.765	358.12
352.992	371.12
353.22	361.12
353.447	356.12
353.674	362.12
353.901	362.12
354.128	350.12
354.355	348.12
354.583	346.12
354.81	346.12
355.037	348.12
355.264	334.12
355.491	347.12
355.718	353.12
355.945	353.12
356.172	348.12
356.399	340.12
356.626	330.12
356.853	338.12
357.08	350.12
357.307	365.12
357.534	354.12
357.761	341.12
357.988	347.12
358.215	346.12
358.441	355.12
358.668	346.12
358.895	370.12
359.122	348.12
359.349	350.12
359.576	347.12
359.802	353.12
360.029	379.12
360.256	378.12
360.483	373.12
360.709	364.12
360.936	341.12
361.163	359.12
361.39	361.12
361.616	367.12
361.843	359.12
362.07	362.12
362.296	361.12
362.523	361.12
362.749	366.12
362.976	373.12
363.203	355.12
363.429	337.12
363.656	365.12
363.882	347.12
364.109	360.12
364.335	343.12
364.562	362.12
364.788	366.12
365.015	358.12
365.241	371.12
365.468	350.12
365.694	353.12
365.92	349.12
366.147	350.12
366.373	351.12
366.599	358.12
366.826	360.12
367.052	350.12
367.278	359.12
367.505	383.12
367.731	367.12
367.957	339.12
368.184	356.12
368.41	360.12
368.636	375.12
368.862	361.12
369.089	356.12
369.315	369.12
369.541	357.12
369.767	379.12
369.993	375.12
370.219	378.12
370.445	370.12
370.672	379.12
370.898	350.12
371.124	353.12
371.35	362.12
371.576	347.12
371.802	374.12
372.028	355.12
372.254	371.12
372.48	378.12
372.706	384.12
372.932	358.12
373.158	384.12
373.384	372.12
373.61	356.12
373.835	377.12
374.061	377.12
374.287	379.12
374.513	370.12
374.739	371.12
374.965	375.12
375.191	364.12
375.416	398.12
375.642	383.12
375.868	378.12
376.094	366.12
376.319	383.12
376.545	381.12
376.771	363.12
376.997	359.12
377.222	380.12
377.448	353.12
377.674	365.12
377.899	357.12
378.125	343.12
378.35	382.12
378.576	381.12
378.802	374.12
379.027	373.12
379.253	381.12
379.478	372.12
379.704	381.12
379.929	380.12
380.155	371.12
380.38	382.12
380.606	384.12
380.831	383.12
381.057	384.12
381.282	379.12
381.507	390.12
381.733	387.12
381.958	389.12
382.184	385.12
382.409	381.12
382.634	402.12
382.86	409.12
383.085	370.12
383.31	409.12
383.535	403.12
383.761	391.12
383.986	411.12
384.211	388.12
384.436	394.12
384.662	426.12
384.887	426.12
385.112	395.12
385.337	410.12
385.562	414.12
385.787	398.12
386.013	449.12
386.238	419.12
386.463	430.12
386.688	422.12
386.913	427.12
387.138	425.12
387.363	438.12
387.588	440.12
387.813	427.12
388.038	433.12
388.263	429.12
388.488	438.12
388.713	439.12
388.938	437.12
389.163	436.12
389.387	437.12
389.612	428.12
389.837	436.12
390.062	402.12
390.287	410.12
390.512	428.12
390.736	429.12
390.961	448.12
391.186	446.12
391.411	441.12
391.636	419.12
391.86	428.12
392.085	442.12
392.31	433.12
392.534	438.12
392.759	423.12
392.984	452.12
393.208	438.12
393.433	471.12
393.658	484.12
393.882	440.12
394.107	436.12
394.331	437.12
394.556	431.12
394.78	427.12
395.005	444.12
395.229	433.12
395.454	430.12
395.678	445.12
395.903	443.12
396.127	470.12
396.352	472.12
396.576	447.12
396.801	468.12
397.025	465.12
397.249	454.12
397.474	465.12
397.698	464.12
397.922	479.12
398.147	476.12
398.371	475.12
398.595	481.12
398.82	487.12
399.044	511.12
399.268	503.12
399.492	552.12
399.717	570.12
399.941	565.12
400.165	599.12
400.389	594.12
400.613	535.12
400.837	538.12
401.062	531.12
401.286	504.12
401.51	503.12
401.734	483.12
401.958	499.12
402.182	484.12
402.406	493.12
402.63	494.12
402.854	502.12
403.078	500.12
403.302	513.12
403.526	475.12
403.75	494.12
403.974	500.12
404.198	514.12
404.422	499.12
404.645	487.12
404.869	506.12
405.093	533.12
405.317	550.12
405.541	584.12
405.765	526.12
405.988	510.12
406.212	530.12
406.436	545.12
406.66	537.12
406.883	532.12
407.107	557.12
407.331	599.12
407.555	637.12
407.778	612.12
408.002	606.12
408.226	569.12
408.449	564.12
408.673	558.12
408.896	586.12
409.12	609.12
409.344	553.12
409.567	524.12
409.791	518.12
410.014	499.12
410.238	509.12
410.461	515.12
410.685	506.12
410.908	502.12
411.132	558.12
411.355	565.12
411.578	531.12
411.802	522.12
412.025	518.12
412.249	531.12
412.472	541.12
412.695	550.12
412.919	541.12
413.142	515.12
413.365	508.12
413.589	488.12
413.812	489.12
414.035	491.12
414.258	486.12
414.482	476.12
414.705	500.12
414.928	487.12
415.151	507.12
415.374	482.12
415.597	485.12
415.821	490.12
416.044	497.12
416.267	499.12
416.49	466.12
416.713	471.12
416.936	498.12
417.159	477.12
417.382	502.12
417.605	477.12
417.828	510.12
418.051	477.12
418.274	498.12
418.497	470.12
418.72	478.12
418.943	491.12
419.166	500.12
419.389	511.12
419.611	528.12
419.834	499.12
420.057	498.12
420.28	479.12
420.503	489.12
420.726	493.12
420.948	494.12
421.171	516.12
421.394	524.12
421.617	515.12
421.839	479.12
422.062	471.12
422.285	502.12
422.507	532.12
422.73	593.12
422.953	573.12
423.175	516.12
423.398	518.12
423.621	516.12
423.843	516.12
424.066	501.12
424.288	512.12
424.511	498.12
424.733	540.12
424.956	606.12
425.178	573.12
425.401	596.12
425.623	607.12
425.846	539.12
426.068	504.12
426.291	519.12
426.513	491.12
426.735	517.12
426.958	537.12
427.18	565.12
427.402	691.12
427.625	739.12
427.847	605.12
428.069	543.12
428.292	508.12
428.514	490.12
428.736	479.12
428.958	491.12
429.181	470.12
429.403	475.12
429.625	475.12
429.847	497.12
430.069	553.12
430.292	535.12
430.514	473.12
430.736	485.12
430.958	465.12
431.18	455.12
431.402	458.12
431.624	435.12
431.846	457.12
432.068	455.12
432.29	486.12
432.512	448.12
432.734	494.12
432.956	478.12
433.178	472.12
433.4	482.12
433.622	473.12
433.844	482.12
434.066	467.12
434.287	472.12
434.509	473.12
434.731	484.12
434.953	493.12
435.175	501.12
435.397	481.12
435.618	521.12
435.84	541.12
436.062	603.12
436.284	642.12
436.505	551.12
436.727	499.12
436.949	486.12
437.17	484.12
437.392	463.12
437.614	462.12
437.835	495.12
438.057	514.12
438.278	631.12
438.5	595.12
438.721	691.12
438.943	656.12
439.165	524.12
439.386	498.12
439.608	478.12
439.829	492.12
440.05	519.12
440.272	528.12
440.493	494.12
440.715	503.12
440.936	484.12
441.158	470.12
441.379	478.12
441.6	481.12
441.822	497.12
442.043	501.12
442.264	566.12
442.486	595.12
442.707	525.12
442.928	496.12
443.149	523.12
443.371	508.12
443.592	546.12
443.813	605.12
444.034	649.12
444.255	569.12
444.476	549.12
444.698	522.12
444.919	515.12
445.14	633.12
445.361	588.12
445.582	564.12
445.803	569.12
446.024	631.12
446.245	603.12
446.466	574.12
446.687	505.12
446.908	494.12
447.129	482.12
447.35	474.12
447.571	462.12
447.792	462.12
448.013	457.12
448.234	466.12
448.455	471.12
448.675	583.12
448.896	663.12
449.117	573.12
449.338	537.12
449.559	645.12
449.779	710.12
450	585.12
450.221	466.12
450.442	456.12
450.662	448.12
450.883	459.12
451.104	468.12
451.324	446.12
451.545	444.12
451.766	435.12
451.986	429.12
452.207	421.12
452.428	413.12
452.648	423.12
452.869	444.12
453.089	411.12
453.31	430.12
453.53	428.12
453.751	436.12
453.971	441.12
454.192	445.12
454.412	416.12
454.633	435.12
454.853	419.12
455.073	438.12
455.294	433.12
455.514	468.12
455.734	462.12
455.955	435.12
456.175	441.12
456.395	423.12
456.616	406.12
456.836	417.12
457.056	434.12
457.276	429.12
457.497	421.12
457.717	405.12
457.937	407.12
458.157	431.12
458.377	411.12
458.598	441.12
458.818	463.12
459.038	497.12
459.258	517.12
459.478	489.12
459.698	471.12
459.918	453.12
460.138	495.12
460.358	497.12
460.578	500.12
460.798	484.12
461.018	537.12
461.238	507.12
461.458	512.12
461.678	490.12
461.898	516.12
462.118	503.12
462.338	524.12
462.558	528.12
462.777	533.12
462.997	550.12
463.217	555.12
463.437	553.12
463.657	537.12
463.876	522.12
464.096	564.12
464.316	547.12
464.536	541.12
464.755	540.12
464.975	540.12
465.195	510.12
465.414	517.12
465.634	532.12
465.854	467.12
466.073	482.12
466.293	474.12
466.512	477.12
466.732	485.12
466.951	456.12
467.171	468.12
467.391	471.12
467.61	451.12
467.829	436.12
468.049	461.12
468.268	447.12
468.488	454.12
468.707	468.12
468.927	444.12
469.146	455.12
469.365	449.12
469.585	428.12
469.804	457.12
470.023	464.12
470.243	471.12
470.462	475.12
470.681	474.12
470.901	468.12
471.12	466.12
471.339	454.12
471.558	464.12
471.777	491.12
471.997	466.12
472.216	461.12
472.435	478.12
472.654	463.12
472.873	459.12
473.092	470.12
473.311	453.12
473.53	454.12
473.749	459.12
473.968	494.12
474.187	532.12
474.406	554.12
474.625	488.12
474.844	475.12
475.063	486.12
475.282	484.12
475.501	483.12
475.72	500.12
475.939	469.12
476.158	488.12
476.377	471.12
476.596	484.12
476.814	485.12
477.033	503.12
477.252	487.12
477.471	513.12
477.69	521.12
477.908	501.12
478.127	501.12
478.346	536.12
478.564	529.12
478.783	525.12
479.002	523.12
479.22	540.12
479.439	538.12
479.658	559.12
479.876	539.12
480.095	562.12
480.313	557.12
480.532	551.12
480.751	557.12
480.969	574.12
481.188	588.12
481.406	559.12
481.624	554.12
481.843	550.12
482.061	570.12
482.28	549.12
482.498	557.12
482.717	524.12
482.935	555.12
483.153	546.12
483.372	551.12
483.59	548.12
483.808	553.12
484.027	551.12
484.245	548.12
484.463	531.12
484.681	556.12
484.9	555.12
485.118	576.12
485.336	562.12
485.554	557.12
485.772	558.12
485.99	559.12
486.209	570.12
486.427	561.12
486.645	571.12
486.863	557.12
487.081	563.12
487.299	563.12
487.517	586.12
487.735	573.12
487.953	554.12
488.171	576.12
488.389	602.12
488.607	577.12
488.825	588.12
489.043	575.12
489.261	572.12
489.479	585.12
489.696	580.12
489.914	590.12
490.132	596.12
490.35	572.12
490.568	591.12
490.786	597.12
491.003	599.12
491.221	593.12
491.439	630.12
491.657	626.12
491.874	630.12
492.092	638.12
492.31	630.12
492.527	612.12
492.745	625.12
492.963	641.12
493.18	639.12
493.398	666.12
493.615	647.12
493.833	630.12
494.05	637.12
494.268	633.12
494.485	633.12
494.703	635.12
494.92	627.12
495.138	638.12
495.355	652.12
495.573	636.12
495.79	662.12
496.008	637.12
496.225	651.12
496.442	655.12
496.66	677.12
496.877	681.12
497.094	679.12
497.312	680.12
497.529	697.12
497.746	708.12
497.963	716.12
498.181	744.12
498.398	721.12
498.615	771.12
498.832	805.12
499.049	842.12
499.267	825.12
499.484	847.12
499.701	884.12
499.918	931.12
500.135	984.12
500.352	1012.12
500.569	1045.12
500.786	1024.12
501.003	1023.12
501.22	990.12
501.437	954.12
501.654	892.12
501.871	895.12
502.088	856.12
