Data from 1978.PennyLincolnUp.Lamp.En5.5.200Scan.071719.P1_HRD10591_16-14-12-863.txt Node
Date: Thu Jul 18 16:14:12 EDT 2019
User: cochatt
Spectrometer: HR+D1059
Trigger mode: 1
Integration Time (sec): 1.000000E-1
Scans to average: 1
Electric dark correction enabled: true
Nonlinearity correction enabled: false
Boxcar width: 0
XAxis mode: Wavelengths
Number of Pixels in Spectrum: 2048
>>>>>Begin Spectral Data<<<<<
223.165	-9.44
223.4	-9.44
223.635	-9.44
223.869	-4.44
224.104	-20.44
224.338	-23.44
224.573	-13.44
224.808	-6.44
225.042	-11.44
225.277	-6.44
225.511	0.56
225.746	4.56
225.98	-11.44
226.215	8.56
226.449	16.56
226.683	26.56
226.918	23.56
227.152	26.56
227.387	17.56
227.621	40.56
227.856	35.56
228.09	23.56
228.324	30.56
228.559	52.56
228.793	66.56
229.027	81.56
229.262	108.56
229.496	110.56
229.73	130.56
229.964	146.56
230.199	131.56
230.433	110.56
230.667	106.56
230.901	108.56
231.136	103.56
231.37	112.56
231.604	114.56
231.838	107.56
232.072	100.56
232.306	111.56
232.541	96.56
232.775	104.56
233.009	128.56
233.243	105.56
233.477	107.56
233.711	117.56
233.945	110.56
234.179	118.56
234.413	107.56
234.647	106.56
234.881	118.56
235.115	106.56
235.349	112.56
235.583	119.56
235.817	113.56
236.051	120.56
236.285	101.56
236.519	120.56
236.753	132.56
236.987	135.56
237.221	174.56
237.455	246.56
237.689	174.56
237.922	152.56
238.156	112.56
238.39	114.56
238.624	119.56
238.858	133.56
239.091	124.56
239.325	115.56
239.559	108.56
239.793	121.56
240.027	127.56
240.26	126.56
240.494	161.56
240.728	139.56
240.961	141.56
241.195	131.56
241.429	133.56
241.662	128.56
241.896	131.56
242.13	124.56
242.363	129.56
242.597	137.56
242.83	130.56
243.064	136.56
243.298	123.56
243.531	132.56
243.765	126.56
243.998	131.56
244.232	137.56
244.465	125.56
244.699	145.56
244.932	138.56
245.166	143.56
245.399	154.56
245.633	135.56
245.866	146.56
246.099	143.56
246.333	148.56
246.566	146.56
246.8	142.56
247.033	154.56
247.266	152.56
247.5	143.56
247.733	156.56
247.966	150.56
248.2	168.56
248.433	168.56
248.666	149.56
248.899	176.56
249.133	182.56
249.366	186.56
249.599	196.56
249.832	171.56
250.066	181.56
250.299	163.56
250.532	180.56
250.765	192.56
250.998	210.56
251.231	199.56
251.465	184.56
251.698	188.56
251.931	183.56
252.164	171.56
252.397	186.56
252.63	178.56
252.863	180.56
253.096	191.56
253.329	192.56
253.562	201.56
253.795	199.56
254.028	199.56
254.261	192.56
254.494	212.56
254.727	244.56
254.96	238.56
255.193	247.56
255.426	216.56
255.659	221.56
255.892	217.56
256.124	216.56
256.357	220.56
256.59	202.56
256.823	204.56
257.056	198.56
257.289	201.56
257.521	204.56
257.754	211.56
257.987	192.56
258.22	190.56
258.452	196.56
258.685	188.56
258.918	189.56
259.151	195.56
259.383	201.56
259.616	213.56
259.849	196.56
260.081	208.56
260.314	222.56
260.547	230.56
260.779	225.56
261.012	212.56
261.244	226.56
261.477	212.56
261.71	200.56
261.942	234.56
262.175	220.56
262.407	213.56
262.64	225.56
262.872	200.56
263.105	198.56
263.337	213.56
263.57	198.56
263.802	172.56
264.035	202.56
264.267	216.56
264.499	206.56
264.732	211.56
264.964	205.56
265.197	208.56
265.429	201.56
265.661	192.56
265.894	203.56
266.126	200.56
266.358	223.56
266.591	212.56
266.823	194.56
267.055	225.56
267.287	226.56
267.52	217.56
267.752	214.56
267.984	222.56
268.216	210.56
268.448	219.56
268.681	224.56
268.913	239.56
269.145	233.56
269.377	259.56
269.609	269.56
269.841	255.56
270.073	225.56
270.306	261.56
270.538	285.56
270.77	288.56
271.002	279.56
271.234	268.56
271.466	265.56
271.698	292.56
271.93	301.56
272.162	295.56
272.394	285.56
272.626	264.56
272.858	261.56
273.09	268.56
273.322	258.56
273.553	265.56
273.785	242.56
274.017	249.56
274.249	253.56
274.481	241.56
274.713	245.56
274.945	243.56
275.176	240.56
275.408	260.56
275.64	249.56
275.872	257.56
276.104	244.56
276.335	252.56
276.567	253.56
276.799	249.56
277.031	281.56
277.262	310.56
277.494	287.56
277.726	277.56
277.957	271.56
278.189	270.56
278.421	237.56
278.652	273.56
278.884	254.56
279.115	252.56
279.347	268.56
279.579	250.56
279.81	258.56
280.042	257.56
280.273	247.56
280.505	246.56
280.736	225.56
280.968	242.56
281.199	269.56
281.431	245.56
281.662	263.56
281.894	256.56
282.125	262.56
282.356	269.56
282.588	292.56
282.819	281.56
283.051	264.56
283.282	260.56
283.513	256.56
283.745	260.56
283.976	257.56
284.207	272.56
284.439	273.56
284.67	271.56
284.901	253.56
285.132	259.56
285.364	258.56
285.595	267.56
285.826	263.56
286.057	258.56
286.288	275.56
286.52	265.56
286.751	243.56
286.982	273.56
287.213	267.56
287.444	286.56
287.675	287.56
287.906	273.56
288.138	298.56
288.369	310.56
288.6	278.56
288.831	284.56
289.062	296.56
289.293	268.56
289.524	266.56
289.755	289.56
289.986	260.56
290.217	254.56
290.448	266.56
290.679	277.56
290.91	282.56
291.141	271.56
291.371	268.56
291.602	278.56
291.833	265.56
292.064	274.56
292.295	288.56
292.526	277.56
292.757	268.56
292.987	260.56
293.218	262.56
293.449	286.56
293.68	284.56
293.91	282.56
294.141	275.56
294.372	250.56
294.603	285.56
294.833	286.56
295.064	272.56
295.295	278.56
295.525	289.56
295.756	276.56
295.987	292.56
296.217	311.56
296.448	320.56
296.679	288.56
296.909	289.56
297.14	296.56
297.37	292.56
297.601	292.56
297.831	286.56
298.062	279.56
298.292	279.56
298.523	280.56
298.753	297.56
298.984	296.56
299.214	298.56
299.445	310.56
299.675	297.56
299.905	296.56
300.136	290.56
300.366	301.56
300.597	293.56
300.827	300.56
301.057	320.56
301.288	314.56
301.518	304.56
301.748	301.56
301.979	306.56
302.209	314.56
302.439	313.56
302.669	310.56
302.9	316.56
303.13	304.56
303.36	310.56
303.59	333.56
303.82	332.56
304.051	314.56
304.281	328.56
304.511	311.56
304.741	312.56
304.971	308.56
305.201	340.56
305.431	325.56
305.661	323.56
305.891	312.56
306.121	308.56
306.352	307.56
306.582	311.56
306.812	312.56
307.042	331.56
307.272	320.56
307.502	298.56
307.731	317.56
307.961	342.56
308.191	326.56
308.421	327.56
308.651	320.56
308.881	315.56
309.111	324.56
309.341	326.56
309.571	342.56
309.8	346.56
310.03	368.56
310.26	364.56
310.49	354.56
310.72	354.56
310.949	360.56
311.179	363.56
311.409	372.56
311.639	348.56
311.868	356.56
312.098	365.56
312.328	375.56
312.557	370.56
312.787	374.56
313.017	373.56
313.246	371.56
313.476	375.56
313.706	356.56
313.935	352.56
314.165	371.56
314.394	384.56
314.624	378.56
314.853	385.56
315.083	370.56
315.312	360.56
315.542	370.56
315.771	349.56
316.001	361.56
316.23	346.56
316.46	364.56
316.689	358.56
316.919	365.56
317.148	362.56
317.377	389.56
317.607	364.56
317.836	355.56
318.065	362.56
318.295	374.56
318.524	366.56
318.753	350.56
318.983	366.56
319.212	371.56
319.441	365.56
319.67	378.56
319.9	364.56
320.129	365.56
320.358	357.56
320.587	378.56
320.816	377.56
321.046	389.56
321.275	387.56
321.504	380.56
321.733	403.56
321.962	402.56
322.191	407.56
322.42	416.56
322.649	440.56
322.878	442.56
323.108	446.56
323.337	451.56
323.566	476.56
323.795	502.56
324.024	552.56
324.253	632.56
324.482	936.56
324.71	1564.56
324.939	2332.56
325.168	2019.56
325.397	940.56
325.626	658.56
325.855	536.56
326.084	506.56
326.313	477.56
326.542	485.56
326.77	550.56
326.999	626.56
327.228	899.56
327.457	1385.56
327.686	1796.56
327.914	1122.56
328.143	696.56
328.372	619.56
328.6	578.56
328.829	516.56
329.058	533.56
329.287	581.56
329.515	525.56
329.744	499.56
329.972	490.56
330.201	491.56
330.43	541.56
330.658	544.56
330.887	582.56
331.115	575.56
331.344	483.56
331.572	485.56
331.801	477.56
332.03	475.56
332.258	460.56
332.486	451.56
332.715	447.56
332.943	444.56
333.172	450.56
333.4	446.56
333.629	470.56
333.857	443.56
334.085	494.56
334.314	483.56
334.542	493.56
334.771	526.56
334.999	475.56
335.227	491.56
335.455	464.56
335.684	441.56
335.912	435.56
336.14	422.56
336.369	428.56
336.597	459.56
336.825	448.56
337.053	440.56
337.281	432.56
337.51	421.56
337.738	440.56
337.966	444.56
338.194	441.56
338.422	445.56
338.65	429.56
338.878	428.56
339.106	422.56
339.334	425.56
339.562	425.56
339.79	406.56
340.018	398.56
340.246	420.56
340.474	426.56
340.702	446.56
340.93	436.56
341.158	408.56
341.386	418.56
341.614	423.56
341.842	425.56
342.07	411.56
342.298	408.56
342.526	415.56
342.754	411.56
342.981	416.56
343.209	417.56
343.437	415.56
343.665	424.56
343.893	430.56
344.12	436.56
344.348	432.56
344.576	443.56
344.804	431.56
345.031	438.56
345.259	458.56
345.487	432.56
345.714	432.56
345.942	429.56
346.17	408.56
346.397	420.56
346.625	419.56
346.853	409.56
347.08	377.56
347.308	412.56
347.535	429.56
347.763	428.56
347.99	423.56
348.218	430.56
348.445	443.56
348.673	426.56
348.9	420.56
349.128	406.56
349.355	396.56
349.583	406.56
349.81	401.56
350.037	398.56
350.265	412.56
350.492	432.56
350.72	410.56
350.947	384.56
351.174	411.56
351.402	418.56
351.629	422.56
351.856	403.56
352.083	415.56
352.311	431.56
352.538	444.56
352.765	424.56
352.992	435.56
353.22	437.56
353.447	406.56
353.674	408.56
353.901	398.56
354.128	387.56
354.355	392.56
354.583	392.56
354.81	387.56
355.037	420.56
355.264	392.56
355.491	372.56
355.718	394.56
355.945	379.56
356.172	396.56
356.399	364.56
356.626	388.56
356.853	391.56
357.08	378.56
357.307	377.56
357.534	382.56
357.761	388.56
357.988	411.56
358.215	386.56
358.441	406.56
358.668	382.56
358.895	385.56
359.122	406.56
359.349	375.56
359.576	417.56
359.802	430.56
360.029	472.56
360.256	485.56
360.483	446.56
360.709	412.56
360.936	425.56
361.163	401.56
361.39	392.56
361.616	430.56
361.843	410.56
362.07	421.56
362.296	429.56
362.523	389.56
362.749	424.56
362.976	404.56
363.203	397.56
363.429	393.56
363.656	406.56
363.882	416.56
364.109	382.56
364.335	399.56
364.562	405.56
364.788	395.56
365.015	411.56
365.241	402.56
365.468	405.56
365.694	421.56
365.92	414.56
366.147	408.56
366.373	406.56
366.599	388.56
366.826	400.56
367.052	407.56
367.278	402.56
367.505	396.56
367.731	420.56
367.957	386.56
368.184	408.56
368.41	423.56
368.636	429.56
368.862	421.56
369.089	408.56
369.315	406.56
369.541	399.56
369.767	416.56
369.993	395.56
370.219	437.56
370.445	403.56
370.672	387.56
370.898	385.56
371.124	410.56
371.35	411.56
371.576	411.56
371.802	399.56
372.028	399.56
372.254	395.56
372.48	418.56
372.706	399.56
372.932	389.56
373.158	419.56
373.384	435.56
373.61	419.56
373.835	430.56
374.061	404.56
374.287	413.56
374.513	410.56
374.739	421.56
374.965	430.56
375.191	408.56
375.416	423.56
375.642	409.56
375.868	400.56
376.094	417.56
376.319	409.56
376.545	403.56
376.771	395.56
376.997	409.56
377.222	392.56
377.448	421.56
377.674	408.56
377.899	412.56
378.125	393.56
378.35	390.56
378.576	413.56
378.802	405.56
379.027	402.56
379.253	396.56
379.478	399.56
379.704	386.56
379.929	406.56
380.155	409.56
380.38	410.56
380.606	428.56
380.831	427.56
381.057	409.56
381.282	404.56
381.507	435.56
381.733	407.56
381.958	430.56
382.184	414.56
382.409	421.56
382.634	423.56
382.86	413.56
383.085	423.56
383.31	419.56
383.535	437.56
383.761	425.56
383.986	435.56
384.211	448.56
384.436	413.56
384.662	449.56
384.887	456.56
385.112	452.56
385.337	444.56
385.562	449.56
385.787	455.56
386.013	473.56
386.238	478.56
386.463	444.56
386.688	473.56
386.913	434.56
387.138	454.56
387.363	452.56
387.588	454.56
387.813	445.56
388.038	456.56
388.263	484.56
388.488	449.56
388.713	441.56
388.938	447.56
389.163	455.56
389.387	448.56
389.612	448.56
389.837	461.56
390.062	464.56
390.287	426.56
390.512	459.56
390.736	438.56
390.961	479.56
391.186	446.56
391.411	458.56
391.636	456.56
391.86	483.56
392.085	462.56
392.31	463.56
392.534	470.56
392.759	481.56
392.984	462.56
393.208	460.56
393.433	465.56
393.658	470.56
393.882	449.56
394.107	466.56
394.331	472.56
394.556	463.56
394.78	466.56
395.005	477.56
395.229	443.56
395.454	497.56
395.678	476.56
395.903	483.56
396.127	530.56
396.352	519.56
396.576	500.56
396.801	483.56
397.025	470.56
397.249	476.56
397.474	478.56
397.698	494.56
397.922	502.56
398.147	530.56
398.371	518.56
398.595	529.56
398.82	536.56
399.044	550.56
399.268	549.56
399.492	602.56
399.717	604.56
399.941	640.56
400.165	644.56
400.389	659.56
400.613	616.56
400.837	568.56
401.062	550.56
401.286	527.56
401.51	526.56
401.734	524.56
401.958	555.56
402.182	541.56
402.406	536.56
402.63	545.56
402.854	562.56
403.078	534.56
403.302	534.56
403.526	534.56
403.75	570.56
403.974	560.56
404.198	564.56
404.422	582.56
404.645	561.56
404.869	539.56
405.093	574.56
405.317	655.56
405.541	652.56
405.765	624.56
405.988	566.56
406.212	583.56
406.436	611.56
406.66	611.56
406.883	600.56
407.107	628.56
407.331	658.56
407.555	761.56
407.778	738.56
408.002	676.56
408.226	626.56
408.449	616.56
408.673	621.56
408.896	632.56
409.12	700.56
409.344	662.56
409.567	612.56
409.791	554.56
410.014	574.56
410.238	575.56
410.461	562.56
410.685	558.56
410.908	590.56
411.132	642.56
411.355	645.56
411.578	608.56
411.802	571.56
412.025	577.56
412.249	564.56
412.472	594.56
412.695	635.56
412.919	612.56
413.142	574.56
413.365	557.56
413.589	540.56
413.812	525.56
414.035	534.56
414.258	522.56
414.482	541.56
414.705	520.56
414.928	551.56
415.151	505.56
415.374	558.56
415.597	530.56
415.821	518.56
416.044	526.56
416.267	537.56
416.49	537.56
416.713	538.56
416.936	498.56
417.159	512.56
417.382	525.56
417.605	515.56
417.828	544.56
418.051	554.56
418.274	546.56
418.497	527.56
418.72	518.56
418.943	530.56
419.166	533.56
419.389	550.56
419.611	567.56
419.834	545.56
420.057	538.56
420.28	550.56
420.503	544.56
420.726	557.56
420.948	537.56
421.171	591.56
421.394	630.56
421.617	567.56
421.839	530.56
422.062	558.56
422.285	586.56
422.507	631.56
422.73	708.56
422.953	683.56
423.175	600.56
423.398	556.56
423.621	552.56
423.843	603.56
424.066	588.56
424.288	583.56
424.511	590.56
424.733	655.56
424.956	722.56
425.178	685.56
425.401	702.56
425.623	750.56
425.846	629.56
426.068	604.56
426.291	591.56
426.513	572.56
426.735	586.56
426.958	645.56
427.18	740.56
427.402	901.56
427.625	968.56
427.847	843.56
428.069	716.56
428.292	619.56
428.514	596.56
428.736	572.56
428.958	595.56
429.181	536.56
429.403	557.56
429.625	566.56
429.847	574.56
430.069	662.56
430.292	658.56
430.514	563.56
430.736	538.56
430.958	535.56
431.18	530.56
431.402	540.56
431.624	515.56
431.846	518.56
432.068	509.56
432.29	537.56
432.512	519.56
432.734	523.56
432.956	537.56
433.178	528.56
433.4	527.56
433.622	545.56
433.844	510.56
434.066	500.56
434.287	518.56
434.509	526.56
434.731	527.56
434.953	562.56
435.175	532.56
435.397	587.56
435.618	586.56
435.84	654.56
436.062	743.56
436.284	829.56
436.505	678.56
436.727	596.56
436.949	550.56
437.17	547.56
437.392	555.56
437.614	570.56
437.835	585.56
438.057	678.56
438.278	808.56
438.5	788.56
438.721	893.56
438.943	860.56
439.165	666.56
439.386	615.56
439.608	600.56
439.829	578.56
440.05	605.56
440.272	688.56
440.493	635.56
440.715	580.56
440.936	557.56
441.158	561.56
441.379	518.56
441.6	560.56
441.822	580.56
442.043	622.56
442.264	746.56
442.486	783.56
442.707	638.56
442.928	604.56
443.149	618.56
443.371	630.56
443.592	700.56
443.813	764.56
444.034	857.56
444.255	694.56
444.476	625.56
444.698	593.56
444.919	625.56
445.14	693.56
445.361	653.56
445.582	615.56
445.803	706.56
446.024	848.56
446.245	824.56
446.466	754.56
446.687	636.56
446.908	581.56
447.129	560.56
447.35	537.56
447.571	539.56
447.792	538.56
448.013	547.56
448.234	557.56
448.455	608.56
448.675	742.56
448.896	862.56
449.117	731.56
449.338	677.56
449.559	779.56
449.779	917.56
450	714.56
450.221	604.56
450.442	566.56
450.662	548.56
450.883	525.56
451.104	555.56
451.324	562.56
451.545	525.56
451.766	509.56
451.986	460.56
452.207	485.56
452.428	483.56
452.648	477.56
452.869	502.56
453.089	491.56
453.31	481.56
453.53	466.56
453.751	499.56
453.971	488.56
454.192	486.56
454.412	488.56
454.633	467.56
454.853	497.56
455.073	481.56
455.294	500.56
455.514	579.56
455.734	551.56
455.955	471.56
456.175	480.56
456.395	456.56
456.616	470.56
456.836	463.56
457.056	466.56
457.276	468.56
457.497	461.56
457.717	452.56
457.937	481.56
458.157	483.56
458.377	456.56
458.598	491.56
458.818	553.56
459.038	638.56
459.258	684.56
459.478	563.56
459.698	550.56
459.918	531.56
460.138	509.56
460.358	523.56
460.578	509.56
460.798	518.56
461.018	527.56
461.238	550.56
461.458	551.56
461.678	538.56
461.898	550.56
462.118	532.56
462.338	553.56
462.558	536.56
462.777	547.56
462.997	580.56
463.217	576.56
463.437	600.56
463.657	577.56
463.876	560.56
464.096	571.56
464.316	577.56
464.536	576.56
464.755	570.56
464.975	611.56
465.195	615.56
465.414	654.56
465.634	600.56
465.854	550.56
466.073	562.56
466.293	549.56
466.512	498.56
466.732	517.56
466.951	508.56
467.171	502.56
467.391	502.56
467.61	517.56
467.829	514.56
468.049	515.56
468.268	520.56
468.488	478.56
468.707	473.56
468.927	512.56
469.146	486.56
469.365	472.56
469.585	497.56
469.804	470.56
470.023	522.56
470.243	524.56
470.462	518.56
470.681	515.56
470.901	516.56
471.12	514.56
471.339	503.56
471.558	491.56
471.777	510.56
471.997	475.56
472.216	514.56
472.435	544.56
472.654	549.56
472.873	515.56
473.092	500.56
473.311	502.56
473.53	492.56
473.749	532.56
473.968	589.56
474.187	673.56
474.406	686.56
474.625	571.56
474.844	536.56
475.063	519.56
475.282	524.56
475.501	506.56
475.72	536.56
475.939	507.56
476.158	524.56
476.377	530.56
476.596	536.56
476.814	531.56
477.033	557.56
477.252	538.56
477.471	547.56
477.69	554.56
477.908	548.56
478.127	577.56
478.346	564.56
478.564	541.56
478.783	574.56
479.002	572.56
479.22	568.56
479.439	619.56
479.658	591.56
479.876	618.56
480.095	617.56
480.313	659.56
480.532	637.56
480.751	605.56
480.969	629.56
481.188	682.56
481.406	693.56
481.624	645.56
481.843	637.56
482.061	615.56
482.28	605.56
482.498	622.56
482.717	601.56
482.935	590.56
483.153	599.56
483.372	590.56
483.59	614.56
483.808	606.56
484.027	594.56
484.245	569.56
484.463	590.56
484.681	603.56
484.9	611.56
485.118	605.56
485.336	617.56
485.554	605.56
485.772	630.56
485.99	611.56
486.209	616.56
486.427	621.56
486.645	620.56
486.863	649.56
487.081	649.56
487.299	632.56
487.517	632.56
487.735	638.56
487.953	645.56
488.171	621.56
488.389	631.56
488.607	646.56
488.825	621.56
489.043	635.56
489.261	646.56
489.479	648.56
489.696	636.56
489.914	641.56
490.132	650.56
490.35	654.56
490.568	653.56
490.786	662.56
491.003	684.56
491.221	665.56
491.439	729.56
491.657	722.56
491.874	708.56
492.092	730.56
492.31	715.56
492.527	725.56
492.745	721.56
492.963	737.56
493.18	749.56
493.398	740.56
493.615	731.56
493.833	713.56
494.05	723.56
494.268	727.56
494.485	741.56
494.703	706.56
494.92	750.56
495.138	724.56
495.355	774.56
495.573	764.56
495.79	744.56
496.008	747.56
496.225	736.56
496.442	752.56
496.66	746.56
496.877	747.56
497.094	766.56
497.312	779.56
497.529	762.56
497.746	780.56
497.963	793.56
498.181	842.56
498.398	819.56
498.615	833.56
498.832	873.56
499.049	858.56
499.267	923.56
499.484	933.56
499.701	961.56
499.918	1006.56
500.135	1041.56
500.352	1070.56
500.569	1061.56
500.786	1087.56
501.003	1100.56
501.22	1062.56
501.437	993.56
501.654	988.56
501.871	969.56
