Data from 1978.PennyLincolnUp.Lamp.En5.5.200Scan.071719.P1_HRD10591_16-13-17-864.txt Node
Date: Thu Jul 18 16:13:17 EDT 2019
User: cochatt
Spectrometer: HR+D1059
Trigger mode: 1
Integration Time (sec): 1.000000E-1
Scans to average: 1
Electric dark correction enabled: true
Nonlinearity correction enabled: false
Boxcar width: 0
XAxis mode: Wavelengths
Number of Pixels in Spectrum: 2048
>>>>>Begin Spectral Data<<<<<
223.165	-12.75
223.4	-12.75
223.635	-12.75
223.869	-11.75
224.104	-11.75
224.338	-17.75
224.573	-9.75
224.808	-23.75
225.042	-5.75
225.277	-4.75
225.511	-8.75
225.746	4.25
225.98	-0.75
226.215	11.25
226.449	12.25
226.683	30.25
226.918	19.25
227.152	30.25
227.387	43.25
227.621	36.25
227.856	38.25
228.09	48.25
228.324	50.25
228.559	43.25
228.793	75.25
229.027	94.25
229.262	102.25
229.496	111.25
229.73	133.25
229.964	164.25
230.199	122.25
230.433	120.25
230.667	123.25
230.901	125.25
231.136	106.25
231.37	100.25
231.604	105.25
231.838	113.25
232.072	104.25
232.306	116.25
232.541	112.25
232.775	106.25
233.009	107.25
233.243	109.25
233.477	126.25
233.711	129.25
233.945	121.25
234.179	110.25
234.413	119.25
234.647	130.25
234.881	114.25
235.115	115.25
235.349	106.25
235.583	91.25
235.817	118.25
236.051	124.25
236.285	126.25
236.519	118.25
236.753	135.25
236.987	144.25
237.221	186.25
237.455	237.25
237.689	196.25
237.922	147.25
238.156	134.25
238.39	133.25
238.624	118.25
238.858	142.25
239.091	122.25
239.325	117.25
239.559	116.25
239.793	130.25
240.027	140.25
240.26	144.25
240.494	149.25
240.728	169.25
240.961	153.25
241.195	143.25
241.429	146.25
241.662	142.25
241.896	138.25
242.13	140.25
242.363	122.25
242.597	148.25
242.83	124.25
243.064	133.25
243.298	127.25
243.531	132.25
243.765	140.25
243.998	136.25
244.232	142.25
244.465	143.25
244.699	152.25
244.932	147.25
245.166	145.25
245.399	148.25
245.633	132.25
245.866	141.25
246.099	138.25
246.333	142.25
246.566	144.25
246.8	138.25
247.033	143.25
247.266	151.25
247.5	154.25
247.733	166.25
247.966	167.25
248.2	175.25
248.433	162.25
248.666	164.25
248.899	170.25
249.133	189.25
249.366	186.25
249.599	203.25
249.832	191.25
250.066	187.25
250.299	173.25
250.532	187.25
250.765	195.25
250.998	205.25
251.231	198.25
251.465	208.25
251.698	192.25
251.931	196.25
252.164	190.25
252.397	190.25
252.63	192.25
252.863	200.25
253.096	199.25
253.329	206.25
253.562	211.25
253.795	191.25
254.028	214.25
254.261	190.25
254.494	202.25
254.727	238.25
254.96	264.25
255.193	254.25
255.426	207.25
255.659	226.25
255.892	223.25
256.124	222.25
256.357	219.25
256.59	194.25
256.823	199.25
257.056	204.25
257.289	189.25
257.521	198.25
257.754	201.25
257.987	207.25
258.22	219.25
258.452	202.25
258.685	198.25
258.918	203.25
259.151	209.25
259.383	212.25
259.616	193.25
259.849	223.25
260.081	238.25
260.314	239.25
260.547	235.25
260.779	231.25
261.012	220.25
261.244	211.25
261.477	211.25
261.71	209.25
261.942	211.25
262.175	210.25
262.407	226.25
262.64	219.25
262.872	212.25
263.105	207.25
263.337	206.25
263.57	207.25
263.802	208.25
264.035	218.25
264.267	203.25
264.499	221.25
264.732	187.25
264.964	206.25
265.197	218.25
265.429	211.25
265.661	212.25
265.894	218.25
266.126	221.25
266.358	203.25
266.591	208.25
266.823	220.25
267.055	211.25
267.287	219.25
267.52	227.25
267.752	219.25
267.984	225.25
268.216	219.25
268.448	228.25
268.681	222.25
268.913	231.25
269.145	243.25
269.377	256.25
269.609	263.25
269.841	256.25
270.073	260.25
270.306	267.25
270.538	295.25
270.77	301.25
271.002	292.25
271.234	268.25
271.466	261.25
271.698	290.25
271.93	303.25
272.162	309.25
272.394	294.25
272.626	260.25
272.858	253.25
273.09	266.25
273.322	264.25
273.553	280.25
273.785	249.25
274.017	250.25
274.249	263.25
274.481	257.25
274.713	254.25
274.945	263.25
275.176	257.25
275.408	247.25
275.64	245.25
275.872	228.25
276.104	239.25
276.335	254.25
276.567	262.25
276.799	282.25
277.031	289.25
277.262	286.25
277.494	300.25
277.726	278.25
277.957	273.25
278.189	253.25
278.421	263.25
278.652	257.25
278.884	254.25
279.115	282.25
279.347	243.25
279.579	247.25
279.81	264.25
280.042	261.25
280.273	255.25
280.505	230.25
280.736	262.25
280.968	251.25
281.199	271.25
281.431	272.25
281.662	266.25
281.894	260.25
282.125	267.25
282.356	294.25
282.588	294.25
282.819	307.25
283.051	267.25
283.282	271.25
283.513	270.25
283.745	280.25
283.976	276.25
284.207	270.25
284.439	279.25
284.67	286.25
284.901	275.25
285.132	274.25
285.364	271.25
285.595	289.25
285.826	279.25
286.057	290.25
286.288	251.25
286.52	263.25
286.751	275.25
286.982	281.25
287.213	300.25
287.444	287.25
287.675	280.25
287.906	290.25
288.138	297.25
288.369	296.25
288.6	284.25
288.831	300.25
289.062	293.25
289.293	285.25
289.524	277.25
289.755	288.25
289.986	296.25
290.217	268.25
290.448	278.25
290.679	293.25
290.91	286.25
291.141	275.25
291.371	280.25
291.602	296.25
291.833	294.25
292.064	284.25
292.295	299.25
292.526	301.25
292.757	281.25
292.987	299.25
293.218	288.25
293.449	295.25
293.68	289.25
293.91	272.25
294.141	280.25
294.372	286.25
294.603	282.25
294.833	299.25
295.064	284.25
295.295	287.25
295.525	287.25
295.756	303.25
295.987	307.25
296.217	306.25
296.448	322.25
296.679	296.25
296.909	301.25
297.14	293.25
297.37	285.25
297.601	309.25
297.831	295.25
298.062	305.25
298.292	295.25
298.523	300.25
298.753	311.25
298.984	295.25
299.214	302.25
299.445	303.25
299.675	303.25
299.905	309.25
300.136	310.25
300.366	308.25
300.597	307.25
300.827	313.25
301.057	315.25
301.288	327.25
301.518	322.25
301.748	300.25
301.979	340.25
302.209	316.25
302.439	333.25
302.669	327.25
302.9	322.25
303.13	300.25
303.36	311.25
303.59	340.25
303.82	322.25
304.051	326.25
304.281	329.25
304.511	322.25
304.741	318.25
304.971	324.25
305.201	315.25
305.431	311.25
305.661	320.25
305.891	344.25
306.121	326.25
306.352	320.25
306.582	345.25
306.812	343.25
307.042	313.25
307.272	330.25
307.502	329.25
307.731	338.25
307.961	318.25
308.191	328.25
308.421	323.25
308.651	344.25
308.881	327.25
309.111	346.25
309.341	346.25
309.571	341.25
309.8	351.25
310.03	370.25
310.26	360.25
310.49	364.25
310.72	375.25
310.949	392.25
311.179	390.25
311.409	380.25
311.639	370.25
311.868	368.25
312.098	375.25
312.328	374.25
312.557	388.25
312.787	394.25
313.017	391.25
313.246	406.25
313.476	362.25
313.706	356.25
313.935	371.25
314.165	389.25
314.394	390.25
314.624	388.25
314.853	363.25
315.083	384.25
315.312	370.25
315.542	379.25
315.771	367.25
316.001	368.25
316.23	373.25
316.46	378.25
316.689	377.25
316.919	381.25
317.148	384.25
317.377	404.25
317.607	398.25
317.836	392.25
318.065	371.25
318.295	355.25
318.524	368.25
318.753	379.25
318.983	392.25
319.212	363.25
319.441	390.25
319.67	384.25
319.9	377.25
320.129	380.25
320.358	364.25
320.587	380.25
320.816	377.25
321.046	391.25
321.275	382.25
321.504	385.25
321.733	405.25
321.962	395.25
322.191	413.25
322.42	431.25
322.649	434.25
322.878	434.25
323.108	442.25
323.337	467.25
323.566	481.25
323.795	538.25
324.024	537.25
324.253	677.25
324.482	948.25
324.71	1499.25
324.939	2259.25
325.168	1993.25
325.397	970.25
325.626	633.25
325.855	550.25
326.084	516.25
326.313	495.25
326.542	515.25
326.77	536.25
326.999	660.25
327.228	872.25
327.457	1377.25
327.686	1742.25
327.914	1113.25
328.143	712.25
328.372	608.25
328.6	581.25
328.829	559.25
329.058	552.25
329.287	549.25
329.515	536.25
329.744	517.25
329.972	493.25
330.201	536.25
330.43	546.25
330.658	592.25
330.887	572.25
331.115	562.25
331.344	515.25
331.572	506.25
331.801	486.25
332.03	468.25
332.258	471.25
332.486	453.25
332.715	468.25
332.943	476.25
333.172	453.25
333.4	450.25
333.629	456.25
333.857	496.25
334.085	502.25
334.314	523.25
334.542	540.25
334.771	537.25
334.999	508.25
335.227	478.25
335.455	474.25
335.684	459.25
335.912	454.25
336.14	450.25
336.369	463.25
336.597	470.25
336.825	456.25
337.053	438.25
337.281	447.25
337.51	445.25
337.738	415.25
337.966	431.25
338.194	442.25
338.422	416.25
338.65	431.25
338.878	449.25
339.106	429.25
339.334	443.25
339.562	432.25
339.79	427.25
340.018	445.25
340.246	418.25
340.474	460.25
340.702	444.25
340.93	436.25
341.158	418.25
341.386	424.25
341.614	440.25
341.842	441.25
342.07	435.25
342.298	423.25
342.526	423.25
342.754	429.25
342.981	423.25
343.209	408.25
343.437	418.25
343.665	447.25
343.893	448.25
344.12	452.25
344.348	450.25
344.576	440.25
344.804	462.25
345.031	445.25
345.259	475.25
345.487	447.25
345.714	444.25
345.942	434.25
346.17	421.25
346.397	390.25
346.625	433.25
346.853	434.25
347.08	413.25
347.308	421.25
347.535	427.25
347.763	418.25
347.99	426.25
348.218	439.25
348.445	437.25
348.673	443.25
348.9	409.25
349.128	414.25
349.355	417.25
349.583	414.25
349.81	403.25
350.037	419.25
350.265	414.25
350.492	406.25
350.72	417.25
350.947	416.25
351.174	423.25
351.402	440.25
351.629	414.25
351.856	444.25
352.083	423.25
352.311	437.25
352.538	464.25
352.765	434.25
352.992	422.25
353.22	407.25
353.447	412.25
353.674	414.25
353.901	417.25
354.128	418.25
354.355	411.25
354.583	397.25
354.81	415.25
355.037	397.25
355.264	383.25
355.491	381.25
355.718	398.25
355.945	400.25
356.172	394.25
356.399	402.25
356.626	394.25
356.853	410.25
357.08	419.25
357.307	400.25
357.534	394.25
357.761	407.25
357.988	406.25
358.215	408.25
358.441	423.25
358.668	410.25
358.895	404.25
359.122	417.25
359.349	414.25
359.576	438.25
359.802	460.25
360.029	475.25
360.256	486.25
360.483	470.25
360.709	423.25
360.936	415.25
361.163	429.25
361.39	438.25
361.616	463.25
361.843	423.25
362.07	420.25
362.296	446.25
362.523	439.25
362.749	408.25
362.976	422.25
363.203	414.25
363.429	426.25
363.656	418.25
363.882	415.25
364.109	420.25
364.335	406.25
364.562	400.25
364.788	427.25
365.015	427.25
365.241	428.25
365.468	423.25
365.694	428.25
365.92	440.25
366.147	434.25
366.373	426.25
366.599	399.25
366.826	411.25
367.052	400.25
367.278	418.25
367.505	416.25
367.731	429.25
367.957	408.25
368.184	422.25
368.41	420.25
368.636	421.25
368.862	450.25
369.089	436.25
369.315	415.25
369.541	398.25
369.767	423.25
369.993	431.25
370.219	407.25
370.445	431.25
370.672	396.25
370.898	408.25
371.124	406.25
371.35	397.25
371.576	431.25
371.802	432.25
372.028	424.25
372.254	430.25
372.48	450.25
372.706	408.25
372.932	412.25
373.158	413.25
373.384	409.25
373.61	422.25
373.835	429.25
374.061	427.25
374.287	436.25
374.513	439.25
374.739	419.25
374.965	420.25
375.191	428.25
375.416	439.25
375.642	434.25
375.868	430.25
376.094	440.25
376.319	428.25
376.545	421.25
376.771	417.25
376.997	418.25
377.222	426.25
377.448	405.25
377.674	416.25
377.899	427.25
378.125	417.25
378.35	378.25
378.576	409.25
378.802	407.25
379.027	419.25
379.253	419.25
379.478	408.25
379.704	416.25
379.929	448.25
380.155	410.25
380.38	412.25
380.606	403.25
380.831	426.25
381.057	426.25
381.282	411.25
381.507	431.25
381.733	406.25
381.958	433.25
382.184	448.25
382.409	434.25
382.634	417.25
382.86	428.25
383.085	443.25
383.31	453.25
383.535	430.25
383.761	430.25
383.986	441.25
384.211	456.25
384.436	422.25
384.662	423.25
384.887	483.25
385.112	456.25
385.337	455.25
385.562	446.25
385.787	448.25
386.013	481.25
386.238	471.25
386.463	500.25
386.688	482.25
386.913	459.25
387.138	492.25
387.363	472.25
387.588	468.25
387.813	464.25
388.038	471.25
388.263	464.25
388.488	470.25
388.713	473.25
388.938	446.25
389.163	475.25
389.387	487.25
389.612	472.25
389.837	462.25
390.062	470.25
390.287	477.25
390.512	468.25
390.736	474.25
390.961	485.25
391.186	486.25
391.411	483.25
391.636	477.25
391.86	499.25
392.085	478.25
392.31	495.25
392.534	507.25
392.759	499.25
392.984	464.25
393.208	477.25
393.433	491.25
393.658	474.25
393.882	468.25
394.107	500.25
394.331	470.25
394.556	487.25
394.78	494.25
395.005	463.25
395.229	484.25
395.454	486.25
395.678	480.25
395.903	472.25
396.127	547.25
396.352	533.25
396.576	501.25
396.801	494.25
397.025	499.25
397.249	499.25
397.474	483.25
397.698	490.25
397.922	533.25
398.147	550.25
398.371	550.25
398.595	520.25
398.82	538.25
399.044	538.25
399.268	581.25
399.492	629.25
399.717	629.25
399.941	661.25
400.165	665.25
400.389	688.25
400.613	618.25
400.837	562.25
401.062	567.25
401.286	572.25
401.51	568.25
401.734	539.25
401.958	569.25
402.182	538.25
402.406	588.25
402.63	557.25
402.854	559.25
403.078	566.25
403.302	573.25
403.526	566.25
403.75	573.25
403.974	568.25
404.198	562.25
404.422	569.25
404.645	565.25
404.869	596.25
405.093	592.25
405.317	642.25
405.541	688.25
405.765	657.25
405.988	609.25
406.212	597.25
406.436	639.25
406.66	638.25
406.883	630.25
407.107	663.25
407.331	696.25
407.555	739.25
407.778	771.25
408.002	698.25
408.226	644.25
408.449	647.25
408.673	624.25
408.896	648.25
409.12	715.25
409.344	652.25
409.567	611.25
409.791	584.25
410.014	571.25
410.238	573.25
410.461	579.25
410.685	576.25
410.908	604.25
411.132	643.25
411.355	670.25
411.578	646.25
411.802	581.25
412.025	565.25
412.249	582.25
412.472	600.25
412.695	660.25
412.919	633.25
413.142	583.25
413.365	583.25
413.589	565.25
413.812	541.25
414.035	553.25
414.258	565.25
414.482	554.25
414.705	538.25
414.928	552.25
415.151	536.25
415.374	518.25
415.597	529.25
415.821	524.25
416.044	547.25
416.267	543.25
416.49	539.25
416.713	541.25
416.936	532.25
417.159	555.25
417.382	540.25
417.605	538.25
417.828	552.25
418.051	560.25
418.274	555.25
418.497	547.25
418.72	549.25
418.943	543.25
419.166	570.25
419.389	614.25
419.611	589.25
419.834	563.25
420.057	559.25
420.28	562.25
420.503	559.25
420.726	557.25
420.948	564.25
421.171	616.25
421.394	647.25
421.617	595.25
421.839	554.25
422.062	543.25
422.285	579.25
422.507	645.25
422.73	724.25
422.953	696.25
423.175	604.25
423.398	605.25
423.621	582.25
423.843	604.25
424.066	599.25
424.288	601.25
424.511	620.25
424.733	684.25
424.956	752.25
425.178	728.25
425.401	736.25
425.623	744.25
425.846	665.25
426.068	613.25
426.291	581.25
426.513	586.25
426.735	614.25
426.958	640.25
427.18	728.25
427.402	874.25
427.625	966.25
427.847	838.25
428.069	735.25
428.292	654.25
428.514	598.25
428.736	586.25
428.958	566.25
429.181	568.25
429.403	559.25
429.625	556.25
429.847	589.25
430.069	675.25
430.292	662.25
430.514	595.25
430.736	554.25
430.958	570.25
431.18	551.25
431.402	547.25
431.624	539.25
431.846	524.25
432.068	543.25
432.29	543.25
432.512	523.25
432.734	522.25
432.956	535.25
433.178	561.25
433.4	573.25
433.622	553.25
433.844	569.25
434.066	556.25
434.287	543.25
434.509	542.25
434.731	551.25
434.953	518.25
435.175	544.25
435.397	569.25
435.618	612.25
435.84	636.25
436.062	781.25
436.284	838.25
436.505	674.25
436.727	640.25
436.949	571.25
437.17	554.25
437.392	525.25
437.614	593.25
437.835	591.25
438.057	701.25
438.278	821.25
438.5	815.25
438.721	918.25
438.943	884.25
439.165	656.25
439.386	617.25
439.608	616.25
439.829	626.25
440.05	621.25
440.272	670.25
440.493	628.25
440.715	616.25
440.936	588.25
441.158	568.25
441.379	580.25
441.6	582.25
441.822	593.25
442.043	647.25
442.264	738.25
442.486	797.25
442.707	699.25
442.928	613.25
443.149	626.25
443.371	636.25
443.592	677.25
443.813	800.25
444.034	878.25
444.255	708.25
444.476	647.25
444.698	630.25
444.919	630.25
445.14	723.25
445.361	677.25
445.582	646.25
445.803	726.25
446.024	835.25
446.245	851.25
446.466	796.25
446.687	676.25
446.908	592.25
447.129	554.25
447.35	578.25
447.571	568.25
447.792	526.25
448.013	563.25
448.234	579.25
448.455	631.25
448.675	751.25
448.896	892.25
449.117	742.25
449.338	702.25
449.559	839.25
449.779	1001.25
450	741.25
450.221	626.25
450.442	554.25
450.662	537.25
450.883	548.25
451.104	587.25
451.324	564.25
451.545	539.25
451.766	531.25
451.986	508.25
452.207	511.25
452.428	519.25
452.648	504.25
452.869	487.25
453.089	502.25
453.31	524.25
453.53	485.25
453.751	496.25
453.971	505.25
454.192	534.25
454.412	507.25
454.633	498.25
454.853	476.25
455.073	477.25
455.294	541.25
455.514	590.25
455.734	573.25
455.955	499.25
456.175	491.25
456.395	487.25
456.616	486.25
456.836	479.25
457.056	480.25
457.276	459.25
457.497	489.25
457.717	480.25
457.937	488.25
458.157	479.25
458.377	501.25
458.598	507.25
458.818	564.25
459.038	649.25
459.258	659.25
459.478	600.25
459.698	543.25
459.918	535.25
460.138	546.25
460.358	562.25
460.578	546.25
460.798	556.25
461.018	564.25
461.238	542.25
461.458	557.25
461.678	562.25
461.898	563.25
462.118	573.25
462.338	578.25
462.558	589.25
462.777	588.25
462.997	600.25
463.217	615.25
463.437	629.25
463.657	613.25
463.876	588.25
464.096	600.25
464.316	592.25
464.536	616.25
464.755	592.25
464.975	593.25
465.195	618.25
465.414	679.25
465.634	616.25
465.854	590.25
466.073	561.25
466.293	543.25
466.512	542.25
466.732	527.25
466.951	524.25
467.171	522.25
467.391	525.25
467.61	544.25
467.829	519.25
468.049	536.25
468.268	528.25
468.488	507.25
468.707	524.25
468.927	519.25
469.146	505.25
469.365	500.25
469.585	507.25
469.804	483.25
470.023	535.25
470.243	493.25
470.462	551.25
470.681	549.25
470.901	557.25
471.12	527.25
471.339	544.25
471.558	539.25
471.777	533.25
471.997	519.25
472.216	531.25
472.435	540.25
472.654	534.25
472.873	524.25
473.092	500.25
473.311	518.25
473.53	518.25
473.749	527.25
473.968	559.25
474.187	675.25
474.406	713.25
474.625	590.25
474.844	543.25
475.063	540.25
475.282	558.25
475.501	532.25
475.72	542.25
475.939	551.25
476.158	545.25
476.377	544.25
476.596	548.25
476.814	539.25
477.033	523.25
477.252	569.25
477.471	564.25
477.69	566.25
477.908	578.25
478.127	556.25
478.346	574.25
478.564	588.25
478.783	593.25
479.002	592.25
479.22	587.25
479.439	623.25
479.658	613.25
479.876	647.25
480.095	655.25
480.313	649.25
480.532	642.25
480.751	640.25
480.969	669.25
481.188	679.25
481.406	743.25
481.624	682.25
481.843	644.25
482.061	639.25
482.28	639.25
482.498	610.25
482.717	614.25
482.935	608.25
483.153	621.25
483.372	618.25
483.59	616.25
483.808	629.25
484.027	600.25
484.245	626.25
484.463	616.25
484.681	619.25
484.9	630.25
485.118	646.25
485.336	617.25
485.554	639.25
485.772	624.25
485.99	644.25
486.209	640.25
486.427	642.25
486.645	677.25
486.863	672.25
487.081	671.25
487.299	669.25
487.517	679.25
487.735	675.25
487.953	644.25
488.171	666.25
488.389	651.25
488.607	655.25
488.825	657.25
489.043	676.25
489.261	663.25
489.479	687.25
489.696	674.25
489.914	657.25
490.132	685.25
490.35	680.25
490.568	686.25
490.786	690.25
491.003	729.25
491.221	718.25
491.439	706.25
491.657	727.25
491.874	731.25
492.092	726.25
492.31	737.25
492.527	735.25
492.745	734.25
492.963	739.25
493.18	739.25
493.398	747.25
493.615	757.25
493.833	771.25
494.05	750.25
494.268	778.25
494.485	732.25
494.703	760.25
494.92	732.25
495.138	759.25
495.355	791.25
495.573	784.25
495.79	782.25
496.008	773.25
496.225	772.25
496.442	745.25
496.66	770.25
496.877	772.25
497.094	789.25
497.312	804.25
497.529	789.25
497.746	808.25
497.963	848.25
498.181	851.25
498.398	861.25
498.615	892.25
498.832	893.25
499.049	908.25
499.267	943.25
499.484	964.25
499.701	973.25
499.918	1049.25
500.135	1086.25
500.352	1122.25
500.569	1122.25
500.786	1127.25
501.003	1120.25
501.22	1098.25
501.437	1070.25
501.654	1032.25
501.871	987.25
