Data from 1978.PennyLincolnUp.Lamp.En5.5.200Scan.071719.P1_HRD10591_16-14-11-863.txt Node
Date: Thu Jul 18 16:14:11 EDT 2019
User: cochatt
Spectrometer: HR+D1059
Trigger mode: 1
Integration Time (sec): 1.000000E-1
Scans to average: 1
Electric dark correction enabled: true
Nonlinearity correction enabled: false
Boxcar width: 0
XAxis mode: Wavelengths
Number of Pixels in Spectrum: 2048
>>>>>Begin Spectral Data<<<<<
223.165	-8.31
223.4	-8.31
223.635	-8.31
223.869	-13.31
224.104	-17.31
224.338	-20.31
224.573	-26.31
224.808	-11.31
225.042	-14.31
225.277	2.69
225.511	7.69
225.746	13.69
225.98	13.69
226.215	10.69
226.449	18.69
226.683	1.69
226.918	26.69
227.152	15.69
227.387	39.69
227.621	31.69
227.856	43.69
228.09	31.69
228.324	49.69
228.559	59.69
228.793	56.69
229.027	89.69
229.262	99.69
229.496	110.69
229.73	140.69
229.964	149.69
230.199	138.69
230.433	106.69
230.667	117.69
230.901	100.69
231.136	100.69
231.37	98.69
231.604	93.69
231.838	102.69
232.072	106.69
232.306	113.69
232.541	113.69
232.775	104.69
233.009	114.69
233.243	96.69
233.477	105.69
233.711	103.69
233.945	80.69
234.179	106.69
234.413	126.69
234.647	117.69
234.881	117.69
235.115	116.69
235.349	117.69
235.583	116.69
235.817	126.69
236.051	112.69
236.285	119.69
236.519	119.69
236.753	136.69
236.987	162.69
237.221	186.69
237.455	221.69
237.689	173.69
237.922	145.69
238.156	141.69
238.39	128.69
238.624	114.69
238.858	116.69
239.091	129.69
239.325	112.69
239.559	123.69
239.793	122.69
240.027	118.69
240.26	139.69
240.494	162.69
240.728	141.69
240.961	136.69
241.195	135.69
241.429	128.69
241.662	132.69
241.896	145.69
242.13	121.69
242.363	120.69
242.597	132.69
242.83	127.69
243.064	118.69
243.298	127.69
243.531	114.69
243.765	120.69
243.998	120.69
244.232	130.69
244.465	138.69
244.699	141.69
244.932	147.69
245.166	154.69
245.399	139.69
245.633	141.69
245.866	130.69
246.099	137.69
246.333	143.69
246.566	160.69
246.8	156.69
247.033	151.69
247.266	153.69
247.5	162.69
247.733	151.69
247.966	172.69
248.2	156.69
248.433	161.69
248.666	154.69
248.899	171.69
249.133	175.69
249.366	196.69
249.599	188.69
249.832	181.69
250.066	165.69
250.299	173.69
250.532	181.69
250.765	181.69
250.998	205.69
251.231	196.69
251.465	189.69
251.698	187.69
251.931	174.69
252.164	172.69
252.397	180.69
252.63	197.69
252.863	193.69
253.096	194.69
253.329	210.69
253.562	199.69
253.795	198.69
254.028	192.69
254.261	193.69
254.494	197.69
254.727	232.69
254.96	269.69
255.193	240.69
255.426	226.69
255.659	202.69
255.892	202.69
256.124	221.69
256.357	217.69
256.59	187.69
256.823	186.69
257.056	200.69
257.289	180.69
257.521	205.69
257.754	193.69
257.987	195.69
258.22	187.69
258.452	197.69
258.685	204.69
258.918	201.69
259.151	203.69
259.383	204.69
259.616	210.69
259.849	203.69
260.081	212.69
260.314	236.69
260.547	233.69
260.779	215.69
261.012	209.69
261.244	201.69
261.477	212.69
261.71	203.69
261.942	215.69
262.175	216.69
262.407	217.69
262.64	204.69
262.872	212.69
263.105	192.69
263.337	193.69
263.57	184.69
263.802	187.69
264.035	182.69
264.267	192.69
264.499	201.69
264.732	209.69
264.964	198.69
265.197	200.69
265.429	188.69
265.661	194.69
265.894	194.69
266.126	201.69
266.358	225.69
266.591	211.69
266.823	215.69
267.055	185.69
267.287	197.69
267.52	191.69
267.752	216.69
267.984	212.69
268.216	206.69
268.448	209.69
268.681	207.69
268.913	241.69
269.145	242.69
269.377	268.69
269.609	235.69
269.841	251.69
270.073	243.69
270.306	262.69
270.538	278.69
270.77	292.69
271.002	270.69
271.234	268.69
271.466	282.69
271.698	277.69
271.93	288.69
272.162	300.69
272.394	298.69
272.626	277.69
272.858	248.69
273.09	266.69
273.322	248.69
273.553	236.69
273.785	244.69
274.017	238.69
274.249	241.69
274.481	252.69
274.713	233.69
274.945	250.69
275.176	249.69
275.408	233.69
275.64	226.69
275.872	233.69
276.104	259.69
276.335	266.69
276.567	261.69
276.799	270.69
277.031	278.69
277.262	286.69
277.494	296.69
277.726	293.69
277.957	257.69
278.189	256.69
278.421	258.69
278.652	247.69
278.884	260.69
279.115	255.69
279.347	254.69
279.579	245.69
279.81	249.69
280.042	237.69
280.273	263.69
280.505	250.69
280.736	244.69
280.968	268.69
281.199	252.69
281.431	237.69
281.662	251.69
281.894	248.69
282.125	249.69
282.356	278.69
282.588	274.69
282.819	304.69
283.051	277.69
283.282	250.69
283.513	266.69
283.745	254.69
283.976	252.69
284.207	266.69
284.439	256.69
284.67	266.69
284.901	248.69
285.132	253.69
285.364	248.69
285.595	268.69
285.826	265.69
286.057	243.69
286.288	269.69
286.52	265.69
286.751	277.69
286.982	279.69
287.213	280.69
287.444	246.69
287.675	280.69
287.906	270.69
288.138	285.69
288.369	308.69
288.6	304.69
288.831	277.69
289.062	269.69
289.293	274.69
289.524	264.69
289.755	274.69
289.986	289.69
290.217	262.69
290.448	267.69
290.679	260.69
290.91	274.69
291.141	286.69
291.371	270.69
291.602	249.69
291.833	292.69
292.064	267.69
292.295	267.69
292.526	270.69
292.757	265.69
292.987	259.69
293.218	272.69
293.449	256.69
293.68	288.69
293.91	291.69
294.141	270.69
294.372	273.69
294.603	276.69
294.833	278.69
295.064	286.69
295.295	285.69
295.525	266.69
295.756	284.69
295.987	284.69
296.217	320.69
296.448	324.69
296.679	285.69
296.909	271.69
297.14	281.69
297.37	284.69
297.601	278.69
297.831	274.69
298.062	278.69
298.292	283.69
298.523	285.69
298.753	300.69
298.984	283.69
299.214	284.69
299.445	284.69
299.675	292.69
299.905	304.69
300.136	301.69
300.366	316.69
300.597	290.69
300.827	306.69
301.057	318.69
301.288	314.69
301.518	296.69
301.748	315.69
301.979	292.69
302.209	301.69
302.439	315.69
302.669	299.69
302.9	284.69
303.13	312.69
303.36	292.69
303.59	293.69
303.82	321.69
304.051	315.69
304.281	300.69
304.511	298.69
304.741	297.69
304.971	290.69
305.201	310.69
305.431	318.69
305.661	315.69
305.891	298.69
306.121	293.69
306.352	306.69
306.582	310.69
306.812	317.69
307.042	322.69
307.272	299.69
307.502	324.69
307.731	358.69
307.961	314.69
308.191	296.69
308.421	316.69
308.651	313.69
308.881	316.69
309.111	309.69
309.341	318.69
309.571	311.69
309.8	337.69
310.03	342.69
310.26	338.69
310.49	347.69
310.72	350.69
310.949	377.69
311.179	364.69
311.409	356.69
311.639	356.69
311.868	350.69
312.098	352.69
312.328	368.69
312.557	374.69
312.787	408.69
313.017	373.69
313.246	375.69
313.476	332.69
313.706	350.69
313.935	345.69
314.165	372.69
314.394	379.69
314.624	373.69
314.853	356.69
315.083	348.69
315.312	341.69
315.542	336.69
315.771	352.69
316.001	342.69
316.23	354.69
316.46	342.69
316.689	368.69
316.919	378.69
317.148	345.69
317.377	363.69
317.607	354.69
317.836	355.69
318.065	370.69
318.295	362.69
318.524	372.69
318.753	352.69
318.983	362.69
319.212	354.69
319.441	357.69
319.67	362.69
319.9	355.69
320.129	351.69
320.358	353.69
320.587	353.69
320.816	366.69
321.046	376.69
321.275	384.69
321.504	381.69
321.733	396.69
321.962	397.69
322.191	403.69
322.42	405.69
322.649	419.69
322.878	448.69
323.108	416.69
323.337	448.69
323.566	465.69
323.795	488.69
324.024	536.69
324.253	643.69
324.482	942.69
324.71	1542.69
324.939	2276.69
325.168	1982.69
325.397	970.69
325.626	647.69
325.855	525.69
326.084	485.69
326.313	463.69
326.542	480.69
326.77	524.69
326.999	650.69
327.228	891.69
327.457	1362.69
327.686	1718.69
327.914	1103.69
328.143	699.69
328.372	594.69
328.6	558.69
328.829	527.69
329.058	534.69
329.287	552.69
329.515	498.69
329.744	486.69
329.972	482.69
330.201	491.69
330.43	547.69
330.658	563.69
330.887	589.69
331.115	575.69
331.344	514.69
331.572	478.69
331.801	470.69
332.03	474.69
332.258	455.69
332.486	432.69
332.715	436.69
332.943	420.69
333.172	426.69
333.4	430.69
333.629	441.69
333.857	462.69
334.085	472.69
334.314	481.69
334.542	482.69
334.771	534.69
334.999	458.69
335.227	450.69
335.455	436.69
335.684	434.69
335.912	442.69
336.14	411.69
336.369	430.69
336.597	420.69
336.825	435.69
337.053	436.69
337.281	434.69
337.51	427.69
337.738	443.69
337.966	427.69
338.194	422.69
338.422	428.69
338.65	428.69
338.878	407.69
339.106	393.69
339.334	404.69
339.562	411.69
339.79	432.69
340.018	406.69
340.246	402.69
340.474	416.69
340.702	417.69
340.93	402.69
341.158	405.69
341.386	404.69
341.614	432.69
341.842	421.69
342.07	412.69
342.298	410.69
342.526	398.69
342.754	409.69
342.981	406.69
343.209	388.69
343.437	408.69
343.665	398.69
343.893	409.69
344.12	403.69
344.348	406.69
344.576	434.69
344.804	429.69
345.031	439.69
345.259	426.69
345.487	434.69
345.714	413.69
345.942	405.69
346.17	391.69
346.397	417.69
346.625	408.69
346.853	392.69
347.08	398.69
347.308	405.69
347.535	439.69
347.763	404.69
347.99	416.69
348.218	427.69
348.445	412.69
348.673	404.69
348.9	397.69
349.128	401.69
349.355	393.69
349.583	384.69
349.81	383.69
350.037	388.69
350.265	393.69
350.492	383.69
350.72	391.69
350.947	421.69
351.174	416.69
351.402	419.69
351.629	409.69
351.856	405.69
352.083	420.69
352.311	415.69
352.538	440.69
352.765	419.69
352.992	426.69
353.22	402.69
353.447	396.69
353.674	379.69
353.901	399.69
354.128	387.69
354.355	376.69
354.583	384.69
354.81	382.69
355.037	376.69
355.264	368.69
355.491	395.69
355.718	372.69
355.945	384.69
356.172	387.69
356.399	367.69
356.626	378.69
356.853	370.69
357.08	364.69
357.307	380.69
357.534	374.69
357.761	372.69
357.988	374.69
358.215	390.69
358.441	375.69
358.668	382.69
358.895	392.69
359.122	386.69
359.349	371.69
359.576	388.69
359.802	426.69
360.029	429.69
360.256	480.69
360.483	453.69
360.709	410.69
360.936	413.69
361.163	413.69
361.39	408.69
361.616	419.69
361.843	428.69
362.07	423.69
362.296	390.69
362.523	401.69
362.749	408.69
362.976	409.69
363.203	397.69
363.429	404.69
363.656	378.69
363.882	405.69
364.109	396.69
364.335	391.69
364.562	399.69
364.788	380.69
365.015	376.69
365.241	378.69
365.468	401.69
365.694	408.69
365.92	410.69
366.147	380.69
366.373	388.69
366.599	394.69
366.826	394.69
367.052	400.69
367.278	399.69
367.505	387.69
367.731	386.69
367.957	397.69
368.184	399.69
368.41	384.69
368.636	398.69
368.862	415.69
369.089	397.69
369.315	397.69
369.541	383.69
369.767	392.69
369.993	381.69
370.219	372.69
370.445	397.69
370.672	404.69
370.898	410.69
371.124	368.69
371.35	388.69
371.576	387.69
371.802	379.69
372.028	406.69
372.254	401.69
372.48	413.69
372.706	403.69
372.932	374.69
373.158	402.69
373.384	417.69
373.61	405.69
373.835	415.69
374.061	384.69
374.287	422.69
374.513	388.69
374.739	397.69
374.965	399.69
375.191	407.69
375.416	420.69
375.642	394.69
375.868	417.69
376.094	386.69
376.319	399.69
376.545	408.69
376.771	399.69
376.997	389.69
377.222	403.69
377.448	399.69
377.674	422.69
377.899	403.69
378.125	397.69
378.35	398.69
378.576	403.69
378.802	401.69
379.027	381.69
379.253	411.69
379.478	380.69
379.704	395.69
379.929	402.69
380.155	417.69
380.38	411.69
380.606	395.69
380.831	411.69
381.057	398.69
381.282	386.69
381.507	414.69
381.733	415.69
381.958	388.69
382.184	391.69
382.409	406.69
382.634	403.69
382.86	407.69
383.085	418.69
383.31	410.69
383.535	389.69
383.761	418.69
383.986	420.69
384.211	424.69
384.436	413.69
384.662	408.69
384.887	433.69
385.112	417.69
385.337	448.69
385.562	424.69
385.787	441.69
386.013	423.69
386.238	430.69
386.463	444.69
386.688	440.69
386.913	425.69
387.138	435.69
387.363	452.69
387.588	435.69
387.813	446.69
388.038	452.69
388.263	444.69
388.488	437.69
388.713	422.69
388.938	448.69
389.163	457.69
389.387	440.69
389.612	418.69
389.837	442.69
390.062	429.69
390.287	455.69
390.512	446.69
390.736	426.69
390.961	444.69
391.186	446.69
391.411	448.69
391.636	440.69
391.86	462.69
392.085	465.69
392.31	459.69
392.534	458.69
392.759	469.69
392.984	449.69
393.208	442.69
393.433	437.69
393.658	446.69
393.882	441.69
394.107	442.69
394.331	444.69
394.556	444.69
394.78	449.69
395.005	458.69
395.229	437.69
395.454	466.69
395.678	460.69
395.903	479.69
396.127	505.69
396.352	492.69
396.576	458.69
396.801	458.69
397.025	443.69
397.249	482.69
397.474	482.69
397.698	476.69
397.922	493.69
398.147	497.69
398.371	501.69
398.595	506.69
398.82	493.69
399.044	517.69
399.268	527.69
399.492	538.69
399.717	566.69
399.941	614.69
400.165	634.69
400.389	663.69
400.613	609.69
400.837	551.69
401.062	524.69
401.286	541.69
401.51	529.69
401.734	517.69
401.958	507.69
402.182	517.69
402.406	554.69
402.63	550.69
402.854	551.69
403.078	522.69
403.302	541.69
403.526	544.69
403.75	530.69
403.974	556.69
404.198	529.69
404.422	539.69
404.645	550.69
404.869	557.69
405.093	556.69
405.317	615.69
405.541	660.69
405.765	600.69
405.988	578.69
406.212	562.69
406.436	598.69
406.66	582.69
406.883	609.69
407.107	636.69
407.331	644.69
407.555	711.69
407.778	698.69
408.002	654.69
408.226	582.69
408.449	582.69
408.673	603.69
408.896	650.69
409.12	668.69
409.344	623.69
409.567	580.69
409.791	548.69
410.014	550.69
410.238	559.69
410.461	545.69
410.685	552.69
410.908	540.69
411.132	587.69
411.355	635.69
411.578	601.69
411.802	553.69
412.025	532.69
412.249	562.69
412.472	566.69
412.695	622.69
412.919	596.69
413.142	560.69
413.365	532.69
413.589	546.69
413.812	504.69
414.035	497.69
414.258	522.69
414.482	520.69
414.705	504.69
414.928	502.69
415.151	520.69
415.374	522.69
415.597	526.69
415.821	507.69
416.044	529.69
416.267	525.69
416.49	513.69
416.713	490.69
416.936	524.69
417.159	488.69
417.382	506.69
417.605	530.69
417.828	527.69
418.051	523.69
418.274	550.69
418.497	510.69
418.72	508.69
418.943	510.69
419.166	531.69
419.389	567.69
419.611	553.69
419.834	565.69
420.057	534.69
420.28	526.69
420.503	540.69
420.726	529.69
420.948	546.69
421.171	576.69
421.394	625.69
421.617	569.69
421.839	542.69
422.062	559.69
422.285	528.69
422.507	617.69
422.73	685.69
422.953	668.69
423.175	564.69
423.398	573.69
423.621	573.69
423.843	551.69
424.066	581.69
424.288	566.69
424.511	578.69
424.733	611.69
424.956	733.69
425.178	701.69
425.401	691.69
425.623	724.69
425.846	634.69
426.068	576.69
426.291	579.69
426.513	569.69
426.735	590.69
426.958	622.69
427.18	700.69
427.402	849.69
427.625	916.69
427.847	795.69
428.069	708.69
428.292	642.69
428.514	556.69
428.736	574.69
428.958	527.69
429.181	528.69
429.403	522.69
429.625	542.69
429.847	564.69
430.069	647.69
430.292	649.69
430.514	571.69
430.736	549.69
430.958	524.69
431.18	488.69
431.402	485.69
431.624	499.69
431.846	496.69
432.068	505.69
432.29	486.69
432.512	500.69
432.734	515.69
432.956	488.69
433.178	514.69
433.4	526.69
433.622	535.69
433.844	503.69
434.066	493.69
434.287	508.69
434.509	524.69
434.731	496.69
434.953	527.69
435.175	534.69
435.397	580.69
435.618	547.69
435.84	632.69
436.062	730.69
436.284	795.69
436.505	670.69
436.727	585.69
436.949	539.69
437.17	545.69
437.392	523.69
437.614	550.69
437.835	578.69
438.057	676.69
438.278	794.69
438.5	795.69
438.721	870.69
438.943	846.69
439.165	648.69
439.386	604.69
439.608	578.69
439.829	570.69
440.05	601.69
440.272	664.69
440.493	631.69
440.715	581.69
440.936	570.69
441.158	541.69
441.379	533.69
441.6	566.69
441.822	561.69
442.043	609.69
442.264	710.69
442.486	745.69
442.707	620.69
442.928	585.69
443.149	594.69
443.371	632.69
443.592	664.69
443.813	778.69
444.034	832.69
444.255	685.69
444.476	603.69
444.698	585.69
444.919	571.69
445.14	662.69
445.361	625.69
445.582	631.69
445.803	680.69
446.024	813.69
446.245	820.69
446.466	748.69
446.687	625.69
446.908	582.69
447.129	553.69
447.35	552.69
447.571	533.69
447.792	531.69
448.013	526.69
448.234	550.69
448.455	597.69
448.675	722.69
448.896	852.69
449.117	710.69
449.338	650.69
449.559	785.69
449.779	905.69
450	727.69
450.221	592.69
450.442	553.69
450.662	517.69
450.883	540.69
451.104	560.69
451.324	529.69
451.545	503.69
451.766	498.69
451.986	490.69
452.207	472.69
452.428	473.69
452.648	473.69
452.869	471.69
453.089	484.69
453.31	500.69
453.53	492.69
453.751	489.69
453.971	484.69
454.192	517.69
454.412	483.69
454.633	453.69
454.853	462.69
455.073	484.69
455.294	500.69
455.514	568.69
455.734	563.69
455.955	505.69
456.175	468.69
456.395	455.69
456.616	428.69
456.836	448.69
457.056	450.69
457.276	447.69
457.497	467.69
457.717	444.69
457.937	445.69
458.157	461.69
458.377	475.69
458.598	483.69
458.818	557.69
459.038	625.69
459.258	661.69
459.478	527.69
459.698	527.69
459.918	517.69
460.138	510.69
460.358	530.69
460.578	524.69
460.798	510.69
461.018	535.69
461.238	523.69
461.458	518.69
461.678	530.69
461.898	528.69
462.118	509.69
462.338	540.69
462.558	532.69
462.777	538.69
462.997	550.69
463.217	553.69
463.437	580.69
463.657	577.69
463.876	545.69
464.096	564.69
464.316	537.69
464.536	572.69
464.755	575.69
464.975	562.69
465.195	595.69
465.414	662.69
465.634	598.69
465.854	562.69
466.073	527.69
466.293	522.69
466.512	498.69
466.732	504.69
466.951	487.69
467.171	504.69
467.391	480.69
467.61	513.69
467.829	502.69
468.049	500.69
468.268	480.69
468.488	474.69
468.707	478.69
468.927	485.69
469.146	480.69
469.365	481.69
469.585	462.69
469.804	497.69
470.023	501.69
470.243	493.69
470.462	506.69
470.681	545.69
470.901	517.69
471.12	516.69
471.339	501.69
471.558	504.69
471.777	507.69
471.997	496.69
472.216	487.69
472.435	520.69
472.654	518.69
472.873	501.69
473.092	483.69
473.311	487.69
473.53	470.69
473.749	513.69
473.968	546.69
474.187	636.69
474.406	655.69
474.625	551.69
474.844	530.69
475.063	516.69
475.282	493.69
475.501	492.69
475.72	516.69
475.939	524.69
476.158	507.69
476.377	531.69
476.596	504.69
476.814	516.69
477.033	521.69
477.252	531.69
477.471	536.69
477.69	525.69
477.908	529.69
478.127	541.69
478.346	534.69
478.564	556.69
478.783	569.69
479.002	556.69
479.22	553.69
479.439	577.69
479.658	585.69
479.876	601.69
480.095	599.69
480.313	634.69
480.532	612.69
480.751	593.69
480.969	621.69
481.188	666.69
481.406	689.69
481.624	648.69
481.843	624.69
482.061	604.69
482.28	594.69
482.498	590.69
482.717	575.69
482.935	582.69
483.153	576.69
483.372	584.69
483.59	590.69
483.808	605.69
484.027	579.69
484.245	590.69
484.463	587.69
484.681	598.69
484.9	571.69
485.118	625.69
485.336	582.69
485.554	602.69
485.772	610.69
485.99	614.69
486.209	598.69
486.427	588.69
486.645	626.69
486.863	603.69
487.081	596.69
487.299	644.69
487.517	620.69
487.735	624.69
487.953	606.69
488.171	615.69
488.389	595.69
488.607	629.69
488.825	630.69
489.043	622.69
489.261	597.69
489.479	628.69
489.696	645.69
489.914	604.69
490.132	640.69
490.35	628.69
490.568	645.69
490.786	652.69
491.003	677.69
491.221	645.69
491.439	675.69
491.657	688.69
491.874	695.69
492.092	698.69
492.31	708.69
492.527	678.69
492.745	703.69
492.963	699.69
493.18	714.69
493.398	711.69
493.615	738.69
493.833	717.69
494.05	731.69
494.268	730.69
494.485	743.69
494.703	712.69
494.92	706.69
495.138	713.69
495.355	727.69
495.573	732.69
495.79	701.69
496.008	714.69
496.225	730.69
496.442	746.69
496.66	739.69
496.877	730.69
497.094	727.69
497.312	759.69
497.529	777.69
497.746	765.69
497.963	765.69
498.181	792.69
498.398	802.69
498.615	805.69
498.832	832.69
499.049	852.69
499.267	880.69
499.484	903.69
499.701	918.69
499.918	957.69
500.135	974.69
500.352	1034.69
500.569	1061.69
500.786	1081.69
501.003	1061.69
501.22	1010.69
501.437	990.69
501.654	941.69
501.871	952.69
