Data from 1978.PennyLincolnUp.Lamp.En5.5.200Scan.071719.P1_HRD10591_16-12-53-864.txt Node
Date: Thu Jul 18 16:12:53 EDT 2019
User: cochatt
Spectrometer: HR+D1059
Trigger mode: 1
Integration Time (sec): 1.000000E-1
Scans to average: 1
Electric dark correction enabled: true
Nonlinearity correction enabled: false
Boxcar width: 0
XAxis mode: Wavelengths
Number of Pixels in Spectrum: 2048
>>>>>Begin Spectral Data<<<<<
223.165	1.25
223.4	1.25
223.635	1.25
223.869	-25.75
224.104	-14.75
224.338	-22.75
224.573	-10.75
224.808	-9.75
225.042	-10.75
225.277	-11.75
225.511	9.25
225.746	5.25
225.98	6.25
226.215	11.25
226.449	14.25
226.683	15.25
226.918	22.25
227.152	21.25
227.387	30.25
227.621	41.25
227.856	51.25
228.09	40.25
228.324	51.25
228.559	36.25
228.793	75.25
229.027	94.25
229.262	103.25
229.496	110.25
229.73	132.25
229.964	143.25
230.199	115.25
230.433	115.25
230.667	123.25
230.901	118.25
231.136	122.25
231.37	111.25
231.604	113.25
231.838	115.25
232.072	102.25
232.306	115.25
232.541	105.25
232.775	105.25
233.009	107.25
233.243	91.25
233.477	102.25
233.711	101.25
233.945	96.25
234.179	113.25
234.413	104.25
234.647	115.25
234.881	101.25
235.115	107.25
235.349	113.25
235.583	111.25
235.817	96.25
236.051	121.25
236.285	119.25
236.519	109.25
236.753	115.25
236.987	137.25
237.221	168.25
237.455	232.25
237.689	195.25
237.922	143.25
238.156	124.25
238.39	118.25
238.624	121.25
238.858	120.25
239.091	135.25
239.325	112.25
239.559	121.25
239.793	132.25
240.027	128.25
240.26	126.25
240.494	154.25
240.728	149.25
240.961	147.25
241.195	137.25
241.429	125.25
241.662	126.25
241.896	125.25
242.13	122.25
242.363	143.25
242.597	130.25
242.83	133.25
243.064	129.25
243.298	119.25
243.531	124.25
243.765	143.25
243.998	137.25
244.232	134.25
244.465	147.25
244.699	123.25
244.932	141.25
245.166	142.25
245.399	146.25
245.633	142.25
245.866	135.25
246.099	134.25
246.333	131.25
246.566	149.25
246.8	148.25
247.033	151.25
247.266	151.25
247.5	140.25
247.733	151.25
247.966	162.25
248.2	160.25
248.433	149.25
248.666	163.25
248.899	168.25
249.133	188.25
249.366	186.25
249.599	181.25
249.832	151.25
250.066	178.25
250.299	161.25
250.532	180.25
250.765	193.25
250.998	193.25
251.231	196.25
251.465	183.25
251.698	167.25
251.931	179.25
252.164	178.25
252.397	181.25
252.63	165.25
252.863	176.25
253.096	195.25
253.329	198.25
253.562	191.25
253.795	193.25
254.028	191.25
254.261	181.25
254.494	207.25
254.727	217.25
254.96	242.25
255.193	228.25
255.426	206.25
255.659	217.25
255.892	206.25
256.124	206.25
256.357	224.25
256.59	190.25
256.823	193.25
257.056	199.25
257.289	201.25
257.521	174.25
257.754	193.25
257.987	187.25
258.22	193.25
258.452	191.25
258.685	182.25
258.918	197.25
259.151	200.25
259.383	197.25
259.616	198.25
259.849	202.25
260.081	208.25
260.314	241.25
260.547	226.25
260.779	214.25
261.012	227.25
261.244	212.25
261.477	192.25
261.71	218.25
261.942	205.25
262.175	213.25
262.407	217.25
262.64	220.25
262.872	186.25
263.105	185.25
263.337	213.25
263.57	198.25
263.802	197.25
264.035	204.25
264.267	214.25
264.499	195.25
264.732	205.25
264.964	195.25
265.197	196.25
265.429	216.25
265.661	197.25
265.894	190.25
266.126	187.25
266.358	204.25
266.591	207.25
266.823	213.25
267.055	223.25
267.287	211.25
267.52	208.25
267.752	214.25
267.984	222.25
268.216	220.25
268.448	216.25
268.681	210.25
268.913	233.25
269.145	236.25
269.377	260.25
269.609	253.25
269.841	234.25
270.073	243.25
270.306	277.25
270.538	286.25
270.77	275.25
271.002	266.25
271.234	257.25
271.466	271.25
271.698	282.25
271.93	281.25
272.162	286.25
272.394	289.25
272.626	280.25
272.858	268.25
273.09	239.25
273.322	257.25
273.553	232.25
273.785	245.25
274.017	241.25
274.249	237.25
274.481	247.25
274.713	252.25
274.945	232.25
275.176	257.25
275.408	230.25
275.64	241.25
275.872	251.25
276.104	238.25
276.335	247.25
276.567	245.25
276.799	247.25
277.031	284.25
277.262	290.25
277.494	279.25
277.726	302.25
277.957	269.25
278.189	271.25
278.421	269.25
278.652	245.25
278.884	242.25
279.115	250.25
279.347	249.25
279.579	255.25
279.81	254.25
280.042	258.25
280.273	274.25
280.505	264.25
280.736	234.25
280.968	230.25
281.199	261.25
281.431	267.25
281.662	245.25
281.894	232.25
282.125	247.25
282.356	257.25
282.588	275.25
282.819	289.25
283.051	264.25
283.282	275.25
283.513	252.25
283.745	257.25
283.976	260.25
284.207	270.25
284.439	277.25
284.67	250.25
284.901	272.25
285.132	261.25
285.364	253.25
285.595	257.25
285.826	277.25
286.057	279.25
286.288	260.25
286.52	257.25
286.751	248.25
286.982	269.25
287.213	251.25
287.444	265.25
287.675	281.25
287.906	275.25
288.138	271.25
288.369	273.25
288.6	270.25
288.831	267.25
289.062	258.25
289.293	282.25
289.524	276.25
289.755	272.25
289.986	276.25
290.217	280.25
290.448	275.25
290.679	282.25
290.91	287.25
291.141	263.25
291.371	272.25
291.602	278.25
291.833	277.25
292.064	282.25
292.295	275.25
292.526	287.25
292.757	281.25
292.987	297.25
293.218	273.25
293.449	279.25
293.68	267.25
293.91	285.25
294.141	280.25
294.372	273.25
294.603	274.25
294.833	284.25
295.064	285.25
295.295	277.25
295.525	287.25
295.756	275.25
295.987	303.25
296.217	306.25
296.448	322.25
296.679	284.25
296.909	288.25
297.14	289.25
297.37	288.25
297.601	296.25
297.831	291.25
298.062	286.25
298.292	297.25
298.523	291.25
298.753	280.25
298.984	292.25
299.214	289.25
299.445	274.25
299.675	305.25
299.905	300.25
300.136	286.25
300.366	293.25
300.597	297.25
300.827	326.25
301.057	300.25
301.288	305.25
301.518	300.25
301.748	310.25
301.979	314.25
302.209	329.25
302.439	299.25
302.669	321.25
302.9	294.25
303.13	315.25
303.36	300.25
303.59	329.25
303.82	316.25
304.051	313.25
304.281	323.25
304.511	291.25
304.741	318.25
304.971	330.25
305.201	322.25
305.431	310.25
305.661	315.25
305.891	291.25
306.121	311.25
306.352	323.25
306.582	304.25
306.812	333.25
307.042	323.25
307.272	309.25
307.502	317.25
307.731	338.25
307.961	325.25
308.191	321.25
308.421	299.25
308.651	321.25
308.881	320.25
309.111	321.25
309.341	342.25
309.571	345.25
309.8	321.25
310.03	335.25
310.26	346.25
310.49	358.25
310.72	370.25
310.949	369.25
311.179	361.25
311.409	367.25
311.639	342.25
311.868	340.25
312.098	377.25
312.328	349.25
312.557	375.25
312.787	390.25
313.017	379.25
313.246	364.25
313.476	358.25
313.706	344.25
313.935	359.25
314.165	383.25
314.394	373.25
314.624	377.25
314.853	354.25
315.083	358.25
315.312	356.25
315.542	351.25
315.771	357.25
316.001	330.25
316.23	360.25
316.46	357.25
316.689	362.25
316.919	364.25
317.148	371.25
317.377	381.25
317.607	368.25
317.836	359.25
318.065	360.25
318.295	347.25
318.524	357.25
318.753	359.25
318.983	356.25
319.212	348.25
319.441	365.25
319.67	379.25
319.9	385.25
320.129	367.25
320.358	348.25
320.587	368.25
320.816	358.25
321.046	371.25
321.275	399.25
321.504	385.25
321.733	390.25
321.962	397.25
322.191	403.25
322.42	392.25
322.649	418.25
322.878	428.25
323.108	427.25
323.337	448.25
323.566	462.25
323.795	489.25
324.024	536.25
324.253	649.25
324.482	878.25
324.71	1437.25
324.939	2184.25
325.168	1871.25
325.397	938.25
325.626	621.25
325.855	501.25
326.084	497.25
326.313	461.25
326.542	490.25
326.77	503.25
326.999	600.25
327.228	815.25
327.457	1299.25
327.686	1626.25
327.914	1067.25
328.143	648.25
328.372	581.25
328.6	547.25
328.829	525.25
329.058	527.25
329.287	548.25
329.515	520.25
329.744	461.25
329.972	475.25
330.201	499.25
330.43	519.25
330.658	531.25
330.887	574.25
331.115	555.25
331.344	501.25
331.572	479.25
331.801	467.25
332.03	474.25
332.258	462.25
332.486	447.25
332.715	435.25
332.943	423.25
333.172	440.25
333.4	437.25
333.629	463.25
333.857	459.25
334.085	451.25
334.314	499.25
334.542	498.25
334.771	507.25
334.999	474.25
335.227	456.25
335.455	444.25
335.684	446.25
335.912	449.25
336.14	423.25
336.369	411.25
336.597	438.25
336.825	444.25
337.053	422.25
337.281	427.25
337.51	427.25
337.738	425.25
337.966	404.25
338.194	419.25
338.422	433.25
338.65	407.25
338.878	435.25
339.106	411.25
339.334	412.25
339.562	415.25
339.79	403.25
340.018	410.25
340.246	402.25
340.474	418.25
340.702	418.25
340.93	428.25
341.158	422.25
341.386	426.25
341.614	431.25
341.842	423.25
342.07	420.25
342.298	426.25
342.526	397.25
342.754	400.25
342.981	393.25
343.209	416.25
343.437	409.25
343.665	413.25
343.893	416.25
344.12	428.25
344.348	457.25
344.576	437.25
344.804	433.25
345.031	417.25
345.259	425.25
345.487	440.25
345.714	425.25
345.942	416.25
346.17	425.25
346.397	413.25
346.625	413.25
346.853	413.25
347.08	409.25
347.308	414.25
347.535	429.25
347.763	426.25
347.99	416.25
348.218	406.25
348.445	414.25
348.673	397.25
348.9	422.25
349.128	414.25
349.355	394.25
349.583	410.25
349.81	393.25
350.037	395.25
350.265	389.25
350.492	380.25
350.72	391.25
350.947	417.25
351.174	413.25
351.402	417.25
351.629	406.25
351.856	412.25
352.083	422.25
352.311	427.25
352.538	413.25
352.765	438.25
352.992	394.25
353.22	419.25
353.447	406.25
353.674	420.25
353.901	404.25
354.128	404.25
354.355	382.25
354.583	383.25
354.81	390.25
355.037	399.25
355.264	385.25
355.491	380.25
355.718	359.25
355.945	382.25
356.172	401.25
356.399	381.25
356.626	379.25
356.853	380.25
357.08	377.25
357.307	381.25
357.534	408.25
357.761	387.25
357.988	391.25
358.215	367.25
358.441	388.25
358.668	395.25
358.895	388.25
359.122	395.25
359.349	403.25
359.576	423.25
359.802	410.25
360.029	449.25
360.256	457.25
360.483	434.25
360.709	417.25
360.936	395.25
361.163	410.25
361.39	413.25
361.616	404.25
361.843	414.25
362.07	415.25
362.296	409.25
362.523	411.25
362.749	396.25
362.976	411.25
363.203	403.25
363.429	378.25
363.656	401.25
363.882	399.25
364.109	403.25
364.335	418.25
364.562	396.25
364.788	386.25
365.015	390.25
365.241	409.25
365.468	405.25
365.694	389.25
365.92	409.25
366.147	404.25
366.373	393.25
366.599	387.25
366.826	380.25
367.052	394.25
367.278	388.25
367.505	387.25
367.731	407.25
367.957	397.25
368.184	412.25
368.41	405.25
368.636	402.25
368.862	411.25
369.089	410.25
369.315	404.25
369.541	401.25
369.767	390.25
369.993	407.25
370.219	395.25
370.445	394.25
370.672	392.25
370.898	397.25
371.124	413.25
371.35	393.25
371.576	401.25
371.802	396.25
372.028	391.25
372.254	392.25
372.48	403.25
372.706	399.25
372.932	388.25
373.158	405.25
373.384	406.25
373.61	413.25
373.835	417.25
374.061	381.25
374.287	420.25
374.513	421.25
374.739	416.25
374.965	429.25
375.191	412.25
375.416	422.25
375.642	400.25
375.868	405.25
376.094	405.25
376.319	405.25
376.545	405.25
376.771	431.25
376.997	411.25
377.222	409.25
377.448	422.25
377.674	399.25
377.899	393.25
378.125	399.25
378.35	416.25
378.576	434.25
378.802	397.25
379.027	392.25
379.253	403.25
379.478	399.25
379.704	389.25
379.929	416.25
380.155	409.25
380.38	399.25
380.606	410.25
380.831	415.25
381.057	398.25
381.282	393.25
381.507	404.25
381.733	423.25
381.958	415.25
382.184	425.25
382.409	435.25
382.634	419.25
382.86	426.25
383.085	407.25
383.31	418.25
383.535	421.25
383.761	418.25
383.986	419.25
384.211	425.25
384.436	437.25
384.662	417.25
384.887	442.25
385.112	445.25
385.337	438.25
385.562	419.25
385.787	415.25
386.013	433.25
386.238	459.25
386.463	450.25
386.688	468.25
386.913	461.25
387.138	441.25
387.363	434.25
387.588	437.25
387.813	460.25
388.038	438.25
388.263	458.25
388.488	439.25
388.713	439.25
388.938	453.25
389.163	460.25
389.387	452.25
389.612	435.25
389.837	476.25
390.062	458.25
390.287	473.25
390.512	441.25
390.736	468.25
390.961	472.25
391.186	444.25
391.411	467.25
391.636	449.25
391.86	466.25
392.085	475.25
392.31	477.25
392.534	472.25
392.759	474.25
392.984	455.25
393.208	445.25
393.433	473.25
393.658	447.25
393.882	444.25
394.107	451.25
394.331	465.25
394.556	461.25
394.78	467.25
395.005	453.25
395.229	480.25
395.454	470.25
395.678	473.25
395.903	474.25
396.127	494.25
396.352	500.25
396.576	471.25
396.801	471.25
397.025	456.25
397.249	485.25
397.474	496.25
397.698	484.25
397.922	517.25
398.147	521.25
398.371	515.25
398.595	529.25
398.82	494.25
399.044	525.25
399.268	564.25
399.492	583.25
399.717	622.25
399.941	638.25
400.165	673.25
400.389	671.25
400.613	607.25
400.837	583.25
401.062	555.25
401.286	538.25
401.51	539.25
401.734	529.25
401.958	521.25
402.182	533.25
402.406	554.25
402.63	538.25
402.854	542.25
403.078	536.25
403.302	515.25
403.526	541.25
403.75	563.25
403.974	538.25
404.198	555.25
404.422	543.25
404.645	568.25
404.869	552.25
405.093	572.25
405.317	639.25
405.541	641.25
405.765	606.25
405.988	563.25
406.212	573.25
406.436	576.25
406.66	582.25
406.883	590.25
407.107	601.25
407.331	636.25
407.555	744.25
407.778	725.25
408.002	651.25
408.226	637.25
408.449	589.25
408.673	609.25
408.896	660.25
409.12	676.25
409.344	643.25
409.567	573.25
409.791	548.25
410.014	555.25
410.238	566.25
410.461	577.25
410.685	558.25
410.908	573.25
411.132	612.25
411.355	653.25
411.578	604.25
411.802	551.25
412.025	557.25
412.249	562.25
412.472	567.25
412.695	610.25
412.919	594.25
413.142	577.25
413.365	529.25
413.589	556.25
413.812	554.25
414.035	527.25
414.258	537.25
414.482	522.25
414.705	497.25
414.928	504.25
415.151	519.25
415.374	513.25
415.597	520.25
415.821	528.25
416.044	537.25
416.267	530.25
416.49	547.25
416.713	510.25
416.936	525.25
417.159	522.25
417.382	527.25
417.605	516.25
417.828	524.25
418.051	546.25
418.274	539.25
418.497	513.25
418.72	501.25
418.943	511.25
419.166	532.25
419.389	554.25
419.611	542.25
419.834	534.25
420.057	552.25
420.28	569.25
420.503	525.25
420.726	536.25
420.948	562.25
421.171	598.25
421.394	618.25
421.617	561.25
421.839	539.25
422.062	528.25
422.285	539.25
422.507	620.25
422.73	696.25
422.953	661.25
423.175	594.25
423.398	574.25
423.621	570.25
423.843	573.25
424.066	563.25
424.288	565.25
424.511	568.25
424.733	658.25
424.956	728.25
425.178	692.25
425.401	697.25
425.623	729.25
425.846	614.25
426.068	586.25
426.291	580.25
426.513	540.25
426.735	576.25
426.958	627.25
427.18	719.25
427.402	864.25
427.625	947.25
427.847	803.25
428.069	710.25
428.292	607.25
428.514	596.25
428.736	556.25
428.958	542.25
429.181	524.25
429.403	535.25
429.625	538.25
429.847	580.25
430.069	653.25
430.292	641.25
430.514	554.25
430.736	531.25
430.958	549.25
431.18	547.25
431.402	520.25
431.624	495.25
431.846	500.25
432.068	477.25
432.29	513.25
432.512	487.25
432.734	515.25
432.956	518.25
433.178	549.25
433.4	539.25
433.622	532.25
433.844	535.25
434.066	521.25
434.287	509.25
434.509	534.25
434.731	533.25
434.953	521.25
435.175	525.25
435.397	567.25
435.618	577.25
435.84	602.25
436.062	711.25
436.284	779.25
436.505	646.25
436.727	593.25
436.949	526.25
437.17	542.25
437.392	537.25
437.614	567.25
437.835	582.25
438.057	655.25
438.278	803.25
438.5	781.25
438.721	860.25
438.943	807.25
439.165	675.25
439.386	618.25
439.608	588.25
439.829	559.25
440.05	625.25
440.272	670.25
440.493	616.25
440.715	569.25
440.936	568.25
441.158	527.25
441.379	535.25
441.6	547.25
441.822	585.25
442.043	638.25
442.264	698.25
442.486	741.25
442.707	645.25
442.928	577.25
443.149	602.25
443.371	611.25
443.592	654.25
443.813	734.25
444.034	853.25
444.255	680.25
444.476	616.25
444.698	585.25
444.919	582.25
445.14	700.25
445.361	641.25
445.582	622.25
445.803	683.25
446.024	788.25
446.245	814.25
446.466	740.25
446.687	646.25
446.908	589.25
447.129	563.25
447.35	553.25
447.571	540.25
447.792	531.25
448.013	535.25
448.234	550.25
448.455	613.25
448.675	712.25
448.896	865.25
449.117	722.25
449.338	653.25
449.559	773.25
449.779	889.25
450	685.25
450.221	575.25
450.442	554.25
450.662	524.25
450.883	513.25
451.104	517.25
451.324	530.25
451.545	498.25
451.766	494.25
451.986	463.25
452.207	481.25
452.428	475.25
452.648	477.25
452.869	481.25
453.089	475.25
453.31	510.25
453.53	493.25
453.751	465.25
453.971	490.25
454.192	490.25
454.412	479.25
454.633	472.25
454.853	474.25
455.073	482.25
455.294	507.25
455.514	557.25
455.734	551.25
455.955	484.25
456.175	469.25
456.395	453.25
456.616	447.25
456.836	454.25
457.056	451.25
457.276	451.25
457.497	458.25
457.717	450.25
457.937	465.25
458.157	465.25
458.377	474.25
458.598	509.25
458.818	535.25
459.038	625.25
459.258	626.25
459.478	554.25
459.698	538.25
459.918	514.25
460.138	529.25
460.358	513.25
460.578	511.25
460.798	523.25
461.018	507.25
461.238	548.25
461.458	521.25
461.678	535.25
461.898	535.25
462.118	532.25
462.338	517.25
462.558	546.25
462.777	550.25
462.997	571.25
463.217	593.25
463.437	569.25
463.657	565.25
463.876	569.25
464.096	559.25
464.316	582.25
464.536	548.25
464.755	567.25
464.975	583.25
465.195	595.25
465.414	666.25
465.634	596.25
465.854	566.25
466.073	535.25
466.293	506.25
466.512	517.25
466.732	522.25
466.951	484.25
467.171	493.25
467.391	497.25
467.61	527.25
467.829	515.25
468.049	515.25
468.268	492.25
468.488	504.25
468.707	487.25
468.927	513.25
469.146	473.25
469.365	490.25
469.585	470.25
469.804	482.25
470.023	505.25
470.243	519.25
470.462	509.25
470.681	521.25
470.901	513.25
471.12	495.25
471.339	491.25
471.558	507.25
471.777	510.25
471.997	505.25
472.216	509.25
472.435	553.25
472.654	527.25
472.873	483.25
473.092	513.25
473.311	513.25
473.53	505.25
473.749	506.25
473.968	537.25
474.187	642.25
474.406	660.25
474.625	575.25
474.844	519.25
475.063	524.25
475.282	517.25
475.501	541.25
475.72	495.25
475.939	507.25
476.158	519.25
476.377	517.25
476.596	510.25
476.814	533.25
477.033	539.25
477.252	525.25
477.471	545.25
477.69	529.25
477.908	542.25
478.127	524.25
478.346	557.25
478.564	547.25
478.783	542.25
479.002	555.25
479.22	573.25
479.439	593.25
479.658	593.25
479.876	616.25
480.095	603.25
480.313	634.25
480.532	635.25
480.751	598.25
480.969	631.25
481.188	663.25
481.406	678.25
481.624	632.25
481.843	638.25
482.061	606.25
482.28	600.25
482.498	599.25
482.717	590.25
482.935	588.25
483.153	589.25
483.372	574.25
483.59	590.25
483.808	599.25
484.027	606.25
484.245	577.25
484.463	587.25
484.681	601.25
484.9	606.25
485.118	611.25
485.336	604.25
485.554	601.25
485.772	586.25
485.99	625.25
486.209	627.25
486.427	622.25
486.645	627.25
486.863	657.25
487.081	633.25
487.299	629.25
487.517	643.25
487.735	615.25
487.953	622.25
488.171	636.25
488.389	626.25
488.607	631.25
488.825	627.25
489.043	621.25
489.261	625.25
489.479	630.25
489.696	607.25
489.914	633.25
490.132	644.25
490.35	647.25
490.568	647.25
490.786	653.25
491.003	650.25
491.221	680.25
491.439	686.25
491.657	685.25
491.874	713.25
492.092	705.25
492.31	714.25
492.527	713.25
492.745	727.25
492.963	732.25
493.18	714.25
493.398	698.25
493.615	711.25
493.833	739.25
494.05	717.25
494.268	719.25
494.485	719.25
494.703	713.25
494.92	734.25
495.138	739.25
495.355	725.25
495.573	721.25
495.79	726.25
496.008	740.25
496.225	755.25
496.442	747.25
496.66	717.25
496.877	728.25
497.094	734.25
497.312	777.25
497.529	771.25
497.746	797.25
497.963	776.25
498.181	825.25
498.398	843.25
498.615	807.25
498.832	849.25
499.049	862.25
499.267	889.25
499.484	934.25
499.701	967.25
499.918	970.25
500.135	1002.25
500.352	1046.25
500.569	1055.25
500.786	1084.25
501.003	1042.25
501.22	1042.25
501.437	1010.25
501.654	942.25
501.871	978.25
