Data from 1978.PennyLincolnUp.Lamp.En5.5.200Scan.071719.P1_HRD10591_16-13-58-863.txt Node
Date: Thu Jul 18 16:13:58 EDT 2019
User: cochatt
Spectrometer: HR+D1059
Trigger mode: 1
Integration Time (sec): 1.000000E-1
Scans to average: 1
Electric dark correction enabled: true
Nonlinearity correction enabled: false
Boxcar width: 0
XAxis mode: Wavelengths
Number of Pixels in Spectrum: 2048
>>>>>Begin Spectral Data<<<<<
223.165	-20.69
223.4	-20.69
223.635	-20.69
223.869	-16.69
224.104	-11.69
224.338	-24.69
224.573	-8.69
224.808	-5.69
225.042	0.31
225.277	-21.69
225.511	1.31
225.746	6.31
225.98	17.31
226.215	8.31
226.449	10.31
226.683	13.31
226.918	30.31
227.152	22.31
227.387	20.31
227.621	19.31
227.856	34.31
228.09	49.31
228.324	46.31
228.559	56.31
228.793	71.31
229.027	104.31
229.262	113.31
229.496	114.31
229.73	137.31
229.964	155.31
230.199	120.31
230.433	95.31
230.667	102.31
230.901	122.31
231.136	82.31
231.37	104.31
231.604	115.31
231.838	110.31
232.072	132.31
232.306	120.31
232.541	104.31
232.775	110.31
233.009	99.31
233.243	117.31
233.477	113.31
233.711	98.31
233.945	94.31
234.179	104.31
234.413	115.31
234.647	117.31
234.881	120.31
235.115	93.31
235.349	114.31
235.583	114.31
235.817	127.31
236.051	113.31
236.285	125.31
236.519	112.31
236.753	124.31
236.987	136.31
237.221	159.31
237.455	227.31
237.689	189.31
237.922	132.31
238.156	120.31
238.39	140.31
238.624	131.31
238.858	119.31
239.091	112.31
239.325	119.31
239.559	108.31
239.793	116.31
240.027	128.31
240.26	142.31
240.494	146.31
240.728	142.31
240.961	146.31
241.195	151.31
241.429	130.31
241.662	141.31
241.896	122.31
242.13	129.31
242.363	124.31
242.597	130.31
242.83	122.31
243.064	135.31
243.298	140.31
243.531	134.31
243.765	132.31
243.998	118.31
244.232	138.31
244.465	137.31
244.699	125.31
244.932	134.31
245.166	140.31
245.399	154.31
245.633	145.31
245.866	131.31
246.099	151.31
246.333	138.31
246.566	138.31
246.8	145.31
247.033	158.31
247.266	148.31
247.5	176.31
247.733	163.31
247.966	167.31
248.2	166.31
248.433	153.31
248.666	154.31
248.899	172.31
249.133	169.31
249.366	207.31
249.599	189.31
249.832	187.31
250.066	170.31
250.299	187.31
250.532	187.31
250.765	195.31
250.998	216.31
251.231	198.31
251.465	208.31
251.698	199.31
251.931	198.31
252.164	202.31
252.397	177.31
252.63	183.31
252.863	199.31
253.096	175.31
253.329	204.31
253.562	212.31
253.795	214.31
254.028	211.31
254.261	197.31
254.494	215.31
254.727	250.31
254.96	260.31
255.193	267.31
255.426	244.31
255.659	238.31
255.892	202.31
256.124	216.31
256.357	218.31
256.59	212.31
256.823	230.31
257.056	198.31
257.289	195.31
257.521	213.31
257.754	200.31
257.987	184.31
258.22	208.31
258.452	194.31
258.685	191.31
258.918	203.31
259.151	178.31
259.383	211.31
259.616	219.31
259.849	219.31
260.081	219.31
260.314	226.31
260.547	242.31
260.779	227.31
261.012	220.31
261.244	214.31
261.477	227.31
261.71	228.31
261.942	220.31
262.175	224.31
262.407	229.31
262.64	197.31
262.872	212.31
263.105	184.31
263.337	207.31
263.57	209.31
263.802	215.31
264.035	195.31
264.267	203.31
264.499	199.31
264.732	223.31
264.964	187.31
265.197	191.31
265.429	191.31
265.661	202.31
265.894	203.31
266.126	216.31
266.358	209.31
266.591	209.31
266.823	218.31
267.055	215.31
267.287	216.31
267.52	242.31
267.752	218.31
267.984	230.31
268.216	222.31
268.448	235.31
268.681	242.31
268.913	244.31
269.145	249.31
269.377	269.31
269.609	268.31
269.841	259.31
270.073	260.31
270.306	288.31
270.538	304.31
270.77	292.31
271.002	273.31
271.234	267.31
271.466	293.31
271.698	308.31
271.93	299.31
272.162	300.31
272.394	311.31
272.626	292.31
272.858	268.31
273.09	257.31
273.322	272.31
273.553	254.31
273.785	244.31
274.017	246.31
274.249	257.31
274.481	228.31
274.713	259.31
274.945	263.31
275.176	259.31
275.408	261.31
275.64	263.31
275.872	259.31
276.104	239.31
276.335	253.31
276.567	243.31
276.799	281.31
277.031	292.31
277.262	294.31
277.494	322.31
277.726	285.31
277.957	277.31
278.189	268.31
278.421	255.31
278.652	274.31
278.884	263.31
279.115	260.31
279.347	254.31
279.579	255.31
279.81	266.31
280.042	269.31
280.273	264.31
280.505	263.31
280.736	259.31
280.968	266.31
281.199	258.31
281.431	262.31
281.662	254.31
281.894	269.31
282.125	274.31
282.356	282.31
282.588	316.31
282.819	297.31
283.051	282.31
283.282	275.31
283.513	266.31
283.745	283.31
283.976	285.31
284.207	296.31
284.439	272.31
284.67	286.31
284.901	270.31
285.132	265.31
285.364	263.31
285.595	285.31
285.826	274.31
286.057	274.31
286.288	276.31
286.52	282.31
286.751	274.31
286.982	282.31
287.213	275.31
287.444	293.31
287.675	266.31
287.906	296.31
288.138	290.31
288.369	284.31
288.6	298.31
288.831	288.31
289.062	302.31
289.293	292.31
289.524	280.31
289.755	269.31
289.986	280.31
290.217	296.31
290.448	297.31
290.679	277.31
290.91	276.31
291.141	283.31
291.371	291.31
291.602	291.31
291.833	289.31
292.064	291.31
292.295	283.31
292.526	283.31
292.757	288.31
292.987	286.31
293.218	278.31
293.449	300.31
293.68	276.31
293.91	278.31
294.141	295.31
294.372	299.31
294.603	311.31
294.833	303.31
295.064	302.31
295.295	302.31
295.525	288.31
295.756	304.31
295.987	286.31
296.217	326.31
296.448	318.31
296.679	328.31
296.909	294.31
297.14	299.31
297.37	319.31
297.601	313.31
297.831	302.31
298.062	300.31
298.292	329.31
298.523	294.31
298.753	310.31
298.984	306.31
299.214	311.31
299.445	309.31
299.675	318.31
299.905	323.31
300.136	292.31
300.366	298.31
300.597	305.31
300.827	315.31
301.057	326.31
301.288	320.31
301.518	331.31
301.748	315.31
301.979	318.31
302.209	315.31
302.439	329.31
302.669	339.31
302.9	326.31
303.13	316.31
303.36	328.31
303.59	344.31
303.82	352.31
304.051	355.31
304.281	335.31
304.511	331.31
304.741	330.31
304.971	326.31
305.201	338.31
305.431	326.31
305.661	344.31
305.891	328.31
306.121	322.31
306.352	328.31
306.582	342.31
306.812	322.31
307.042	321.31
307.272	339.31
307.502	329.31
307.731	360.31
307.961	339.31
308.191	320.31
308.421	318.31
308.651	351.31
308.881	359.31
309.111	344.31
309.341	337.31
309.571	352.31
309.8	343.31
310.03	349.31
310.26	358.31
310.49	348.31
310.72	382.31
310.949	376.31
311.179	380.31
311.409	372.31
311.639	392.31
311.868	380.31
312.098	393.31
312.328	372.31
312.557	392.31
312.787	415.31
313.017	400.31
313.246	381.31
313.476	376.31
313.706	366.31
313.935	379.31
314.165	392.31
314.394	400.31
314.624	408.31
314.853	377.31
315.083	398.31
315.312	371.31
315.542	370.31
315.771	380.31
316.001	363.31
316.23	358.31
316.46	370.31
316.689	372.31
316.919	367.31
317.148	390.31
317.377	402.31
317.607	374.31
317.836	382.31
318.065	394.31
318.295	390.31
318.524	392.31
318.753	363.31
318.983	357.31
319.212	386.31
319.441	400.31
319.67	397.31
319.9	384.31
320.129	382.31
320.358	362.31
320.587	404.31
320.816	374.31
321.046	419.31
321.275	403.31
321.504	415.31
321.733	396.31
321.962	427.31
322.191	400.31
322.42	438.31
322.649	425.31
322.878	425.31
323.108	472.31
323.337	486.31
323.566	465.31
323.795	535.31
324.024	579.31
324.253	697.31
324.482	995.31
324.71	1618.31
324.939	2426.31
325.168	2086.31
325.397	1030.31
325.626	689.31
325.855	562.31
326.084	505.31
326.313	510.31
326.542	502.31
326.77	580.31
326.999	669.31
327.228	915.31
327.457	1433.31
327.686	1796.31
327.914	1144.31
328.143	712.31
328.372	642.31
328.6	586.31
328.829	557.31
329.058	560.31
329.287	550.31
329.515	552.31
329.744	522.31
329.972	499.31
330.201	518.31
330.43	554.31
330.658	578.31
330.887	595.31
331.115	578.31
331.344	522.31
331.572	482.31
331.801	516.31
332.03	484.31
332.258	481.31
332.486	452.31
332.715	471.31
332.943	452.31
333.172	467.31
333.4	468.31
333.629	481.31
333.857	475.31
334.085	492.31
334.314	540.31
334.542	537.31
334.771	544.31
334.999	497.31
335.227	482.31
335.455	464.31
335.684	466.31
335.912	458.31
336.14	447.31
336.369	452.31
336.597	463.31
336.825	470.31
337.053	459.31
337.281	458.31
337.51	443.31
337.738	445.31
337.966	464.31
338.194	465.31
338.422	456.31
338.65	444.31
338.878	443.31
339.106	424.31
339.334	436.31
339.562	450.31
339.79	414.31
340.018	436.31
340.246	438.31
340.474	457.31
340.702	442.31
340.93	446.31
341.158	421.31
341.386	430.31
341.614	444.31
341.842	451.31
342.07	445.31
342.298	436.31
342.526	456.31
342.754	439.31
342.981	440.31
343.209	441.31
343.437	434.31
343.665	448.31
343.893	428.31
344.12	480.31
344.348	463.31
344.576	442.31
344.804	452.31
345.031	465.31
345.259	480.31
345.487	459.31
345.714	442.31
345.942	426.31
346.17	415.31
346.397	430.31
346.625	404.31
346.853	434.31
347.08	410.31
347.308	419.31
347.535	425.31
347.763	438.31
347.99	423.31
348.218	443.31
348.445	446.31
348.673	443.31
348.9	451.31
349.128	422.31
349.355	439.31
349.583	405.31
349.81	403.31
350.037	413.31
350.265	421.31
350.492	430.31
350.72	441.31
350.947	455.31
351.174	422.31
351.402	441.31
351.629	433.31
351.856	440.31
352.083	432.31
352.311	450.31
352.538	443.31
352.765	438.31
352.992	430.31
353.22	431.31
353.447	418.31
353.674	402.31
353.901	406.31
354.128	414.31
354.355	420.31
354.583	404.31
354.81	418.31
355.037	422.31
355.264	419.31
355.491	392.31
355.718	396.31
355.945	419.31
356.172	414.31
356.399	394.31
356.626	379.31
356.853	401.31
357.08	378.31
357.307	388.31
357.534	406.31
357.761	419.31
357.988	406.31
358.215	404.31
358.441	389.31
358.668	415.31
358.895	432.31
359.122	426.31
359.349	408.31
359.576	418.31
359.802	447.31
360.029	466.31
360.256	481.31
360.483	473.31
360.709	451.31
360.936	416.31
361.163	431.31
361.39	446.31
361.616	444.31
361.843	420.31
362.07	444.31
362.296	430.31
362.523	443.31
362.749	451.31
362.976	419.31
363.203	441.31
363.429	430.31
363.656	422.31
363.882	425.31
364.109	417.31
364.335	421.31
364.562	418.31
364.788	400.31
365.015	428.31
365.241	416.31
365.468	418.31
365.694	406.31
365.92	431.31
366.147	434.31
366.373	421.31
366.599	414.31
366.826	428.31
367.052	419.31
367.278	427.31
367.505	419.31
367.731	416.31
367.957	420.31
368.184	416.31
368.41	422.31
368.636	434.31
368.862	436.31
369.089	410.31
369.315	425.31
369.541	435.31
369.767	413.31
369.993	406.31
370.219	416.31
370.445	428.31
370.672	427.31
370.898	417.31
371.124	434.31
371.35	420.31
371.576	423.31
371.802	423.31
372.028	443.31
372.254	423.31
372.48	414.31
372.706	423.31
372.932	442.31
373.158	446.31
373.384	430.31
373.61	427.31
373.835	420.31
374.061	424.31
374.287	440.31
374.513	436.31
374.739	435.31
374.965	441.31
375.191	436.31
375.416	454.31
375.642	454.31
375.868	418.31
376.094	410.31
376.319	412.31
376.545	414.31
376.771	435.31
376.997	418.31
377.222	428.31
377.448	431.31
377.674	427.31
377.899	431.31
378.125	431.31
378.35	419.31
378.576	409.31
378.802	407.31
379.027	415.31
379.253	399.31
379.478	418.31
379.704	431.31
379.929	440.31
380.155	415.31
380.38	427.31
380.606	443.31
380.831	418.31
381.057	445.31
381.282	439.31
381.507	437.31
381.733	424.31
381.958	422.31
382.184	438.31
382.409	427.31
382.634	452.31
382.86	447.31
383.085	447.31
383.31	439.31
383.535	443.31
383.761	447.31
383.986	447.31
384.211	451.31
384.436	444.31
384.662	460.31
384.887	472.31
385.112	455.31
385.337	430.31
385.562	463.31
385.787	471.31
386.013	469.31
386.238	501.31
386.463	491.31
386.688	471.31
386.913	477.31
387.138	472.31
387.363	466.31
387.588	483.31
387.813	471.31
388.038	465.31
388.263	481.31
388.488	487.31
388.713	480.31
388.938	499.31
389.163	483.31
389.387	469.31
389.612	454.31
389.837	470.31
390.062	464.31
390.287	490.31
390.512	478.31
390.736	475.31
390.961	484.31
391.186	490.31
391.411	484.31
391.636	491.31
391.86	485.31
392.085	505.31
392.31	513.31
392.534	491.31
392.759	508.31
392.984	501.31
393.208	469.31
393.433	478.31
393.658	468.31
393.882	488.31
394.107	476.31
394.331	484.31
394.556	488.31
394.78	476.31
395.005	487.31
395.229	491.31
395.454	494.31
395.678	505.31
395.903	518.31
396.127	528.31
396.352	542.31
396.576	527.31
396.801	510.31
397.025	507.31
397.249	499.31
397.474	526.31
397.698	522.31
397.922	526.31
398.147	519.31
398.371	556.31
398.595	547.31
398.82	571.31
399.044	577.31
399.268	597.31
399.492	614.31
399.717	643.31
399.941	666.31
400.165	688.31
400.389	706.31
400.613	649.31
400.837	598.31
401.062	561.31
401.286	554.31
401.51	564.31
401.734	547.31
401.958	573.31
402.182	572.31
402.406	570.31
402.63	593.31
402.854	575.31
403.078	566.31
403.302	581.31
403.526	563.31
403.75	568.31
403.974	588.31
404.198	585.31
404.422	599.31
404.645	607.31
404.869	595.31
405.093	643.31
405.317	666.31
405.541	716.31
405.765	625.31
405.988	622.31
406.212	612.31
406.436	633.31
406.66	634.31
406.883	624.31
407.107	670.31
407.331	699.31
407.555	782.31
407.778	794.31
408.002	734.31
408.226	668.31
408.449	624.31
408.673	650.31
408.896	667.31
409.12	734.31
409.344	719.31
409.567	633.31
409.791	595.31
410.014	604.31
410.238	593.31
410.461	597.31
410.685	578.31
410.908	616.31
411.132	641.31
411.355	672.31
411.578	664.31
411.802	596.31
412.025	571.31
412.249	601.31
412.472	622.31
412.695	638.31
412.919	642.31
413.142	588.31
413.365	570.31
413.589	569.31
413.812	567.31
414.035	563.31
414.258	563.31
414.482	557.31
414.705	569.31
414.928	556.31
415.151	568.31
415.374	566.31
415.597	562.31
415.821	552.31
416.044	560.31
416.267	559.31
416.49	564.31
416.713	552.31
416.936	543.31
417.159	549.31
417.382	565.31
417.605	547.31
417.828	565.31
418.051	572.31
418.274	559.31
418.497	564.31
418.72	535.31
418.943	562.31
419.166	567.31
419.389	598.31
419.611	599.31
419.834	562.31
420.057	585.31
420.28	576.31
420.503	566.31
420.726	553.31
420.948	595.31
421.171	607.31
421.394	639.31
421.617	594.31
421.839	563.31
422.062	558.31
422.285	602.31
422.507	631.31
422.73	713.31
422.953	703.31
423.175	612.31
423.398	600.31
423.621	601.31
423.843	632.31
424.066	603.31
424.288	601.31
424.511	626.31
424.733	712.31
424.956	779.31
425.178	760.31
425.401	768.31
425.623	777.31
425.846	686.31
426.068	632.31
426.291	613.31
426.513	622.31
426.735	634.31
426.958	661.31
427.18	744.31
427.402	954.31
427.625	986.31
427.847	815.31
428.069	732.31
428.292	647.31
428.514	596.31
428.736	606.31
428.958	582.31
429.181	574.31
429.403	543.31
429.625	570.31
429.847	619.31
430.069	692.31
430.292	678.31
430.514	596.31
430.736	582.31
430.958	566.31
431.18	542.31
431.402	558.31
431.624	530.31
431.846	518.31
432.068	538.31
432.29	542.31
432.512	535.31
432.734	553.31
432.956	556.31
433.178	572.31
433.4	572.31
433.622	548.31
433.844	553.31
434.066	536.31
434.287	532.31
434.509	545.31
434.731	576.31
434.953	591.31
435.175	562.31
435.397	611.31
435.618	594.31
435.84	664.31
436.062	768.31
436.284	841.31
436.505	706.31
436.727	625.31
436.949	590.31
437.17	546.31
437.392	579.31
437.614	592.31
437.835	611.31
438.057	716.31
438.278	839.31
438.5	857.31
438.721	920.31
438.943	875.31
439.165	703.31
439.386	630.31
439.608	626.31
439.829	618.31
440.05	670.31
440.272	688.31
440.493	664.31
440.715	620.31
440.936	574.31
441.158	592.31
441.379	576.31
441.6	575.31
441.822	632.31
442.043	639.31
442.264	766.31
442.486	796.31
442.707	656.31
442.928	629.31
443.149	647.31
443.371	654.31
443.592	689.31
443.813	798.31
444.034	878.31
444.255	725.31
444.476	632.31
444.698	638.31
444.919	605.31
445.14	690.31
445.361	668.31
445.582	687.31
445.803	756.31
446.024	859.31
446.245	860.31
446.466	794.31
446.687	690.31
446.908	616.31
447.129	571.31
447.35	564.31
447.571	559.31
447.792	542.31
448.013	558.31
448.234	576.31
448.455	628.31
448.675	748.31
448.896	901.31
449.117	774.31
449.338	691.31
449.559	826.31
449.779	950.31
450	743.31
450.221	624.31
450.442	554.31
450.662	550.31
450.883	556.31
451.104	554.31
451.324	562.31
451.545	545.31
451.766	541.31
451.986	533.31
452.207	518.31
452.428	507.31
452.648	474.31
452.869	503.31
453.089	504.31
453.31	518.31
453.53	521.31
453.751	507.31
453.971	512.31
454.192	528.31
454.412	520.31
454.633	504.31
454.853	504.31
455.073	497.31
455.294	546.31
455.514	616.31
455.734	595.31
455.955	500.31
456.175	486.31
456.395	481.31
456.616	492.31
456.836	470.31
457.056	490.31
457.276	481.31
457.497	494.31
457.717	497.31
457.937	476.31
458.157	486.31
458.377	487.31
458.598	531.31
458.818	603.31
459.038	679.31
459.258	696.31
459.478	582.31
459.698	547.31
459.918	538.31
460.138	559.31
460.358	557.31
460.578	560.31
460.798	576.31
461.018	568.31
461.238	574.31
461.458	562.31
461.678	549.31
461.898	566.31
462.118	584.31
462.338	582.31
462.558	572.31
462.777	572.31
462.997	616.31
463.217	624.31
463.437	617.31
463.657	598.31
463.876	592.31
464.096	601.31
464.316	587.31
464.536	598.31
464.755	606.31
464.975	593.31
465.195	630.31
465.414	699.31
465.634	628.31
465.854	567.31
466.073	560.31
466.293	554.31
466.512	557.31
466.732	540.31
466.951	523.31
467.171	542.31
467.391	538.31
467.61	531.31
467.829	544.31
468.049	526.31
468.268	537.31
468.488	523.31
468.707	514.31
468.927	499.31
469.146	512.31
469.365	514.31
469.585	507.31
469.804	537.31
470.023	536.31
470.243	521.31
470.462	550.31
470.681	550.31
470.901	551.31
471.12	529.31
471.339	507.31
471.558	532.31
471.777	508.31
471.997	507.31
472.216	516.31
472.435	587.31
472.654	554.31
472.873	531.31
473.092	541.31
473.311	555.31
473.53	565.31
473.749	545.31
473.968	582.31
474.187	699.31
474.406	716.31
474.625	578.31
474.844	544.31
475.063	527.31
475.282	540.31
475.501	542.31
475.72	548.31
475.939	548.31
476.158	553.31
476.377	561.31
476.596	569.31
476.814	555.31
477.033	563.31
477.252	574.31
477.471	558.31
477.69	563.31
477.908	570.31
478.127	587.31
478.346	566.31
478.564	599.31
478.783	571.31
479.002	608.31
479.22	606.31
479.439	601.31
479.658	633.31
479.876	658.31
480.095	660.31
480.313	675.31
480.532	642.31
480.751	654.31
480.969	663.31
481.188	694.31
481.406	744.31
481.624	680.31
481.843	643.31
482.061	630.31
482.28	630.31
482.498	641.31
482.717	614.31
482.935	633.31
483.153	624.31
483.372	635.31
483.59	623.31
483.808	618.31
484.027	598.31
484.245	643.31
484.463	632.31
484.681	667.31
484.9	643.31
485.118	634.31
485.336	646.31
485.554	645.31
485.772	646.31
485.99	639.31
486.209	650.31
486.427	657.31
486.645	652.31
486.863	662.31
487.081	677.31
487.299	674.31
487.517	670.31
487.735	651.31
487.953	657.31
488.171	642.31
488.389	652.31
488.607	664.31
488.825	659.31
489.043	687.31
489.261	698.31
489.479	671.31
489.696	667.31
489.914	661.31
490.132	688.31
490.35	680.31
490.568	706.31
490.786	721.31
491.003	718.31
491.221	701.31
491.439	709.31
491.657	726.31
491.874	774.31
492.092	736.31
492.31	742.31
492.527	734.31
492.745	760.31
492.963	752.31
493.18	744.31
493.398	759.31
493.615	746.31
493.833	768.31
494.05	763.31
494.268	765.31
494.485	764.31
494.703	786.31
494.92	768.31
495.138	766.31
495.355	772.31
495.573	795.31
495.79	780.31
496.008	809.31
496.225	783.31
496.442	785.31
496.66	773.31
496.877	790.31
497.094	822.31
497.312	793.31
497.529	830.31
497.746	836.31
497.963	834.31
498.181	886.31
498.398	868.31
498.615	894.31
498.832	912.31
499.049	932.31
499.267	956.31
499.484	982.31
499.701	1002.31
499.918	1043.31
500.135	1106.31
500.352	1119.31
500.569	1155.31
500.786	1150.31
501.003	1149.31
501.22	1110.31
501.437	1062.31
501.654	1048.31
501.871	1040.31
