Data from 1978.PennyLincolnUp.Lamp.En5.5.200Scan.071719.P1_HRD10591_16-12-26-864.txt Node
Date: Thu Jul 18 16:12:26 EDT 2019
User: cochatt
Spectrometer: HR+D1059
Trigger mode: 1
Integration Time (sec): 1.000000E-1
Scans to average: 1
Electric dark correction enabled: true
Nonlinearity correction enabled: false
Boxcar width: 0
XAxis mode: Wavelengths
Number of Pixels in Spectrum: 2048
>>>>>Begin Spectral Data<<<<<
223.165	-10.5
223.4	-10.5
223.635	-10.5
223.869	-31.5
224.104	-21.5
224.338	-7.5
224.573	-10.5
224.808	-20.5
225.042	3.5
225.277	-18.5
225.511	2.5
225.746	4.5
225.98	4.5
226.215	4.5
226.449	15.5
226.683	15.5
226.918	33.5
227.152	36.5
227.387	29.5
227.621	38.5
227.856	35.5
228.09	49.5
228.324	42.5
228.559	49.5
228.793	63.5
229.027	92.5
229.262	96.5
229.496	104.5
229.73	109.5
229.964	135.5
230.199	113.5
230.433	102.5
230.667	112.5
230.901	106.5
231.136	99.5
231.37	104.5
231.604	100.5
231.838	117.5
232.072	105.5
232.306	110.5
232.541	93.5
232.775	106.5
233.009	114.5
233.243	115.5
233.477	113.5
233.711	112.5
233.945	102.5
234.179	100.5
234.413	99.5
234.647	114.5
234.881	109.5
235.115	89.5
235.349	119.5
235.583	114.5
235.817	116.5
236.051	129.5
236.285	127.5
236.519	115.5
236.753	108.5
236.987	125.5
237.221	165.5
237.455	203.5
237.689	163.5
237.922	128.5
238.156	121.5
238.39	123.5
238.624	127.5
238.858	116.5
239.091	121.5
239.325	119.5
239.559	116.5
239.793	117.5
240.027	133.5
240.26	121.5
240.494	157.5
240.728	156.5
240.961	138.5
241.195	133.5
241.429	130.5
241.662	121.5
241.896	123.5
242.13	127.5
242.363	121.5
242.597	130.5
242.83	139.5
243.064	137.5
243.298	127.5
243.531	120.5
243.765	125.5
243.998	139.5
244.232	129.5
244.465	126.5
244.699	130.5
244.932	120.5
245.166	152.5
245.399	148.5
245.633	152.5
245.866	137.5
246.099	140.5
246.333	138.5
246.566	129.5
246.8	135.5
247.033	153.5
247.266	162.5
247.5	154.5
247.733	143.5
247.966	154.5
248.2	148.5
248.433	149.5
248.666	145.5
248.899	156.5
249.133	168.5
249.366	172.5
249.599	193.5
249.832	153.5
250.066	165.5
250.299	176.5
250.532	170.5
250.765	191.5
250.998	191.5
251.231	192.5
251.465	180.5
251.698	194.5
251.931	179.5
252.164	182.5
252.397	199.5
252.63	184.5
252.863	179.5
253.096	189.5
253.329	202.5
253.562	200.5
253.795	203.5
254.028	184.5
254.261	177.5
254.494	201.5
254.727	207.5
254.96	232.5
255.193	210.5
255.426	216.5
255.659	219.5
255.892	194.5
256.124	188.5
256.357	205.5
256.59	202.5
256.823	192.5
257.056	194.5
257.289	183.5
257.521	186.5
257.754	198.5
257.987	186.5
258.22	191.5
258.452	198.5
258.685	185.5
258.918	198.5
259.151	201.5
259.383	202.5
259.616	212.5
259.849	204.5
260.081	195.5
260.314	217.5
260.547	240.5
260.779	214.5
261.012	187.5
261.244	203.5
261.477	222.5
261.71	201.5
261.942	189.5
262.175	217.5
262.407	202.5
262.64	204.5
262.872	209.5
263.105	195.5
263.337	205.5
263.57	187.5
263.802	199.5
264.035	204.5
264.267	185.5
264.499	208.5
264.732	202.5
264.964	197.5
265.197	203.5
265.429	179.5
265.661	185.5
265.894	200.5
266.126	215.5
266.358	205.5
266.591	200.5
266.823	225.5
267.055	196.5
267.287	210.5
267.52	208.5
267.752	231.5
267.984	201.5
268.216	223.5
268.448	201.5
268.681	216.5
268.913	219.5
269.145	226.5
269.377	245.5
269.609	249.5
269.841	241.5
270.073	243.5
270.306	252.5
270.538	269.5
270.77	276.5
271.002	262.5
271.234	255.5
271.466	259.5
271.698	236.5
271.93	262.5
272.162	264.5
272.394	281.5
272.626	275.5
272.858	261.5
273.09	267.5
273.322	255.5
273.553	227.5
273.785	230.5
274.017	236.5
274.249	246.5
274.481	243.5
274.713	235.5
274.945	239.5
275.176	227.5
275.408	259.5
275.64	236.5
275.872	255.5
276.104	243.5
276.335	249.5
276.567	235.5
276.799	259.5
277.031	272.5
277.262	285.5
277.494	292.5
277.726	288.5
277.957	256.5
278.189	261.5
278.421	242.5
278.652	257.5
278.884	243.5
279.115	249.5
279.347	239.5
279.579	235.5
279.81	241.5
280.042	257.5
280.273	265.5
280.505	259.5
280.736	222.5
280.968	227.5
281.199	252.5
281.431	259.5
281.662	234.5
281.894	250.5
282.125	259.5
282.356	262.5
282.588	278.5
282.819	294.5
283.051	262.5
283.282	244.5
283.513	248.5
283.745	255.5
283.976	257.5
284.207	263.5
284.439	244.5
284.67	273.5
284.901	265.5
285.132	257.5
285.364	274.5
285.595	263.5
285.826	250.5
286.057	260.5
286.288	243.5
286.52	268.5
286.751	259.5
286.982	256.5
287.213	277.5
287.444	255.5
287.675	280.5
287.906	274.5
288.138	275.5
288.369	285.5
288.6	275.5
288.831	269.5
289.062	274.5
289.293	280.5
289.524	287.5
289.755	277.5
289.986	284.5
290.217	274.5
290.448	278.5
290.679	281.5
290.91	275.5
291.141	257.5
291.371	267.5
291.602	282.5
291.833	280.5
292.064	274.5
292.295	282.5
292.526	264.5
292.757	278.5
292.987	277.5
293.218	267.5
293.449	272.5
293.68	260.5
293.91	260.5
294.141	263.5
294.372	286.5
294.603	257.5
294.833	293.5
295.064	274.5
295.295	277.5
295.525	265.5
295.756	283.5
295.987	283.5
296.217	286.5
296.448	307.5
296.679	303.5
296.909	271.5
297.14	297.5
297.37	285.5
297.601	282.5
297.831	275.5
298.062	273.5
298.292	284.5
298.523	284.5
298.753	305.5
298.984	298.5
299.214	275.5
299.445	295.5
299.675	284.5
299.905	306.5
300.136	319.5
300.366	280.5
300.597	286.5
300.827	311.5
301.057	317.5
301.288	306.5
301.518	314.5
301.748	287.5
301.979	292.5
302.209	305.5
302.439	303.5
302.669	314.5
302.9	299.5
303.13	317.5
303.36	307.5
303.59	315.5
303.82	316.5
304.051	327.5
304.281	321.5
304.511	318.5
304.741	313.5
304.971	313.5
305.201	333.5
305.431	297.5
305.661	322.5
305.891	323.5
306.121	308.5
306.352	309.5
306.582	314.5
306.812	307.5
307.042	289.5
307.272	322.5
307.502	308.5
307.731	310.5
307.961	327.5
308.191	329.5
308.421	310.5
308.651	320.5
308.881	311.5
309.111	324.5
309.341	319.5
309.571	325.5
309.8	356.5
310.03	349.5
310.26	336.5
310.49	340.5
310.72	357.5
310.949	340.5
311.179	362.5
311.409	363.5
311.639	340.5
311.868	353.5
312.098	349.5
312.328	339.5
312.557	373.5
312.787	377.5
313.017	365.5
313.246	352.5
313.476	334.5
313.706	376.5
313.935	351.5
314.165	366.5
314.394	377.5
314.624	375.5
314.853	362.5
315.083	361.5
315.312	351.5
315.542	341.5
315.771	358.5
316.001	343.5
316.23	345.5
316.46	345.5
316.689	355.5
316.919	364.5
317.148	363.5
317.377	377.5
317.607	362.5
317.836	340.5
318.065	356.5
318.295	362.5
318.524	354.5
318.753	336.5
318.983	360.5
319.212	358.5
319.441	360.5
319.67	361.5
319.9	359.5
320.129	341.5
320.358	380.5
320.587	356.5
320.816	371.5
321.046	377.5
321.275	364.5
321.504	385.5
321.733	371.5
321.962	387.5
322.191	410.5
322.42	383.5
322.649	411.5
322.878	403.5
323.108	424.5
323.337	449.5
323.566	436.5
323.795	466.5
324.024	503.5
324.253	607.5
324.482	822.5
324.71	1347.5
324.939	1961.5
325.168	1727.5
325.397	863.5
325.626	579.5
325.855	501.5
326.084	481.5
326.313	446.5
326.542	443.5
326.77	460.5
326.999	572.5
327.228	787.5
327.457	1202.5
327.686	1499.5
327.914	990.5
328.143	603.5
328.372	562.5
328.6	526.5
328.829	505.5
329.058	495.5
329.287	522.5
329.515	490.5
329.744	475.5
329.972	450.5
330.201	470.5
330.43	500.5
330.658	503.5
330.887	532.5
331.115	533.5
331.344	459.5
331.572	435.5
331.801	460.5
332.03	459.5
332.258	451.5
332.486	424.5
332.715	425.5
332.943	444.5
333.172	424.5
333.4	431.5
333.629	434.5
333.857	454.5
334.085	483.5
334.314	459.5
334.542	481.5
334.771	480.5
334.999	470.5
335.227	447.5
335.455	442.5
335.684	441.5
335.912	421.5
336.14	413.5
336.369	410.5
336.597	407.5
336.825	427.5
337.053	432.5
337.281	421.5
337.51	405.5
337.738	419.5
337.966	418.5
338.194	445.5
338.422	413.5
338.65	408.5
338.878	414.5
339.106	409.5
339.334	396.5
339.562	410.5
339.79	409.5
340.018	412.5
340.246	425.5
340.474	421.5
340.702	431.5
340.93	399.5
341.158	420.5
341.386	416.5
341.614	434.5
341.842	428.5
342.07	419.5
342.298	410.5
342.526	394.5
342.754	407.5
342.981	386.5
343.209	403.5
343.437	414.5
343.665	426.5
343.893	411.5
344.12	452.5
344.348	442.5
344.576	445.5
344.804	437.5
345.031	427.5
345.259	428.5
345.487	424.5
345.714	411.5
345.942	405.5
346.17	416.5
346.397	388.5
346.625	393.5
346.853	387.5
347.08	405.5
347.308	426.5
347.535	415.5
347.763	408.5
347.99	420.5
348.218	413.5
348.445	410.5
348.673	414.5
348.9	426.5
349.128	419.5
349.355	401.5
349.583	399.5
349.81	400.5
350.037	394.5
350.265	383.5
350.492	407.5
350.72	398.5
350.947	407.5
351.174	418.5
351.402	415.5
351.629	398.5
351.856	395.5
352.083	412.5
352.311	412.5
352.538	405.5
352.765	402.5
352.992	417.5
353.22	416.5
353.447	400.5
353.674	400.5
353.901	402.5
354.128	385.5
354.355	368.5
354.583	389.5
354.81	384.5
355.037	379.5
355.264	388.5
355.491	379.5
355.718	384.5
355.945	378.5
356.172	372.5
356.399	380.5
356.626	389.5
356.853	367.5
357.08	384.5
357.307	380.5
357.534	356.5
357.761	382.5
357.988	395.5
358.215	361.5
358.441	378.5
358.668	393.5
358.895	406.5
359.122	392.5
359.349	411.5
359.576	393.5
359.802	428.5
360.029	445.5
360.256	452.5
360.483	431.5
360.709	407.5
360.936	398.5
361.163	380.5
361.39	415.5
361.616	411.5
361.843	404.5
362.07	415.5
362.296	426.5
362.523	423.5
362.749	408.5
362.976	410.5
363.203	385.5
363.429	371.5
363.656	407.5
363.882	391.5
364.109	381.5
364.335	381.5
364.562	405.5
364.788	405.5
365.015	396.5
365.241	393.5
365.468	395.5
365.694	393.5
365.92	415.5
366.147	396.5
366.373	394.5
366.599	403.5
366.826	409.5
367.052	401.5
367.278	384.5
367.505	387.5
367.731	401.5
367.957	411.5
368.184	398.5
368.41	405.5
368.636	418.5
368.862	418.5
369.089	412.5
369.315	404.5
369.541	394.5
369.767	398.5
369.993	391.5
370.219	409.5
370.445	422.5
370.672	389.5
370.898	401.5
371.124	387.5
371.35	392.5
371.576	375.5
371.802	395.5
372.028	403.5
372.254	404.5
372.48	391.5
372.706	394.5
372.932	406.5
373.158	401.5
373.384	411.5
373.61	414.5
373.835	417.5
374.061	384.5
374.287	425.5
374.513	400.5
374.739	424.5
374.965	425.5
375.191	430.5
375.416	420.5
375.642	411.5
375.868	403.5
376.094	403.5
376.319	417.5
376.545	399.5
376.771	397.5
376.997	383.5
377.222	396.5
377.448	399.5
377.674	383.5
377.899	411.5
378.125	402.5
378.35	396.5
378.576	393.5
378.802	411.5
379.027	394.5
379.253	411.5
379.478	381.5
379.704	394.5
379.929	392.5
380.155	404.5
380.38	400.5
380.606	410.5
380.831	416.5
381.057	412.5
381.282	397.5
381.507	396.5
381.733	415.5
381.958	424.5
382.184	428.5
382.409	415.5
382.634	429.5
382.86	407.5
383.085	414.5
383.31	427.5
383.535	423.5
383.761	433.5
383.986	433.5
384.211	421.5
384.436	449.5
384.662	440.5
384.887	443.5
385.112	441.5
385.337	442.5
385.562	447.5
385.787	464.5
386.013	469.5
386.238	458.5
386.463	453.5
386.688	433.5
386.913	440.5
387.138	448.5
387.363	458.5
387.588	482.5
387.813	451.5
388.038	447.5
388.263	453.5
388.488	428.5
388.713	467.5
388.938	466.5
389.163	460.5
389.387	424.5
389.612	466.5
389.837	447.5
390.062	449.5
390.287	451.5
390.512	465.5
390.736	461.5
390.961	475.5
391.186	453.5
391.411	464.5
391.636	473.5
391.86	465.5
392.085	474.5
392.31	469.5
392.534	481.5
392.759	466.5
392.984	463.5
393.208	467.5
393.433	466.5
393.658	459.5
393.882	469.5
394.107	476.5
394.331	480.5
394.556	457.5
394.78	456.5
395.005	470.5
395.229	472.5
395.454	468.5
395.678	475.5
395.903	495.5
396.127	496.5
396.352	521.5
396.576	491.5
396.801	504.5
397.025	483.5
397.249	513.5
397.474	492.5
397.698	495.5
397.922	491.5
398.147	520.5
398.371	552.5
398.595	548.5
398.82	525.5
399.044	544.5
399.268	545.5
399.492	588.5
399.717	586.5
399.941	617.5
400.165	659.5
400.389	657.5
400.613	608.5
400.837	585.5
401.062	552.5
401.286	524.5
401.51	530.5
401.734	528.5
401.958	544.5
402.182	524.5
402.406	529.5
402.63	555.5
402.854	533.5
403.078	543.5
403.302	542.5
403.526	551.5
403.75	577.5
403.974	574.5
404.198	551.5
404.422	539.5
404.645	556.5
404.869	551.5
405.093	576.5
405.317	613.5
405.541	652.5
405.765	580.5
405.988	567.5
406.212	570.5
406.436	632.5
406.66	625.5
406.883	575.5
407.107	595.5
407.331	646.5
407.555	715.5
407.778	693.5
408.002	655.5
408.226	588.5
408.449	631.5
408.673	629.5
408.896	631.5
409.12	671.5
409.344	623.5
409.567	609.5
409.791	565.5
410.014	568.5
410.238	548.5
410.461	573.5
410.685	579.5
410.908	591.5
411.132	590.5
411.355	642.5
411.578	623.5
411.802	541.5
412.025	561.5
412.249	566.5
412.472	570.5
412.695	615.5
412.919	610.5
413.142	563.5
413.365	548.5
413.589	528.5
413.812	542.5
414.035	523.5
414.258	532.5
414.482	537.5
414.705	546.5
414.928	528.5
415.151	513.5
415.374	492.5
415.597	516.5
415.821	496.5
416.044	517.5
416.267	492.5
416.49	529.5
416.713	517.5
416.936	528.5
417.159	519.5
417.382	519.5
417.605	493.5
417.828	523.5
418.051	533.5
418.274	537.5
418.497	505.5
418.72	522.5
418.943	497.5
419.166	533.5
419.389	563.5
419.611	549.5
419.834	557.5
420.057	544.5
420.28	556.5
420.503	523.5
420.726	542.5
420.948	572.5
421.171	592.5
421.394	620.5
421.617	533.5
421.839	514.5
422.062	535.5
422.285	547.5
422.507	581.5
422.73	657.5
422.953	650.5
423.175	580.5
423.398	571.5
423.621	561.5
423.843	568.5
424.066	566.5
424.288	559.5
424.511	564.5
424.733	619.5
424.956	715.5
425.178	702.5
425.401	688.5
425.623	728.5
425.846	623.5
426.068	570.5
426.291	559.5
426.513	568.5
426.735	599.5
426.958	619.5
427.18	675.5
427.402	830.5
427.625	916.5
427.847	799.5
428.069	697.5
428.292	613.5
428.514	569.5
428.736	544.5
428.958	547.5
429.181	541.5
429.403	527.5
429.625	539.5
429.847	563.5
430.069	645.5
430.292	623.5
430.514	570.5
430.736	531.5
430.958	522.5
431.18	527.5
431.402	503.5
431.624	499.5
431.846	508.5
432.068	502.5
432.29	511.5
432.512	530.5
432.734	520.5
432.956	503.5
433.178	532.5
433.4	528.5
433.622	534.5
433.844	520.5
434.066	523.5
434.287	513.5
434.509	523.5
434.731	528.5
434.953	522.5
435.175	537.5
435.397	547.5
435.618	584.5
435.84	610.5
436.062	687.5
436.284	766.5
436.505	647.5
436.727	575.5
436.949	547.5
437.17	543.5
437.392	549.5
437.614	521.5
437.835	593.5
438.057	657.5
438.278	751.5
438.5	762.5
438.721	845.5
438.943	812.5
439.165	659.5
439.386	594.5
439.608	586.5
439.829	567.5
440.05	612.5
440.272	639.5
440.493	583.5
440.715	557.5
440.936	529.5
441.158	518.5
441.379	541.5
441.6	567.5
441.822	548.5
442.043	604.5
442.264	683.5
442.486	713.5
442.707	613.5
442.928	585.5
443.149	601.5
443.371	593.5
443.592	633.5
443.813	729.5
444.034	807.5
444.255	699.5
444.476	596.5
444.698	582.5
444.919	583.5
445.14	684.5
445.361	637.5
445.582	626.5
445.803	667.5
446.024	756.5
446.245	787.5
446.466	728.5
446.687	619.5
446.908	571.5
447.129	529.5
447.35	538.5
447.571	511.5
447.792	505.5
448.013	529.5
448.234	536.5
448.455	585.5
448.675	697.5
448.896	824.5
449.117	681.5
449.338	628.5
449.559	773.5
449.779	896.5
450	685.5
450.221	560.5
450.442	537.5
450.662	507.5
450.883	510.5
451.104	522.5
451.324	521.5
451.545	475.5
451.766	479.5
451.986	468.5
452.207	475.5
452.428	486.5
452.648	470.5
452.869	476.5
453.089	447.5
453.31	491.5
453.53	479.5
453.751	459.5
453.971	466.5
454.192	483.5
454.412	492.5
454.633	467.5
454.853	470.5
455.073	477.5
455.294	486.5
455.514	548.5
455.734	530.5
455.955	493.5
456.175	445.5
456.395	442.5
456.616	452.5
456.836	467.5
457.056	475.5
457.276	428.5
457.497	452.5
457.717	437.5
457.937	458.5
458.157	468.5
458.377	484.5
458.598	479.5
458.818	535.5
459.038	592.5
459.258	629.5
459.478	539.5
459.698	513.5
459.918	511.5
460.138	509.5
460.358	499.5
460.578	534.5
460.798	530.5
461.018	543.5
461.238	531.5
461.458	538.5
461.678	506.5
461.898	547.5
462.118	534.5
462.338	540.5
462.558	556.5
462.777	547.5
462.997	584.5
463.217	588.5
463.437	586.5
463.657	556.5
463.876	577.5
464.096	577.5
464.316	572.5
464.536	581.5
464.755	568.5
464.975	556.5
465.195	578.5
465.414	630.5
465.634	568.5
465.854	531.5
466.073	529.5
466.293	514.5
466.512	513.5
466.732	501.5
466.951	501.5
467.171	515.5
467.391	509.5
467.61	495.5
467.829	506.5
468.049	506.5
468.268	500.5
468.488	504.5
468.707	477.5
468.927	491.5
469.146	476.5
469.365	483.5
469.585	480.5
469.804	510.5
470.023	497.5
470.243	514.5
470.462	512.5
470.681	508.5
470.901	517.5
471.12	499.5
471.339	502.5
471.558	499.5
471.777	509.5
471.997	507.5
472.216	484.5
472.435	527.5
472.654	528.5
472.873	499.5
473.092	497.5
473.311	483.5
473.53	513.5
473.749	523.5
473.968	546.5
474.187	627.5
474.406	656.5
474.625	544.5
474.844	523.5
475.063	522.5
475.282	505.5
475.501	509.5
475.72	519.5
475.939	509.5
476.158	504.5
476.377	511.5
476.596	529.5
476.814	549.5
477.033	545.5
477.252	528.5
477.471	534.5
477.69	563.5
477.908	546.5
478.127	551.5
478.346	561.5
478.564	549.5
478.783	553.5
479.002	576.5
479.22	563.5
479.439	579.5
479.658	607.5
479.876	618.5
480.095	594.5
480.313	617.5
480.532	640.5
480.751	625.5
480.969	603.5
481.188	654.5
481.406	677.5
481.624	619.5
481.843	603.5
482.061	602.5
482.28	612.5
482.498	595.5
482.717	581.5
482.935	573.5
483.153	588.5
483.372	596.5
483.59	593.5
483.808	589.5
484.027	569.5
484.245	599.5
484.463	613.5
484.681	625.5
484.9	600.5
485.118	613.5
485.336	595.5
485.554	605.5
485.772	605.5
485.99	599.5
486.209	590.5
486.427	597.5
486.645	626.5
486.863	631.5
487.081	635.5
487.299	615.5
487.517	604.5
487.735	623.5
487.953	611.5
488.171	629.5
488.389	622.5
488.607	649.5
488.825	647.5
489.043	634.5
489.261	634.5
489.479	647.5
489.696	644.5
489.914	608.5
490.132	636.5
490.35	639.5
490.568	657.5
490.786	645.5
491.003	677.5
491.221	682.5
491.439	669.5
491.657	667.5
491.874	667.5
492.092	695.5
492.31	673.5
492.527	691.5
492.745	729.5
492.963	708.5
493.18	711.5
493.398	717.5
493.615	713.5
493.833	706.5
494.05	717.5
494.268	700.5
494.485	724.5
494.703	712.5
494.92	728.5
495.138	684.5
495.355	722.5
495.573	736.5
495.79	711.5
496.008	702.5
496.225	730.5
496.442	734.5
496.66	738.5
496.877	755.5
497.094	757.5
497.312	754.5
497.529	768.5
497.746	763.5
497.963	775.5
498.181	817.5
498.398	813.5
498.615	836.5
498.832	856.5
499.049	893.5
499.267	884.5
499.484	954.5
499.701	959.5
499.918	1001.5
500.135	1018.5
500.352	1063.5
500.569	1072.5
500.786	1067.5
501.003	1080.5
501.22	1036.5
501.437	978.5
501.654	977.5
501.871	967.5
502.088	943.5
502.305	873.5
502.522	857.5
502.739	827.5
502.956	834.5
503.172	791.5
503.389	797.5
503.606	801.5
503.823	778.5
504.04	800.5
504.256	749.5
504.473	765.5
504.69	757.5
504.907	760.5
505.123	716.5
505.34	731.5
505.557	715.5
505.773	728.5
505.99	721.5
506.207	711.5
506.423	676.5
506.64	673.5
506.856	691.5
507.073	669.5
507.289	677.5
507.506	672.5
507.722	673.5
507.939	703.5
508.155	675.5
508.372	660.5
508.588	659.5
508.805	653.5
509.021	681.5
509.238	654.5
509.454	672.5
509.67	638.5
509.887	645.5
510.103	661.5
510.319	665.5
510.536	724.5
510.752	1039.5
510.968	882.5
511.184	667.5
511.401	649.5
511.617	631.5
511.833	639.5
512.049	618.5
512.265	608.5
512.481	617.5
512.698	638.5
512.914	619.5
513.13	632.5
513.346	618.5
513.562	628.5
513.778	631.5
513.994	653.5
514.21	630.5
514.426	651.5
514.642	681.5
514.858	703.5
515.074	729.5
515.29	809.5
515.506	1081.5
515.721	964.5
515.937	728.5
516.153	689.5
516.369	657.5
516.585	663.5
516.801	663.5
517.016	657.5
517.232	666.5
517.448	669.5
517.664	662.5
517.879	670.5
518.095	653.5
518.311	655.5
518.527	652.5
518.742	654.5
518.958	636.5
519.173	643.5
519.389	639.5
519.605	639.5
519.82	647.5
