Data from 1978.PennyLincolnUp.Lamp.En5.5.200Scan.071719.P1_HRD10591_16-14-10-864.txt Node
Date: Thu Jul 18 16:14:10 EDT 2019
User: cochatt
Spectrometer: HR+D1059
Trigger mode: 1
Integration Time (sec): 1.000000E-1
Scans to average: 1
Electric dark correction enabled: true
Nonlinearity correction enabled: false
Boxcar width: 0
XAxis mode: Wavelengths
Number of Pixels in Spectrum: 2048
>>>>>Begin Spectral Data<<<<<
223.165	-12.88
223.4	-12.88
223.635	-12.88
223.869	-19.88
224.104	-21.88
224.338	-1.88
224.573	-18.88
224.808	-26.88
225.042	-6.88
225.277	-16.88
225.511	-1.88
225.746	11.12
225.98	10.12
226.215	17.12
226.449	12.12
226.683	22.12
226.918	27.12
227.152	28.12
227.387	27.12
227.621	35.12
227.856	33.12
228.09	41.12
228.324	67.12
228.559	59.12
228.793	80.12
229.027	93.12
229.262	118.12
229.496	114.12
229.73	131.12
229.964	158.12
230.199	114.12
230.433	113.12
230.667	110.12
230.901	112.12
231.136	114.12
231.37	111.12
231.604	121.12
231.838	102.12
232.072	104.12
232.306	101.12
232.541	117.12
232.775	117.12
233.009	108.12
233.243	118.12
233.477	111.12
233.711	115.12
233.945	124.12
234.179	122.12
234.413	114.12
234.647	109.12
234.881	114.12
235.115	130.12
235.349	116.12
235.583	120.12
235.817	114.12
236.051	103.12
236.285	144.12
236.519	130.12
236.753	138.12
236.987	136.12
237.221	168.12
237.455	228.12
237.689	184.12
237.922	144.12
238.156	127.12
238.39	128.12
238.624	127.12
238.858	120.12
239.091	115.12
239.325	132.12
239.559	122.12
239.793	132.12
240.027	139.12
240.26	148.12
240.494	157.12
240.728	146.12
240.961	164.12
241.195	150.12
241.429	145.12
241.662	140.12
241.896	134.12
242.13	136.12
242.363	122.12
242.597	131.12
242.83	147.12
243.064	130.12
243.298	148.12
243.531	130.12
243.765	133.12
243.998	127.12
244.232	130.12
244.465	145.12
244.699	126.12
244.932	143.12
245.166	149.12
245.399	153.12
245.633	146.12
245.866	166.12
246.099	139.12
246.333	138.12
246.566	129.12
246.8	126.12
247.033	150.12
247.266	164.12
247.5	161.12
247.733	150.12
247.966	159.12
248.2	153.12
248.433	153.12
248.666	160.12
248.899	180.12
249.133	195.12
249.366	208.12
249.599	212.12
249.832	180.12
250.066	155.12
250.299	180.12
250.532	190.12
250.765	211.12
250.998	196.12
251.231	218.12
251.465	196.12
251.698	190.12
251.931	171.12
252.164	190.12
252.397	201.12
252.63	180.12
252.863	207.12
253.096	204.12
253.329	214.12
253.562	210.12
253.795	204.12
254.028	219.12
254.261	212.12
254.494	215.12
254.727	227.12
254.96	272.12
255.193	264.12
255.426	232.12
255.659	218.12
255.892	224.12
256.124	222.12
256.357	215.12
256.59	202.12
256.823	187.12
257.056	212.12
257.289	187.12
257.521	188.12
257.754	201.12
257.987	203.12
258.22	206.12
258.452	202.12
258.685	203.12
258.918	199.12
259.151	209.12
259.383	217.12
259.616	205.12
259.849	218.12
260.081	222.12
260.314	248.12
260.547	252.12
260.779	225.12
261.012	220.12
261.244	219.12
261.477	216.12
261.71	227.12
261.942	214.12
262.175	212.12
262.407	218.12
262.64	230.12
262.872	202.12
263.105	205.12
263.337	218.12
263.57	204.12
263.802	212.12
264.035	204.12
264.267	214.12
264.499	205.12
264.732	207.12
264.964	217.12
265.197	210.12
265.429	206.12
265.661	197.12
265.894	204.12
266.126	208.12
266.358	201.12
266.591	216.12
266.823	205.12
267.055	212.12
267.287	223.12
267.52	215.12
267.752	205.12
267.984	217.12
268.216	230.12
268.448	219.12
268.681	226.12
268.913	232.12
269.145	245.12
269.377	282.12
269.609	268.12
269.841	259.12
270.073	258.12
270.306	278.12
270.538	302.12
270.77	303.12
271.002	284.12
271.234	264.12
271.466	283.12
271.698	304.12
271.93	291.12
272.162	287.12
272.394	318.12
272.626	294.12
272.858	268.12
273.09	278.12
273.322	271.12
273.553	269.12
273.785	265.12
274.017	246.12
274.249	261.12
274.481	262.12
274.713	256.12
274.945	276.12
275.176	269.12
275.408	280.12
275.64	260.12
275.872	242.12
276.104	266.12
276.335	264.12
276.567	270.12
276.799	275.12
277.031	298.12
277.262	314.12
277.494	312.12
277.726	286.12
277.957	268.12
278.189	270.12
278.421	242.12
278.652	272.12
278.884	259.12
279.115	270.12
279.347	279.12
279.579	283.12
279.81	265.12
280.042	269.12
280.273	263.12
280.505	263.12
280.736	247.12
280.968	266.12
281.199	272.12
281.431	263.12
281.662	281.12
281.894	271.12
282.125	279.12
282.356	284.12
282.588	304.12
282.819	308.12
283.051	281.12
283.282	278.12
283.513	269.12
283.745	284.12
283.976	274.12
284.207	275.12
284.439	283.12
284.67	269.12
284.901	280.12
285.132	276.12
285.364	259.12
285.595	266.12
285.826	278.12
286.057	269.12
286.288	260.12
286.52	277.12
286.751	279.12
286.982	280.12
287.213	265.12
287.444	282.12
287.675	282.12
287.906	281.12
288.138	302.12
288.369	298.12
288.6	292.12
288.831	304.12
289.062	284.12
289.293	299.12
289.524	268.12
289.755	276.12
289.986	300.12
290.217	288.12
290.448	287.12
290.679	285.12
290.91	282.12
291.141	293.12
291.371	281.12
291.602	272.12
291.833	286.12
292.064	270.12
292.295	279.12
292.526	291.12
292.757	286.12
292.987	287.12
293.218	291.12
293.449	302.12
293.68	303.12
293.91	293.12
294.141	258.12
294.372	267.12
294.603	284.12
294.833	286.12
295.064	298.12
295.295	290.12
295.525	299.12
295.756	297.12
295.987	312.12
296.217	313.12
296.448	324.12
296.679	315.12
296.909	297.12
297.14	292.12
297.37	287.12
297.601	290.12
297.831	309.12
298.062	310.12
298.292	295.12
298.523	297.12
298.753	308.12
298.984	327.12
299.214	322.12
299.445	317.12
299.675	303.12
299.905	322.12
300.136	316.12
300.366	295.12
300.597	320.12
300.827	318.12
301.057	315.12
301.288	332.12
301.518	334.12
301.748	330.12
301.979	324.12
302.209	329.12
302.439	314.12
302.669	339.12
302.9	316.12
303.13	318.12
303.36	321.12
303.59	314.12
303.82	340.12
304.051	322.12
304.281	331.12
304.511	317.12
304.741	340.12
304.971	345.12
305.201	319.12
305.431	328.12
305.661	306.12
305.891	312.12
306.121	341.12
306.352	336.12
306.582	336.12
306.812	320.12
307.042	310.12
307.272	326.12
307.502	312.12
307.731	342.12
307.961	336.12
308.191	351.12
308.421	335.12
308.651	339.12
308.881	344.12
309.111	351.12
309.341	352.12
309.571	346.12
309.8	377.12
310.03	352.12
310.26	366.12
310.49	374.12
310.72	367.12
310.949	396.12
311.179	396.12
311.409	375.12
311.639	372.12
311.868	385.12
312.098	365.12
312.328	394.12
312.557	406.12
312.787	398.12
313.017	399.12
313.246	392.12
313.476	372.12
313.706	360.12
313.935	356.12
314.165	372.12
314.394	391.12
314.624	410.12
314.853	367.12
315.083	378.12
315.312	376.12
315.542	372.12
315.771	376.12
316.001	373.12
316.23	378.12
316.46	364.12
316.689	374.12
316.919	362.12
317.148	394.12
317.377	395.12
317.607	378.12
317.836	366.12
318.065	376.12
318.295	380.12
318.524	359.12
318.753	377.12
318.983	374.12
319.212	377.12
319.441	393.12
319.67	397.12
319.9	378.12
320.129	381.12
320.358	386.12
320.587	403.12
320.816	382.12
321.046	393.12
321.275	382.12
321.504	410.12
321.733	402.12
321.962	423.12
322.191	430.12
322.42	453.12
322.649	434.12
322.878	451.12
323.108	455.12
323.337	485.12
323.566	492.12
323.795	510.12
324.024	544.12
324.253	684.12
324.482	1016.12
324.71	1637.12
324.939	2441.12
325.168	2123.12
325.397	1032.12
325.626	663.12
325.855	540.12
326.084	510.12
326.313	522.12
326.542	517.12
326.77	531.12
326.999	670.12
327.228	919.12
327.457	1479.12
327.686	1854.12
327.914	1183.12
328.143	730.12
328.372	619.12
328.6	584.12
328.829	564.12
329.058	573.12
329.287	578.12
329.515	543.12
329.744	488.12
329.972	504.12
330.201	519.12
330.43	552.12
330.658	577.12
330.887	602.12
331.115	598.12
331.344	526.12
331.572	472.12
331.801	494.12
332.03	499.12
332.258	482.12
332.486	469.12
332.715	451.12
332.943	454.12
333.172	454.12
333.4	458.12
333.629	478.12
333.857	491.12
334.085	478.12
334.314	523.12
334.542	530.12
334.771	540.12
334.999	493.12
335.227	474.12
335.455	465.12
335.684	483.12
335.912	451.12
336.14	439.12
336.369	440.12
336.597	475.12
336.825	470.12
337.053	452.12
337.281	446.12
337.51	457.12
337.738	453.12
337.966	446.12
338.194	460.12
338.422	454.12
338.65	460.12
338.878	443.12
339.106	429.12
339.334	438.12
339.562	429.12
339.79	434.12
340.018	430.12
340.246	435.12
340.474	425.12
340.702	444.12
340.93	429.12
341.158	440.12
341.386	453.12
341.614	439.12
341.842	436.12
342.07	417.12
342.298	408.12
342.526	402.12
342.754	404.12
342.981	418.12
343.209	434.12
343.437	465.12
343.665	425.12
343.893	442.12
344.12	459.12
344.348	439.12
344.576	452.12
344.804	466.12
345.031	471.12
345.259	466.12
345.487	454.12
345.714	454.12
345.942	439.12
346.17	431.12
346.397	436.12
346.625	438.12
346.853	423.12
347.08	417.12
347.308	440.12
347.535	439.12
347.763	442.12
347.99	427.12
348.218	432.12
348.445	461.12
348.673	431.12
348.9	432.12
349.128	422.12
349.355	405.12
349.583	414.12
349.81	421.12
350.037	423.12
350.265	416.12
350.492	425.12
350.72	409.12
350.947	420.12
351.174	436.12
351.402	438.12
351.629	438.12
351.856	416.12
352.083	447.12
352.311	443.12
352.538	425.12
352.765	423.12
352.992	442.12
353.22	434.12
353.447	420.12
353.674	428.12
353.901	425.12
354.128	419.12
354.355	397.12
354.583	412.12
354.81	414.12
355.037	391.12
355.264	398.12
355.491	400.12
355.718	400.12
355.945	399.12
356.172	400.12
356.399	393.12
356.626	435.12
356.853	404.12
357.08	405.12
357.307	394.12
357.534	384.12
357.761	408.12
357.988	397.12
358.215	406.12
358.441	398.12
358.668	411.12
358.895	416.12
359.122	415.12
359.349	406.12
359.576	417.12
359.802	446.12
360.029	475.12
360.256	479.12
360.483	468.12
360.709	440.12
360.936	432.12
361.163	435.12
361.39	421.12
361.616	452.12
361.843	434.12
362.07	438.12
362.296	431.12
362.523	429.12
362.749	429.12
362.976	431.12
363.203	413.12
363.429	398.12
363.656	414.12
363.882	405.12
364.109	410.12
364.335	420.12
364.562	422.12
364.788	413.12
365.015	413.12
365.241	411.12
365.468	411.12
365.694	416.12
365.92	423.12
366.147	406.12
366.373	400.12
366.599	417.12
366.826	429.12
367.052	422.12
367.278	402.12
367.505	416.12
367.731	427.12
367.957	409.12
368.184	426.12
368.41	439.12
368.636	418.12
368.862	442.12
369.089	424.12
369.315	428.12
369.541	422.12
369.767	431.12
369.993	423.12
370.219	415.12
370.445	440.12
370.672	413.12
370.898	427.12
371.124	432.12
371.35	420.12
371.576	428.12
371.802	403.12
372.028	418.12
372.254	420.12
372.48	418.12
372.706	420.12
372.932	419.12
373.158	433.12
373.384	422.12
373.61	442.12
373.835	420.12
374.061	408.12
374.287	436.12
374.513	444.12
374.739	429.12
374.965	426.12
375.191	429.12
375.416	430.12
375.642	424.12
375.868	425.12
376.094	414.12
376.319	406.12
376.545	442.12
376.771	404.12
376.997	403.12
377.222	398.12
377.448	427.12
377.674	415.12
377.899	419.12
378.125	418.12
378.35	427.12
378.576	440.12
378.802	430.12
379.027	428.12
379.253	434.12
379.478	419.12
379.704	425.12
379.929	410.12
380.155	423.12
380.38	424.12
380.606	432.12
380.831	431.12
381.057	420.12
381.282	434.12
381.507	434.12
381.733	443.12
381.958	439.12
382.184	435.12
382.409	423.12
382.634	447.12
382.86	430.12
383.085	443.12
383.31	444.12
383.535	427.12
383.761	436.12
383.986	443.12
384.211	445.12
384.436	474.12
384.662	450.12
384.887	432.12
385.112	448.12
385.337	467.12
385.562	475.12
385.787	478.12
386.013	499.12
386.238	483.12
386.463	460.12
386.688	463.12
386.913	462.12
387.138	478.12
387.363	462.12
387.588	468.12
387.813	481.12
388.038	467.12
388.263	463.12
388.488	462.12
388.713	459.12
388.938	473.12
389.163	464.12
389.387	477.12
389.612	472.12
389.837	466.12
390.062	464.12
390.287	470.12
390.512	446.12
390.736	472.12
390.961	484.12
391.186	469.12
391.411	491.12
391.636	478.12
391.86	470.12
392.085	462.12
392.31	476.12
392.534	492.12
392.759	503.12
392.984	490.12
393.208	452.12
393.433	470.12
393.658	469.12
393.882	474.12
394.107	465.12
394.331	478.12
394.556	476.12
394.78	479.12
395.005	459.12
395.229	494.12
395.454	487.12
395.678	499.12
395.903	535.12
396.127	531.12
396.352	533.12
396.576	500.12
396.801	487.12
397.025	507.12
397.249	485.12
397.474	514.12
397.698	519.12
397.922	505.12
398.147	524.12
398.371	558.12
398.595	535.12
398.82	520.12
399.044	549.12
399.268	579.12
399.492	607.12
399.717	639.12
399.941	638.12
400.165	653.12
400.389	666.12
400.613	617.12
400.837	565.12
401.062	573.12
401.286	549.12
401.51	564.12
401.734	536.12
401.958	551.12
402.182	566.12
402.406	558.12
402.63	542.12
402.854	547.12
403.078	566.12
403.302	570.12
403.526	580.12
403.75	601.12
403.974	573.12
404.198	561.12
404.422	589.12
404.645	561.12
404.869	591.12
405.093	641.12
405.317	666.12
405.541	703.12
405.765	640.12
405.988	581.12
406.212	618.12
406.436	627.12
406.66	640.12
406.883	622.12
407.107	655.12
407.331	700.12
407.555	776.12
407.778	768.12
408.002	693.12
408.226	654.12
408.449	650.12
408.673	655.12
408.896	668.12
409.12	730.12
409.344	687.12
409.567	610.12
409.791	607.12
410.014	587.12
410.238	601.12
410.461	624.12
410.685	588.12
410.908	596.12
411.132	645.12
411.355	664.12
411.578	643.12
411.802	582.12
412.025	584.12
412.249	587.12
412.472	578.12
412.695	649.12
412.919	638.12
413.142	583.12
413.365	568.12
413.589	548.12
413.812	558.12
414.035	556.12
414.258	555.12
414.482	527.12
414.705	568.12
414.928	534.12
415.151	556.12
415.374	521.12
415.597	544.12
415.821	531.12
416.044	528.12
416.267	530.12
416.49	556.12
416.713	538.12
416.936	531.12
417.159	536.12
417.382	542.12
417.605	540.12
417.828	556.12
418.051	567.12
418.274	564.12
418.497	551.12
418.72	556.12
418.943	536.12
419.166	532.12
419.389	566.12
419.611	559.12
419.834	561.12
420.057	584.12
420.28	571.12
420.503	554.12
420.726	583.12
420.948	580.12
421.171	623.12
421.394	672.12
421.617	598.12
421.839	562.12
422.062	559.12
422.285	569.12
422.507	653.12
422.73	727.12
422.953	686.12
423.175	619.12
423.398	598.12
423.621	585.12
423.843	606.12
424.066	618.12
424.288	601.12
424.511	618.12
424.733	699.12
424.956	783.12
425.178	713.12
425.401	750.12
425.623	783.12
425.846	670.12
426.068	616.12
426.291	582.12
426.513	582.12
426.735	608.12
426.958	675.12
427.18	764.12
427.402	875.12
427.625	1031.12
427.847	865.12
428.069	732.12
428.292	680.12
428.514	606.12
428.736	587.12
428.958	592.12
429.181	568.12
429.403	556.12
429.625	578.12
429.847	602.12
430.069	682.12
430.292	670.12
430.514	590.12
430.736	558.12
430.958	543.12
431.18	546.12
431.402	564.12
431.624	522.12
431.846	527.12
432.068	532.12
432.29	534.12
432.512	546.12
432.734	580.12
432.956	546.12
433.178	544.12
433.4	542.12
433.622	536.12
433.844	543.12
434.066	527.12
434.287	534.12
434.509	550.12
434.731	564.12
434.953	559.12
435.175	578.12
435.397	589.12
435.618	625.12
435.84	639.12
436.062	757.12
436.284	857.12
436.505	699.12
436.727	621.12
436.949	564.12
437.17	555.12
437.392	577.12
437.614	583.12
437.835	597.12
438.057	712.12
438.278	832.12
438.5	811.12
438.721	908.12
438.943	872.12
439.165	712.12
439.386	617.12
439.608	618.12
439.829	619.12
440.05	647.12
440.272	706.12
440.493	662.12
440.715	594.12
440.936	592.12
441.158	585.12
441.379	570.12
441.6	582.12
441.822	596.12
442.043	638.12
442.264	756.12
442.486	818.12
442.707	680.12
442.928	628.12
443.149	622.12
443.371	650.12
443.592	704.12
443.813	799.12
444.034	890.12
444.255	712.12
444.476	646.12
444.698	624.12
444.919	626.12
445.14	688.12
445.361	663.12
445.582	655.12
445.803	761.12
446.024	871.12
446.245	855.12
446.466	776.12
446.687	669.12
446.908	634.12
447.129	572.12
447.35	565.12
447.571	572.12
447.792	559.12
448.013	564.12
448.234	574.12
448.455	644.12
448.675	735.12
448.896	901.12
449.117	749.12
449.338	687.12
449.559	830.12
449.779	972.12
450	741.12
450.221	621.12
450.442	569.12
450.662	558.12
450.883	554.12
451.104	569.12
451.324	562.12
451.545	530.12
451.766	532.12
451.986	496.12
452.207	524.12
452.428	510.12
452.648	501.12
452.869	506.12
453.089	503.12
453.31	528.12
453.53	494.12
453.751	499.12
453.971	508.12
454.192	522.12
454.412	523.12
454.633	504.12
454.853	505.12
455.073	518.12
455.294	521.12
455.514	583.12
455.734	607.12
455.955	488.12
456.175	481.12
456.395	487.12
456.616	494.12
456.836	491.12
457.056	480.12
457.276	486.12
457.497	467.12
457.717	475.12
457.937	463.12
458.157	500.12
458.377	493.12
458.598	510.12
458.818	570.12
459.038	646.12
459.258	690.12
459.478	598.12
459.698	568.12
459.918	522.12
460.138	532.12
460.358	520.12
460.578	557.12
460.798	557.12
461.018	539.12
461.238	562.12
461.458	558.12
461.678	565.12
461.898	568.12
462.118	562.12
462.338	577.12
462.558	574.12
462.777	596.12
462.997	578.12
463.217	636.12
463.437	615.12
463.657	602.12
463.876	594.12
464.096	585.12
464.316	593.12
464.536	587.12
464.755	597.12
464.975	601.12
465.195	613.12
465.414	690.12
465.634	639.12
465.854	597.12
466.073	538.12
466.293	542.12
466.512	521.12
466.732	526.12
466.951	540.12
467.171	522.12
467.391	529.12
467.61	540.12
467.829	557.12
468.049	560.12
468.268	526.12
468.488	503.12
468.707	509.12
468.927	494.12
469.146	498.12
469.365	498.12
469.585	498.12
469.804	517.12
470.023	508.12
470.243	548.12
470.462	524.12
470.681	546.12
470.901	531.12
471.12	526.12
471.339	514.12
471.558	531.12
471.777	540.12
471.997	518.12
472.216	523.12
472.435	544.12
472.654	542.12
472.873	532.12
473.092	548.12
473.311	526.12
473.53	528.12
473.749	528.12
473.968	573.12
474.187	671.12
474.406	706.12
474.625	580.12
474.844	537.12
475.063	522.12
475.282	498.12
475.501	563.12
475.72	542.12
475.939	532.12
476.158	542.12
476.377	537.12
476.596	527.12
476.814	534.12
477.033	570.12
477.252	557.12
477.471	564.12
477.69	565.12
477.908	559.12
478.127	589.12
478.346	584.12
478.564	592.12
478.783	572.12
479.002	610.12
479.22	603.12
479.439	633.12
479.658	656.12
479.876	628.12
480.095	638.12
480.313	671.12
480.532	647.12
480.751	647.12
480.969	654.12
481.188	690.12
481.406	732.12
481.624	686.12
481.843	656.12
482.061	616.12
482.28	616.12
482.498	614.12
482.717	598.12
482.935	596.12
483.153	613.12
483.372	617.12
483.59	615.12
483.808	628.12
484.027	620.12
484.245	640.12
484.463	631.12
484.681	624.12
484.9	626.12
485.118	626.12
485.336	619.12
485.554	648.12
485.772	627.12
485.99	633.12
486.209	632.12
486.427	643.12
486.645	666.12
486.863	623.12
487.081	641.12
487.299	650.12
487.517	651.12
487.735	656.12
487.953	659.12
488.171	660.12
488.389	661.12
488.607	655.12
488.825	624.12
489.043	669.12
489.261	680.12
489.479	686.12
489.696	684.12
489.914	690.12
490.132	668.12
490.35	672.12
490.568	672.12
490.786	692.12
491.003	690.12
491.221	717.12
491.439	712.12
491.657	735.12
491.874	733.12
492.092	738.12
492.31	757.12
492.527	753.12
492.745	739.12
492.963	733.12
493.18	754.12
493.398	757.12
493.615	781.12
493.833	752.12
494.05	771.12
494.268	772.12
494.485	737.12
494.703	768.12
494.92	783.12
495.138	750.12
495.355	779.12
495.573	750.12
495.79	780.12
496.008	780.12
496.225	770.12
496.442	798.12
496.66	788.12
496.877	773.12
497.094	808.12
497.312	806.12
497.529	773.12
497.746	814.12
497.963	826.12
498.181	859.12
498.398	874.12
498.615	898.12
498.832	876.12
499.049	924.12
499.267	930.12
499.484	983.12
499.701	980.12
499.918	987.12
500.135	1082.12
500.352	1129.12
500.569	1134.12
500.786	1130.12
501.003	1107.12
501.22	1077.12
501.437	1065.12
501.654	1049.12
