Data from 1978.PennyLincolnUp.Lamp.En5.5.200Scan.071719.P1_HRD10591_16-12-32-864.txt Node
Date: Thu Jul 18 16:12:32 EDT 2019
User: cochatt
Spectrometer: HR+D1059
Trigger mode: 1
Integration Time (sec): 1.000000E-1
Scans to average: 1
Electric dark correction enabled: true
Nonlinearity correction enabled: false
Boxcar width: 0
XAxis mode: Wavelengths
Number of Pixels in Spectrum: 2048
>>>>>Begin Spectral Data<<<<<
223.165	-18.81
223.4	-18.81
223.635	-18.81
223.869	-18.81
224.104	-22.81
224.338	-20.81
224.573	-19.81
224.808	-9.81
225.042	0.19
225.277	0.19
225.511	-0.81
225.746	4.19
225.98	2.19
226.215	14.19
226.449	18.19
226.683	11.19
226.918	36.19
227.152	25.19
227.387	35.19
227.621	31.19
227.856	35.19
228.09	40.19
228.324	43.19
228.559	48.19
228.793	67.19
229.027	93.19
229.262	107.19
229.496	103.19
229.73	124.19
229.964	140.19
230.199	118.19
230.433	122.19
230.667	99.19
230.901	115.19
231.136	102.19
231.37	114.19
231.604	103.19
231.838	106.19
232.072	116.19
232.306	111.19
232.541	123.19
232.775	103.19
233.009	99.19
233.243	111.19
233.477	124.19
233.711	109.19
233.945	109.19
234.179	113.19
234.413	109.19
234.647	112.19
234.881	117.19
235.115	116.19
235.349	126.19
235.583	115.19
235.817	110.19
236.051	121.19
236.285	114.19
236.519	103.19
236.753	117.19
236.987	126.19
237.221	155.19
237.455	206.19
237.689	177.19
237.922	136.19
238.156	130.19
238.39	131.19
238.624	118.19
238.858	115.19
239.091	115.19
239.325	135.19
239.559	133.19
239.793	118.19
240.027	130.19
240.26	134.19
240.494	146.19
240.728	142.19
240.961	134.19
241.195	120.19
241.429	123.19
241.662	123.19
241.896	120.19
242.13	121.19
242.363	138.19
242.597	133.19
242.83	125.19
243.064	129.19
243.298	135.19
243.531	125.19
243.765	129.19
243.998	134.19
244.232	142.19
244.465	148.19
244.699	137.19
244.932	140.19
245.166	131.19
245.399	139.19
245.633	138.19
245.866	134.19
246.099	124.19
246.333	143.19
246.566	147.19
246.8	135.19
247.033	146.19
247.266	150.19
247.5	151.19
247.733	156.19
247.966	159.19
248.2	160.19
248.433	164.19
248.666	164.19
248.899	162.19
249.133	167.19
249.366	194.19
249.599	163.19
249.832	171.19
250.066	159.19
250.299	163.19
250.532	174.19
250.765	180.19
250.998	195.19
251.231	222.19
251.465	186.19
251.698	162.19
251.931	167.19
252.164	171.19
252.397	170.19
252.63	172.19
252.863	181.19
253.096	194.19
253.329	201.19
253.562	203.19
253.795	198.19
254.028	196.19
254.261	199.19
254.494	194.19
254.727	192.19
254.96	247.19
255.193	221.19
255.426	212.19
255.659	216.19
255.892	202.19
256.124	182.19
256.357	194.19
256.59	204.19
256.823	199.19
257.056	181.19
257.289	178.19
257.521	199.19
257.754	200.19
257.987	180.19
258.22	182.19
258.452	177.19
258.685	181.19
258.918	190.19
259.151	207.19
259.383	200.19
259.616	200.19
259.849	189.19
260.081	202.19
260.314	213.19
260.547	225.19
260.779	219.19
261.012	200.19
261.244	217.19
261.477	205.19
261.71	198.19
261.942	201.19
262.175	216.19
262.407	199.19
262.64	196.19
262.872	214.19
263.105	215.19
263.337	205.19
263.57	205.19
263.802	209.19
264.035	202.19
264.267	194.19
264.499	200.19
264.732	182.19
264.964	203.19
265.197	207.19
265.429	192.19
265.661	206.19
265.894	207.19
266.126	204.19
266.358	177.19
266.591	194.19
266.823	213.19
267.055	211.19
267.287	219.19
267.52	214.19
267.752	203.19
267.984	210.19
268.216	211.19
268.448	221.19
268.681	223.19
268.913	222.19
269.145	235.19
269.377	243.19
269.609	249.19
269.841	248.19
270.073	252.19
270.306	243.19
270.538	283.19
270.77	274.19
271.002	263.19
271.234	249.19
271.466	253.19
271.698	280.19
271.93	275.19
272.162	286.19
272.394	296.19
272.626	283.19
272.858	272.19
273.09	218.19
273.322	236.19
273.553	233.19
273.785	266.19
274.017	235.19
274.249	239.19
274.481	240.19
274.713	239.19
274.945	257.19
275.176	245.19
275.408	241.19
275.64	256.19
275.872	234.19
276.104	251.19
276.335	247.19
276.567	255.19
276.799	266.19
277.031	284.19
277.262	267.19
277.494	287.19
277.726	298.19
277.957	275.19
278.189	243.19
278.421	240.19
278.652	262.19
278.884	259.19
279.115	237.19
279.347	242.19
279.579	256.19
279.81	261.19
280.042	247.19
280.273	240.19
280.505	254.19
280.736	253.19
280.968	242.19
281.199	242.19
281.431	255.19
281.662	258.19
281.894	256.19
282.125	271.19
282.356	272.19
282.588	284.19
282.819	270.19
283.051	260.19
283.282	258.19
283.513	268.19
283.745	252.19
283.976	282.19
284.207	263.19
284.439	276.19
284.67	271.19
284.901	279.19
285.132	269.19
285.364	251.19
285.595	257.19
285.826	273.19
286.057	264.19
286.288	251.19
286.52	256.19
286.751	275.19
286.982	277.19
287.213	262.19
287.444	249.19
287.675	250.19
287.906	282.19
288.138	272.19
288.369	307.19
288.6	272.19
288.831	278.19
289.062	294.19
289.293	274.19
289.524	269.19
289.755	271.19
289.986	275.19
290.217	287.19
290.448	261.19
290.679	257.19
290.91	273.19
291.141	263.19
291.371	288.19
291.602	270.19
291.833	283.19
292.064	275.19
292.295	272.19
292.526	302.19
292.757	268.19
292.987	288.19
293.218	261.19
293.449	273.19
293.68	278.19
293.91	275.19
294.141	268.19
294.372	284.19
294.603	272.19
294.833	286.19
295.064	265.19
295.295	252.19
295.525	286.19
295.756	293.19
295.987	268.19
296.217	301.19
296.448	316.19
296.679	285.19
296.909	278.19
297.14	286.19
297.37	277.19
297.601	296.19
297.831	306.19
298.062	282.19
298.292	299.19
298.523	295.19
298.753	297.19
298.984	292.19
299.214	298.19
299.445	286.19
299.675	288.19
299.905	286.19
300.136	312.19
300.366	287.19
300.597	314.19
300.827	299.19
301.057	315.19
301.288	315.19
301.518	313.19
301.748	309.19
301.979	312.19
302.209	295.19
302.439	308.19
302.669	328.19
302.9	318.19
303.13	307.19
303.36	314.19
303.59	320.19
303.82	335.19
304.051	329.19
304.281	311.19
304.511	315.19
304.741	311.19
304.971	314.19
305.201	326.19
305.431	308.19
305.661	316.19
305.891	325.19
306.121	318.19
306.352	319.19
306.582	319.19
306.812	319.19
307.042	330.19
307.272	313.19
307.502	310.19
307.731	321.19
307.961	323.19
308.191	322.19
308.421	312.19
308.651	319.19
308.881	320.19
309.111	325.19
309.341	333.19
309.571	349.19
309.8	343.19
310.03	360.19
310.26	349.19
310.49	349.19
310.72	360.19
310.949	360.19
311.179	382.19
311.409	348.19
311.639	360.19
311.868	366.19
312.098	360.19
312.328	355.19
312.557	380.19
312.787	363.19
313.017	382.19
313.246	356.19
313.476	373.19
313.706	367.19
313.935	371.19
314.165	358.19
314.394	374.19
314.624	379.19
314.853	374.19
315.083	358.19
315.312	360.19
315.542	367.19
315.771	347.19
316.001	352.19
316.23	354.19
316.46	367.19
316.689	352.19
316.919	367.19
317.148	360.19
317.377	374.19
317.607	346.19
317.836	364.19
318.065	356.19
318.295	346.19
318.524	357.19
318.753	358.19
318.983	357.19
319.212	371.19
319.441	360.19
319.67	354.19
319.9	352.19
320.129	350.19
320.358	365.19
320.587	351.19
320.816	347.19
321.046	379.19
321.275	374.19
321.504	365.19
321.733	398.19
321.962	372.19
322.191	406.19
322.42	402.19
322.649	403.19
322.878	412.19
323.108	428.19
323.337	443.19
323.566	442.19
323.795	479.19
324.024	520.19
324.253	596.19
324.482	863.19
324.71	1331.19
324.939	2004.19
325.168	1751.19
325.397	879.19
325.626	623.19
325.855	523.19
326.084	452.19
326.313	464.19
326.542	473.19
326.77	485.19
326.999	575.19
327.228	811.19
327.457	1228.19
327.686	1477.19
327.914	994.19
328.143	638.19
328.372	567.19
328.6	528.19
328.829	493.19
329.058	513.19
329.287	519.19
329.515	512.19
329.744	491.19
329.972	458.19
330.201	484.19
330.43	516.19
330.658	498.19
330.887	554.19
331.115	537.19
331.344	454.19
331.572	458.19
331.801	455.19
332.03	475.19
332.258	436.19
332.486	466.19
332.715	442.19
332.943	434.19
333.172	440.19
333.4	426.19
333.629	443.19
333.857	464.19
334.085	463.19
334.314	456.19
334.542	520.19
334.771	530.19
334.999	472.19
335.227	478.19
335.455	460.19
335.684	445.19
335.912	412.19
336.14	423.19
336.369	440.19
336.597	444.19
336.825	426.19
337.053	446.19
337.281	412.19
337.51	426.19
337.738	444.19
337.966	419.19
338.194	431.19
338.422	432.19
338.65	424.19
338.878	421.19
339.106	410.19
339.334	429.19
339.562	404.19
339.79	409.19
340.018	400.19
340.246	425.19
340.474	400.19
340.702	418.19
340.93	416.19
341.158	416.19
341.386	420.19
341.614	424.19
341.842	423.19
342.07	412.19
342.298	412.19
342.526	400.19
342.754	417.19
342.981	405.19
343.209	408.19
343.437	427.19
343.665	423.19
343.893	419.19
344.12	428.19
344.348	406.19
344.576	406.19
344.804	442.19
345.031	450.19
345.259	445.19
345.487	438.19
345.714	412.19
345.942	404.19
346.17	410.19
346.397	401.19
346.625	401.19
346.853	407.19
347.08	425.19
347.308	406.19
347.535	415.19
347.763	423.19
347.99	417.19
348.218	408.19
348.445	414.19
348.673	409.19
348.9	392.19
349.128	398.19
349.355	411.19
349.583	411.19
349.81	391.19
350.037	408.19
350.265	407.19
350.492	414.19
350.72	377.19
350.947	399.19
351.174	410.19
351.402	419.19
351.629	420.19
351.856	412.19
352.083	404.19
352.311	421.19
352.538	422.19
352.765	400.19
352.992	399.19
353.22	399.19
353.447	398.19
353.674	389.19
353.901	404.19
354.128	405.19
354.355	386.19
354.583	399.19
354.81	389.19
355.037	405.19
355.264	387.19
355.491	384.19
355.718	382.19
355.945	358.19
356.172	362.19
356.399	383.19
356.626	408.19
356.853	396.19
357.08	402.19
357.307	386.19
357.534	370.19
357.761	383.19
357.988	393.19
358.215	406.19
358.441	385.19
358.668	379.19
358.895	387.19
359.122	379.19
359.349	391.19
359.576	402.19
359.802	415.19
360.029	425.19
360.256	465.19
360.483	422.19
360.709	406.19
360.936	429.19
361.163	423.19
361.39	402.19
361.616	434.19
361.843	400.19
362.07	419.19
362.296	404.19
362.523	403.19
362.749	399.19
362.976	401.19
363.203	396.19
363.429	378.19
363.656	392.19
363.882	395.19
364.109	406.19
364.335	413.19
364.562	392.19
364.788	390.19
365.015	413.19
365.241	393.19
365.468	415.19
365.694	415.19
365.92	404.19
366.147	403.19
366.373	396.19
366.599	410.19
366.826	385.19
367.052	378.19
367.278	395.19
367.505	406.19
367.731	395.19
367.957	397.19
368.184	400.19
368.41	406.19
368.636	429.19
368.862	424.19
369.089	408.19
369.315	406.19
369.541	403.19
369.767	414.19
369.993	396.19
370.219	412.19
370.445	401.19
370.672	404.19
370.898	420.19
371.124	407.19
371.35	414.19
371.576	416.19
371.802	405.19
372.028	410.19
372.254	395.19
372.48	405.19
372.706	426.19
372.932	416.19
373.158	412.19
373.384	403.19
373.61	424.19
373.835	437.19
374.061	423.19
374.287	428.19
374.513	408.19
374.739	427.19
374.965	431.19
375.191	403.19
375.416	414.19
375.642	410.19
375.868	429.19
376.094	407.19
376.319	426.19
376.545	404.19
376.771	404.19
376.997	421.19
377.222	386.19
377.448	409.19
377.674	406.19
377.899	405.19
378.125	394.19
378.35	400.19
378.576	398.19
378.802	392.19
379.027	415.19
379.253	406.19
379.478	404.19
379.704	399.19
379.929	406.19
380.155	410.19
380.38	401.19
380.606	390.19
380.831	415.19
381.057	427.19
381.282	424.19
381.507	404.19
381.733	417.19
381.958	402.19
382.184	398.19
382.409	410.19
382.634	409.19
382.86	416.19
383.085	418.19
383.31	434.19
383.535	430.19
383.761	414.19
383.986	457.19
384.211	438.19
384.436	430.19
384.662	435.19
384.887	454.19
385.112	441.19
385.337	436.19
385.562	446.19
385.787	439.19
386.013	442.19
386.238	447.19
386.463	460.19
386.688	478.19
386.913	463.19
387.138	459.19
387.363	474.19
387.588	464.19
387.813	466.19
388.038	474.19
388.263	449.19
388.488	478.19
388.713	460.19
388.938	455.19
389.163	491.19
389.387	458.19
389.612	453.19
389.837	460.19
390.062	449.19
390.287	464.19
390.512	461.19
390.736	448.19
390.961	431.19
391.186	486.19
391.411	458.19
391.636	434.19
391.86	475.19
392.085	486.19
392.31	455.19
392.534	475.19
392.759	472.19
392.984	452.19
393.208	461.19
393.433	474.19
393.658	476.19
393.882	443.19
394.107	465.19
394.331	468.19
394.556	464.19
394.78	488.19
395.005	483.19
395.229	467.19
395.454	483.19
395.678	489.19
395.903	506.19
396.127	519.19
396.352	502.19
396.576	470.19
396.801	477.19
397.025	468.19
397.249	483.19
397.474	503.19
397.698	512.19
397.922	507.19
398.147	524.19
398.371	522.19
398.595	505.19
398.82	484.19
399.044	538.19
399.268	580.19
399.492	587.19
399.717	588.19
399.941	630.19
400.165	635.19
400.389	657.19
400.613	607.19
400.837	580.19
401.062	539.19
401.286	526.19
401.51	549.19
401.734	528.19
401.958	535.19
402.182	539.19
402.406	536.19
402.63	548.19
402.854	564.19
403.078	550.19
403.302	529.19
403.526	562.19
403.75	555.19
403.974	543.19
404.198	551.19
404.422	575.19
404.645	549.19
404.869	550.19
405.093	595.19
405.317	614.19
405.541	650.19
405.765	608.19
405.988	579.19
406.212	595.19
406.436	597.19
406.66	626.19
406.883	620.19
407.107	588.19
407.331	642.19
407.555	729.19
407.778	716.19
408.002	663.19
408.226	614.19
408.449	613.19
408.673	610.19
408.896	623.19
409.12	665.19
409.344	647.19
409.567	581.19
409.791	576.19
410.014	582.19
410.238	555.19
410.461	568.19
410.685	574.19
410.908	576.19
411.132	600.19
411.355	649.19
411.578	620.19
411.802	586.19
412.025	569.19
412.249	579.19
412.472	581.19
412.695	612.19
412.919	606.19
413.142	553.19
413.365	548.19
413.589	544.19
413.812	526.19
414.035	547.19
414.258	544.19
414.482	555.19
414.705	517.19
414.928	524.19
415.151	559.19
415.374	524.19
415.597	541.19
415.821	524.19
416.044	546.19
416.267	544.19
416.49	540.19
416.713	526.19
416.936	521.19
417.159	514.19
417.382	518.19
417.605	538.19
417.828	516.19
418.051	533.19
418.274	521.19
418.497	526.19
418.72	525.19
418.943	512.19
419.166	539.19
419.389	570.19
419.611	561.19
419.834	543.19
420.057	554.19
420.28	540.19
420.503	542.19
420.726	522.19
420.948	554.19
421.171	587.19
421.394	606.19
421.617	578.19
421.839	549.19
422.062	537.19
422.285	537.19
422.507	611.19
422.73	694.19
422.953	658.19
423.175	598.19
423.398	578.19
423.621	585.19
423.843	583.19
424.066	583.19
424.288	566.19
424.511	586.19
424.733	637.19
424.956	724.19
425.178	679.19
425.401	678.19
425.623	710.19
425.846	632.19
426.068	592.19
426.291	603.19
426.513	587.19
426.735	559.19
426.958	557.19
427.18	698.19
427.402	832.19
427.625	936.19
427.847	804.19
428.069	677.19
428.292	606.19
428.514	558.19
428.736	542.19
428.958	547.19
429.181	550.19
429.403	522.19
429.625	546.19
429.847	567.19
430.069	628.19
430.292	636.19
430.514	574.19
430.736	514.19
430.958	542.19
431.18	529.19
431.402	507.19
431.624	531.19
431.846	488.19
432.068	515.19
432.29	496.19
432.512	505.19
432.734	526.19
432.956	516.19
433.178	520.19
433.4	538.19
433.622	512.19
433.844	512.19
434.066	519.19
434.287	515.19
434.509	534.19
434.731	522.19
434.953	530.19
435.175	549.19
435.397	564.19
435.618	568.19
435.84	605.19
436.062	710.19
436.284	777.19
436.505	656.19
436.727	586.19
436.949	562.19
437.17	552.19
437.392	536.19
437.614	549.19
437.835	575.19
438.057	662.19
438.278	786.19
438.5	789.19
438.721	842.19
438.943	790.19
439.165	647.19
439.386	581.19
439.608	591.19
439.829	568.19
440.05	615.19
440.272	638.19
440.493	596.19
440.715	562.19
440.936	550.19
441.158	531.19
441.379	538.19
441.6	542.19
441.822	552.19
442.043	613.19
442.264	699.19
442.486	746.19
442.707	646.19
442.928	578.19
443.149	602.19
443.371	604.19
443.592	648.19
443.813	758.19
444.034	839.19
444.255	690.19
444.476	622.19
444.698	610.19
444.919	613.19
445.14	654.19
445.361	638.19
445.582	638.19
445.803	676.19
446.024	790.19
446.245	790.19
446.466	731.19
446.687	632.19
446.908	572.19
447.129	553.19
447.35	526.19
447.571	527.19
447.792	529.19
448.013	519.19
448.234	547.19
448.455	607.19
448.675	686.19
448.896	825.19
449.117	693.19
449.338	660.19
449.559	778.19
449.779	904.19
450	728.19
450.221	574.19
450.442	522.19
450.662	524.19
450.883	521.19
451.104	523.19
451.324	520.19
451.545	489.19
451.766	484.19
451.986	472.19
452.207	476.19
452.428	482.19
452.648	485.19
452.869	479.19
453.089	477.19
453.31	487.19
453.53	468.19
453.751	465.19
453.971	470.19
454.192	476.19
454.412	487.19
454.633	479.19
454.853	470.19
455.073	488.19
455.294	488.19
455.514	556.19
455.734	518.19
455.955	500.19
456.175	463.19
456.395	462.19
456.616	454.19
456.836	464.19
457.056	458.19
457.276	458.19
457.497	471.19
457.717	458.19
457.937	479.19
458.157	476.19
458.377	463.19
458.598	485.19
458.818	522.19
459.038	600.19
459.258	637.19
459.478	570.19
459.698	533.19
459.918	520.19
460.138	548.19
460.358	543.19
460.578	516.19
460.798	527.19
461.018	542.19
461.238	531.19
461.458	519.19
461.678	536.19
461.898	542.19
462.118	529.19
462.338	564.19
462.558	559.19
462.777	570.19
462.997	585.19
463.217	587.19
463.437	604.19
463.657	594.19
463.876	573.19
464.096	576.19
464.316	592.19
464.536	569.19
464.755	581.19
464.975	566.19
465.195	602.19
465.414	641.19
465.634	592.19
465.854	555.19
466.073	524.19
466.293	538.19
466.512	526.19
466.732	526.19
466.951	515.19
467.171	513.19
467.391	520.19
467.61	508.19
467.829	522.19
468.049	484.19
468.268	514.19
468.488	493.19
468.707	489.19
468.927	472.19
469.146	493.19
469.365	507.19
469.585	485.19
469.804	489.19
470.023	499.19
470.243	514.19
470.462	506.19
470.681	520.19
470.901	526.19
471.12	512.19
471.339	506.19
471.558	503.19
471.777	528.19
471.997	492.19
472.216	504.19
472.435	515.19
472.654	544.19
472.873	528.19
473.092	487.19
473.311	489.19
473.53	523.19
473.749	522.19
473.968	527.19
474.187	639.19
474.406	662.19
474.625	567.19
474.844	520.19
475.063	520.19
475.282	542.19
475.501	510.19
475.72	543.19
475.939	520.19
476.158	530.19
476.377	508.19
476.596	504.19
476.814	548.19
477.033	531.19
477.252	544.19
477.471	556.19
477.69	543.19
477.908	547.19
478.127	550.19
478.346	548.19
478.564	570.19
478.783	564.19
479.002	586.19
479.22	593.19
479.439	579.19
479.658	596.19
479.876	617.19
480.095	640.19
480.313	636.19
480.532	636.19
480.751	632.19
480.969	646.19
481.188	654.19
481.406	668.19
481.624	618.19
481.843	616.19
482.061	611.19
482.28	608.19
482.498	597.19
482.717	566.19
482.935	605.19
483.153	594.19
483.372	614.19
483.59	615.19
483.808	584.19
484.027	599.19
484.245	600.19
484.463	610.19
484.681	610.19
484.9	612.19
485.118	610.19
485.336	615.19
485.554	614.19
485.772	638.19
485.99	621.19
486.209	620.19
486.427	614.19
486.645	606.19
486.863	617.19
487.081	656.19
487.299	642.19
487.517	617.19
487.735	622.19
487.953	605.19
488.171	620.19
488.389	620.19
488.607	634.19
488.825	652.19
489.043	632.19
489.261	641.19
489.479	630.19
489.696	660.19
489.914	650.19
490.132	656.19
490.35	650.19
490.568	646.19
490.786	664.19
491.003	662.19
491.221	700.19
491.439	678.19
491.657	686.19
491.874	703.19
492.092	711.19
492.31	683.19
492.527	710.19
492.745	702.19
492.963	676.19
493.18	726.19
493.398	692.19
493.615	745.19
493.833	704.19
494.05	692.19
494.268	723.19
494.485	716.19
494.703	722.19
494.92	747.19
495.138	719.19
495.355	740.19
495.573	723.19
495.79	727.19
496.008	762.19
496.225	729.19
496.442	726.19
496.66	743.19
496.877	738.19
497.094	735.19
497.312	745.19
497.529	783.19
497.746	800.19
497.963	755.19
498.181	813.19
498.398	842.19
498.615	856.19
498.832	842.19
499.049	886.19
499.267	896.19
499.484	953.19
499.701	991.19
499.918	1014.19
500.135	1039.19
500.352	1095.19
500.569	1084.19
500.786	1092.19
501.003	1087.19
501.22	1068.19
501.437	1001.19
501.654	977.19
501.871	986.19
