Data from 1978.PennyLincolnUp.Lamp.En5.5.200Scan.071719.P1_HRD10591_16-14-09-865.txt Node
Date: Thu Jul 18 16:14:09 EDT 2019
User: cochatt
Spectrometer: HR+D1059
Trigger mode: 1
Integration Time (sec): 1.000000E-1
Scans to average: 1
Electric dark correction enabled: true
Nonlinearity correction enabled: false
Boxcar width: 0
XAxis mode: Wavelengths
Number of Pixels in Spectrum: 2048
>>>>>Begin Spectral Data<<<<<
223.165	-13.31
223.4	-13.31
223.635	-13.31
223.869	-7.31
224.104	-32.31
224.338	3.69
224.573	-16.31
224.808	-17.31
225.042	10.69
225.277	2.69
225.511	-6.31
225.746	0.69
225.98	-6.31
226.215	7.69
226.449	16.69
226.683	16.69
226.918	12.69
227.152	27.69
227.387	39.69
227.621	36.69
227.856	40.69
228.09	27.69
228.324	31.69
228.559	73.69
228.793	82.69
229.027	97.69
229.262	106.69
229.496	99.69
229.73	148.69
229.964	157.69
230.199	134.69
230.433	120.69
230.667	106.69
230.901	108.69
231.136	104.69
231.37	106.69
231.604	95.69
231.838	107.69
232.072	111.69
232.306	110.69
232.541	117.69
232.775	116.69
233.009	112.69
233.243	126.69
233.477	127.69
233.711	118.69
233.945	109.69
234.179	123.69
234.413	119.69
234.647	114.69
234.881	133.69
235.115	115.69
235.349	115.69
235.583	122.69
235.817	110.69
236.051	130.69
236.285	123.69
236.519	128.69
236.753	122.69
236.987	155.69
237.221	202.69
237.455	228.69
237.689	188.69
237.922	157.69
238.156	141.69
238.39	128.69
238.624	117.69
238.858	131.69
239.091	121.69
239.325	129.69
239.559	126.69
239.793	121.69
240.027	142.69
240.26	146.69
240.494	148.69
240.728	150.69
240.961	147.69
241.195	151.69
241.429	154.69
241.662	137.69
241.896	125.69
242.13	135.69
242.363	144.69
242.597	136.69
242.83	150.69
243.064	137.69
243.298	132.69
243.531	135.69
243.765	133.69
243.998	136.69
244.232	136.69
244.465	136.69
244.699	135.69
244.932	142.69
245.166	143.69
245.399	140.69
245.633	131.69
245.866	136.69
246.099	146.69
246.333	147.69
246.566	148.69
246.8	138.69
247.033	141.69
247.266	146.69
247.5	142.69
247.733	179.69
247.966	168.69
248.2	167.69
248.433	170.69
248.666	182.69
248.899	177.69
249.133	185.69
249.366	206.69
249.599	195.69
249.832	175.69
250.066	181.69
250.299	161.69
250.532	188.69
250.765	190.69
250.998	216.69
251.231	223.69
251.465	200.69
251.698	195.69
251.931	205.69
252.164	193.69
252.397	194.69
252.63	196.69
252.863	205.69
253.096	210.69
253.329	213.69
253.562	214.69
253.795	204.69
254.028	205.69
254.261	205.69
254.494	230.69
254.727	246.69
254.96	251.69
255.193	257.69
255.426	226.69
255.659	217.69
255.892	208.69
256.124	211.69
256.357	218.69
256.59	214.69
256.823	217.69
257.056	195.69
257.289	191.69
257.521	207.69
257.754	211.69
257.987	206.69
258.22	203.69
258.452	191.69
258.685	207.69
258.918	202.69
259.151	190.69
259.383	208.69
259.616	206.69
259.849	220.69
260.081	228.69
260.314	239.69
260.547	243.69
260.779	238.69
261.012	239.69
261.244	230.69
261.477	222.69
261.71	207.69
261.942	218.69
262.175	246.69
262.407	230.69
262.64	218.69
262.872	213.69
263.105	208.69
263.337	214.69
263.57	212.69
263.802	198.69
264.035	198.69
264.267	214.69
264.499	196.69
264.732	191.69
264.964	215.69
265.197	210.69
265.429	206.69
265.661	204.69
265.894	206.69
266.126	214.69
266.358	224.69
266.591	208.69
266.823	227.69
267.055	229.69
267.287	224.69
267.52	223.69
267.752	231.69
267.984	212.69
268.216	216.69
268.448	240.69
268.681	240.69
268.913	243.69
269.145	258.69
269.377	264.69
269.609	260.69
269.841	252.69
270.073	281.69
270.306	293.69
270.538	301.69
270.77	289.69
271.002	286.69
271.234	280.69
271.466	286.69
271.698	300.69
271.93	318.69
272.162	313.69
272.394	291.69
272.626	271.69
272.858	282.69
273.09	276.69
273.322	263.69
273.553	255.69
273.785	248.69
274.017	250.69
274.249	268.69
274.481	251.69
274.713	245.69
274.945	231.69
275.176	245.69
275.408	264.69
275.64	263.69
275.872	266.69
276.104	263.69
276.335	252.69
276.567	266.69
276.799	262.69
277.031	303.69
277.262	310.69
277.494	320.69
277.726	304.69
277.957	283.69
278.189	288.69
278.421	287.69
278.652	251.69
278.884	265.69
279.115	265.69
279.347	259.69
279.579	266.69
279.81	278.69
280.042	275.69
280.273	233.69
280.505	260.69
280.736	249.69
280.968	273.69
281.199	272.69
281.431	281.69
281.662	262.69
281.894	287.69
282.125	286.69
282.356	282.69
282.588	290.69
282.819	300.69
283.051	261.69
283.282	265.69
283.513	265.69
283.745	286.69
283.976	267.69
284.207	277.69
284.439	258.69
284.67	282.69
284.901	266.69
285.132	262.69
285.364	278.69
285.595	255.69
285.826	286.69
286.057	293.69
286.288	269.69
286.52	260.69
286.751	283.69
286.982	254.69
287.213	262.69
287.444	292.69
287.675	267.69
287.906	293.69
288.138	277.69
288.369	299.69
288.6	301.69
288.831	288.69
289.062	309.69
289.293	285.69
289.524	289.69
289.755	274.69
289.986	281.69
290.217	303.69
290.448	285.69
290.679	290.69
290.91	290.69
291.141	294.69
291.371	284.69
291.602	294.69
291.833	291.69
292.064	284.69
292.295	296.69
292.526	291.69
292.757	301.69
292.987	285.69
293.218	290.69
293.449	295.69
293.68	281.69
293.91	290.69
294.141	288.69
294.372	290.69
294.603	284.69
294.833	282.69
295.064	292.69
295.295	285.69
295.525	295.69
295.756	287.69
295.987	314.69
296.217	312.69
296.448	335.69
296.679	319.69
296.909	297.69
297.14	316.69
297.37	296.69
297.601	284.69
297.831	283.69
298.062	287.69
298.292	294.69
298.523	304.69
298.753	298.69
298.984	302.69
299.214	311.69
299.445	306.69
299.675	300.69
299.905	313.69
300.136	308.69
300.366	315.69
300.597	300.69
300.827	310.69
301.057	304.69
301.288	324.69
301.518	324.69
301.748	338.69
301.979	312.69
302.209	323.69
302.439	334.69
302.669	309.69
302.9	317.69
303.13	334.69
303.36	310.69
303.59	320.69
303.82	322.69
304.051	327.69
304.281	332.69
304.511	319.69
304.741	341.69
304.971	320.69
305.201	322.69
305.431	304.69
305.661	328.69
305.891	334.69
306.121	333.69
306.352	352.69
306.582	330.69
306.812	330.69
307.042	335.69
307.272	326.69
307.502	313.69
307.731	321.69
307.961	346.69
308.191	333.69
308.421	334.69
308.651	336.69
308.881	354.69
309.111	346.69
309.341	332.69
309.571	347.69
309.8	349.69
310.03	362.69
310.26	364.69
310.49	374.69
310.72	378.69
310.949	377.69
311.179	390.69
311.409	385.69
311.639	366.69
311.868	373.69
312.098	370.69
312.328	377.69
312.557	402.69
312.787	428.69
313.017	414.69
313.246	375.69
313.476	359.69
313.706	382.69
313.935	379.69
314.165	387.69
314.394	399.69
314.624	394.69
314.853	400.69
315.083	394.69
315.312	367.69
315.542	386.69
315.771	372.69
316.001	368.69
316.23	376.69
316.46	370.69
316.689	375.69
316.919	380.69
317.148	396.69
317.377	409.69
317.607	392.69
317.836	402.69
318.065	364.69
318.295	378.69
318.524	386.69
318.753	380.69
318.983	376.69
319.212	377.69
319.441	404.69
319.67	381.69
319.9	400.69
320.129	377.69
320.358	362.69
320.587	392.69
320.816	385.69
321.046	373.69
321.275	414.69
321.504	378.69
321.733	402.69
321.962	416.69
322.191	430.69
322.42	432.69
322.649	427.69
322.878	438.69
323.108	487.69
323.337	480.69
323.566	514.69
323.795	540.69
324.024	603.69
324.253	694.69
324.482	996.69
324.71	1648.69
324.939	2536.69
325.168	2155.69
325.397	1024.69
325.626	662.69
325.855	570.69
326.084	526.69
326.313	512.69
326.542	498.69
326.77	552.69
326.999	673.69
327.228	976.69
327.457	1482.69
327.686	1850.69
327.914	1188.69
328.143	722.69
328.372	656.69
328.6	582.69
328.829	582.69
329.058	564.69
329.287	581.69
329.515	531.69
329.744	523.69
329.972	513.69
330.201	528.69
330.43	570.69
330.658	589.69
330.887	630.69
331.115	603.69
331.344	543.69
331.572	493.69
331.801	510.69
332.03	492.69
332.258	472.69
332.486	465.69
332.715	468.69
332.943	469.69
333.172	438.69
333.4	462.69
333.629	461.69
333.857	484.69
334.085	516.69
334.314	523.69
334.542	525.69
334.771	552.69
334.999	507.69
335.227	487.69
335.455	491.69
335.684	430.69
335.912	465.69
336.14	441.69
336.369	448.69
336.597	459.69
336.825	461.69
337.053	432.69
337.281	448.69
337.51	436.69
337.738	445.69
337.966	446.69
338.194	452.69
338.422	436.69
338.65	455.69
338.878	456.69
339.106	452.69
339.334	437.69
339.562	408.69
339.79	443.69
340.018	424.69
340.246	464.69
340.474	464.69
340.702	433.69
340.93	434.69
341.158	437.69
341.386	437.69
341.614	450.69
341.842	437.69
342.07	448.69
342.298	418.69
342.526	431.69
342.754	411.69
342.981	432.69
343.209	417.69
343.437	435.69
343.665	414.69
343.893	465.69
344.12	440.69
344.348	444.69
344.576	435.69
344.804	439.69
345.031	463.69
345.259	468.69
345.487	450.69
345.714	445.69
345.942	450.69
346.17	414.69
346.397	418.69
346.625	436.69
346.853	421.69
347.08	441.69
347.308	424.69
347.535	450.69
347.763	442.69
347.99	430.69
348.218	431.69
348.445	435.69
348.673	455.69
348.9	426.69
349.128	418.69
349.355	422.69
349.583	423.69
349.81	405.69
350.037	410.69
350.265	412.69
350.492	414.69
350.72	415.69
350.947	421.69
351.174	444.69
351.402	447.69
351.629	463.69
351.856	425.69
352.083	437.69
352.311	438.69
352.538	454.69
352.765	434.69
352.992	434.69
353.22	418.69
353.447	426.69
353.674	420.69
353.901	404.69
354.128	396.69
354.355	404.69
354.583	399.69
354.81	409.69
355.037	403.69
355.264	390.69
355.491	390.69
355.718	398.69
355.945	409.69
356.172	410.69
356.399	403.69
356.626	398.69
356.853	412.69
357.08	403.69
357.307	400.69
357.534	381.69
357.761	391.69
357.988	416.69
358.215	400.69
358.441	391.69
358.668	386.69
358.895	427.69
359.122	416.69
359.349	429.69
359.576	415.69
359.802	446.69
360.029	477.69
360.256	474.69
360.483	466.69
360.709	451.69
360.936	438.69
361.163	438.69
361.39	434.69
361.616	417.69
361.843	427.69
362.07	434.69
362.296	430.69
362.523	414.69
362.749	454.69
362.976	426.69
363.203	421.69
363.429	414.69
363.656	423.69
363.882	424.69
364.109	411.69
364.335	410.69
364.562	395.69
364.788	434.69
365.015	405.69
365.241	416.69
365.468	432.69
365.694	413.69
365.92	420.69
366.147	422.69
366.373	408.69
366.599	413.69
366.826	396.69
367.052	409.69
367.278	404.69
367.505	403.69
367.731	418.69
367.957	428.69
368.184	415.69
368.41	420.69
368.636	423.69
368.862	421.69
369.089	431.69
369.315	422.69
369.541	417.69
369.767	416.69
369.993	420.69
370.219	422.69
370.445	411.69
370.672	418.69
370.898	418.69
371.124	441.69
371.35	439.69
371.576	420.69
371.802	411.69
372.028	413.69
372.254	432.69
372.48	421.69
372.706	438.69
372.932	428.69
373.158	435.69
373.384	437.69
373.61	430.69
373.835	436.69
374.061	417.69
374.287	413.69
374.513	422.69
374.739	424.69
374.965	408.69
375.191	436.69
375.416	403.69
375.642	421.69
375.868	434.69
376.094	430.69
376.319	452.69
376.545	453.69
376.771	413.69
376.997	427.69
377.222	428.69
377.448	428.69
377.674	429.69
377.899	419.69
378.125	426.69
378.35	425.69
378.576	407.69
378.802	416.69
379.027	398.69
379.253	404.69
379.478	399.69
379.704	423.69
379.929	420.69
380.155	424.69
380.38	421.69
380.606	416.69
380.831	424.69
381.057	429.69
381.282	432.69
381.507	422.69
381.733	408.69
381.958	415.69
382.184	441.69
382.409	428.69
382.634	455.69
382.86	432.69
383.085	446.69
383.31	439.69
383.535	454.69
383.761	439.69
383.986	438.69
384.211	443.69
384.436	439.69
384.662	452.69
384.887	473.69
385.112	458.69
385.337	453.69
385.562	458.69
385.787	469.69
386.013	467.69
386.238	475.69
386.463	476.69
386.688	460.69
386.913	444.69
387.138	456.69
387.363	467.69
387.588	457.69
387.813	446.69
388.038	456.69
388.263	447.69
388.488	469.69
388.713	463.69
388.938	468.69
389.163	467.69
389.387	478.69
389.612	490.69
389.837	446.69
390.062	451.69
390.287	474.69
390.512	454.69
390.736	497.69
390.961	469.69
391.186	471.69
391.411	486.69
391.636	478.69
391.86	502.69
392.085	498.69
392.31	486.69
392.534	479.69
392.759	495.69
392.984	475.69
393.208	493.69
393.433	478.69
393.658	475.69
393.882	485.69
394.107	466.69
394.331	486.69
394.556	475.69
394.78	485.69
395.005	504.69
395.229	485.69
395.454	482.69
395.678	508.69
395.903	510.69
396.127	526.69
396.352	548.69
396.576	523.69
396.801	504.69
397.025	487.69
397.249	499.69
397.474	509.69
397.698	518.69
397.922	526.69
398.147	532.69
398.371	552.69
398.595	540.69
398.82	533.69
399.044	561.69
399.268	559.69
399.492	589.69
399.717	619.69
399.941	642.69
400.165	654.69
400.389	680.69
400.613	612.69
400.837	602.69
401.062	562.69
401.286	555.69
401.51	559.69
401.734	540.69
401.958	530.69
402.182	552.69
402.406	575.69
402.63	592.69
402.854	580.69
403.078	591.69
403.302	564.69
403.526	580.69
403.75	582.69
403.974	600.69
404.198	577.69
404.422	570.69
404.645	567.69
404.869	590.69
405.093	616.69
405.317	660.69
405.541	676.69
405.765	651.69
405.988	617.69
406.212	628.69
406.436	617.69
406.66	631.69
406.883	615.69
407.107	664.69
407.331	684.69
407.555	778.69
407.778	781.69
408.002	712.69
408.226	646.69
408.449	623.69
408.673	629.69
408.896	691.69
409.12	711.69
409.344	684.69
409.567	637.69
409.791	606.69
410.014	582.69
410.238	576.69
410.461	600.69
410.685	604.69
410.908	596.69
411.132	638.69
411.355	666.69
411.578	642.69
411.802	590.69
412.025	589.69
412.249	557.69
412.472	606.69
412.695	642.69
412.919	630.69
413.142	573.69
413.365	554.69
413.589	564.69
413.812	550.69
414.035	533.69
414.258	548.69
414.482	542.69
414.705	544.69
414.928	536.69
415.151	558.69
415.374	555.69
415.597	518.69
415.821	556.69
416.044	540.69
416.267	573.69
416.49	576.69
416.713	532.69
416.936	541.69
417.159	544.69
417.382	548.69
417.605	552.69
417.828	533.69
418.051	552.69
418.274	562.69
418.497	540.69
418.72	538.69
418.943	540.69
419.166	556.69
419.389	609.69
419.611	574.69
419.834	582.69
420.057	590.69
420.28	560.69
420.503	568.69
420.726	553.69
420.948	579.69
421.171	636.69
421.394	651.69
421.617	580.69
421.839	572.69
422.062	576.69
422.285	575.69
422.507	658.69
422.73	739.69
422.953	708.69
423.175	588.69
423.398	622.69
423.621	598.69
423.843	605.69
424.066	610.69
424.288	619.69
424.511	619.69
424.733	686.69
424.956	806.69
425.178	713.69
425.401	732.69
425.623	760.69
425.846	659.69
426.068	620.69
426.291	586.69
426.513	600.69
426.735	607.69
426.958	685.69
427.18	740.69
427.402	904.69
427.625	1011.69
427.847	873.69
428.069	726.69
428.292	671.69
428.514	623.69
428.736	572.69
428.958	577.69
429.181	568.69
429.403	570.69
429.625	563.69
429.847	581.69
430.069	680.69
430.292	680.69
430.514	601.69
430.736	562.69
430.958	553.69
431.18	541.69
431.402	525.69
431.624	510.69
431.846	538.69
432.068	537.69
432.29	547.69
432.512	543.69
432.734	547.69
432.956	524.69
433.178	562.69
433.4	558.69
433.622	542.69
433.844	544.69
434.066	563.69
434.287	542.69
434.509	548.69
434.731	537.69
434.953	565.69
435.175	588.69
435.397	567.69
435.618	596.69
435.84	651.69
436.062	742.69
436.284	852.69
436.505	694.69
436.727	647.69
436.949	573.69
437.17	567.69
437.392	551.69
437.614	568.69
437.835	632.69
438.057	706.69
438.278	842.69
438.5	831.69
438.721	919.69
438.943	889.69
439.165	682.69
439.386	639.69
439.608	596.69
439.829	634.69
440.05	648.69
440.272	702.69
440.493	643.69
440.715	630.69
440.936	597.69
441.158	581.69
441.379	571.69
441.6	591.69
441.822	616.69
442.043	642.69
442.264	732.69
442.486	786.69
442.707	672.69
442.928	636.69
443.149	635.69
443.371	671.69
443.592	702.69
443.813	824.69
444.034	864.69
444.255	739.69
444.476	655.69
444.698	636.69
444.919	626.69
445.14	711.69
445.361	657.69
445.582	658.69
445.803	727.69
446.024	860.69
446.245	870.69
446.466	797.69
446.687	654.69
446.908	613.69
447.129	594.69
447.35	564.69
447.571	559.69
447.792	555.69
448.013	561.69
448.234	572.69
448.455	625.69
448.675	759.69
448.896	884.69
449.117	772.69
449.338	693.69
449.559	824.69
449.779	966.69
450	746.69
450.221	620.69
450.442	572.69
450.662	533.69
450.883	526.69
451.104	568.69
451.324	542.69
451.545	542.69
451.766	525.69
451.986	501.69
452.207	503.69
452.428	510.69
452.648	491.69
452.869	503.69
453.089	504.69
453.31	524.69
453.53	525.69
453.751	507.69
453.971	506.69
454.192	535.69
454.412	536.69
454.633	503.69
454.853	518.69
455.073	520.69
455.294	551.69
455.514	601.69
455.734	594.69
455.955	514.69
456.175	502.69
456.395	472.69
456.616	473.69
456.836	469.69
457.056	463.69
457.276	455.69
457.497	488.69
457.717	469.69
457.937	474.69
458.157	467.69
458.377	518.69
458.598	537.69
458.818	592.69
459.038	642.69
459.258	672.69
459.478	596.69
459.698	554.69
459.918	543.69
460.138	534.69
460.358	578.69
460.578	551.69
460.798	544.69
461.018	564.69
461.238	551.69
461.458	538.69
461.678	550.69
461.898	568.69
462.118	562.69
462.338	562.69
462.558	607.69
462.777	583.69
462.997	582.69
463.217	605.69
463.437	621.69
463.657	600.69
463.876	588.69
464.096	580.69
464.316	585.69
464.536	594.69
464.755	550.69
464.975	597.69
465.195	634.69
465.414	690.69
465.634	633.69
465.854	587.69
466.073	553.69
466.293	540.69
466.512	548.69
466.732	521.69
466.951	537.69
467.171	503.69
467.391	538.69
467.61	523.69
467.829	546.69
468.049	519.69
468.268	532.69
468.488	521.69
468.707	508.69
468.927	494.69
469.146	494.69
469.365	520.69
469.585	502.69
469.804	531.69
470.023	528.69
470.243	516.69
470.462	530.69
470.681	559.69
470.901	526.69
471.12	534.69
471.339	531.69
471.558	510.69
471.777	541.69
471.997	538.69
472.216	526.69
472.435	554.69
472.654	540.69
472.873	514.69
473.092	516.69
473.311	513.69
473.53	514.69
473.749	539.69
473.968	563.69
474.187	691.69
474.406	730.69
474.625	605.69
474.844	532.69
475.063	521.69
475.282	522.69
475.501	562.69
475.72	547.69
475.939	546.69
476.158	576.69
476.377	566.69
476.596	530.69
476.814	535.69
477.033	570.69
477.252	555.69
477.471	572.69
477.69	552.69
477.908	573.69
478.127	581.69
478.346	602.69
478.564	587.69
478.783	596.69
479.002	587.69
479.22	620.69
479.439	621.69
479.658	644.69
479.876	652.69
480.095	641.69
480.313	670.69
480.532	673.69
480.751	643.69
480.969	627.69
481.188	691.69
481.406	738.69
481.624	679.69
481.843	646.69
482.061	635.69
482.28	642.69
482.498	615.69
482.717	621.69
482.935	630.69
483.153	596.69
483.372	614.69
483.59	645.69
483.808	634.69
484.027	603.69
484.245	632.69
484.463	618.69
484.681	614.69
484.9	624.69
485.118	600.69
485.336	642.69
485.554	634.69
485.772	651.69
485.99	635.69
486.209	644.69
486.427	652.69
486.645	648.69
486.863	672.69
487.081	672.69
487.299	670.69
487.517	640.69
487.735	658.69
487.953	652.69
488.171	655.69
488.389	638.69
488.607	665.69
488.825	665.69
489.043	633.69
489.261	671.69
489.479	672.69
489.696	646.69
489.914	691.69
490.132	691.69
490.35	693.69
490.568	688.69
490.786	688.69
491.003	730.69
491.221	742.69
491.439	703.69
491.657	729.69
491.874	728.69
492.092	723.69
492.31	741.69
492.527	745.69
492.745	748.69
492.963	748.69
493.18	757.69
493.398	784.69
493.615	788.69
493.833	731.69
494.05	790.69
494.268	727.69
494.485	745.69
494.703	749.69
494.92	756.69
495.138	770.69
495.355	777.69
495.573	795.69
495.79	782.69
496.008	802.69
496.225	786.69
496.442	792.69
496.66	767.69
496.877	770.69
497.094	798.69
497.312	820.69
497.529	810.69
497.746	806.69
497.963	841.69
498.181	874.69
498.398	863.69
498.615	861.69
498.832	883.69
499.049	902.69
499.267	925.69
499.484	958.69
499.701	982.69
499.918	1020.69
500.135	1062.69
500.352	1099.69
500.569	1113.69
500.786	1132.69
501.003	1096.69
501.22	1070.69
501.437	1040.69
501.654	1032.69
501.871	999.69
