Data from 1978.PennyLincolnUp.Lamp.En5.5.200Scan.071719.P1_HRD10591_16-14-30-863.txt Node
Date: Thu Jul 18 16:14:30 EDT 2019
User: cochatt
Spectrometer: HR+D1059
Trigger mode: 1
Integration Time (sec): 1.000000E-1
Scans to average: 1
Electric dark correction enabled: true
Nonlinearity correction enabled: false
Boxcar width: 0
XAxis mode: Wavelengths
Number of Pixels in Spectrum: 2048
>>>>>Begin Spectral Data<<<<<
223.165	-4.5
223.4	-4.5
223.635	-4.5
223.869	-20.5
224.104	-19.5
224.338	-15.5
224.573	-10.5
224.808	-24.5
225.042	-9.5
225.277	-13.5
225.511	2.5
225.746	8.5
225.98	13.5
226.215	10.5
226.449	20.5
226.683	11.5
226.918	23.5
227.152	27.5
227.387	40.5
227.621	34.5
227.856	42.5
228.09	35.5
228.324	44.5
228.559	53.5
228.793	58.5
229.027	92.5
229.262	103.5
229.496	111.5
229.73	137.5
229.964	155.5
230.199	136.5
230.433	117.5
230.667	110.5
230.901	109.5
231.136	106.5
231.37	106.5
231.604	99.5
231.838	111.5
232.072	98.5
232.306	99.5
232.541	112.5
232.775	111.5
233.009	107.5
233.243	121.5
233.477	115.5
233.711	120.5
233.945	123.5
234.179	123.5
234.413	121.5
234.647	108.5
234.881	104.5
235.115	118.5
235.349	125.5
235.583	104.5
235.817	114.5
236.051	119.5
236.285	129.5
236.519	128.5
236.753	129.5
236.987	156.5
237.221	178.5
237.455	243.5
237.689	179.5
237.922	161.5
238.156	141.5
238.39	135.5
238.624	117.5
238.858	120.5
239.091	112.5
239.325	132.5
239.559	117.5
239.793	129.5
240.027	137.5
240.26	156.5
240.494	160.5
240.728	151.5
240.961	141.5
241.195	141.5
241.429	139.5
241.662	136.5
241.896	130.5
242.13	136.5
242.363	135.5
242.597	127.5
242.83	142.5
243.064	148.5
243.298	142.5
243.531	119.5
243.765	133.5
243.998	124.5
244.232	129.5
244.465	150.5
244.699	152.5
244.932	131.5
245.166	147.5
245.399	138.5
245.633	156.5
245.866	140.5
246.099	133.5
246.333	151.5
246.566	140.5
246.8	140.5
247.033	140.5
247.266	152.5
247.5	169.5
247.733	155.5
247.966	144.5
248.2	165.5
248.433	165.5
248.666	163.5
248.899	189.5
249.133	191.5
249.366	205.5
249.599	186.5
249.832	170.5
250.066	178.5
250.299	163.5
250.532	181.5
250.765	196.5
250.998	201.5
251.231	197.5
251.465	195.5
251.698	181.5
251.931	196.5
252.164	182.5
252.397	193.5
252.63	185.5
252.863	195.5
253.096	209.5
253.329	213.5
253.562	210.5
253.795	191.5
254.028	194.5
254.261	190.5
254.494	211.5
254.727	230.5
254.96	243.5
255.193	259.5
255.426	234.5
255.659	223.5
255.892	227.5
256.124	234.5
256.357	221.5
256.59	239.5
256.823	209.5
257.056	215.5
257.289	200.5
257.521	185.5
257.754	179.5
257.987	197.5
258.22	199.5
258.452	192.5
258.685	207.5
258.918	207.5
259.151	212.5
259.383	197.5
259.616	211.5
259.849	216.5
260.081	209.5
260.314	245.5
260.547	267.5
260.779	227.5
261.012	224.5
261.244	227.5
261.477	214.5
261.71	212.5
261.942	205.5
262.175	226.5
262.407	224.5
262.64	216.5
262.872	226.5
263.105	214.5
263.337	210.5
263.57	192.5
263.802	192.5
264.035	198.5
264.267	208.5
264.499	196.5
264.732	204.5
264.964	206.5
265.197	205.5
265.429	199.5
265.661	216.5
265.894	206.5
266.126	204.5
266.358	205.5
266.591	218.5
266.823	216.5
267.055	226.5
267.287	229.5
267.52	232.5
267.752	215.5
267.984	226.5
268.216	223.5
268.448	216.5
268.681	244.5
268.913	231.5
269.145	229.5
269.377	264.5
269.609	251.5
269.841	265.5
270.073	267.5
270.306	264.5
270.538	288.5
270.77	290.5
271.002	295.5
271.234	278.5
271.466	299.5
271.698	285.5
271.93	292.5
272.162	303.5
272.394	304.5
272.626	298.5
272.858	279.5
273.09	279.5
273.322	244.5
273.553	257.5
273.785	262.5
274.017	269.5
274.249	253.5
274.481	280.5
274.713	254.5
274.945	253.5
275.176	252.5
275.408	267.5
275.64	263.5
275.872	242.5
276.104	273.5
276.335	246.5
276.567	279.5
276.799	287.5
277.031	296.5
277.262	314.5
277.494	313.5
277.726	288.5
277.957	280.5
278.189	274.5
278.421	261.5
278.652	271.5
278.884	255.5
279.115	261.5
279.347	263.5
279.579	255.5
279.81	248.5
280.042	256.5
280.273	267.5
280.505	257.5
280.736	241.5
280.968	241.5
281.199	264.5
281.431	249.5
281.662	258.5
281.894	263.5
282.125	258.5
282.356	268.5
282.588	284.5
282.819	305.5
283.051	263.5
283.282	272.5
283.513	271.5
283.745	264.5
283.976	259.5
284.207	266.5
284.439	285.5
284.67	280.5
284.901	269.5
285.132	287.5
285.364	262.5
285.595	276.5
285.826	273.5
286.057	268.5
286.288	278.5
286.52	275.5
286.751	261.5
286.982	268.5
287.213	276.5
287.444	270.5
287.675	290.5
287.906	315.5
288.138	297.5
288.369	301.5
288.6	299.5
288.831	270.5
289.062	261.5
289.293	289.5
289.524	289.5
289.755	275.5
289.986	269.5
290.217	290.5
290.448	276.5
290.679	291.5
290.91	275.5
291.141	267.5
291.371	280.5
291.602	270.5
291.833	275.5
292.064	284.5
292.295	276.5
292.526	283.5
292.757	283.5
292.987	280.5
293.218	279.5
293.449	299.5
293.68	282.5
293.91	280.5
294.141	276.5
294.372	276.5
294.603	277.5
294.833	291.5
295.064	271.5
295.295	280.5
295.525	277.5
295.756	294.5
295.987	311.5
296.217	328.5
296.448	323.5
296.679	286.5
296.909	296.5
297.14	294.5
297.37	290.5
297.601	293.5
297.831	299.5
298.062	296.5
298.292	295.5
298.523	309.5
298.753	287.5
298.984	300.5
299.214	308.5
299.445	299.5
299.675	283.5
299.905	296.5
300.136	305.5
300.366	309.5
300.597	319.5
300.827	306.5
301.057	315.5
301.288	322.5
301.518	316.5
301.748	312.5
301.979	304.5
302.209	324.5
302.439	316.5
302.669	313.5
302.9	319.5
303.13	329.5
303.36	331.5
303.59	306.5
303.82	327.5
304.051	325.5
304.281	323.5
304.511	318.5
304.741	316.5
304.971	299.5
305.201	316.5
305.431	349.5
305.661	321.5
305.891	314.5
306.121	331.5
306.352	315.5
306.582	326.5
306.812	317.5
307.042	331.5
307.272	330.5
307.502	325.5
307.731	328.5
307.961	320.5
308.191	322.5
308.421	338.5
308.651	329.5
308.881	331.5
309.111	333.5
309.341	333.5
309.571	345.5
309.8	339.5
310.03	367.5
310.26	373.5
310.49	373.5
310.72	362.5
310.949	395.5
311.179	401.5
311.409	367.5
311.639	378.5
311.868	361.5
312.098	369.5
312.328	384.5
312.557	392.5
312.787	397.5
313.017	420.5
313.246	383.5
313.476	375.5
313.706	360.5
313.935	371.5
314.165	387.5
314.394	383.5
314.624	389.5
314.853	379.5
315.083	369.5
315.312	377.5
315.542	379.5
315.771	359.5
316.001	347.5
316.23	353.5
316.46	364.5
316.689	357.5
316.919	360.5
317.148	373.5
317.377	380.5
317.607	362.5
317.836	381.5
318.065	371.5
318.295	361.5
318.524	357.5
318.753	386.5
318.983	364.5
319.212	371.5
319.441	363.5
319.67	389.5
319.9	375.5
320.129	389.5
320.358	400.5
320.587	376.5
320.816	384.5
321.046	387.5
321.275	398.5
321.504	376.5
321.733	393.5
321.962	407.5
322.191	409.5
322.42	424.5
322.649	437.5
322.878	446.5
323.108	436.5
323.337	468.5
323.566	491.5
323.795	547.5
324.024	578.5
324.253	681.5
324.482	975.5
324.71	1573.5
324.939	2445.5
325.168	2049.5
325.397	993.5
325.626	628.5
325.855	537.5
326.084	520.5
326.313	498.5
326.542	515.5
326.77	552.5
326.999	631.5
327.228	899.5
327.457	1429.5
327.686	1775.5
327.914	1127.5
328.143	703.5
328.372	639.5
328.6	584.5
328.829	590.5
329.058	569.5
329.287	584.5
329.515	529.5
329.744	506.5
329.972	516.5
330.201	524.5
330.43	545.5
330.658	590.5
330.887	600.5
331.115	589.5
331.344	518.5
331.572	488.5
331.801	474.5
332.03	493.5
332.258	461.5
332.486	449.5
332.715	441.5
332.943	452.5
333.172	454.5
333.4	447.5
333.629	463.5
333.857	452.5
334.085	473.5
334.314	485.5
334.542	541.5
334.771	553.5
334.999	482.5
335.227	493.5
335.455	482.5
335.684	479.5
335.912	454.5
336.14	461.5
336.369	425.5
336.597	458.5
336.825	455.5
337.053	450.5
337.281	447.5
337.51	457.5
337.738	461.5
337.966	452.5
338.194	445.5
338.422	455.5
338.65	444.5
338.878	441.5
339.106	407.5
339.334	432.5
339.562	430.5
339.79	450.5
340.018	409.5
340.246	453.5
340.474	434.5
340.702	443.5
340.93	419.5
341.158	426.5
341.386	441.5
341.614	417.5
341.842	431.5
342.07	433.5
342.298	412.5
342.526	415.5
342.754	417.5
342.981	405.5
343.209	412.5
343.437	437.5
343.665	405.5
343.893	451.5
344.12	446.5
344.348	426.5
344.576	460.5
344.804	445.5
345.031	451.5
345.259	453.5
345.487	445.5
345.714	435.5
345.942	424.5
346.17	421.5
346.397	421.5
346.625	441.5
346.853	445.5
347.08	420.5
347.308	427.5
347.535	421.5
347.763	442.5
347.99	439.5
348.218	443.5
348.445	415.5
348.673	457.5
348.9	440.5
349.128	422.5
349.355	387.5
349.583	416.5
349.81	424.5
350.037	425.5
350.265	414.5
350.492	401.5
350.72	422.5
350.947	421.5
351.174	412.5
351.402	432.5
351.629	411.5
351.856	428.5
352.083	441.5
352.311	461.5
352.538	436.5
352.765	441.5
352.992	419.5
353.22	407.5
353.447	442.5
353.674	437.5
353.901	424.5
354.128	405.5
354.355	405.5
354.583	392.5
354.81	407.5
355.037	394.5
355.264	397.5
355.491	388.5
355.718	385.5
355.945	399.5
356.172	385.5
356.399	386.5
356.626	383.5
356.853	392.5
357.08	373.5
357.307	383.5
357.534	387.5
357.761	395.5
357.988	397.5
358.215	400.5
358.441	397.5
358.668	403.5
358.895	415.5
359.122	405.5
359.349	405.5
359.576	423.5
359.802	440.5
360.029	458.5
360.256	480.5
360.483	457.5
360.709	425.5
360.936	434.5
361.163	427.5
361.39	446.5
361.616	444.5
361.843	425.5
362.07	430.5
362.296	426.5
362.523	427.5
362.749	419.5
362.976	409.5
363.203	413.5
363.429	400.5
363.656	400.5
363.882	405.5
364.109	416.5
364.335	413.5
364.562	391.5
364.788	421.5
365.015	396.5
365.241	420.5
365.468	425.5
365.694	412.5
365.92	400.5
366.147	413.5
366.373	395.5
366.599	402.5
366.826	403.5
367.052	401.5
367.278	412.5
367.505	397.5
367.731	418.5
367.957	400.5
368.184	417.5
368.41	407.5
368.636	414.5
368.862	415.5
369.089	417.5
369.315	402.5
369.541	411.5
369.767	424.5
369.993	403.5
370.219	404.5
370.445	441.5
370.672	407.5
370.898	397.5
371.124	419.5
371.35	403.5
371.576	389.5
371.802	422.5
372.028	419.5
372.254	395.5
372.48	422.5
372.706	403.5
372.932	409.5
373.158	411.5
373.384	436.5
373.61	419.5
373.835	415.5
374.061	404.5
374.287	432.5
374.513	441.5
374.739	435.5
374.965	428.5
375.191	426.5
375.416	417.5
375.642	410.5
375.868	378.5
376.094	424.5
376.319	409.5
376.545	419.5
376.771	425.5
376.997	403.5
377.222	411.5
377.448	414.5
377.674	415.5
377.899	408.5
378.125	397.5
378.35	413.5
378.576	417.5
378.802	408.5
379.027	412.5
379.253	404.5
379.478	412.5
379.704	406.5
379.929	410.5
380.155	421.5
380.38	434.5
380.606	438.5
380.831	419.5
381.057	409.5
381.282	413.5
381.507	409.5
381.733	436.5
381.958	405.5
382.184	422.5
382.409	411.5
382.634	418.5
382.86	423.5
383.085	427.5
383.31	418.5
383.535	432.5
383.761	424.5
383.986	436.5
384.211	441.5
384.436	440.5
384.662	457.5
384.887	453.5
385.112	460.5
385.337	440.5
385.562	453.5
385.787	441.5
386.013	460.5
386.238	447.5
386.463	474.5
386.688	458.5
386.913	455.5
387.138	448.5
387.363	486.5
387.588	470.5
387.813	457.5
388.038	468.5
388.263	461.5
388.488	472.5
388.713	459.5
388.938	460.5
389.163	482.5
389.387	474.5
389.612	455.5
389.837	462.5
390.062	457.5
390.287	472.5
390.512	476.5
390.736	458.5
390.961	480.5
391.186	465.5
391.411	482.5
391.636	469.5
391.86	462.5
392.085	492.5
392.31	516.5
392.534	492.5
392.759	467.5
392.984	484.5
393.208	474.5
393.433	459.5
393.658	468.5
393.882	459.5
394.107	457.5
394.331	455.5
394.556	458.5
394.78	484.5
395.005	487.5
395.229	475.5
395.454	474.5
395.678	486.5
395.903	499.5
396.127	501.5
396.352	515.5
396.576	492.5
396.801	500.5
397.025	472.5
397.249	501.5
397.474	498.5
397.698	510.5
397.922	498.5
398.147	523.5
398.371	548.5
398.595	510.5
398.82	520.5
399.044	557.5
399.268	561.5
399.492	598.5
399.717	649.5
399.941	647.5
400.165	663.5
400.389	689.5
400.613	615.5
400.837	575.5
401.062	548.5
401.286	545.5
401.51	539.5
401.734	537.5
401.958	524.5
402.182	555.5
402.406	576.5
402.63	537.5
402.854	527.5
403.078	537.5
403.302	563.5
403.526	591.5
403.75	565.5
403.974	564.5
404.198	584.5
404.422	591.5
404.645	556.5
404.869	577.5
405.093	619.5
405.317	652.5
405.541	699.5
405.765	639.5
405.988	603.5
406.212	589.5
406.436	601.5
406.66	630.5
406.883	615.5
407.107	620.5
407.331	671.5
407.555	779.5
407.778	756.5
408.002	691.5
408.226	609.5
408.449	646.5
408.673	621.5
408.896	644.5
409.12	696.5
409.344	665.5
409.567	631.5
409.791	593.5
410.014	579.5
410.238	572.5
410.461	577.5
410.685	589.5
410.908	601.5
411.132	637.5
411.355	668.5
411.578	627.5
411.802	575.5
412.025	585.5
412.249	585.5
412.472	588.5
412.695	641.5
412.919	633.5
413.142	565.5
413.365	585.5
413.589	559.5
413.812	538.5
414.035	527.5
414.258	539.5
414.482	527.5
414.705	543.5
414.928	539.5
415.151	549.5
415.374	532.5
415.597	551.5
415.821	536.5
416.044	539.5
416.267	538.5
416.49	536.5
416.713	543.5
416.936	527.5
417.159	535.5
417.382	548.5
417.605	559.5
417.828	543.5
418.051	562.5
418.274	546.5
418.497	540.5
418.72	534.5
418.943	548.5
419.166	567.5
419.389	595.5
419.611	574.5
419.834	552.5
420.057	569.5
420.28	551.5
420.503	561.5
420.726	552.5
420.948	555.5
421.171	614.5
421.394	660.5
421.617	593.5
421.839	559.5
422.062	552.5
422.285	567.5
422.507	627.5
422.73	719.5
422.953	702.5
423.175	581.5
423.398	573.5
423.621	579.5
423.843	604.5
424.066	595.5
424.288	587.5
424.511	612.5
424.733	674.5
424.956	775.5
425.178	746.5
425.401	759.5
425.623	781.5
425.846	657.5
426.068	619.5
426.291	609.5
426.513	594.5
426.735	614.5
426.958	640.5
427.18	729.5
427.402	864.5
427.625	991.5
427.847	837.5
428.069	710.5
428.292	663.5
428.514	613.5
428.736	575.5
428.958	595.5
429.181	562.5
429.403	569.5
429.625	559.5
429.847	593.5
430.069	684.5
430.292	697.5
430.514	595.5
430.736	559.5
430.958	564.5
431.18	531.5
431.402	519.5
431.624	538.5
431.846	514.5
432.068	549.5
432.29	529.5
432.512	535.5
432.734	531.5
432.956	523.5
433.178	527.5
433.4	550.5
433.622	563.5
433.844	539.5
434.066	530.5
434.287	529.5
434.509	539.5
434.731	548.5
434.953	533.5
435.175	560.5
435.397	576.5
435.618	606.5
435.84	636.5
436.062	746.5
436.284	824.5
436.505	699.5
436.727	612.5
436.949	579.5
437.17	554.5
437.392	536.5
437.614	588.5
437.835	601.5
438.057	698.5
438.278	842.5
438.5	818.5
438.721	879.5
438.943	887.5
439.165	689.5
439.386	649.5
439.608	624.5
439.829	602.5
440.05	615.5
440.272	684.5
440.493	668.5
440.715	611.5
440.936	573.5
441.158	567.5
441.379	579.5
441.6	569.5
441.822	589.5
442.043	637.5
442.264	731.5
442.486	801.5
442.707	666.5
442.928	629.5
443.149	645.5
443.371	638.5
443.592	687.5
443.813	807.5
444.034	866.5
444.255	731.5
444.476	623.5
444.698	607.5
444.919	603.5
445.14	717.5
445.361	653.5
445.582	643.5
445.803	724.5
446.024	840.5
446.245	855.5
446.466	765.5
446.687	659.5
446.908	619.5
447.129	566.5
447.35	595.5
447.571	571.5
447.792	536.5
448.013	535.5
448.234	571.5
448.455	625.5
448.675	766.5
448.896	872.5
449.117	760.5
449.338	697.5
449.559	837.5
449.779	957.5
450	753.5
450.221	608.5
450.442	553.5
450.662	531.5
450.883	535.5
451.104	545.5
451.324	549.5
451.545	539.5
451.766	515.5
451.986	497.5
452.207	505.5
452.428	512.5
452.648	484.5
452.869	496.5
453.089	503.5
453.31	520.5
453.53	496.5
453.751	490.5
453.971	499.5
454.192	507.5
454.412	528.5
454.633	488.5
454.853	480.5
455.073	495.5
455.294	526.5
455.514	607.5
455.734	573.5
455.955	503.5
456.175	481.5
456.395	477.5
456.616	466.5
456.836	466.5
457.056	464.5
457.276	473.5
457.497	489.5
457.717	476.5
457.937	486.5
458.157	488.5
458.377	489.5
458.598	519.5
458.818	562.5
459.038	647.5
459.258	660.5
459.478	590.5
459.698	555.5
459.918	535.5
460.138	540.5
460.358	541.5
460.578	524.5
460.798	525.5
461.018	555.5
461.238	540.5
461.458	547.5
461.678	536.5
461.898	567.5
462.118	560.5
462.338	559.5
462.558	549.5
462.777	547.5
462.997	585.5
463.217	594.5
463.437	593.5
463.657	585.5
463.876	591.5
464.096	565.5
464.316	569.5
464.536	594.5
464.755	568.5
464.975	564.5
465.195	619.5
465.414	708.5
465.634	623.5
465.854	579.5
466.073	551.5
466.293	565.5
466.512	523.5
466.732	533.5
466.951	529.5
467.171	519.5
467.391	527.5
467.61	507.5
467.829	527.5
468.049	528.5
468.268	500.5
468.488	507.5
468.707	499.5
468.927	489.5
469.146	490.5
469.365	488.5
469.585	519.5
469.804	534.5
470.023	521.5
470.243	516.5
470.462	531.5
470.681	540.5
470.901	528.5
471.12	519.5
471.339	515.5
471.558	513.5
471.777	519.5
471.997	496.5
472.216	513.5
472.435	535.5
472.654	529.5
472.873	508.5
473.092	518.5
473.311	496.5
473.53	529.5
473.749	529.5
473.968	583.5
474.187	693.5
474.406	690.5
474.625	577.5
474.844	565.5
475.063	532.5
475.282	511.5
475.501	519.5
475.72	535.5
475.939	531.5
476.158	521.5
476.377	534.5
476.596	546.5
476.814	570.5
477.033	570.5
477.252	557.5
477.471	559.5
477.69	556.5
477.908	565.5
478.127	556.5
478.346	563.5
478.564	580.5
478.783	576.5
479.002	596.5
479.22	593.5
479.439	616.5
479.658	634.5
479.876	626.5
480.095	608.5
480.313	651.5
480.532	653.5
480.751	623.5
480.969	633.5
481.188	662.5
481.406	731.5
481.624	677.5
481.843	641.5
482.061	615.5
482.28	625.5
482.498	618.5
482.717	633.5
482.935	595.5
483.153	587.5
483.372	585.5
483.59	634.5
483.808	611.5
484.027	612.5
484.245	607.5
484.463	617.5
484.681	627.5
484.9	603.5
485.118	639.5
485.336	645.5
485.554	640.5
485.772	613.5
485.99	608.5
486.209	627.5
486.427	619.5
486.645	653.5
486.863	653.5
487.081	649.5
487.299	647.5
487.517	637.5
487.735	667.5
487.953	629.5
488.171	657.5
488.389	637.5
488.607	643.5
488.825	656.5
489.043	633.5
489.261	659.5
489.479	659.5
489.696	660.5
489.914	680.5
490.132	681.5
490.35	671.5
490.568	676.5
490.786	677.5
491.003	716.5
491.221	704.5
491.439	725.5
491.657	720.5
491.874	741.5
492.092	732.5
492.31	710.5
492.527	730.5
492.745	739.5
492.963	709.5
493.18	738.5
493.398	736.5
493.615	745.5
493.833	776.5
494.05	762.5
494.268	763.5
494.485	748.5
494.703	745.5
494.92	743.5
495.138	765.5
495.355	763.5
495.573	772.5
495.79	786.5
496.008	779.5
496.225	754.5
496.442	771.5
496.66	762.5
496.877	769.5
497.094	773.5
497.312	787.5
497.529	824.5
497.746	796.5
497.963	857.5
498.181	839.5
498.398	852.5
498.615	869.5
498.832	900.5
499.049	883.5
499.267	917.5
499.484	953.5
499.701	1000.5
499.918	1007.5
500.135	1049.5
500.352	1137.5
500.569	1130.5
500.786	1108.5
501.003	1108.5
501.22	1072.5
501.437	1051.5
501.654	1019.5
501.871	996.5
502.088	976.5
502.305	913.5
502.522	893.5
502.739	870.5
502.956	832.5
503.172	840.5
503.389	827.5
503.606	845.5
503.823	809.5
504.04	797.5
504.256	781.5
504.473	797.5
504.69	785.5
504.907	783.5
505.123	777.5
505.34	771.5
505.557	758.5
505.773	767.5
505.99	745.5
506.207	724.5
506.423	747.5
506.64	729.5
506.856	741.5
507.073	732.5
507.289	714.5
507.506	728.5
507.722	724.5
507.939	735.5
508.155	712.5
508.372	710.5
508.588	691.5
508.805	689.5
509.021	703.5
509.238	714.5
509.454	722.5
509.67	691.5
509.887	693.5
510.103	680.5
510.319	679.5
510.536	773.5
510.752	1205.5
510.968	1016.5
511.184	706.5
511.401	683.5
511.617	655.5
511.833	665.5
512.049	652.5
512.265	656.5
512.481	652.5
512.698	638.5
512.914	661.5
513.13	673.5
513.346	669.5
513.562	673.5
513.778	675.5
513.994	675.5
514.21	703.5
514.426	697.5
514.642	748.5
514.858	756.5
515.074	781.5
515.29	899.5
515.506	1261.5
515.721	1074.5
515.937	787.5
516.153	756.5
516.369	736.5
516.585	713.5
516.801	710.5
517.016	669.5
517.232	680.5
517.448	677.5
517.664	699.5
517.879	699.5
518.095	710.5
518.311	694.5
518.527	699.5
518.742	678.5
518.958	689.5
519.173	653.5
519.389	669.5
519.605	675.5
519.82	663.5
