Data from 1978.PennyLincolnUp.Lamp.En5.5.200Scan.071719.P1_HRD10591_16-14-16-864.txt Node
Date: Thu Jul 18 16:14:16 EDT 2019
User: cochatt
Spectrometer: HR+D1059
Trigger mode: 1
Integration Time (sec): 1.000000E-1
Scans to average: 1
Electric dark correction enabled: true
Nonlinearity correction enabled: false
Boxcar width: 0
XAxis mode: Wavelengths
Number of Pixels in Spectrum: 2048
>>>>>Begin Spectral Data<<<<<
223.165	5.06
223.4	5.06
223.635	5.06
223.869	-26.94
224.104	-15.94
224.338	-19.94
224.573	-19.94
224.808	-14.94
225.042	0.06
225.277	-11.94
225.511	-13.94
225.746	1.06
225.98	17.06
226.215	6.06
226.449	18.06
226.683	9.06
226.918	27.06
227.152	40.06
227.387	25.06
227.621	40.06
227.856	38.06
228.09	45.06
228.324	67.06
228.559	76.06
228.793	69.06
229.027	106.06
229.262	86.06
229.496	108.06
229.73	125.06
229.964	150.06
230.199	123.06
230.433	120.06
230.667	109.06
230.901	116.06
231.136	114.06
231.37	117.06
231.604	117.06
231.838	120.06
232.072	102.06
232.306	116.06
232.541	114.06
232.775	116.06
233.009	117.06
233.243	120.06
233.477	114.06
233.711	114.06
233.945	103.06
234.179	123.06
234.413	124.06
234.647	107.06
234.881	126.06
235.115	135.06
235.349	126.06
235.583	114.06
235.817	123.06
236.051	129.06
236.285	141.06
236.519	119.06
236.753	124.06
236.987	150.06
237.221	203.06
237.455	230.06
237.689	185.06
237.922	148.06
238.156	134.06
238.39	138.06
238.624	129.06
238.858	127.06
239.091	129.06
239.325	121.06
239.559	142.06
239.793	124.06
240.027	128.06
240.26	141.06
240.494	156.06
240.728	150.06
240.961	149.06
241.195	141.06
241.429	126.06
241.662	143.06
241.896	131.06
242.13	124.06
242.363	121.06
242.597	135.06
242.83	132.06
243.064	132.06
243.298	134.06
243.531	140.06
243.765	138.06
243.998	135.06
244.232	136.06
244.465	151.06
244.699	138.06
244.932	139.06
245.166	122.06
245.399	160.06
245.633	141.06
245.866	147.06
246.099	146.06
246.333	138.06
246.566	148.06
246.8	149.06
247.033	158.06
247.266	149.06
247.5	163.06
247.733	163.06
247.966	177.06
248.2	159.06
248.433	160.06
248.666	156.06
248.899	184.06
249.133	189.06
249.366	198.06
249.599	175.06
249.832	180.06
250.066	171.06
250.299	172.06
250.532	179.06
250.765	184.06
250.998	201.06
251.231	229.06
251.465	213.06
251.698	201.06
251.931	186.06
252.164	208.06
252.397	189.06
252.63	185.06
252.863	186.06
253.096	213.06
253.329	227.06
253.562	225.06
253.795	212.06
254.028	217.06
254.261	213.06
254.494	225.06
254.727	230.06
254.96	245.06
255.193	262.06
255.426	238.06
255.659	213.06
255.892	210.06
256.124	218.06
256.357	228.06
256.59	222.06
256.823	198.06
257.056	213.06
257.289	209.06
257.521	207.06
257.754	203.06
257.987	200.06
258.22	200.06
258.452	198.06
258.685	205.06
258.918	213.06
259.151	202.06
259.383	204.06
259.616	199.06
259.849	220.06
260.081	215.06
260.314	242.06
260.547	251.06
260.779	236.06
261.012	227.06
261.244	232.06
261.477	221.06
261.71	232.06
261.942	221.06
262.175	239.06
262.407	221.06
262.64	209.06
262.872	207.06
263.105	209.06
263.337	204.06
263.57	214.06
263.802	211.06
264.035	223.06
264.267	206.06
264.499	212.06
264.732	201.06
264.964	209.06
265.197	204.06
265.429	211.06
265.661	204.06
265.894	200.06
266.126	216.06
266.358	226.06
266.591	200.06
266.823	208.06
267.055	222.06
267.287	212.06
267.52	209.06
267.752	210.06
267.984	218.06
268.216	229.06
268.448	232.06
268.681	220.06
268.913	242.06
269.145	251.06
269.377	264.06
269.609	256.06
269.841	260.06
270.073	261.06
270.306	286.06
270.538	322.06
270.77	307.06
271.002	274.06
271.234	269.06
271.466	290.06
271.698	301.06
271.93	300.06
272.162	308.06
272.394	294.06
272.626	284.06
272.858	276.06
273.09	273.06
273.322	283.06
273.553	257.06
273.785	263.06
274.017	254.06
274.249	277.06
274.481	259.06
274.713	270.06
274.945	270.06
275.176	249.06
275.408	256.06
275.64	240.06
275.872	248.06
276.104	256.06
276.335	254.06
276.567	270.06
276.799	261.06
277.031	324.06
277.262	304.06
277.494	304.06
277.726	300.06
277.957	282.06
278.189	281.06
278.421	268.06
278.652	244.06
278.884	261.06
279.115	264.06
279.347	279.06
279.579	266.06
279.81	258.06
280.042	266.06
280.273	261.06
280.505	268.06
280.736	258.06
280.968	262.06
281.199	277.06
281.431	256.06
281.662	262.06
281.894	281.06
282.125	267.06
282.356	283.06
282.588	323.06
282.819	295.06
283.051	292.06
283.282	261.06
283.513	279.06
283.745	280.06
283.976	282.06
284.207	296.06
284.439	299.06
284.67	264.06
284.901	263.06
285.132	276.06
285.364	258.06
285.595	277.06
285.826	275.06
286.057	284.06
286.288	274.06
286.52	272.06
286.751	279.06
286.982	297.06
287.213	273.06
287.444	294.06
287.675	289.06
287.906	299.06
288.138	279.06
288.369	277.06
288.6	284.06
288.831	294.06
289.062	315.06
289.293	283.06
289.524	297.06
289.755	283.06
289.986	289.06
290.217	287.06
290.448	283.06
290.679	271.06
290.91	281.06
291.141	299.06
291.371	295.06
291.602	289.06
291.833	280.06
292.064	285.06
292.295	280.06
292.526	288.06
292.757	289.06
292.987	281.06
293.218	294.06
293.449	274.06
293.68	294.06
293.91	289.06
294.141	294.06
294.372	305.06
294.603	301.06
294.833	290.06
295.064	302.06
295.295	305.06
295.525	285.06
295.756	290.06
295.987	321.06
296.217	313.06
296.448	311.06
296.679	307.06
296.909	293.06
297.14	298.06
297.37	306.06
297.601	315.06
297.831	311.06
298.062	305.06
298.292	316.06
298.523	305.06
298.753	314.06
298.984	309.06
299.214	306.06
299.445	299.06
299.675	304.06
299.905	329.06
300.136	317.06
300.366	322.06
300.597	333.06
300.827	317.06
301.057	307.06
301.288	338.06
301.518	331.06
301.748	338.06
301.979	331.06
302.209	312.06
302.439	334.06
302.669	319.06
302.9	340.06
303.13	335.06
303.36	329.06
303.59	338.06
303.82	333.06
304.051	315.06
304.281	328.06
304.511	318.06
304.741	326.06
304.971	345.06
305.201	325.06
305.431	334.06
305.661	334.06
305.891	341.06
306.121	323.06
306.352	336.06
306.582	337.06
306.812	324.06
307.042	335.06
307.272	331.06
307.502	333.06
307.731	338.06
307.961	318.06
308.191	309.06
308.421	320.06
308.651	347.06
308.881	326.06
309.111	359.06
309.341	336.06
309.571	361.06
309.8	365.06
310.03	360.06
310.26	368.06
310.49	384.06
310.72	380.06
310.949	386.06
311.179	404.06
311.409	386.06
311.639	376.06
311.868	370.06
312.098	387.06
312.328	394.06
312.557	394.06
312.787	401.06
313.017	422.06
313.246	395.06
313.476	389.06
313.706	387.06
313.935	389.06
314.165	390.06
314.394	404.06
314.624	379.06
314.853	376.06
315.083	381.06
315.312	374.06
315.542	380.06
315.771	389.06
316.001	361.06
316.23	369.06
316.46	368.06
316.689	377.06
316.919	384.06
317.148	374.06
317.377	378.06
317.607	380.06
317.836	395.06
318.065	377.06
318.295	377.06
318.524	369.06
318.753	379.06
318.983	379.06
319.212	373.06
319.441	388.06
319.67	392.06
319.9	373.06
320.129	377.06
320.358	389.06
320.587	374.06
320.816	396.06
321.046	404.06
321.275	388.06
321.504	418.06
321.733	409.06
321.962	394.06
322.191	433.06
322.42	438.06
322.649	464.06
322.878	464.06
323.108	462.06
323.337	476.06
323.566	504.06
323.795	498.06
324.024	582.06
324.253	671.06
324.482	993.06
324.71	1617.06
324.939	2474.06
325.168	2108.06
325.397	1003.06
325.626	658.06
325.855	536.06
326.084	515.06
326.313	500.06
326.542	524.06
326.77	595.06
326.999	666.06
327.228	922.06
327.457	1432.06
327.686	1809.06
327.914	1201.06
328.143	737.06
328.372	632.06
328.6	596.06
328.829	576.06
329.058	603.06
329.287	580.06
329.515	557.06
329.744	514.06
329.972	502.06
330.201	524.06
330.43	549.06
330.658	602.06
330.887	627.06
331.115	593.06
331.344	541.06
331.572	484.06
331.801	493.06
332.03	494.06
332.258	477.06
332.486	474.06
332.715	465.06
332.943	466.06
333.172	482.06
333.4	464.06
333.629	460.06
333.857	494.06
334.085	482.06
334.314	502.06
334.542	549.06
334.771	576.06
334.999	532.06
335.227	489.06
335.455	468.06
335.684	472.06
335.912	448.06
336.14	463.06
336.369	458.06
336.597	466.06
336.825	480.06
337.053	454.06
337.281	460.06
337.51	435.06
337.738	452.06
337.966	450.06
338.194	459.06
338.422	463.06
338.65	473.06
338.878	433.06
339.106	451.06
339.334	438.06
339.562	438.06
339.79	441.06
340.018	434.06
340.246	461.06
340.474	457.06
340.702	445.06
340.93	448.06
341.158	438.06
341.386	426.06
341.614	452.06
341.842	439.06
342.07	422.06
342.298	456.06
342.526	415.06
342.754	417.06
342.981	429.06
343.209	427.06
343.437	428.06
343.665	452.06
343.893	445.06
344.12	459.06
344.348	442.06
344.576	453.06
344.804	442.06
345.031	455.06
345.259	468.06
345.487	461.06
345.714	431.06
345.942	433.06
346.17	413.06
346.397	427.06
346.625	442.06
346.853	436.06
347.08	438.06
347.308	454.06
347.535	454.06
347.763	443.06
347.99	436.06
348.218	442.06
348.445	448.06
348.673	445.06
348.9	442.06
349.128	425.06
349.355	410.06
349.583	409.06
349.81	415.06
350.037	410.06
350.265	418.06
350.492	419.06
350.72	427.06
350.947	422.06
351.174	428.06
351.402	448.06
351.629	437.06
351.856	438.06
352.083	423.06
352.311	436.06
352.538	454.06
352.765	450.06
352.992	427.06
353.22	429.06
353.447	432.06
353.674	416.06
353.901	410.06
354.128	416.06
354.355	421.06
354.583	408.06
354.81	425.06
355.037	404.06
355.264	407.06
355.491	391.06
355.718	378.06
355.945	408.06
356.172	424.06
356.399	404.06
356.626	415.06
356.853	418.06
357.08	407.06
357.307	413.06
357.534	415.06
357.761	408.06
357.988	424.06
358.215	406.06
358.441	399.06
358.668	418.06
358.895	411.06
359.122	399.06
359.349	419.06
359.576	433.06
359.802	450.06
360.029	457.06
360.256	471.06
360.483	451.06
360.709	450.06
360.936	439.06
361.163	422.06
361.39	431.06
361.616	448.06
361.843	446.06
362.07	425.06
362.296	427.06
362.523	416.06
362.749	428.06
362.976	423.06
363.203	436.06
363.429	422.06
363.656	429.06
363.882	420.06
364.109	396.06
364.335	405.06
364.562	426.06
364.788	396.06
365.015	416.06
365.241	414.06
365.468	443.06
365.694	419.06
365.92	428.06
366.147	457.06
366.373	420.06
366.599	419.06
366.826	426.06
367.052	417.06
367.278	389.06
367.505	429.06
367.731	420.06
367.957	419.06
368.184	413.06
368.41	430.06
368.636	459.06
368.862	435.06
369.089	428.06
369.315	441.06
369.541	429.06
369.767	417.06
369.993	430.06
370.219	417.06
370.445	426.06
370.672	427.06
370.898	422.06
371.124	416.06
371.35	425.06
371.576	426.06
371.802	410.06
372.028	425.06
372.254	411.06
372.48	437.06
372.706	439.06
372.932	430.06
373.158	418.06
373.384	433.06
373.61	433.06
373.835	438.06
374.061	410.06
374.287	418.06
374.513	438.06
374.739	426.06
374.965	423.06
375.191	447.06
375.416	435.06
375.642	429.06
375.868	443.06
376.094	440.06
376.319	422.06
376.545	414.06
376.771	433.06
376.997	422.06
377.222	430.06
377.448	424.06
377.674	427.06
377.899	431.06
378.125	441.06
378.35	432.06
378.576	426.06
378.802	418.06
379.027	430.06
379.253	446.06
379.478	423.06
379.704	420.06
379.929	420.06
380.155	414.06
380.38	411.06
380.606	418.06
380.831	432.06
381.057	418.06
381.282	433.06
381.507	428.06
381.733	453.06
381.958	423.06
382.184	422.06
382.409	422.06
382.634	428.06
382.86	434.06
383.085	451.06
383.31	437.06
383.535	435.06
383.761	453.06
383.986	450.06
384.211	441.06
384.436	446.06
384.662	456.06
384.887	460.06
385.112	483.06
385.337	481.06
385.562	476.06
385.787	478.06
386.013	480.06
386.238	472.06
386.463	462.06
386.688	479.06
386.913	460.06
387.138	489.06
387.363	496.06
387.588	467.06
387.813	453.06
388.038	470.06
388.263	481.06
388.488	462.06
388.713	456.06
388.938	479.06
389.163	473.06
389.387	474.06
389.612	482.06
389.837	481.06
390.062	468.06
390.287	475.06
390.512	459.06
390.736	513.06
390.961	482.06
391.186	483.06
391.411	492.06
391.636	492.06
391.86	503.06
392.085	498.06
392.31	499.06
392.534	475.06
392.759	494.06
392.984	498.06
393.208	504.06
393.433	486.06
393.658	491.06
393.882	473.06
394.107	475.06
394.331	486.06
394.556	498.06
394.78	503.06
395.005	506.06
395.229	494.06
395.454	508.06
395.678	509.06
395.903	520.06
396.127	556.06
396.352	529.06
396.576	525.06
396.801	510.06
397.025	505.06
397.249	514.06
397.474	520.06
397.698	512.06
397.922	531.06
398.147	549.06
398.371	557.06
398.595	561.06
398.82	548.06
399.044	568.06
399.268	587.06
399.492	624.06
399.717	634.06
399.941	664.06
400.165	693.06
400.389	678.06
400.613	642.06
400.837	601.06
401.062	564.06
401.286	574.06
401.51	563.06
401.734	565.06
401.958	544.06
402.182	562.06
402.406	566.06
402.63	565.06
402.854	560.06
403.078	570.06
403.302	593.06
403.526	562.06
403.75	587.06
403.974	587.06
404.198	569.06
404.422	557.06
404.645	591.06
404.869	601.06
405.093	618.06
405.317	648.06
405.541	684.06
405.765	620.06
405.988	605.06
406.212	614.06
406.436	635.06
406.66	646.06
406.883	620.06
407.107	642.06
407.331	697.06
407.555	770.06
407.778	772.06
408.002	718.06
408.226	642.06
408.449	641.06
408.673	644.06
408.896	689.06
409.12	724.06
409.344	660.06
409.567	612.06
409.791	598.06
410.014	586.06
410.238	583.06
410.461	621.06
410.685	602.06
410.908	612.06
411.132	650.06
411.355	660.06
411.578	644.06
411.802	586.06
412.025	602.06
412.249	590.06
412.472	604.06
412.695	646.06
412.919	652.06
413.142	578.06
413.365	585.06
413.589	581.06
413.812	565.06
414.035	547.06
414.258	585.06
414.482	565.06
414.705	548.06
414.928	540.06
415.151	545.06
415.374	571.06
415.597	544.06
415.821	531.06
416.044	546.06
416.267	555.06
416.49	573.06
416.713	561.06
416.936	545.06
417.159	528.06
417.382	563.06
417.605	550.06
417.828	564.06
418.051	598.06
418.274	558.06
418.497	533.06
418.72	520.06
418.943	545.06
419.166	568.06
419.389	598.06
419.611	589.06
419.834	602.06
420.057	575.06
420.28	562.06
420.503	573.06
420.726	563.06
420.948	569.06
421.171	628.06
421.394	685.06
421.617	588.06
421.839	566.06
422.062	584.06
422.285	581.06
422.507	653.06
422.73	761.06
422.953	710.06
423.175	628.06
423.398	604.06
423.621	603.06
423.843	605.06
424.066	621.06
424.288	603.06
424.511	627.06
424.733	670.06
424.956	784.06
425.178	745.06
425.401	739.06
425.623	777.06
425.846	668.06
426.068	622.06
426.291	610.06
426.513	601.06
426.735	621.06
426.958	673.06
427.18	732.06
427.402	895.06
427.625	1020.06
427.847	857.06
428.069	734.06
428.292	672.06
428.514	599.06
428.736	587.06
428.958	572.06
429.181	578.06
429.403	560.06
429.625	566.06
429.847	611.06
430.069	708.06
430.292	686.06
430.514	601.06
430.736	548.06
430.958	549.06
431.18	540.06
431.402	539.06
431.624	529.06
431.846	534.06
432.068	534.06
432.29	527.06
432.512	531.06
432.734	544.06
432.956	549.06
433.178	572.06
433.4	579.06
433.622	521.06
433.844	570.06
434.066	545.06
434.287	540.06
434.509	561.06
434.731	568.06
434.953	568.06
435.175	583.06
435.397	617.06
435.618	604.06
435.84	655.06
436.062	763.06
436.284	853.06
436.505	712.06
436.727	645.06
436.949	566.06
437.17	580.06
437.392	577.06
437.614	589.06
437.835	640.06
438.057	709.06
438.278	845.06
438.5	834.06
438.721	929.06
438.943	892.06
439.165	706.06
439.386	623.06
439.608	656.06
439.829	602.06
440.05	640.06
440.272	726.06
440.493	671.06
440.715	594.06
440.936	589.06
441.158	596.06
441.379	578.06
441.6	585.06
441.822	609.06
442.043	650.06
442.264	757.06
442.486	792.06
442.707	675.06
442.928	630.06
443.149	626.06
443.371	672.06
443.592	714.06
443.813	793.06
444.034	872.06
444.255	722.06
444.476	642.06
444.698	636.06
444.919	613.06
445.14	716.06
445.361	663.06
445.582	673.06
445.803	732.06
446.024	856.06
446.245	884.06
446.466	774.06
446.687	685.06
446.908	612.06
447.129	590.06
447.35	573.06
447.571	554.06
447.792	547.06
448.013	558.06
448.234	594.06
448.455	637.06
448.675	788.06
448.896	897.06
449.117	756.06
449.338	710.06
449.559	842.06
449.779	967.06
450	754.06
450.221	626.06
450.442	589.06
450.662	571.06
450.883	553.06
451.104	572.06
451.324	553.06
451.545	509.06
451.766	531.06
451.986	530.06
452.207	505.06
452.428	509.06
452.648	516.06
452.869	511.06
453.089	531.06
453.31	539.06
453.53	505.06
453.751	520.06
453.971	497.06
454.192	534.06
454.412	527.06
454.633	510.06
454.853	501.06
455.073	489.06
455.294	517.06
455.514	640.06
455.734	616.06
455.955	514.06
456.175	474.06
456.395	510.06
456.616	478.06
456.836	481.06
457.056	494.06
457.276	488.06
457.497	507.06
457.717	492.06
457.937	498.06
458.157	496.06
458.377	486.06
458.598	516.06
458.818	568.06
459.038	647.06
459.258	696.06
459.478	600.06
459.698	556.06
459.918	558.06
460.138	554.06
460.358	544.06
460.578	558.06
460.798	555.06
461.018	562.06
461.238	554.06
461.458	553.06
461.678	574.06
461.898	556.06
462.118	566.06
462.338	588.06
462.558	612.06
462.777	615.06
462.997	601.06
463.217	616.06
463.437	615.06
463.657	622.06
463.876	604.06
464.096	587.06
464.316	603.06
464.536	607.06
464.755	597.06
464.975	606.06
465.195	630.06
465.414	694.06
465.634	638.06
465.854	598.06
466.073	565.06
466.293	569.06
466.512	525.06
466.732	532.06
466.951	520.06
467.171	525.06
467.391	526.06
467.61	518.06
467.829	551.06
468.049	524.06
468.268	531.06
468.488	522.06
468.707	522.06
468.927	515.06
469.146	504.06
469.365	519.06
469.585	518.06
469.804	516.06
470.023	523.06
470.243	535.06
470.462	553.06
470.681	547.06
470.901	533.06
471.12	541.06
471.339	538.06
471.558	525.06
471.777	543.06
471.997	537.06
472.216	546.06
472.435	561.06
472.654	567.06
472.873	541.06
473.092	518.06
473.311	517.06
473.53	530.06
473.749	542.06
473.968	574.06
474.187	718.06
474.406	718.06
474.625	597.06
474.844	552.06
475.063	536.06
475.282	524.06
475.501	514.06
475.72	532.06
475.939	565.06
476.158	547.06
476.377	555.06
476.596	531.06
476.814	566.06
477.033	561.06
477.252	577.06
477.471	577.06
477.69	573.06
477.908	574.06
478.127	586.06
478.346	577.06
478.564	603.06
478.783	602.06
479.002	627.06
479.22	604.06
479.439	649.06
479.658	614.06
479.876	633.06
480.095	653.06
480.313	677.06
480.532	649.06
480.751	662.06
480.969	634.06
481.188	684.06
481.406	733.06
481.624	660.06
481.843	645.06
482.061	620.06
482.28	629.06
482.498	662.06
482.717	610.06
482.935	600.06
483.153	610.06
483.372	613.06
483.59	611.06
483.808	624.06
484.027	625.06
484.245	633.06
484.463	640.06
484.681	638.06
484.9	620.06
485.118	649.06
485.336	642.06
485.554	651.06
485.772	646.06
485.99	635.06
486.209	659.06
486.427	651.06
486.645	649.06
486.863	660.06
487.081	677.06
487.299	673.06
487.517	649.06
487.735	654.06
487.953	661.06
488.171	664.06
488.389	673.06
488.607	678.06
488.825	664.06
489.043	654.06
489.261	672.06
489.479	672.06
489.696	700.06
489.914	667.06
490.132	691.06
490.35	701.06
490.568	695.06
490.786	701.06
491.003	693.06
491.221	737.06
491.439	747.06
491.657	732.06
491.874	758.06
492.092	739.06
492.31	738.06
492.527	780.06
492.745	754.06
492.963	766.06
493.18	748.06
493.398	773.06
493.615	754.06
493.833	777.06
494.05	785.06
494.268	748.06
494.485	789.06
494.703	760.06
494.92	778.06
495.138	783.06
495.355	788.06
495.573	767.06
495.79	780.06
496.008	798.06
496.225	789.06
496.442	781.06
496.66	772.06
496.877	769.06
497.094	787.06
497.312	808.06
497.529	788.06
497.746	826.06
497.963	841.06
498.181	858.06
498.398	875.06
498.615	864.06
498.832	898.06
499.049	932.06
499.267	939.06
499.484	969.06
499.701	1009.06
499.918	1074.06
500.135	1085.06
500.352	1102.06
500.569	1120.06
500.786	1165.06
501.003	1145.06
501.22	1120.06
501.437	1077.06
501.654	1038.06
501.871	1051.06
