Data from 1978.PennyLincolnUp.Lamp.En5.5.200Scan.071719.P1_HRD10591_16-11-47-866.txt Node
Date: Thu Jul 18 16:11:47 EDT 2019
User: cochatt
Spectrometer: HR+D1059
Trigger mode: 1
Integration Time (sec): 1.000000E-1
Scans to average: 1
Electric dark correction enabled: true
Nonlinearity correction enabled: false
Boxcar width: 0
XAxis mode: Wavelengths
Number of Pixels in Spectrum: 2048
>>>>>Begin Spectral Data<<<<<
223.165	-12.31
223.4	-12.31
223.635	-12.31
223.869	-18.31
224.104	-11.31
224.338	-16.31
224.573	-19.31
224.808	-19.31
225.042	-17.31
225.277	-15.31
225.511	5.69
225.746	2.69
225.98	19.69
226.215	7.69
226.449	23.69
226.683	19.69
226.918	21.69
227.152	28.69
227.387	36.69
227.621	30.69
227.856	37.69
228.09	47.69
228.324	41.69
228.559	58.69
228.793	68.69
229.027	74.69
229.262	92.69
229.496	108.69
229.73	99.69
229.964	127.69
230.199	105.69
230.433	108.69
230.667	102.69
230.901	102.69
231.136	117.69
231.37	112.69
231.604	111.69
231.838	104.69
232.072	108.69
232.306	100.69
232.541	115.69
232.775	119.69
233.009	107.69
233.243	106.69
233.477	97.69
233.711	106.69
233.945	101.69
234.179	93.69
234.413	110.69
234.647	101.69
234.881	125.69
235.115	114.69
235.349	115.69
235.583	109.69
235.817	120.69
236.051	109.69
236.285	117.69
236.519	105.69
236.753	110.69
236.987	123.69
237.221	145.69
237.455	190.69
237.689	140.69
237.922	123.69
238.156	103.69
238.39	107.69
238.624	121.69
238.858	102.69
239.091	107.69
239.325	111.69
239.559	116.69
239.793	108.69
240.027	120.69
240.26	124.69
240.494	135.69
240.728	119.69
240.961	118.69
241.195	122.69
241.429	133.69
241.662	119.69
241.896	127.69
242.13	123.69
242.363	124.69
242.597	128.69
242.83	120.69
243.064	119.69
243.298	125.69
243.531	126.69
243.765	120.69
243.998	129.69
244.232	126.69
244.465	123.69
244.699	120.69
244.932	135.69
245.166	123.69
245.399	139.69
245.633	135.69
245.866	138.69
246.099	132.69
246.333	123.69
246.566	136.69
246.8	133.69
247.033	124.69
247.266	135.69
247.5	135.69
247.733	141.69
247.966	146.69
248.2	134.69
248.433	145.69
248.666	135.69
248.899	160.69
249.133	152.69
249.366	167.69
249.599	162.69
249.832	133.69
250.066	156.69
250.299	168.69
250.532	146.69
250.765	166.69
250.998	161.69
251.231	176.69
251.465	160.69
251.698	158.69
251.931	161.69
252.164	152.69
252.397	170.69
252.63	164.69
252.863	164.69
253.096	174.69
253.329	180.69
253.562	164.69
253.795	165.69
254.028	180.69
254.261	169.69
254.494	190.69
254.727	203.69
254.96	216.69
255.193	206.69
255.426	192.69
255.659	180.69
255.892	175.69
256.124	175.69
256.357	178.69
256.59	194.69
256.823	181.69
257.056	164.69
257.289	168.69
257.521	178.69
257.754	175.69
257.987	186.69
258.22	157.69
258.452	168.69
258.685	178.69
258.918	181.69
259.151	182.69
259.383	206.69
259.616	183.69
259.849	194.69
260.081	207.69
260.314	202.69
260.547	191.69
260.779	197.69
261.012	181.69
261.244	206.69
261.477	203.69
261.71	184.69
261.942	203.69
262.175	186.69
262.407	188.69
262.64	169.69
262.872	184.69
263.105	178.69
263.337	172.69
263.57	184.69
263.802	192.69
264.035	179.69
264.267	197.69
264.499	175.69
264.732	174.69
264.964	182.69
265.197	182.69
265.429	162.69
265.661	194.69
265.894	188.69
266.126	186.69
266.358	184.69
266.591	187.69
266.823	203.69
267.055	182.69
267.287	187.69
267.52	188.69
267.752	190.69
267.984	192.69
268.216	195.69
268.448	214.69
268.681	205.69
268.913	204.69
269.145	209.69
269.377	214.69
269.609	230.69
269.841	213.69
270.073	224.69
270.306	212.69
270.538	230.69
270.77	220.69
271.002	212.69
271.234	222.69
271.466	235.69
271.698	252.69
271.93	224.69
272.162	230.69
272.394	236.69
272.626	230.69
272.858	227.69
273.09	214.69
273.322	216.69
273.553	195.69
273.785	229.69
274.017	231.69
274.249	207.69
274.481	224.69
274.713	207.69
274.945	232.69
275.176	229.69
275.408	228.69
275.64	221.69
275.872	231.69
276.104	222.69
276.335	207.69
276.567	229.69
276.799	240.69
277.031	227.69
277.262	248.69
277.494	247.69
277.726	223.69
277.957	223.69
278.189	234.69
278.421	238.69
278.652	228.69
278.884	245.69
279.115	233.69
279.347	219.69
279.579	228.69
279.81	231.69
280.042	231.69
280.273	231.69
280.505	229.69
280.736	246.69
280.968	233.69
281.199	216.69
281.431	222.69
281.662	237.69
281.894	227.69
282.125	225.69
282.356	244.69
282.588	243.69
282.819	260.69
283.051	257.69
283.282	229.69
283.513	229.69
283.745	242.69
283.976	251.69
284.207	235.69
284.439	246.69
284.67	258.69
284.901	243.69
285.132	245.69
285.364	223.69
285.595	238.69
285.826	244.69
286.057	239.69
286.288	235.69
286.52	257.69
286.751	249.69
286.982	239.69
287.213	258.69
287.444	248.69
287.675	262.69
287.906	258.69
288.138	259.69
288.369	253.69
288.6	248.69
288.831	253.69
289.062	258.69
289.293	262.69
289.524	238.69
289.755	263.69
289.986	249.69
290.217	251.69
290.448	255.69
290.679	260.69
290.91	259.69
291.141	255.69
291.371	250.69
291.602	244.69
291.833	259.69
292.064	228.69
292.295	238.69
292.526	253.69
292.757	252.69
292.987	258.69
293.218	254.69
293.449	245.69
293.68	264.69
293.91	279.69
294.141	260.69
294.372	262.69
294.603	258.69
294.833	244.69
295.064	252.69
295.295	262.69
295.525	251.69
295.756	259.69
295.987	264.69
296.217	263.69
296.448	285.69
296.679	274.69
296.909	264.69
297.14	253.69
297.37	273.69
297.601	256.69
297.831	263.69
298.062	267.69
298.292	278.69
298.523	282.69
298.753	271.69
298.984	269.69
299.214	270.69
299.445	280.69
299.675	267.69
299.905	280.69
300.136	280.69
300.366	266.69
300.597	281.69
300.827	263.69
301.057	271.69
301.288	277.69
301.518	287.69
301.748	284.69
301.979	288.69
302.209	276.69
302.439	282.69
302.669	293.69
302.9	280.69
303.13	279.69
303.36	293.69
303.59	283.69
303.82	292.69
304.051	294.69
304.281	291.69
304.511	287.69
304.741	295.69
304.971	295.69
305.201	289.69
305.431	293.69
305.661	275.69
305.891	293.69
306.121	283.69
306.352	300.69
306.582	286.69
306.812	276.69
307.042	288.69
307.272	280.69
307.502	269.69
307.731	306.69
307.961	290.69
308.191	275.69
308.421	297.69
308.651	279.69
308.881	312.69
309.111	315.69
309.341	301.69
309.571	311.69
309.8	306.69
310.03	303.69
310.26	295.69
310.49	298.69
310.72	296.69
310.949	327.69
311.179	326.69
311.409	303.69
311.639	310.69
311.868	312.69
312.098	316.69
312.328	318.69
312.557	333.69
312.787	339.69
313.017	326.69
313.246	322.69
313.476	320.69
313.706	317.69
313.935	310.69
314.165	319.69
314.394	325.69
314.624	346.69
314.853	340.69
315.083	336.69
315.312	334.69
315.542	318.69
315.771	349.69
316.001	301.69
316.23	318.69
316.46	318.69
316.689	323.69
316.919	328.69
317.148	351.69
317.377	338.69
317.607	327.69
317.836	311.69
318.065	319.69
318.295	327.69
318.524	316.69
318.753	336.69
318.983	331.69
319.212	318.69
319.441	326.69
319.67	325.69
319.9	331.69
320.129	317.69
320.358	329.69
320.587	304.69
320.816	317.69
321.046	340.69
321.275	331.69
321.504	341.69
321.733	334.69
321.962	333.69
322.191	340.69
322.42	346.69
322.649	366.69
322.878	362.69
323.108	362.69
323.337	365.69
323.566	378.69
323.795	384.69
324.024	407.69
324.253	461.69
324.482	636.69
324.71	974.69
324.939	1387.69
325.168	1217.69
325.397	623.69
325.626	466.69
325.855	412.69
326.084	406.69
326.313	384.69
326.542	393.69
326.77	432.69
326.999	469.69
327.228	599.69
327.457	873.69
327.686	1088.69
327.914	721.69
328.143	474.69
328.372	456.69
328.6	424.69
328.829	399.69
329.058	407.69
329.287	432.69
329.515	418.69
329.744	388.69
329.972	400.69
330.201	416.69
330.43	420.69
330.658	408.69
330.887	435.69
331.115	426.69
331.344	386.69
331.572	389.69
331.801	386.69
332.03	391.69
332.258	410.69
332.486	394.69
332.715	381.69
332.943	407.69
333.172	378.69
333.4	384.69
333.629	390.69
333.857	404.69
334.085	420.69
334.314	436.69
334.542	426.69
334.771	453.69
334.999	413.69
335.227	408.69
335.455	398.69
335.684	385.69
335.912	399.69
336.14	407.69
336.369	368.69
336.597	398.69
336.825	410.69
337.053	371.69
337.281	374.69
337.51	385.69
337.738	368.69
337.966	390.69
338.194	394.69
338.422	370.69
338.65	390.69
338.878	381.69
339.106	374.69
339.334	375.69
339.562	366.69
339.79	381.69
340.018	384.69
340.246	367.69
340.474	394.69
340.702	384.69
340.93	353.69
341.158	381.69
341.386	376.69
341.614	383.69
341.842	367.69
342.07	363.69
342.298	376.69
342.526	361.69
342.754	367.69
342.981	359.69
343.209	377.69
343.437	386.69
343.665	390.69
343.893	398.69
344.12	401.69
344.348	377.69
344.576	374.69
344.804	379.69
345.031	398.69
345.259	396.69
345.487	396.69
345.714	392.69
345.942	401.69
346.17	375.69
346.397	375.69
346.625	357.69
346.853	382.69
347.08	359.69
347.308	342.69
347.535	395.69
347.763	380.69
347.99	366.69
348.218	378.69
348.445	372.69
348.673	384.69
348.9	367.69
349.128	356.69
349.355	356.69
349.583	375.69
349.81	384.69
350.037	349.69
350.265	372.69
350.492	347.69
350.72	362.69
350.947	359.69
351.174	366.69
351.402	378.69
351.629	380.69
351.856	377.69
352.083	366.69
352.311	383.69
352.538	367.69
352.765	370.69
352.992	343.69
353.22	363.69
353.447	364.69
353.674	362.69
353.901	351.69
354.128	350.69
354.355	337.69
354.583	370.69
354.81	336.69
355.037	347.69
355.264	355.69
355.491	347.69
355.718	362.69
355.945	356.69
356.172	359.69
356.399	351.69
356.626	352.69
356.853	357.69
357.08	333.69
357.307	361.69
357.534	365.69
357.761	362.69
357.988	359.69
358.215	363.69
358.441	354.69
358.668	346.69
358.895	363.69
359.122	352.69
359.349	359.69
359.576	374.69
359.802	365.69
360.029	400.69
360.256	405.69
360.483	386.69
360.709	390.69
360.936	366.69
361.163	336.69
361.39	377.69
361.616	362.69
361.843	375.69
362.07	380.69
362.296	374.69
362.523	372.69
362.749	358.69
362.976	355.69
363.203	345.69
363.429	357.69
363.656	370.69
363.882	358.69
364.109	363.69
364.335	393.69
364.562	347.69
364.788	370.69
365.015	370.69
365.241	364.69
365.468	374.69
365.694	360.69
365.92	390.69
366.147	383.69
366.373	368.69
366.599	367.69
366.826	382.69
367.052	356.69
367.278	355.69
367.505	372.69
367.731	386.69
367.957	357.69
368.184	350.69
368.41	357.69
368.636	351.69
368.862	365.69
369.089	380.69
369.315	367.69
369.541	367.69
369.767	371.69
369.993	388.69
370.219	378.69
370.445	387.69
370.672	385.69
370.898	371.69
371.124	377.69
371.35	376.69
371.576	370.69
371.802	381.69
372.028	375.69
372.254	396.69
372.48	383.69
372.706	382.69
372.932	367.69
373.158	364.69
373.384	393.69
373.61	391.69
373.835	370.69
374.061	378.69
374.287	365.69
374.513	379.69
374.739	391.69
374.965	395.69
375.191	401.69
375.416	384.69
375.642	378.69
375.868	385.69
376.094	388.69
376.319	381.69
376.545	378.69
376.771	387.69
376.997	365.69
377.222	367.69
377.448	370.69
377.674	362.69
377.899	378.69
378.125	379.69
378.35	356.69
378.576	373.69
378.802	370.69
379.027	384.69
379.253	379.69
379.478	378.69
379.704	392.69
379.929	403.69
380.155	388.69
380.38	361.69
380.606	358.69
380.831	386.69
381.057	383.69
381.282	380.69
381.507	367.69
381.733	375.69
381.958	387.69
382.184	381.69
382.409	407.69
382.634	409.69
382.86	404.69
383.085	389.69
383.31	394.69
383.535	397.69
383.761	382.69
383.986	397.69
384.211	431.69
384.436	407.69
384.662	414.69
384.887	423.69
385.112	411.69
385.337	397.69
385.562	429.69
385.787	428.69
386.013	445.69
386.238	427.69
386.463	457.69
386.688	440.69
386.913	413.69
387.138	435.69
387.363	428.69
387.588	414.69
387.813	428.69
388.038	427.69
388.263	429.69
388.488	424.69
388.713	436.69
388.938	428.69
389.163	431.69
389.387	441.69
389.612	423.69
389.837	454.69
390.062	419.69
390.287	418.69
390.512	422.69
390.736	427.69
390.961	419.69
391.186	426.69
391.411	436.69
391.636	457.69
391.86	443.69
392.085	459.69
392.31	441.69
392.534	449.69
392.759	437.69
392.984	440.69
393.208	435.69
393.433	436.69
393.658	463.69
393.882	444.69
394.107	432.69
394.331	423.69
394.556	424.69
394.78	436.69
395.005	439.69
395.229	430.69
395.454	441.69
395.678	469.69
395.903	471.69
396.127	487.69
396.352	473.69
396.576	452.69
396.801	469.69
397.025	467.69
397.249	481.69
397.474	466.69
397.698	456.69
397.922	471.69
398.147	492.69
398.371	481.69
398.595	476.69
398.82	488.69
399.044	499.69
399.268	518.69
399.492	527.69
399.717	566.69
399.941	588.69
400.165	617.69
400.389	618.69
400.613	574.69
400.837	551.69
401.062	510.69
401.286	475.69
401.51	503.69
401.734	493.69
401.958	506.69
402.182	498.69
402.406	520.69
402.63	498.69
402.854	494.69
403.078	507.69
403.302	494.69
403.526	490.69
403.75	514.69
403.974	506.69
404.198	494.69
404.422	528.69
404.645	522.69
404.869	521.69
405.093	537.69
405.317	585.69
405.541	600.69
405.765	568.69
405.988	522.69
406.212	547.69
406.436	549.69
406.66	556.69
406.883	533.69
407.107	562.69
407.331	606.69
407.555	638.69
407.778	647.69
408.002	609.69
408.226	576.69
408.449	567.69
408.673	567.69
408.896	591.69
409.12	621.69
409.344	583.69
409.567	571.69
409.791	524.69
410.014	514.69
410.238	518.69
410.461	524.69
410.685	531.69
410.908	532.69
411.132	564.69
411.355	583.69
411.578	544.69
411.802	527.69
412.025	537.69
412.249	538.69
412.472	540.69
412.695	585.69
412.919	564.69
413.142	520.69
413.365	498.69
413.589	528.69
413.812	496.69
414.035	489.69
414.258	506.69
414.482	499.69
414.705	473.69
414.928	488.69
415.151	522.69
415.374	487.69
415.597	498.69
415.821	483.69
416.044	498.69
416.267	502.69
416.49	516.69
416.713	502.69
416.936	492.69
417.159	490.69
417.382	487.69
417.605	506.69
417.828	478.69
418.051	511.69
418.274	506.69
418.497	500.69
418.72	486.69
418.943	479.69
419.166	501.69
419.389	529.69
419.611	533.69
419.834	517.69
420.057	516.69
420.28	522.69
420.503	486.69
420.726	496.69
420.948	514.69
421.171	545.69
421.394	557.69
421.617	514.69
421.839	512.69
422.062	498.69
422.285	507.69
422.507	552.69
422.73	626.69
422.953	623.69
423.175	546.69
423.398	524.69
423.621	491.69
423.843	542.69
424.066	528.69
424.288	518.69
424.511	544.69
424.733	593.69
424.956	662.69
425.178	604.69
425.401	612.69
425.623	638.69
425.846	548.69
426.068	514.69
426.291	530.69
426.513	529.69
426.735	529.69
426.958	547.69
427.18	634.69
427.402	743.69
427.625	795.69
427.847	664.69
428.069	595.69
428.292	548.69
428.514	517.69
428.736	489.69
428.958	507.69
429.181	483.69
429.403	489.69
429.625	473.69
429.847	518.69
430.069	536.69
430.292	547.69
430.514	508.69
430.736	495.69
430.958	491.69
431.18	479.69
431.402	471.69
431.624	482.69
431.846	456.69
432.068	475.69
432.29	482.69
432.512	463.69
432.734	482.69
432.956	487.69
433.178	480.69
433.4	525.69
433.622	480.69
433.844	465.69
434.066	469.69
434.287	492.69
434.509	478.69
434.731	489.69
434.953	474.69
435.175	503.69
435.397	511.69
435.618	520.69
435.84	564.69
436.062	626.69
436.284	679.69
436.505	575.69
436.727	531.69
436.949	488.69
437.17	495.69
437.392	490.69
437.614	526.69
437.835	509.69
438.057	581.69
438.278	641.69
438.5	650.69
438.721	733.69
438.943	724.69
439.165	574.69
439.386	532.69
439.608	536.69
439.829	514.69
440.05	537.69
440.272	576.69
440.493	548.69
440.715	536.69
440.936	492.69
441.158	485.69
441.379	494.69
441.6	514.69
441.822	527.69
442.043	549.69
442.264	615.69
442.486	636.69
442.707	584.69
442.928	528.69
443.149	526.69
443.371	531.69
443.592	569.69
443.813	661.69
444.034	730.69
444.255	589.69
444.476	532.69
444.698	568.69
444.919	551.69
445.14	667.69
445.361	592.69
445.582	572.69
445.803	607.69
446.024	675.69
446.245	646.69
446.466	627.69
446.687	570.69
446.908	542.69
447.129	505.69
447.35	493.69
447.571	483.69
447.792	476.69
448.013	500.69
448.234	477.69
448.455	535.69
448.675	628.69
448.896	712.69
449.117	613.69
449.338	576.69
449.559	670.69
449.779	766.69
450	598.69
450.221	519.69
450.442	471.69
450.662	474.69
450.883	486.69
451.104	490.69
451.324	476.69
451.545	437.69
451.766	450.69
451.986	428.69
452.207	422.69
452.428	440.69
452.648	439.69
452.869	433.69
453.089	446.69
453.31	462.69
453.53	440.69
453.751	444.69
453.971	437.69
454.192	438.69
454.412	452.69
454.633	455.69
454.853	447.69
455.073	440.69
455.294	473.69
455.514	484.69
455.734	487.69
455.955	452.69
456.175	419.69
456.395	415.69
456.616	422.69
456.836	450.69
457.056	430.69
457.276	438.69
457.497	412.69
457.717	415.69
457.937	440.69
458.157	435.69
458.377	440.69
458.598	441.69
458.818	480.69
459.038	522.69
459.258	548.69
459.478	491.69
459.698	495.69
459.918	475.69
460.138	486.69
460.358	487.69
460.578	500.69
460.798	483.69
461.018	490.69
461.238	492.69
461.458	521.69
461.678	516.69
461.898	514.69
462.118	510.69
462.338	518.69
462.558	536.69
462.777	555.69
462.997	551.69
463.217	556.69
463.437	562.69
463.657	541.69
463.876	554.69
464.096	537.69
464.316	536.69
464.536	551.69
464.755	526.69
464.975	547.69
465.195	555.69
465.414	564.69
465.634	538.69
465.854	492.69
466.073	509.69
466.293	487.69
466.512	486.69
466.732	464.69
466.951	487.69
467.171	452.69
467.391	447.69
467.61	475.69
467.829	464.69
468.049	470.69
468.268	460.69
468.488	476.69
468.707	468.69
468.927	476.69
469.146	439.69
469.365	450.69
469.585	445.69
469.804	459.69
470.023	468.69
470.243	484.69
470.462	474.69
470.681	475.69
470.901	465.69
471.12	480.69
471.339	470.69
471.558	473.69
471.777	485.69
471.997	458.69
472.216	464.69
472.435	471.69
472.654	482.69
472.873	489.69
473.092	453.69
473.311	464.69
473.53	456.69
473.749	463.69
473.968	508.69
474.187	557.69
474.406	571.69
474.625	498.69
474.844	477.69
475.063	494.69
475.282	465.69
475.501	484.69
475.72	480.69
475.939	480.69
476.158	476.69
476.377	487.69
476.596	458.69
476.814	487.69
477.033	486.69
477.252	505.69
477.471	512.69
477.69	516.69
477.908	522.69
478.127	512.69
478.346	508.69
478.564	537.69
478.783	551.69
479.002	534.69
479.22	542.69
479.439	549.69
479.658	543.69
479.876	575.69
480.095	559.69
480.313	592.69
480.532	565.69
480.751	576.69
480.969	566.69
481.188	607.69
481.406	599.69
481.624	568.69
481.843	586.69
482.061	571.69
482.28	556.69
482.498	532.69
482.717	563.69
482.935	569.69
483.153	573.69
483.372	557.69
483.59	567.69
483.808	551.69
484.027	550.69
484.245	541.69
484.463	557.69
484.681	571.69
484.9	568.69
485.118	567.69
485.336	556.69
485.554	578.69
485.772	542.69
485.99	562.69
486.209	563.69
486.427	573.69
486.645	579.69
486.863	589.69
487.081	563.69
487.299	579.69
487.517	588.69
487.735	594.69
487.953	587.69
488.171	576.69
488.389	603.69
488.607	591.69
488.825	589.69
489.043	589.69
489.261	593.69
489.479	604.69
489.696	610.69
489.914	600.69
490.132	600.69
490.35	583.69
490.568	583.69
490.786	623.69
491.003	604.69
491.221	602.69
491.439	628.69
491.657	614.69
491.874	633.69
492.092	637.69
492.31	649.69
492.527	646.69
492.745	642.69
492.963	643.69
493.18	626.69
493.398	648.69
493.615	662.69
493.833	662.69
494.05	655.69
494.268	669.69
494.485	675.69
494.703	651.69
494.92	652.69
495.138	645.69
495.355	671.69
495.573	641.69
495.79	664.69
496.008	684.69
496.225	680.69
496.442	656.69
496.66	669.69
496.877	699.69
497.094	680.69
497.312	728.69
497.529	707.69
497.746	738.69
497.963	744.69
498.181	765.69
498.398	754.69
498.615	782.69
498.832	796.69
499.049	800.69
499.267	849.69
499.484	898.69
499.701	894.69
499.918	939.69
500.135	986.69
500.352	1034.69
500.569	1052.69
500.786	1028.69
501.003	1021.69
501.22	1006.69
501.437	950.69
501.654	932.69
501.871	897.69
