Data from 1978.PennyLincolnUp.Lamp.En5.5.200Scan.071719.P1_HRD10591_16-12-25-864.txt Node
Date: Thu Jul 18 16:12:25 EDT 2019
User: cochatt
Spectrometer: HR+D1059
Trigger mode: 1
Integration Time (sec): 1.000000E-1
Scans to average: 1
Electric dark correction enabled: true
Nonlinearity correction enabled: false
Boxcar width: 0
XAxis mode: Wavelengths
Number of Pixels in Spectrum: 2048
>>>>>Begin Spectral Data<<<<<
223.165	-14.75
223.4	-14.75
223.635	-14.75
223.869	-26.75
224.104	-24.75
224.338	-7.75
224.573	-13.75
224.808	-8.75
225.042	14.25
225.277	-6.75
225.511	2.25
225.746	0.25
225.98	10.25
226.215	12.25
226.449	2.25
226.683	19.25
226.918	15.25
227.152	27.25
227.387	34.25
227.621	45.25
227.856	30.25
228.09	31.25
228.324	45.25
228.559	45.25
228.793	71.25
229.027	89.25
229.262	107.25
229.496	89.25
229.73	130.25
229.964	136.25
230.199	109.25
230.433	113.25
230.667	98.25
230.901	108.25
231.136	95.25
231.37	87.25
231.604	93.25
231.838	100.25
232.072	114.25
232.306	112.25
232.541	130.25
232.775	102.25
233.009	104.25
233.243	112.25
233.477	117.25
233.711	118.25
233.945	115.25
234.179	121.25
234.413	109.25
234.647	112.25
234.881	107.25
235.115	106.25
235.349	113.25
235.583	111.25
235.817	109.25
236.051	123.25
236.285	122.25
236.519	129.25
236.753	125.25
236.987	136.25
237.221	160.25
237.455	203.25
237.689	172.25
237.922	136.25
238.156	122.25
238.39	136.25
238.624	119.25
238.858	122.25
239.091	106.25
239.325	113.25
239.559	112.25
239.793	125.25
240.027	137.25
240.26	114.25
240.494	141.25
240.728	141.25
240.961	130.25
241.195	126.25
241.429	131.25
241.662	115.25
241.896	126.25
242.13	131.25
242.363	132.25
242.597	116.25
242.83	137.25
243.064	124.25
243.298	129.25
243.531	145.25
243.765	132.25
243.998	130.25
244.232	137.25
244.465	140.25
244.699	128.25
244.932	147.25
245.166	126.25
245.399	139.25
245.633	133.25
245.866	138.25
246.099	127.25
246.333	140.25
246.566	134.25
246.8	140.25
247.033	151.25
247.266	155.25
247.5	147.25
247.733	152.25
247.966	177.25
248.2	167.25
248.433	162.25
248.666	157.25
248.899	152.25
249.133	182.25
249.366	204.25
249.599	186.25
249.832	166.25
250.066	176.25
250.299	170.25
250.532	180.25
250.765	192.25
250.998	186.25
251.231	200.25
251.465	192.25
251.698	177.25
251.931	184.25
252.164	203.25
252.397	182.25
252.63	188.25
252.863	177.25
253.096	186.25
253.329	189.25
253.562	186.25
253.795	188.25
254.028	199.25
254.261	201.25
254.494	190.25
254.727	201.25
254.96	227.25
255.193	241.25
255.426	217.25
255.659	221.25
255.892	210.25
256.124	201.25
256.357	218.25
256.59	198.25
256.823	205.25
257.056	189.25
257.289	198.25
257.521	178.25
257.754	200.25
257.987	188.25
258.22	187.25
258.452	202.25
258.685	212.25
258.918	187.25
259.151	199.25
259.383	205.25
259.616	195.25
259.849	212.25
260.081	208.25
260.314	230.25
260.547	225.25
260.779	209.25
261.012	233.25
261.244	206.25
261.477	216.25
261.71	203.25
261.942	215.25
262.175	228.25
262.407	208.25
262.64	180.25
262.872	171.25
263.105	210.25
263.337	196.25
263.57	203.25
263.802	195.25
264.035	184.25
264.267	201.25
264.499	208.25
264.732	202.25
264.964	188.25
265.197	212.25
265.429	210.25
265.661	201.25
265.894	208.25
266.126	203.25
266.358	212.25
266.591	202.25
266.823	197.25
267.055	213.25
267.287	207.25
267.52	225.25
267.752	211.25
267.984	206.25
268.216	192.25
268.448	210.25
268.681	216.25
268.913	234.25
269.145	231.25
269.377	255.25
269.609	248.25
269.841	236.25
270.073	232.25
270.306	243.25
270.538	271.25
270.77	258.25
271.002	260.25
271.234	266.25
271.466	269.25
271.698	271.25
271.93	268.25
272.162	281.25
272.394	276.25
272.626	276.25
272.858	258.25
273.09	265.25
273.322	249.25
273.553	253.25
273.785	245.25
274.017	241.25
274.249	227.25
274.481	231.25
274.713	238.25
274.945	241.25
275.176	237.25
275.408	243.25
275.64	260.25
275.872	229.25
276.104	242.25
276.335	256.25
276.567	264.25
276.799	248.25
277.031	277.25
277.262	276.25
277.494	292.25
277.726	281.25
277.957	278.25
278.189	259.25
278.421	260.25
278.652	245.25
278.884	244.25
279.115	262.25
279.347	242.25
279.579	254.25
279.81	263.25
280.042	258.25
280.273	253.25
280.505	264.25
280.736	253.25
280.968	246.25
281.199	246.25
281.431	259.25
281.662	251.25
281.894	258.25
282.125	247.25
282.356	276.25
282.588	276.25
282.819	273.25
283.051	274.25
283.282	243.25
283.513	262.25
283.745	263.25
283.976	244.25
284.207	263.25
284.439	273.25
284.67	268.25
284.901	254.25
285.132	265.25
285.364	270.25
285.595	252.25
285.826	273.25
286.057	278.25
286.288	254.25
286.52	278.25
286.751	266.25
286.982	294.25
287.213	271.25
287.444	274.25
287.675	261.25
287.906	282.25
288.138	283.25
288.369	279.25
288.6	294.25
288.831	261.25
289.062	264.25
289.293	260.25
289.524	269.25
289.755	276.25
289.986	272.25
290.217	266.25
290.448	270.25
290.679	280.25
290.91	282.25
291.141	278.25
291.371	282.25
291.602	286.25
291.833	274.25
292.064	273.25
292.295	273.25
292.526	286.25
292.757	278.25
292.987	294.25
293.218	270.25
293.449	276.25
293.68	285.25
293.91	274.25
294.141	276.25
294.372	276.25
294.603	282.25
294.833	292.25
295.064	284.25
295.295	300.25
295.525	282.25
295.756	290.25
295.987	280.25
296.217	310.25
296.448	318.25
296.679	289.25
296.909	274.25
297.14	289.25
297.37	261.25
297.601	280.25
297.831	277.25
298.062	280.25
298.292	309.25
298.523	308.25
298.753	285.25
298.984	307.25
299.214	301.25
299.445	301.25
299.675	307.25
299.905	312.25
300.136	307.25
300.366	296.25
300.597	293.25
300.827	302.25
301.057	299.25
301.288	306.25
301.518	327.25
301.748	324.25
301.979	315.25
302.209	331.25
302.439	322.25
302.669	312.25
302.9	331.25
303.13	309.25
303.36	310.25
303.59	312.25
303.82	314.25
304.051	297.25
304.281	293.25
304.511	308.25
304.741	305.25
304.971	312.25
305.201	304.25
305.431	306.25
305.661	334.25
305.891	309.25
306.121	311.25
306.352	309.25
306.582	336.25
306.812	313.25
307.042	324.25
307.272	316.25
307.502	305.25
307.731	325.25
307.961	311.25
308.191	309.25
308.421	317.25
308.651	338.25
308.881	327.25
309.111	331.25
309.341	318.25
309.571	341.25
309.8	347.25
310.03	353.25
310.26	349.25
310.49	348.25
310.72	359.25
310.949	363.25
311.179	348.25
311.409	325.25
311.639	360.25
311.868	363.25
312.098	352.25
312.328	369.25
312.557	374.25
312.787	380.25
313.017	360.25
313.246	366.25
313.476	349.25
313.706	354.25
313.935	349.25
314.165	380.25
314.394	380.25
314.624	379.25
314.853	375.25
315.083	370.25
315.312	352.25
315.542	352.25
315.771	371.25
316.001	367.25
316.23	366.25
316.46	364.25
316.689	365.25
316.919	347.25
317.148	380.25
317.377	365.25
317.607	350.25
317.836	368.25
318.065	359.25
318.295	340.25
318.524	362.25
318.753	336.25
318.983	352.25
319.212	357.25
319.441	358.25
319.67	368.25
319.9	352.25
320.129	370.25
320.358	380.25
320.587	388.25
320.816	348.25
321.046	388.25
321.275	373.25
321.504	384.25
321.733	377.25
321.962	387.25
322.191	396.25
322.42	387.25
322.649	411.25
322.878	416.25
323.108	420.25
323.337	443.25
323.566	462.25
323.795	480.25
324.024	503.25
324.253	636.25
324.482	854.25
324.71	1336.25
324.939	2014.25
325.168	1777.25
325.397	868.25
325.626	596.25
325.855	517.25
326.084	480.25
326.313	477.25
326.542	482.25
326.77	530.25
326.999	591.25
327.228	790.25
327.457	1247.25
327.686	1532.25
327.914	995.25
328.143	642.25
328.372	560.25
328.6	545.25
328.829	519.25
329.058	508.25
329.287	531.25
329.515	488.25
329.744	483.25
329.972	467.25
330.201	488.25
330.43	486.25
330.658	544.25
330.887	561.25
331.115	538.25
331.344	491.25
331.572	462.25
331.801	460.25
332.03	451.25
332.258	449.25
332.486	421.25
332.715	429.25
332.943	438.25
333.172	442.25
333.4	438.25
333.629	443.25
333.857	472.25
334.085	468.25
334.314	469.25
334.542	486.25
334.771	504.25
334.999	467.25
335.227	461.25
335.455	435.25
335.684	462.25
335.912	448.25
336.14	441.25
336.369	466.25
336.597	461.25
336.825	456.25
337.053	442.25
337.281	428.25
337.51	444.25
337.738	430.25
337.966	445.25
338.194	419.25
338.422	442.25
338.65	397.25
338.878	420.25
339.106	405.25
339.334	429.25
339.562	400.25
339.79	404.25
340.018	432.25
340.246	419.25
340.474	444.25
340.702	426.25
340.93	423.25
341.158	399.25
341.386	422.25
341.614	430.25
341.842	411.25
342.07	429.25
342.298	429.25
342.526	407.25
342.754	420.25
342.981	395.25
343.209	400.25
343.437	403.25
343.665	434.25
343.893	412.25
344.12	445.25
344.348	443.25
344.576	433.25
344.804	453.25
345.031	429.25
345.259	433.25
345.487	434.25
345.714	417.25
345.942	418.25
346.17	413.25
346.397	416.25
346.625	419.25
346.853	416.25
347.08	425.25
347.308	413.25
347.535	427.25
347.763	455.25
347.99	424.25
348.218	426.25
348.445	431.25
348.673	420.25
348.9	406.25
349.128	400.25
349.355	377.25
349.583	378.25
349.81	396.25
350.037	387.25
350.265	395.25
350.492	396.25
350.72	401.25
350.947	392.25
351.174	392.25
351.402	396.25
351.629	427.25
351.856	432.25
352.083	414.25
352.311	434.25
352.538	399.25
352.765	414.25
352.992	425.25
353.22	405.25
353.447	413.25
353.674	379.25
353.901	398.25
354.128	424.25
354.355	400.25
354.583	404.25
354.81	386.25
355.037	376.25
355.264	383.25
355.491	387.25
355.718	391.25
355.945	380.25
356.172	387.25
356.399	397.25
356.626	391.25
356.853	374.25
357.08	399.25
357.307	399.25
357.534	397.25
357.761	408.25
357.988	390.25
358.215	376.25
358.441	378.25
358.668	394.25
358.895	385.25
359.122	373.25
359.349	426.25
359.576	400.25
359.802	434.25
360.029	441.25
360.256	469.25
360.483	410.25
360.709	417.25
360.936	404.25
361.163	407.25
361.39	425.25
361.616	406.25
361.843	404.25
362.07	419.25
362.296	412.25
362.523	405.25
362.749	408.25
362.976	409.25
363.203	397.25
363.429	398.25
363.656	393.25
363.882	403.25
364.109	380.25
364.335	393.25
364.562	381.25
364.788	398.25
365.015	412.25
365.241	381.25
365.468	392.25
365.694	424.25
365.92	401.25
366.147	397.25
366.373	396.25
366.599	414.25
366.826	402.25
367.052	397.25
367.278	393.25
367.505	394.25
367.731	408.25
367.957	404.25
368.184	405.25
368.41	398.25
368.636	411.25
368.862	425.25
369.089	415.25
369.315	393.25
369.541	413.25
369.767	413.25
369.993	412.25
370.219	413.25
370.445	410.25
370.672	402.25
370.898	421.25
371.124	430.25
371.35	406.25
371.576	396.25
371.802	394.25
372.028	385.25
372.254	407.25
372.48	410.25
372.706	414.25
372.932	390.25
373.158	421.25
373.384	430.25
373.61	417.25
373.835	407.25
374.061	420.25
374.287	398.25
374.513	413.25
374.739	429.25
374.965	427.25
375.191	417.25
375.416	426.25
375.642	427.25
375.868	409.25
376.094	407.25
376.319	401.25
376.545	420.25
376.771	413.25
376.997	404.25
377.222	393.25
377.448	402.25
377.674	394.25
377.899	426.25
378.125	411.25
378.35	413.25
378.576	417.25
378.802	410.25
379.027	413.25
379.253	424.25
379.478	397.25
379.704	419.25
379.929	416.25
380.155	405.25
380.38	398.25
380.606	426.25
380.831	403.25
381.057	409.25
381.282	417.25
381.507	418.25
381.733	399.25
381.958	421.25
382.184	404.25
382.409	405.25
382.634	426.25
382.86	438.25
383.085	420.25
383.31	411.25
383.535	409.25
383.761	429.25
383.986	432.25
384.211	450.25
384.436	441.25
384.662	447.25
384.887	464.25
385.112	461.25
385.337	422.25
385.562	441.25
385.787	434.25
386.013	448.25
386.238	453.25
386.463	460.25
386.688	465.25
386.913	442.25
387.138	448.25
387.363	461.25
387.588	442.25
387.813	450.25
388.038	465.25
388.263	438.25
388.488	454.25
388.713	447.25
388.938	455.25
389.163	465.25
389.387	474.25
389.612	472.25
389.837	475.25
390.062	452.25
390.287	475.25
390.512	471.25
390.736	468.25
390.961	469.25
391.186	456.25
391.411	472.25
391.636	460.25
391.86	475.25
392.085	490.25
392.31	481.25
392.534	462.25
392.759	464.25
392.984	456.25
393.208	459.25
393.433	481.25
393.658	441.25
393.882	464.25
394.107	467.25
394.331	480.25
394.556	466.25
394.78	477.25
395.005	483.25
395.229	489.25
395.454	482.25
395.678	490.25
395.903	502.25
396.127	519.25
396.352	511.25
396.576	478.25
396.801	486.25
397.025	489.25
397.249	498.25
397.474	492.25
397.698	493.25
397.922	493.25
398.147	501.25
398.371	535.25
398.595	549.25
398.82	519.25
399.044	549.25
399.268	554.25
399.492	556.25
399.717	599.25
399.941	652.25
400.165	662.25
400.389	657.25
400.613	588.25
400.837	578.25
401.062	536.25
401.286	526.25
401.51	516.25
401.734	542.25
401.958	544.25
402.182	546.25
402.406	553.25
402.63	557.25
402.854	542.25
403.078	526.25
403.302	546.25
403.526	565.25
403.75	572.25
403.974	552.25
404.198	534.25
404.422	546.25
404.645	578.25
404.869	579.25
405.093	611.25
405.317	619.25
405.541	671.25
405.765	608.25
405.988	599.25
406.212	588.25
406.436	616.25
406.66	637.25
406.883	588.25
407.107	642.25
407.331	681.25
407.555	732.25
407.778	737.25
408.002	691.25
408.226	632.25
408.449	624.25
408.673	632.25
408.896	658.25
409.12	674.25
409.344	648.25
409.567	595.25
409.791	596.25
410.014	570.25
410.238	565.25
410.461	547.25
410.685	563.25
410.908	577.25
411.132	621.25
411.355	647.25
411.578	612.25
411.802	580.25
412.025	563.25
412.249	568.25
412.472	600.25
412.695	621.25
412.919	610.25
413.142	573.25
413.365	555.25
413.589	554.25
413.812	530.25
414.035	536.25
414.258	552.25
414.482	534.25
414.705	571.25
414.928	535.25
415.151	526.25
415.374	548.25
415.597	528.25
415.821	548.25
416.044	524.25
416.267	519.25
416.49	516.25
416.713	514.25
416.936	527.25
417.159	528.25
417.382	518.25
417.605	511.25
417.828	554.25
418.051	554.25
418.274	534.25
418.497	513.25
418.72	529.25
418.943	537.25
419.166	531.25
419.389	586.25
419.611	554.25
419.834	554.25
420.057	566.25
420.28	538.25
420.503	529.25
420.726	535.25
420.948	580.25
421.171	582.25
421.394	651.25
421.617	583.25
421.839	556.25
422.062	554.25
422.285	537.25
422.507	614.25
422.73	691.25
422.953	664.25
423.175	600.25
423.398	584.25
423.621	546.25
423.843	582.25
424.066	581.25
424.288	570.25
424.511	583.25
424.733	644.25
424.956	724.25
425.178	701.25
425.401	715.25
425.623	718.25
425.846	619.25
426.068	567.25
426.291	595.25
426.513	582.25
426.735	593.25
426.958	629.25
427.18	701.25
427.402	850.25
427.625	929.25
427.847	809.25
428.069	676.25
428.292	608.25
428.514	564.25
428.736	550.25
428.958	553.25
429.181	542.25
429.403	542.25
429.625	573.25
429.847	568.25
430.069	636.25
430.292	665.25
430.514	558.25
430.736	542.25
430.958	540.25
431.18	516.25
431.402	531.25
431.624	510.25
431.846	507.25
432.068	505.25
432.29	524.25
432.512	529.25
432.734	539.25
432.956	521.25
433.178	547.25
433.4	545.25
433.622	525.25
433.844	527.25
434.066	536.25
434.287	539.25
434.509	541.25
434.731	550.25
434.953	560.25
435.175	563.25
435.397	582.25
435.618	588.25
435.84	630.25
436.062	702.25
436.284	785.25
436.505	667.25
436.727	580.25
436.949	574.25
437.17	561.25
437.392	536.25
437.614	574.25
437.835	573.25
438.057	667.25
438.278	759.25
438.5	777.25
438.721	900.25
438.943	804.25
439.165	642.25
439.386	611.25
439.608	589.25
439.829	571.25
440.05	622.25
440.272	652.25
440.493	628.25
440.715	593.25
440.936	555.25
441.158	546.25
441.379	542.25
441.6	570.25
441.822	578.25
442.043	606.25
442.264	694.25
442.486	749.25
442.707	664.25
442.928	590.25
443.149	594.25
443.371	628.25
443.592	661.25
443.813	757.25
444.034	826.25
444.255	666.25
444.476	614.25
444.698	596.25
444.919	599.25
445.14	683.25
445.361	638.25
445.582	646.25
445.803	687.25
446.024	771.25
446.245	786.25
446.466	710.25
446.687	635.25
446.908	582.25
447.129	568.25
447.35	528.25
447.571	516.25
447.792	533.25
448.013	540.25
448.234	547.25
448.455	595.25
448.675	729.25
448.896	842.25
449.117	677.25
449.338	670.25
449.559	774.25
449.779	908.25
450	738.25
450.221	588.25
450.442	536.25
450.662	524.25
450.883	508.25
451.104	542.25
451.324	537.25
451.545	506.25
451.766	496.25
451.986	477.25
452.207	485.25
452.428	479.25
452.648	475.25
452.869	475.25
453.089	485.25
453.31	525.25
453.53	493.25
453.751	484.25
453.971	490.25
454.192	495.25
454.412	482.25
454.633	478.25
454.853	479.25
455.073	500.25
455.294	502.25
455.514	569.25
455.734	553.25
455.955	477.25
456.175	456.25
456.395	456.25
456.616	484.25
456.836	480.25
457.056	458.25
457.276	461.25
457.497	460.25
457.717	447.25
457.937	483.25
458.157	473.25
458.377	476.25
458.598	492.25
458.818	558.25
459.038	624.25
459.258	635.25
459.478	554.25
459.698	537.25
459.918	541.25
460.138	527.25
460.358	538.25
460.578	550.25
460.798	542.25
461.018	544.25
461.238	536.25
461.458	546.25
461.678	546.25
461.898	567.25
462.118	556.25
462.338	551.25
462.558	553.25
462.777	567.25
462.997	582.25
463.217	589.25
463.437	582.25
463.657	580.25
463.876	598.25
464.096	582.25
464.316	577.25
464.536	594.25
464.755	598.25
464.975	593.25
465.195	610.25
465.414	644.25
465.634	602.25
465.854	542.25
466.073	552.25
466.293	537.25
466.512	522.25
466.732	509.25
466.951	506.25
467.171	530.25
467.391	510.25
467.61	525.25
467.829	523.25
468.049	536.25
468.268	501.25
468.488	480.25
468.707	488.25
468.927	485.25
469.146	475.25
469.365	463.25
469.585	486.25
469.804	470.25
470.023	517.25
470.243	506.25
470.462	503.25
470.681	520.25
470.901	531.25
471.12	498.25
471.339	505.25
471.558	506.25
471.777	503.25
471.997	510.25
472.216	516.25
472.435	516.25
472.654	520.25
472.873	510.25
473.092	505.25
473.311	506.25
473.53	537.25
473.749	506.25
473.968	552.25
474.187	625.25
474.406	672.25
474.625	555.25
474.844	533.25
475.063	518.25
475.282	522.25
475.501	526.25
475.72	532.25
475.939	519.25
476.158	504.25
476.377	535.25
476.596	532.25
476.814	529.25
477.033	543.25
477.252	567.25
477.471	540.25
477.69	537.25
477.908	565.25
478.127	556.25
478.346	548.25
478.564	567.25
478.783	583.25
479.002	591.25
479.22	580.25
479.439	608.25
479.658	625.25
479.876	615.25
480.095	605.25
480.313	622.25
480.532	634.25
480.751	618.25
480.969	615.25
481.188	651.25
481.406	696.25
481.624	633.25
481.843	620.25
482.061	615.25
482.28	595.25
482.498	589.25
482.717	618.25
482.935	591.25
483.153	598.25
483.372	600.25
483.59	593.25
483.808	593.25
484.027	584.25
484.245	604.25
484.463	605.25
484.681	616.25
484.9	600.25
485.118	595.25
485.336	595.25
485.554	629.25
485.772	632.25
485.99	606.25
486.209	588.25
486.427	619.25
486.645	636.25
486.863	626.25
487.081	640.25
487.299	640.25
487.517	642.25
487.735	631.25
487.953	637.25
488.171	630.25
488.389	624.25
488.607	638.25
488.825	616.25
489.043	617.25
489.261	648.25
489.479	600.25
489.696	648.25
489.914	646.25
490.132	668.25
490.35	636.25
490.568	648.25
490.786	660.25
491.003	694.25
491.221	683.25
491.439	676.25
491.657	698.25
491.874	685.25
492.092	692.25
492.31	682.25
492.527	699.25
492.745	729.25
492.963	691.25
493.18	695.25
493.398	725.25
493.615	698.25
493.833	712.25
494.05	716.25
494.268	717.25
494.485	732.25
494.703	719.25
494.92	734.25
495.138	721.25
495.355	745.25
495.573	740.25
495.79	739.25
496.008	732.25
496.225	744.25
496.442	768.25
496.66	739.25
496.877	749.25
497.094	753.25
497.312	742.25
497.529	750.25
497.746	818.25
497.963	815.25
498.181	824.25
498.398	825.25
498.615	864.25
498.832	849.25
499.049	883.25
499.267	898.25
499.484	937.25
499.701	983.25
499.918	989.25
500.135	1044.25
500.352	1074.25
500.569	1074.25
500.786	1109.25
501.003	1114.25
501.22	1061.25
501.437	1040.25
501.654	975.25
501.871	975.25
