Data from 1978.PennyLincolnUp.Lamp.En5.5.200Scan.071719.P1_HRD10591_16-13-44-864.txt Node
Date: Thu Jul 18 16:13:44 EDT 2019
User: cochatt
Spectrometer: HR+D1059
Trigger mode: 1
Integration Time (sec): 1.000000E-1
Scans to average: 1
Electric dark correction enabled: true
Nonlinearity correction enabled: false
Boxcar width: 0
XAxis mode: Wavelengths
Number of Pixels in Spectrum: 2048
>>>>>Begin Spectral Data<<<<<
223.165	-22.81
223.4	-22.81
223.635	-22.81
223.869	-16.81
224.104	-20.81
224.338	-16.81
224.573	-14.81
224.808	-7.81
225.042	0.19
225.277	1.19
225.511	-7.81
225.746	4.19
225.98	2.19
226.215	3.19
226.449	9.19
226.683	23.19
226.918	26.19
227.152	38.19
227.387	35.19
227.621	46.19
227.856	59.19
228.09	48.19
228.324	48.19
228.559	73.19
228.793	70.19
229.027	101.19
229.262	116.19
229.496	98.19
229.73	129.19
229.964	152.19
230.199	131.19
230.433	125.19
230.667	101.19
230.901	127.19
231.136	108.19
231.37	122.19
231.604	120.19
231.838	112.19
232.072	109.19
232.306	117.19
232.541	118.19
232.775	117.19
233.009	108.19
233.243	122.19
233.477	123.19
233.711	104.19
233.945	128.19
234.179	125.19
234.413	128.19
234.647	123.19
234.881	122.19
235.115	110.19
235.349	109.19
235.583	110.19
235.817	113.19
236.051	118.19
236.285	124.19
236.519	123.19
236.753	131.19
236.987	146.19
237.221	189.19
237.455	223.19
237.689	198.19
237.922	142.19
238.156	130.19
238.39	140.19
238.624	129.19
238.858	124.19
239.091	119.19
239.325	144.19
239.559	135.19
239.793	124.19
240.027	133.19
240.26	154.19
240.494	164.19
240.728	154.19
240.961	145.19
241.195	132.19
241.429	133.19
241.662	110.19
241.896	129.19
242.13	129.19
242.363	149.19
242.597	142.19
242.83	133.19
243.064	142.19
243.298	126.19
243.531	149.19
243.765	127.19
243.998	143.19
244.232	138.19
244.465	143.19
244.699	145.19
244.932	142.19
245.166	155.19
245.399	142.19
245.633	144.19
245.866	139.19
246.099	132.19
246.333	148.19
246.566	144.19
246.8	150.19
247.033	138.19
247.266	145.19
247.5	165.19
247.733	169.19
247.966	155.19
248.2	169.19
248.433	164.19
248.666	176.19
248.899	181.19
249.133	194.19
249.366	203.19
249.599	208.19
249.832	167.19
250.066	176.19
250.299	170.19
250.532	190.19
250.765	203.19
250.998	222.19
251.231	220.19
251.465	204.19
251.698	211.19
251.931	188.19
252.164	183.19
252.397	185.19
252.63	201.19
252.863	203.19
253.096	198.19
253.329	199.19
253.562	206.19
253.795	212.19
254.028	205.19
254.261	201.19
254.494	232.19
254.727	242.19
254.96	254.19
255.193	257.19
255.426	236.19
255.659	217.19
255.892	227.19
256.124	215.19
256.357	224.19
256.59	193.19
256.823	215.19
257.056	219.19
257.289	202.19
257.521	210.19
257.754	197.19
257.987	201.19
258.22	196.19
258.452	209.19
258.685	203.19
258.918	210.19
259.151	208.19
259.383	203.19
259.616	207.19
259.849	209.19
260.081	222.19
260.314	247.19
260.547	239.19
260.779	221.19
261.012	226.19
261.244	221.19
261.477	217.19
261.71	219.19
261.942	225.19
262.175	230.19
262.407	236.19
262.64	200.19
262.872	212.19
263.105	223.19
263.337	217.19
263.57	222.19
263.802	210.19
264.035	212.19
264.267	225.19
264.499	220.19
264.732	216.19
264.964	211.19
265.197	223.19
265.429	233.19
265.661	193.19
265.894	220.19
266.126	241.19
266.358	214.19
266.591	211.19
266.823	224.19
267.055	229.19
267.287	218.19
267.52	226.19
267.752	212.19
267.984	226.19
268.216	223.19
268.448	237.19
268.681	234.19
268.913	228.19
269.145	256.19
269.377	266.19
269.609	257.19
269.841	260.19
270.073	255.19
270.306	300.19
270.538	293.19
270.77	293.19
271.002	288.19
271.234	289.19
271.466	279.19
271.698	309.19
271.93	303.19
272.162	275.19
272.394	319.19
272.626	286.19
272.858	263.19
273.09	279.19
273.322	262.19
273.553	255.19
273.785	256.19
274.017	259.19
274.249	254.19
274.481	267.19
274.713	285.19
274.945	272.19
275.176	270.19
275.408	268.19
275.64	258.19
275.872	273.19
276.104	261.19
276.335	254.19
276.567	255.19
276.799	270.19
277.031	272.19
277.262	338.19
277.494	311.19
277.726	300.19
277.957	285.19
278.189	273.19
278.421	275.19
278.652	272.19
278.884	268.19
279.115	262.19
279.347	273.19
279.579	276.19
279.81	263.19
280.042	281.19
280.273	284.19
280.505	264.19
280.736	278.19
280.968	276.19
281.199	260.19
281.431	270.19
281.662	268.19
281.894	282.19
282.125	276.19
282.356	296.19
282.588	309.19
282.819	319.19
283.051	283.19
283.282	268.19
283.513	269.19
283.745	282.19
283.976	280.19
284.207	286.19
284.439	282.19
284.67	288.19
284.901	288.19
285.132	286.19
285.364	285.19
285.595	278.19
285.826	247.19
286.057	261.19
286.288	280.19
286.52	294.19
286.751	282.19
286.982	268.19
287.213	292.19
287.444	286.19
287.675	286.19
287.906	288.19
288.138	305.19
288.369	303.19
288.6	292.19
288.831	300.19
289.062	289.19
289.293	294.19
289.524	269.19
289.755	303.19
289.986	295.19
290.217	289.19
290.448	303.19
290.679	293.19
290.91	274.19
291.141	294.19
291.371	295.19
291.602	285.19
291.833	298.19
292.064	282.19
292.295	275.19
292.526	289.19
292.757	307.19
292.987	298.19
293.218	292.19
293.449	295.19
293.68	303.19
293.91	293.19
294.141	298.19
294.372	306.19
294.603	284.19
294.833	287.19
295.064	297.19
295.295	289.19
295.525	278.19
295.756	302.19
295.987	295.19
296.217	319.19
296.448	325.19
296.679	303.19
296.909	311.19
297.14	301.19
297.37	305.19
297.601	308.19
297.831	307.19
298.062	285.19
298.292	298.19
298.523	300.19
298.753	298.19
298.984	320.19
299.214	308.19
299.445	318.19
299.675	313.19
299.905	299.19
300.136	312.19
300.366	329.19
300.597	309.19
300.827	344.19
301.057	333.19
301.288	330.19
301.518	319.19
301.748	320.19
301.979	332.19
302.209	337.19
302.439	354.19
302.669	349.19
302.9	345.19
303.13	320.19
303.36	343.19
303.59	347.19
303.82	322.19
304.051	336.19
304.281	315.19
304.511	320.19
304.741	324.19
304.971	333.19
305.201	331.19
305.431	331.19
305.661	329.19
305.891	331.19
306.121	330.19
306.352	336.19
306.582	342.19
306.812	328.19
307.042	344.19
307.272	332.19
307.502	330.19
307.731	319.19
307.961	304.19
308.191	333.19
308.421	318.19
308.651	322.19
308.881	345.19
309.111	360.19
309.341	342.19
309.571	350.19
309.8	352.19
310.03	364.19
310.26	368.19
310.49	377.19
310.72	374.19
310.949	387.19
311.179	403.19
311.409	377.19
311.639	373.19
311.868	366.19
312.098	380.19
312.328	376.19
312.557	372.19
312.787	402.19
313.017	398.19
313.246	383.19
313.476	370.19
313.706	388.19
313.935	387.19
314.165	398.19
314.394	389.19
314.624	376.19
314.853	379.19
315.083	372.19
315.312	372.19
315.542	360.19
315.771	373.19
316.001	382.19
316.23	380.19
316.46	393.19
316.689	371.19
316.919	378.19
317.148	384.19
317.377	392.19
317.607	388.19
317.836	375.19
318.065	398.19
318.295	356.19
318.524	380.19
318.753	367.19
318.983	372.19
319.212	388.19
319.441	401.19
319.67	391.19
319.9	394.19
320.129	390.19
320.358	375.19
320.587	382.19
320.816	396.19
321.046	408.19
321.275	387.19
321.504	391.19
321.733	399.19
321.962	396.19
322.191	438.19
322.42	426.19
322.649	437.19
322.878	450.19
323.108	431.19
323.337	462.19
323.566	516.19
323.795	510.19
324.024	569.19
324.253	706.19
324.482	965.19
324.71	1553.19
324.939	2358.19
325.168	2025.19
325.397	977.19
325.626	661.19
325.855	561.19
326.084	509.19
326.313	503.19
326.542	522.19
326.77	553.19
326.999	620.19
327.228	917.19
327.457	1397.19
327.686	1766.19
327.914	1110.19
328.143	728.19
328.372	649.19
328.6	570.19
328.829	552.19
329.058	561.19
329.287	549.19
329.515	568.19
329.744	536.19
329.972	506.19
330.201	520.19
330.43	566.19
330.658	577.19
330.887	605.19
331.115	586.19
331.344	518.19
331.572	500.19
331.801	490.19
332.03	476.19
332.258	479.19
332.486	460.19
332.715	464.19
332.943	458.19
333.172	463.19
333.4	461.19
333.629	466.19
333.857	496.19
334.085	507.19
334.314	501.19
334.542	540.19
334.771	543.19
334.999	507.19
335.227	491.19
335.455	477.19
335.684	466.19
335.912	464.19
336.14	446.19
336.369	451.19
336.597	456.19
336.825	497.19
337.053	460.19
337.281	452.19
337.51	453.19
337.738	474.19
337.966	442.19
338.194	443.19
338.422	460.19
338.65	465.19
338.878	432.19
339.106	442.19
339.334	429.19
339.562	430.19
339.79	444.19
340.018	447.19
340.246	432.19
340.474	443.19
340.702	428.19
340.93	427.19
341.158	456.19
341.386	460.19
341.614	421.19
341.842	442.19
342.07	431.19
342.298	432.19
342.526	434.19
342.754	414.19
342.981	421.19
343.209	406.19
343.437	440.19
343.665	449.19
343.893	444.19
344.12	454.19
344.348	461.19
344.576	451.19
344.804	455.19
345.031	449.19
345.259	464.19
345.487	462.19
345.714	441.19
345.942	448.19
346.17	431.19
346.397	441.19
346.625	441.19
346.853	448.19
347.08	422.19
347.308	444.19
347.535	432.19
347.763	440.19
347.99	435.19
348.218	460.19
348.445	446.19
348.673	444.19
348.9	464.19
349.128	434.19
349.355	441.19
349.583	425.19
349.81	414.19
350.037	412.19
350.265	417.19
350.492	408.19
350.72	416.19
350.947	413.19
351.174	421.19
351.402	456.19
351.629	460.19
351.856	440.19
352.083	427.19
352.311	429.19
352.538	442.19
352.765	448.19
352.992	444.19
353.22	421.19
353.447	408.19
353.674	418.19
353.901	392.19
354.128	392.19
354.355	407.19
354.583	415.19
354.81	421.19
355.037	397.19
355.264	412.19
355.491	413.19
355.718	401.19
355.945	407.19
356.172	399.19
356.399	395.19
356.626	402.19
356.853	388.19
357.08	418.19
357.307	417.19
357.534	415.19
357.761	417.19
357.988	403.19
358.215	408.19
358.441	402.19
358.668	416.19
358.895	408.19
359.122	403.19
359.349	417.19
359.576	449.19
359.802	448.19
360.029	487.19
360.256	465.19
360.483	458.19
360.709	434.19
360.936	426.19
361.163	449.19
361.39	424.19
361.616	446.19
361.843	446.19
362.07	429.19
362.296	427.19
362.523	446.19
362.749	438.19
362.976	409.19
363.203	402.19
363.429	425.19
363.656	411.19
363.882	436.19
364.109	424.19
364.335	417.19
364.562	418.19
364.788	402.19
365.015	402.19
365.241	429.19
365.468	425.19
365.694	425.19
365.92	409.19
366.147	434.19
366.373	409.19
366.599	428.19
366.826	416.19
367.052	401.19
367.278	399.19
367.505	413.19
367.731	427.19
367.957	412.19
368.184	416.19
368.41	413.19
368.636	426.19
368.862	422.19
369.089	426.19
369.315	424.19
369.541	414.19
369.767	414.19
369.993	422.19
370.219	409.19
370.445	437.19
370.672	401.19
370.898	428.19
371.124	413.19
371.35	421.19
371.576	420.19
371.802	425.19
372.028	425.19
372.254	414.19
372.48	428.19
372.706	436.19
372.932	426.19
373.158	414.19
373.384	429.19
373.61	405.19
373.835	420.19
374.061	414.19
374.287	443.19
374.513	434.19
374.739	432.19
374.965	436.19
375.191	434.19
375.416	424.19
375.642	427.19
375.868	433.19
376.094	421.19
376.319	430.19
376.545	430.19
376.771	419.19
376.997	417.19
377.222	412.19
377.448	408.19
377.674	434.19
377.899	424.19
378.125	417.19
378.35	415.19
378.576	415.19
378.802	420.19
379.027	410.19
379.253	439.19
379.478	425.19
379.704	415.19
379.929	425.19
380.155	439.19
380.38	418.19
380.606	404.19
380.831	429.19
381.057	416.19
381.282	427.19
381.507	417.19
381.733	438.19
381.958	436.19
382.184	442.19
382.409	459.19
382.634	429.19
382.86	447.19
383.085	415.19
383.31	459.19
383.535	448.19
383.761	438.19
383.986	456.19
384.211	452.19
384.436	440.19
384.662	460.19
384.887	467.19
385.112	473.19
385.337	451.19
385.562	458.19
385.787	472.19
386.013	470.19
386.238	477.19
386.463	478.19
386.688	462.19
386.913	464.19
387.138	455.19
387.363	486.19
387.588	457.19
387.813	462.19
388.038	463.19
388.263	490.19
388.488	474.19
388.713	476.19
388.938	474.19
389.163	482.19
389.387	475.19
389.612	465.19
389.837	472.19
390.062	475.19
390.287	455.19
390.512	478.19
390.736	489.19
390.961	480.19
391.186	478.19
391.411	470.19
391.636	474.19
391.86	498.19
392.085	498.19
392.31	473.19
392.534	479.19
392.759	491.19
392.984	502.19
393.208	490.19
393.433	485.19
393.658	492.19
393.882	467.19
394.107	465.19
394.331	457.19
394.556	485.19
394.78	464.19
395.005	481.19
395.229	488.19
395.454	500.19
395.678	492.19
395.903	526.19
396.127	527.19
396.352	521.19
396.576	508.19
396.801	512.19
397.025	504.19
397.249	515.19
397.474	520.19
397.698	490.19
397.922	531.19
398.147	530.19
398.371	570.19
398.595	551.19
398.82	550.19
399.044	554.19
399.268	583.19
399.492	610.19
399.717	656.19
399.941	662.19
400.165	672.19
400.389	705.19
400.613	659.19
400.837	600.19
401.062	574.19
401.286	569.19
401.51	571.19
401.734	542.19
401.958	569.19
402.182	575.19
402.406	572.19
402.63	580.19
402.854	548.19
403.078	560.19
403.302	581.19
403.526	595.19
403.75	586.19
403.974	596.19
404.198	557.19
404.422	577.19
404.645	591.19
404.869	584.19
405.093	614.19
405.317	690.19
405.541	693.19
405.765	634.19
405.988	612.19
406.212	613.19
406.436	645.19
406.66	659.19
406.883	629.19
407.107	638.19
407.331	684.19
407.555	764.19
407.778	773.19
408.002	702.19
408.226	638.19
408.449	646.19
408.673	653.19
408.896	655.19
409.12	694.19
409.344	700.19
409.567	601.19
409.791	614.19
410.014	581.19
410.238	598.19
410.461	591.19
410.685	579.19
410.908	609.19
411.132	634.19
411.355	670.19
411.578	624.19
411.802	573.19
412.025	561.19
412.249	590.19
412.472	623.19
412.695	664.19
412.919	652.19
413.142	594.19
413.365	586.19
413.589	567.19
413.812	554.19
414.035	542.19
414.258	561.19
414.482	566.19
414.705	550.19
414.928	542.19
415.151	548.19
415.374	544.19
415.597	548.19
415.821	529.19
416.044	551.19
416.267	547.19
416.49	567.19
416.713	523.19
416.936	550.19
417.159	541.19
417.382	549.19
417.605	557.19
417.828	575.19
418.051	566.19
418.274	567.19
418.497	551.19
418.72	543.19
418.943	553.19
419.166	543.19
419.389	606.19
419.611	589.19
419.834	578.19
420.057	584.19
420.28	566.19
420.503	554.19
420.726	568.19
420.948	572.19
421.171	613.19
421.394	625.19
421.617	604.19
421.839	558.19
422.062	554.19
422.285	579.19
422.507	625.19
422.73	731.19
422.953	708.19
423.175	622.19
423.398	594.19
423.621	590.19
423.843	602.19
424.066	619.19
424.288	599.19
424.511	647.19
424.733	672.19
424.956	776.19
425.178	741.19
425.401	716.19
425.623	783.19
425.846	651.19
426.068	615.19
426.291	598.19
426.513	610.19
426.735	631.19
426.958	641.19
427.18	729.19
427.402	883.19
427.625	1030.19
427.847	860.19
428.069	760.19
428.292	676.19
428.514	622.19
428.736	592.19
428.958	567.19
429.181	579.19
429.403	550.19
429.625	582.19
429.847	628.19
430.069	700.19
430.292	664.19
430.514	568.19
430.736	575.19
430.958	543.19
431.18	516.19
431.402	528.19
431.624	530.19
431.846	542.19
432.068	546.19
432.29	536.19
432.512	541.19
432.734	559.19
432.956	544.19
433.178	567.19
433.4	583.19
433.622	520.19
433.844	553.19
434.066	542.19
434.287	548.19
434.509	527.19
434.731	549.19
434.953	566.19
435.175	571.19
435.397	620.19
435.618	588.19
435.84	668.19
436.062	740.19
436.284	836.19
436.505	694.19
436.727	626.19
436.949	583.19
437.17	552.19
437.392	564.19
437.614	580.19
437.835	592.19
438.057	705.19
438.278	825.19
438.5	822.19
438.721	929.19
438.943	898.19
439.165	690.19
439.386	629.19
439.608	623.19
439.829	616.19
440.05	635.19
440.272	680.19
440.493	663.19
440.715	607.19
440.936	590.19
441.158	564.19
441.379	585.19
441.6	579.19
441.822	568.19
442.043	637.19
442.264	782.19
442.486	815.19
442.707	682.19
442.928	638.19
443.149	609.19
443.371	661.19
443.592	683.19
443.813	805.19
444.034	888.19
444.255	729.19
444.476	635.19
444.698	625.19
444.919	620.19
445.14	698.19
445.361	686.19
445.582	660.19
445.803	718.19
446.024	842.19
446.245	841.19
446.466	775.19
446.687	644.19
446.908	605.19
447.129	601.19
447.35	587.19
447.571	578.19
447.792	538.19
448.013	581.19
448.234	570.19
448.455	630.19
448.675	759.19
448.896	924.19
449.117	734.19
449.338	678.19
449.559	825.19
449.779	980.19
450	770.19
450.221	626.19
450.442	561.19
450.662	550.19
450.883	564.19
451.104	580.19
451.324	560.19
451.545	528.19
451.766	519.19
451.986	518.19
452.207	490.19
452.428	470.19
452.648	520.19
452.869	501.19
453.089	510.19
453.31	530.19
453.53	508.19
453.751	511.19
453.971	489.19
454.192	524.19
454.412	507.19
454.633	504.19
454.853	509.19
455.073	501.19
455.294	540.19
455.514	611.19
455.734	558.19
455.955	505.19
456.175	490.19
456.395	481.19
456.616	490.19
456.836	503.19
457.056	480.19
457.276	466.19
457.497	479.19
457.717	504.19
457.937	471.19
458.157	495.19
458.377	505.19
458.598	548.19
458.818	566.19
459.038	664.19
459.258	670.19
459.478	575.19
459.698	560.19
459.918	548.19
460.138	546.19
460.358	537.19
460.578	532.19
460.798	562.19
461.018	570.19
461.238	554.19
461.458	555.19
461.678	557.19
461.898	578.19
462.118	561.19
462.338	563.19
462.558	555.19
462.777	565.19
462.997	600.19
463.217	607.19
463.437	634.19
463.657	602.19
463.876	614.19
464.096	573.19
464.316	607.19
464.536	616.19
464.755	604.19
464.975	574.19
465.195	634.19
465.414	669.19
465.634	631.19
465.854	591.19
466.073	559.19
466.293	565.19
466.512	530.19
466.732	534.19
466.951	525.19
467.171	528.19
467.391	544.19
467.61	534.19
467.829	540.19
468.049	541.19
468.268	549.19
468.488	518.19
468.707	506.19
468.927	514.19
469.146	514.19
469.365	526.19
469.585	520.19
469.804	520.19
470.023	519.19
470.243	544.19
470.462	565.19
470.681	566.19
470.901	538.19
471.12	528.19
471.339	522.19
471.558	547.19
471.777	534.19
471.997	530.19
472.216	540.19
472.435	569.19
472.654	541.19
472.873	553.19
473.092	520.19
473.311	540.19
473.53	531.19
473.749	545.19
473.968	569.19
474.187	710.19
474.406	703.19
474.625	601.19
474.844	540.19
475.063	551.19
475.282	526.19
475.501	542.19
475.72	523.19
475.939	518.19
476.158	530.19
476.377	547.19
476.596	531.19
476.814	548.19
477.033	547.19
477.252	556.19
477.471	569.19
477.69	580.19
477.908	577.19
478.127	585.19
478.346	586.19
478.564	603.19
478.783	581.19
479.002	591.19
479.22	599.19
479.439	613.19
479.658	634.19
479.876	633.19
480.095	661.19
480.313	658.19
480.532	676.19
480.751	641.19
480.969	676.19
481.188	697.19
481.406	756.19
481.624	692.19
481.843	646.19
482.061	631.19
482.28	610.19
482.498	617.19
482.717	601.19
482.935	622.19
483.153	632.19
483.372	602.19
483.59	592.19
483.808	600.19
484.027	616.19
484.245	629.19
484.463	638.19
484.681	631.19
484.9	625.19
485.118	638.19
485.336	646.19
485.554	632.19
485.772	668.19
485.99	642.19
486.209	648.19
486.427	647.19
486.645	638.19
486.863	664.19
487.081	682.19
487.299	670.19
487.517	651.19
487.735	646.19
487.953	665.19
488.171	646.19
488.389	668.19
488.607	669.19
488.825	656.19
489.043	653.19
489.261	676.19
489.479	665.19
489.696	681.19
489.914	695.19
490.132	679.19
490.35	685.19
490.568	689.19
490.786	680.19
491.003	680.19
491.221	726.19
491.439	715.19
491.657	727.19
491.874	725.19
492.092	753.19
492.31	754.19
492.527	737.19
492.745	744.19
492.963	748.19
493.18	738.19
493.398	738.19
493.615	743.19
493.833	764.19
494.05	771.19
494.268	754.19
494.485	764.19
494.703	746.19
494.92	772.19
495.138	760.19
495.355	778.19
495.573	782.19
495.79	798.19
496.008	792.19
496.225	781.19
496.442	792.19
496.66	796.19
496.877	782.19
497.094	761.19
497.312	791.19
497.529	792.19
497.746	817.19
497.963	836.19
498.181	852.19
498.398	856.19
498.615	882.19
498.832	900.19
499.049	900.19
499.267	936.19
499.484	966.19
499.701	994.19
499.918	1041.19
500.135	1085.19
500.352	1103.19
500.569	1120.19
500.786	1137.19
501.003	1167.19
501.22	1126.19
501.437	1076.19
501.654	1029.19
501.871	987.19
