Data from 1978.PennyLincolnUp.Lamp.En5.5.200Scan.071719.P1_HRD10591_16-14-17-863.txt Node
Date: Thu Jul 18 16:14:17 EDT 2019
User: cochatt
Spectrometer: HR+D1059
Trigger mode: 1
Integration Time (sec): 1.000000E-1
Scans to average: 1
Electric dark correction enabled: true
Nonlinearity correction enabled: false
Boxcar width: 0
XAxis mode: Wavelengths
Number of Pixels in Spectrum: 2048
>>>>>Begin Spectral Data<<<<<
223.165	-21.31
223.4	-21.31
223.635	-21.31
223.869	-5.31
224.104	-10.31
224.338	-9.31
224.573	1.69
224.808	-14.31
225.042	3.69
225.277	-11.31
225.511	-7.31
225.746	1.69
225.98	-1.31
226.215	-8.31
226.449	1.69
226.683	25.69
226.918	33.69
227.152	20.69
227.387	55.69
227.621	41.69
227.856	39.69
228.09	39.69
228.324	42.69
228.559	59.69
228.793	68.69
229.027	107.69
229.262	112.69
229.496	122.69
229.73	142.69
229.964	159.69
230.199	123.69
230.433	107.69
230.667	113.69
230.901	109.69
231.136	102.69
231.37	106.69
231.604	120.69
231.838	114.69
232.072	95.69
232.306	117.69
232.541	125.69
232.775	103.69
233.009	126.69
233.243	115.69
233.477	116.69
233.711	111.69
233.945	119.69
234.179	118.69
234.413	120.69
234.647	116.69
234.881	112.69
235.115	117.69
235.349	130.69
235.583	125.69
235.817	123.69
236.051	124.69
236.285	121.69
236.519	129.69
236.753	123.69
236.987	136.69
237.221	177.69
237.455	232.69
237.689	190.69
237.922	141.69
238.156	138.69
238.39	125.69
238.624	127.69
238.858	113.69
239.091	132.69
239.325	126.69
239.559	121.69
239.793	126.69
240.027	129.69
240.26	143.69
240.494	150.69
240.728	153.69
240.961	132.69
241.195	141.69
241.429	121.69
241.662	147.69
241.896	138.69
242.13	138.69
242.363	142.69
242.597	128.69
242.83	134.69
243.064	128.69
243.298	140.69
243.531	137.69
243.765	138.69
243.998	138.69
244.232	141.69
244.465	143.69
244.699	149.69
244.932	140.69
245.166	143.69
245.399	142.69
245.633	154.69
245.866	143.69
246.099	135.69
246.333	135.69
246.566	149.69
246.8	131.69
247.033	159.69
247.266	149.69
247.5	155.69
247.733	149.69
247.966	148.69
248.2	174.69
248.433	158.69
248.666	151.69
248.899	169.69
249.133	183.69
249.366	202.69
249.599	186.69
249.832	166.69
250.066	164.69
250.299	187.69
250.532	193.69
250.765	182.69
250.998	199.69
251.231	200.69
251.465	200.69
251.698	211.69
251.931	197.69
252.164	190.69
252.397	173.69
252.63	180.69
252.863	189.69
253.096	214.69
253.329	220.69
253.562	221.69
253.795	200.69
254.028	215.69
254.261	218.69
254.494	222.69
254.727	230.69
254.96	260.69
255.193	263.69
255.426	223.69
255.659	220.69
255.892	216.69
256.124	221.69
256.357	211.69
256.59	210.69
256.823	217.69
257.056	202.69
257.289	206.69
257.521	190.69
257.754	214.69
257.987	219.69
258.22	204.69
258.452	200.69
258.685	198.69
258.918	194.69
259.151	200.69
259.383	206.69
259.616	193.69
259.849	197.69
260.081	203.69
260.314	222.69
260.547	260.69
260.779	228.69
261.012	222.69
261.244	227.69
261.477	214.69
261.71	213.69
261.942	236.69
262.175	214.69
262.407	212.69
262.64	222.69
262.872	223.69
263.105	206.69
263.337	214.69
263.57	219.69
263.802	204.69
264.035	208.69
264.267	203.69
264.499	191.69
264.732	206.69
264.964	198.69
265.197	204.69
265.429	213.69
265.661	214.69
265.894	211.69
266.126	204.69
266.358	210.69
266.591	201.69
266.823	222.69
267.055	205.69
267.287	222.69
267.52	214.69
267.752	217.69
267.984	230.69
268.216	224.69
268.448	209.69
268.681	230.69
268.913	253.69
269.145	270.69
269.377	256.69
269.609	261.69
269.841	251.69
270.073	269.69
270.306	289.69
270.538	309.69
270.77	286.69
271.002	290.69
271.234	283.69
271.466	294.69
271.698	292.69
271.93	310.69
272.162	305.69
272.394	299.69
272.626	273.69
272.858	278.69
273.09	289.69
273.322	264.69
273.553	268.69
273.785	261.69
274.017	249.69
274.249	266.69
274.481	242.69
274.713	264.69
274.945	259.69
275.176	263.69
275.408	256.69
275.64	256.69
275.872	262.69
276.104	233.69
276.335	278.69
276.567	273.69
276.799	284.69
277.031	291.69
277.262	300.69
277.494	311.69
277.726	305.69
277.957	269.69
278.189	273.69
278.421	261.69
278.652	267.69
278.884	270.69
279.115	245.69
279.347	257.69
279.579	265.69
279.81	255.69
280.042	264.69
280.273	261.69
280.505	273.69
280.736	259.69
280.968	252.69
281.199	269.69
281.431	272.69
281.662	254.69
281.894	260.69
282.125	267.69
282.356	273.69
282.588	315.69
282.819	295.69
283.051	276.69
283.282	278.69
283.513	261.69
283.745	268.69
283.976	276.69
284.207	277.69
284.439	277.69
284.67	295.69
284.901	263.69
285.132	276.69
285.364	255.69
285.595	279.69
285.826	258.69
286.057	278.69
286.288	279.69
286.52	274.69
286.751	287.69
286.982	244.69
287.213	279.69
287.444	277.69
287.675	288.69
287.906	283.69
288.138	312.69
288.369	308.69
288.6	288.69
288.831	292.69
289.062	278.69
289.293	269.69
289.524	286.69
289.755	300.69
289.986	269.69
290.217	296.69
290.448	283.69
290.679	289.69
290.91	282.69
291.141	278.69
291.371	273.69
291.602	279.69
291.833	294.69
292.064	282.69
292.295	296.69
292.526	269.69
292.757	300.69
292.987	289.69
293.218	290.69
293.449	292.69
293.68	305.69
293.91	285.69
294.141	278.69
294.372	280.69
294.603	289.69
294.833	297.69
295.064	279.69
295.295	282.69
295.525	292.69
295.756	285.69
295.987	296.69
296.217	323.69
296.448	329.69
296.679	314.69
296.909	302.69
297.14	299.69
297.37	305.69
297.601	317.69
297.831	293.69
298.062	291.69
298.292	311.69
298.523	300.69
298.753	311.69
298.984	302.69
299.214	309.69
299.445	298.69
299.675	307.69
299.905	310.69
300.136	312.69
300.366	313.69
300.597	318.69
300.827	318.69
301.057	301.69
301.288	312.69
301.518	318.69
301.748	321.69
301.979	321.69
302.209	322.69
302.439	333.69
302.669	325.69
302.9	312.69
303.13	311.69
303.36	322.69
303.59	336.69
303.82	318.69
304.051	350.69
304.281	333.69
304.511	323.69
304.741	330.69
304.971	312.69
305.201	337.69
305.431	327.69
305.661	329.69
305.891	338.69
306.121	342.69
306.352	309.69
306.582	325.69
306.812	331.69
307.042	326.69
307.272	318.69
307.502	321.69
307.731	322.69
307.961	341.69
308.191	329.69
308.421	327.69
308.651	324.69
308.881	351.69
309.111	339.69
309.341	334.69
309.571	346.69
309.8	345.69
310.03	369.69
310.26	368.69
310.49	363.69
310.72	371.69
310.949	381.69
311.179	385.69
311.409	389.69
311.639	371.69
311.868	377.69
312.098	363.69
312.328	375.69
312.557	397.69
312.787	405.69
313.017	403.69
313.246	384.69
313.476	364.69
313.706	385.69
313.935	360.69
314.165	409.69
314.394	392.69
314.624	400.69
314.853	383.69
315.083	365.69
315.312	379.69
315.542	383.69
315.771	354.69
316.001	360.69
316.23	371.69
316.46	367.69
316.689	358.69
316.919	388.69
317.148	385.69
317.377	392.69
317.607	374.69
317.836	382.69
318.065	386.69
318.295	375.69
318.524	388.69
318.753	385.69
318.983	385.69
319.212	391.69
319.441	388.69
319.67	397.69
319.9	381.69
320.129	378.69
320.358	382.69
320.587	400.69
320.816	374.69
321.046	396.69
321.275	384.69
321.504	397.69
321.733	401.69
321.962	424.69
322.191	439.69
322.42	435.69
322.649	441.69
322.878	458.69
323.108	447.69
323.337	461.69
323.566	503.69
323.795	524.69
324.024	563.69
324.253	669.69
324.482	998.69
324.71	1616.69
324.939	2424.69
325.168	2112.69
325.397	989.69
325.626	668.69
325.855	536.69
326.084	523.69
326.313	479.69
326.542	513.69
326.77	549.69
326.999	673.69
327.228	942.69
327.457	1444.69
327.686	1835.69
327.914	1149.69
328.143	714.69
328.372	636.69
328.6	584.69
328.829	571.69
329.058	586.69
329.287	571.69
329.515	555.69
329.744	526.69
329.972	523.69
330.201	502.69
330.43	561.69
330.658	567.69
330.887	599.69
331.115	589.69
331.344	523.69
331.572	499.69
331.801	484.69
332.03	482.69
332.258	478.69
332.486	449.69
332.715	469.69
332.943	458.69
333.172	460.69
333.4	458.69
333.629	478.69
333.857	485.69
334.085	481.69
334.314	527.69
334.542	558.69
334.771	571.69
334.999	503.69
335.227	474.69
335.455	464.69
335.684	469.69
335.912	447.69
336.14	449.69
336.369	473.69
336.597	484.69
336.825	452.69
337.053	458.69
337.281	468.69
337.51	435.69
337.738	467.69
337.966	461.69
338.194	441.69
338.422	440.69
338.65	450.69
338.878	445.69
339.106	439.69
339.334	429.69
339.562	454.69
339.79	429.69
340.018	443.69
340.246	423.69
340.474	439.69
340.702	441.69
340.93	433.69
341.158	452.69
341.386	432.69
341.614	451.69
341.842	468.69
342.07	401.69
342.298	445.69
342.526	437.69
342.754	432.69
342.981	426.69
343.209	433.69
343.437	417.69
343.665	433.69
343.893	463.69
344.12	450.69
344.348	441.69
344.576	462.69
344.804	453.69
345.031	466.69
345.259	461.69
345.487	450.69
345.714	457.69
345.942	447.69
346.17	447.69
346.397	419.69
346.625	421.69
346.853	437.69
347.08	405.69
347.308	440.69
347.535	445.69
347.763	435.69
347.99	439.69
348.218	443.69
348.445	429.69
348.673	431.69
348.9	435.69
349.128	425.69
349.355	421.69
349.583	405.69
349.81	400.69
350.037	405.69
350.265	407.69
350.492	414.69
350.72	421.69
350.947	419.69
351.174	415.69
351.402	441.69
351.629	424.69
351.856	418.69
352.083	446.69
352.311	422.69
352.538	427.69
352.765	442.69
352.992	449.69
353.22	426.69
353.447	425.69
353.674	427.69
353.901	399.69
354.128	403.69
354.355	385.69
354.583	424.69
354.81	411.69
355.037	389.69
355.264	381.69
355.491	369.69
355.718	417.69
355.945	414.69
356.172	389.69
356.399	396.69
356.626	386.69
356.853	411.69
357.08	403.69
357.307	400.69
357.534	388.69
357.761	427.69
357.988	405.69
358.215	396.69
358.441	411.69
358.668	392.69
358.895	409.69
359.122	411.69
359.349	407.69
359.576	417.69
359.802	447.69
360.029	460.69
360.256	475.69
360.483	468.69
360.709	460.69
360.936	422.69
361.163	455.69
361.39	421.69
361.616	427.69
361.843	417.69
362.07	448.69
362.296	437.69
362.523	430.69
362.749	423.69
362.976	438.69
363.203	426.69
363.429	419.69
363.656	425.69
363.882	404.69
364.109	408.69
364.335	422.69
364.562	435.69
364.788	405.69
365.015	409.69
365.241	405.69
365.468	434.69
365.694	433.69
365.92	439.69
366.147	412.69
366.373	404.69
366.599	411.69
366.826	396.69
367.052	415.69
367.278	426.69
367.505	431.69
367.731	421.69
367.957	398.69
368.184	415.69
368.41	417.69
368.636	406.69
368.862	425.69
369.089	422.69
369.315	427.69
369.541	409.69
369.767	441.69
369.993	425.69
370.219	423.69
370.445	410.69
370.672	418.69
370.898	411.69
371.124	405.69
371.35	417.69
371.576	411.69
371.802	413.69
372.028	412.69
372.254	412.69
372.48	438.69
372.706	419.69
372.932	449.69
373.158	437.69
373.384	421.69
373.61	427.69
373.835	417.69
374.061	428.69
374.287	429.69
374.513	411.69
374.739	434.69
374.965	421.69
375.191	417.69
375.416	416.69
375.642	429.69
375.868	423.69
376.094	410.69
376.319	419.69
376.545	420.69
376.771	409.69
376.997	400.69
377.222	411.69
377.448	421.69
377.674	419.69
377.899	424.69
378.125	408.69
378.35	411.69
378.576	411.69
378.802	405.69
379.027	427.69
379.253	433.69
379.478	445.69
379.704	422.69
379.929	413.69
380.155	421.69
380.38	414.69
380.606	405.69
380.831	409.69
381.057	418.69
381.282	429.69
381.507	427.69
381.733	421.69
381.958	416.69
382.184	426.69
382.409	431.69
382.634	437.69
382.86	437.69
383.085	427.69
383.31	444.69
383.535	438.69
383.761	461.69
383.986	450.69
384.211	459.69
384.436	450.69
384.662	446.69
384.887	447.69
385.112	451.69
385.337	471.69
385.562	459.69
385.787	461.69
386.013	484.69
386.238	470.69
386.463	464.69
386.688	473.69
386.913	442.69
387.138	445.69
387.363	470.69
387.588	468.69
387.813	492.69
388.038	471.69
388.263	467.69
388.488	481.69
388.713	449.69
388.938	461.69
389.163	452.69
389.387	459.69
389.612	462.69
389.837	481.69
390.062	468.69
390.287	457.69
390.512	476.69
390.736	470.69
390.961	466.69
391.186	469.69
391.411	444.69
391.636	488.69
391.86	471.69
392.085	484.69
392.31	490.69
392.534	481.69
392.759	489.69
392.984	481.69
393.208	479.69
393.433	478.69
393.658	474.69
393.882	472.69
394.107	478.69
394.331	474.69
394.556	471.69
394.78	470.69
395.005	500.69
395.229	484.69
395.454	486.69
395.678	487.69
395.903	505.69
396.127	532.69
396.352	525.69
396.576	504.69
396.801	495.69
397.025	492.69
397.249	512.69
397.474	516.69
397.698	511.69
397.922	529.69
398.147	544.69
398.371	559.69
398.595	515.69
398.82	557.69
399.044	550.69
399.268	547.69
399.492	593.69
399.717	623.69
399.941	661.69
400.165	687.69
400.389	686.69
400.613	619.69
400.837	589.69
401.062	581.69
401.286	557.69
401.51	565.69
401.734	535.69
401.958	539.69
402.182	565.69
402.406	595.69
402.63	575.69
402.854	567.69
403.078	559.69
403.302	583.69
403.526	552.69
403.75	565.69
403.974	558.69
404.198	584.69
404.422	586.69
404.645	589.69
404.869	597.69
405.093	611.69
405.317	669.69
405.541	683.69
405.765	645.69
405.988	595.69
406.212	614.69
406.436	630.69
406.66	631.69
406.883	638.69
407.107	645.69
407.331	695.69
407.555	739.69
407.778	759.69
408.002	694.69
408.226	637.69
408.449	650.69
408.673	622.69
408.896	667.69
409.12	693.69
409.344	683.69
409.567	609.69
409.791	585.69
410.014	612.69
410.238	568.69
410.461	605.69
410.685	620.69
410.908	602.69
411.132	647.69
411.355	661.69
411.578	646.69
411.802	579.69
412.025	602.69
412.249	596.69
412.472	615.69
412.695	654.69
412.919	647.69
413.142	613.69
413.365	569.69
413.589	565.69
413.812	528.69
414.035	537.69
414.258	541.69
414.482	556.69
414.705	541.69
414.928	537.69
415.151	547.69
415.374	546.69
415.597	552.69
415.821	508.69
416.044	543.69
416.267	539.69
416.49	535.69
416.713	525.69
416.936	525.69
417.159	566.69
417.382	567.69
417.605	570.69
417.828	553.69
418.051	586.69
418.274	567.69
418.497	530.69
418.72	538.69
418.943	541.69
419.166	539.69
419.389	616.69
419.611	587.69
419.834	559.69
420.057	562.69
420.28	570.69
420.503	559.69
420.726	554.69
420.948	571.69
421.171	638.69
421.394	655.69
421.617	598.69
421.839	561.69
422.062	570.69
422.285	568.69
422.507	647.69
422.73	734.69
422.953	701.69
423.175	608.69
423.398	604.69
423.621	568.69
423.843	607.69
424.066	603.69
424.288	619.69
424.511	637.69
424.733	687.69
424.956	789.69
425.178	749.69
425.401	762.69
425.623	755.69
425.846	653.69
426.068	607.69
426.291	590.69
426.513	595.69
426.735	631.69
426.958	656.69
427.18	732.69
427.402	884.69
427.625	1018.69
427.847	871.69
428.069	737.69
428.292	646.69
428.514	602.69
428.736	594.69
428.958	585.69
429.181	535.69
429.403	558.69
429.625	567.69
429.847	594.69
430.069	675.69
430.292	688.69
430.514	583.69
430.736	580.69
430.958	546.69
431.18	554.69
431.402	558.69
431.624	523.69
431.846	546.69
432.068	540.69
432.29	525.69
432.512	525.69
432.734	525.69
432.956	541.69
433.178	553.69
433.4	551.69
433.622	539.69
433.844	549.69
434.066	541.69
434.287	521.69
434.509	554.69
434.731	558.69
434.953	566.69
435.175	575.69
435.397	615.69
435.618	609.69
435.84	669.69
436.062	766.69
436.284	849.69
436.505	707.69
436.727	610.69
436.949	559.69
437.17	574.69
437.392	555.69
437.614	591.69
437.835	607.69
438.057	710.69
438.278	833.69
438.5	850.69
438.721	949.69
438.943	888.69
439.165	688.69
439.386	617.69
439.608	619.69
439.829	604.69
440.05	653.69
440.272	705.69
440.493	659.69
440.715	580.69
440.936	577.69
441.158	583.69
441.379	569.69
441.6	589.69
441.822	619.69
442.043	674.69
442.264	757.69
442.486	805.69
442.707	696.69
442.928	621.69
443.149	627.69
443.371	653.69
443.592	716.69
443.813	794.69
444.034	868.69
444.255	728.69
444.476	627.69
444.698	617.69
444.919	609.69
445.14	709.69
445.361	656.69
445.582	640.69
445.803	733.69
446.024	837.69
446.245	868.69
446.466	766.69
446.687	687.69
446.908	604.69
447.129	599.69
447.35	570.69
447.571	545.69
447.792	555.69
448.013	561.69
448.234	558.69
448.455	633.69
448.675	781.69
448.896	892.69
449.117	757.69
449.338	726.69
449.559	840.69
449.779	950.69
450	733.69
450.221	617.69
450.442	577.69
450.662	546.69
450.883	561.69
451.104	585.69
451.324	561.69
451.545	527.69
451.766	532.69
451.986	517.69
452.207	509.69
452.428	513.69
452.648	511.69
452.869	498.69
453.089	521.69
453.31	519.69
453.53	500.69
453.751	491.69
453.971	506.69
454.192	535.69
454.412	510.69
454.633	497.69
454.853	505.69
455.073	512.69
455.294	537.69
455.514	603.69
455.734	586.69
455.955	520.69
456.175	502.69
456.395	473.69
456.616	479.69
456.836	470.69
457.056	480.69
457.276	473.69
457.497	483.69
457.717	474.69
457.937	492.69
458.157	493.69
458.377	502.69
458.598	536.69
458.818	570.69
459.038	662.69
459.258	682.69
459.478	598.69
459.698	545.69
459.918	541.69
460.138	527.69
460.358	528.69
460.578	551.69
460.798	541.69
461.018	567.69
461.238	552.69
461.458	533.69
461.678	553.69
461.898	540.69
462.118	546.69
462.338	565.69
462.558	582.69
462.777	585.69
462.997	601.69
463.217	597.69
463.437	594.69
463.657	597.69
463.876	577.69
464.096	609.69
464.316	602.69
464.536	603.69
464.755	590.69
464.975	588.69
465.195	630.69
465.414	685.69
465.634	644.69
465.854	575.69
466.073	553.69
466.293	558.69
466.512	517.69
466.732	513.69
466.951	527.69
467.171	513.69
467.391	521.69
467.61	535.69
467.829	536.69
468.049	523.69
468.268	550.69
468.488	521.69
468.707	517.69
468.927	513.69
469.146	484.69
469.365	492.69
469.585	492.69
469.804	502.69
470.023	525.69
470.243	541.69
470.462	536.69
470.681	523.69
470.901	556.69
471.12	541.69
471.339	541.69
471.558	532.69
471.777	528.69
471.997	527.69
472.216	511.69
472.435	557.69
472.654	555.69
472.873	532.69
473.092	521.69
473.311	505.69
473.53	525.69
473.749	537.69
473.968	599.69
474.187	674.69
474.406	716.69
474.625	572.69
474.844	541.69
475.063	527.69
475.282	518.69
475.501	526.69
475.72	531.69
475.939	536.69
476.158	557.69
476.377	527.69
476.596	533.69
476.814	546.69
477.033	553.69
477.252	552.69
477.471	566.69
477.69	568.69
477.908	571.69
478.127	563.69
478.346	570.69
478.564	587.69
478.783	585.69
479.002	595.69
479.22	574.69
479.439	639.69
479.658	635.69
479.876	595.69
480.095	618.69
480.313	667.69
480.532	655.69
480.751	649.69
480.969	672.69
481.188	708.69
481.406	735.69
481.624	659.69
481.843	651.69
482.061	611.69
482.28	635.69
482.498	615.69
482.717	621.69
482.935	631.69
483.153	615.69
483.372	616.69
483.59	614.69
483.808	621.69
484.027	621.69
484.245	631.69
484.463	629.69
484.681	620.69
484.9	626.69
485.118	618.69
485.336	637.69
485.554	659.69
485.772	651.69
485.99	641.69
486.209	635.69
486.427	618.69
486.645	649.69
486.863	663.69
487.081	675.69
487.299	641.69
487.517	648.69
487.735	641.69
487.953	638.69
488.171	675.69
488.389	655.69
488.607	664.69
488.825	673.69
489.043	641.69
489.261	689.69
489.479	671.69
489.696	648.69
489.914	681.69
490.132	690.69
490.35	670.69
490.568	693.69
490.786	684.69
491.003	695.69
491.221	714.69
491.439	725.69
491.657	713.69
491.874	760.69
492.092	746.69
492.31	739.69
492.527	737.69
492.745	744.69
492.963	758.69
493.18	753.69
493.398	755.69
493.615	741.69
493.833	740.69
494.05	773.69
494.268	745.69
494.485	769.69
494.703	762.69
494.92	758.69
495.138	769.69
495.355	749.69
495.573	767.69
495.79	765.69
496.008	771.69
496.225	782.69
496.442	785.69
496.66	771.69
496.877	789.69
497.094	793.69
497.312	804.69
497.529	819.69
497.746	812.69
497.963	814.69
498.181	862.69
498.398	873.69
498.615	877.69
498.832	885.69
499.049	923.69
499.267	941.69
499.484	977.69
499.701	983.69
499.918	1009.69
500.135	1100.69
500.352	1097.69
500.569	1117.69
500.786	1119.69
501.003	1118.69
501.22	1088.69
501.437	1083.69
501.654	1033.69
501.871	1004.69
