Data from 1978.PennyLincolnUp.Lamp.En5.5.200Scan.071719.P1_HRD10591_16-12-46-864.txt Node
Date: Thu Jul 18 16:12:46 EDT 2019
User: cochatt
Spectrometer: HR+D1059
Trigger mode: 1
Integration Time (sec): 1.000000E-1
Scans to average: 1
Electric dark correction enabled: true
Nonlinearity correction enabled: false
Boxcar width: 0
XAxis mode: Wavelengths
Number of Pixels in Spectrum: 2048
>>>>>Begin Spectral Data<<<<<
223.165	-23.75
223.4	-23.75
223.635	-23.75
223.869	-15.75
224.104	-9.75
224.338	-8.75
224.573	-1.75
224.808	-16.75
225.042	-0.75
225.277	-14.75
225.511	-7.75
225.746	-4.75
225.98	7.25
226.215	15.25
226.449	20.25
226.683	7.25
226.918	19.25
227.152	35.25
227.387	40.25
227.621	52.25
227.856	53.25
228.09	43.25
228.324	51.25
228.559	74.25
228.793	95.25
229.027	105.25
229.262	101.25
229.496	93.25
229.73	110.25
229.964	154.25
230.199	115.25
230.433	111.25
230.667	116.25
230.901	115.25
231.136	101.25
231.37	121.25
231.604	125.25
231.838	121.25
232.072	120.25
232.306	114.25
232.541	112.25
232.775	115.25
233.009	113.25
233.243	121.25
233.477	109.25
233.711	112.25
233.945	126.25
234.179	126.25
234.413	111.25
234.647	110.25
234.881	109.25
235.115	119.25
235.349	123.25
235.583	120.25
235.817	119.25
236.051	137.25
236.285	144.25
236.519	132.25
236.753	138.25
236.987	153.25
237.221	187.25
237.455	227.25
237.689	176.25
237.922	136.25
238.156	125.25
238.39	131.25
238.624	131.25
238.858	123.25
239.091	127.25
239.325	117.25
239.559	122.25
239.793	131.25
240.027	148.25
240.26	129.25
240.494	159.25
240.728	133.25
240.961	132.25
241.195	144.25
241.429	138.25
241.662	153.25
241.896	139.25
242.13	139.25
242.363	123.25
242.597	149.25
242.83	114.25
243.064	137.25
243.298	149.25
243.531	130.25
243.765	147.25
243.998	146.25
244.232	133.25
244.465	129.25
244.699	134.25
244.932	144.25
245.166	149.25
245.399	170.25
245.633	147.25
245.866	132.25
246.099	149.25
246.333	135.25
246.566	133.25
246.8	147.25
247.033	158.25
247.266	133.25
247.5	148.25
247.733	159.25
247.966	164.25
248.2	169.25
248.433	162.25
248.666	165.25
248.899	174.25
249.133	194.25
249.366	176.25
249.599	191.25
249.832	164.25
250.066	177.25
250.299	176.25
250.532	172.25
250.765	181.25
250.998	212.25
251.231	203.25
251.465	209.25
251.698	195.25
251.931	189.25
252.164	169.25
252.397	185.25
252.63	185.25
252.863	193.25
253.096	194.25
253.329	213.25
253.562	191.25
253.795	207.25
254.028	201.25
254.261	197.25
254.494	214.25
254.727	238.25
254.96	252.25
255.193	237.25
255.426	232.25
255.659	211.25
255.892	222.25
256.124	213.25
256.357	220.25
256.59	211.25
256.823	199.25
257.056	192.25
257.289	199.25
257.521	205.25
257.754	201.25
257.987	202.25
258.22	203.25
258.452	190.25
258.685	172.25
258.918	203.25
259.151	207.25
259.383	204.25
259.616	217.25
259.849	219.25
260.081	224.25
260.314	224.25
260.547	232.25
260.779	225.25
261.012	232.25
261.244	211.25
261.477	217.25
261.71	206.25
261.942	219.25
262.175	225.25
262.407	217.25
262.64	204.25
262.872	193.25
263.105	212.25
263.337	212.25
263.57	210.25
263.802	215.25
264.035	203.25
264.267	220.25
264.499	212.25
264.732	206.25
264.964	214.25
265.197	226.25
265.429	214.25
265.661	193.25
265.894	213.25
266.126	201.25
266.358	220.25
266.591	206.25
266.823	235.25
267.055	223.25
267.287	221.25
267.52	215.25
267.752	199.25
267.984	213.25
268.216	235.25
268.448	231.25
268.681	230.25
268.913	235.25
269.145	226.25
269.377	237.25
269.609	264.25
269.841	242.25
270.073	245.25
270.306	271.25
270.538	272.25
270.77	275.25
271.002	264.25
271.234	273.25
271.466	271.25
271.698	281.25
271.93	283.25
272.162	282.25
272.394	281.25
272.626	279.25
272.858	273.25
273.09	269.25
273.322	246.25
273.553	255.25
273.785	251.25
274.017	252.25
274.249	250.25
274.481	249.25
274.713	248.25
274.945	255.25
275.176	250.25
275.408	260.25
275.64	256.25
275.872	252.25
276.104	254.25
276.335	251.25
276.567	264.25
276.799	275.25
277.031	295.25
277.262	274.25
277.494	297.25
277.726	274.25
277.957	267.25
278.189	265.25
278.421	251.25
278.652	257.25
278.884	251.25
279.115	246.25
279.347	267.25
279.579	259.25
279.81	251.25
280.042	229.25
280.273	262.25
280.505	241.25
280.736	237.25
280.968	257.25
281.199	253.25
281.431	245.25
281.662	254.25
281.894	271.25
282.125	269.25
282.356	267.25
282.588	286.25
282.819	295.25
283.051	273.25
283.282	265.25
283.513	271.25
283.745	258.25
283.976	250.25
284.207	256.25
284.439	274.25
284.67	244.25
284.901	264.25
285.132	265.25
285.364	271.25
285.595	255.25
285.826	266.25
286.057	273.25
286.288	263.25
286.52	273.25
286.751	273.25
286.982	274.25
287.213	281.25
287.444	259.25
287.675	280.25
287.906	270.25
288.138	277.25
288.369	295.25
288.6	300.25
288.831	297.25
289.062	265.25
289.293	267.25
289.524	284.25
289.755	277.25
289.986	278.25
290.217	283.25
290.448	281.25
290.679	280.25
290.91	280.25
291.141	277.25
291.371	280.25
291.602	282.25
291.833	295.25
292.064	300.25
292.295	302.25
292.526	285.25
292.757	276.25
292.987	285.25
293.218	273.25
293.449	291.25
293.68	287.25
293.91	313.25
294.141	294.25
294.372	278.25
294.603	284.25
294.833	280.25
295.064	281.25
295.295	284.25
295.525	277.25
295.756	297.25
295.987	302.25
296.217	290.25
296.448	322.25
296.679	296.25
296.909	305.25
297.14	293.25
297.37	280.25
297.601	288.25
297.831	303.25
298.062	288.25
298.292	301.25
298.523	313.25
298.753	296.25
298.984	302.25
299.214	289.25
299.445	290.25
299.675	290.25
299.905	292.25
300.136	292.25
300.366	298.25
300.597	316.25
300.827	298.25
301.057	312.25
301.288	323.25
301.518	329.25
301.748	325.25
301.979	306.25
302.209	301.25
302.439	311.25
302.669	321.25
302.9	313.25
303.13	310.25
303.36	319.25
303.59	327.25
303.82	337.25
304.051	327.25
304.281	329.25
304.511	307.25
304.741	308.25
304.971	318.25
305.201	325.25
305.431	325.25
305.661	320.25
305.891	320.25
306.121	331.25
306.352	325.25
306.582	338.25
306.812	304.25
307.042	328.25
307.272	303.25
307.502	330.25
307.731	333.25
307.961	320.25
308.191	315.25
308.421	333.25
308.651	341.25
308.881	314.25
309.111	322.25
309.341	320.25
309.571	359.25
309.8	347.25
310.03	358.25
310.26	352.25
310.49	336.25
310.72	359.25
310.949	364.25
311.179	365.25
311.409	363.25
311.639	354.25
311.868	364.25
312.098	361.25
312.328	368.25
312.557	397.25
312.787	393.25
313.017	381.25
313.246	367.25
313.476	360.25
313.706	375.25
313.935	389.25
314.165	386.25
314.394	396.25
314.624	384.25
314.853	373.25
315.083	362.25
315.312	379.25
315.542	356.25
315.771	352.25
316.001	360.25
316.23	367.25
316.46	370.25
316.689	373.25
316.919	368.25
317.148	377.25
317.377	387.25
317.607	366.25
317.836	379.25
318.065	368.25
318.295	368.25
318.524	378.25
318.753	352.25
318.983	368.25
319.212	363.25
319.441	378.25
319.67	389.25
319.9	382.25
320.129	383.25
320.358	366.25
320.587	367.25
320.816	389.25
321.046	379.25
321.275	393.25
321.504	403.25
321.733	391.25
321.962	376.25
322.191	386.25
322.42	419.25
322.649	420.25
322.878	414.25
323.108	446.25
323.337	455.25
323.566	457.25
323.795	485.25
324.024	518.25
324.253	624.25
324.482	866.25
324.71	1359.25
324.939	2075.25
325.168	1791.25
325.397	910.25
325.626	602.25
325.855	522.25
326.084	489.25
326.313	482.25
326.542	473.25
326.77	518.25
326.999	595.25
327.228	827.25
327.457	1244.25
327.686	1561.25
327.914	1043.25
328.143	668.25
328.372	574.25
328.6	567.25
328.829	530.25
329.058	531.25
329.287	511.25
329.515	500.25
329.744	475.25
329.972	483.25
330.201	479.25
330.43	519.25
330.658	530.25
330.887	574.25
331.115	531.25
331.344	490.25
331.572	477.25
331.801	453.25
332.03	465.25
332.258	460.25
332.486	432.25
332.715	428.25
332.943	449.25
333.172	436.25
333.4	435.25
333.629	453.25
333.857	467.25
334.085	460.25
334.314	505.25
334.542	509.25
334.771	513.25
334.999	497.25
335.227	459.25
335.455	449.25
335.684	465.25
335.912	443.25
336.14	430.25
336.369	437.25
336.597	460.25
336.825	454.25
337.053	435.25
337.281	436.25
337.51	435.25
337.738	417.25
337.966	441.25
338.194	441.25
338.422	455.25
338.65	422.25
338.878	427.25
339.106	404.25
339.334	411.25
339.562	433.25
339.79	437.25
340.018	431.25
340.246	439.25
340.474	406.25
340.702	446.25
340.93	419.25
341.158	419.25
341.386	407.25
341.614	421.25
341.842	417.25
342.07	444.25
342.298	425.25
342.526	409.25
342.754	415.25
342.981	379.25
343.209	414.25
343.437	430.25
343.665	424.25
343.893	424.25
344.12	431.25
344.348	427.25
344.576	423.25
344.804	453.25
345.031	458.25
345.259	452.25
345.487	445.25
345.714	417.25
345.942	408.25
346.17	409.25
346.397	414.25
346.625	415.25
346.853	411.25
347.08	405.25
347.308	419.25
347.535	416.25
347.763	452.25
347.99	433.25
348.218	422.25
348.445	391.25
348.673	416.25
348.9	424.25
349.128	428.25
349.355	419.25
349.583	401.25
349.81	407.25
350.037	408.25
350.265	408.25
350.492	401.25
350.72	394.25
350.947	404.25
351.174	412.25
351.402	441.25
351.629	432.25
351.856	423.25
352.083	408.25
352.311	405.25
352.538	460.25
352.765	443.25
352.992	384.25
353.22	405.25
353.447	415.25
353.674	433.25
353.901	401.25
354.128	392.25
354.355	389.25
354.583	394.25
354.81	389.25
355.037	399.25
355.264	413.25
355.491	403.25
355.718	387.25
355.945	383.25
356.172	372.25
356.399	395.25
356.626	385.25
356.853	394.25
357.08	391.25
357.307	388.25
357.534	374.25
357.761	411.25
357.988	395.25
358.215	397.25
358.441	394.25
358.668	392.25
358.895	389.25
359.122	403.25
359.349	417.25
359.576	410.25
359.802	446.25
360.029	450.25
360.256	462.25
360.483	432.25
360.709	419.25
360.936	435.25
361.163	417.25
361.39	398.25
361.616	425.25
361.843	419.25
362.07	419.25
362.296	399.25
362.523	409.25
362.749	410.25
362.976	412.25
363.203	413.25
363.429	411.25
363.656	392.25
363.882	393.25
364.109	394.25
364.335	427.25
364.562	411.25
364.788	426.25
365.015	392.25
365.241	426.25
365.468	385.25
365.694	405.25
365.92	399.25
366.147	413.25
366.373	419.25
366.599	400.25
366.826	396.25
367.052	410.25
367.278	410.25
367.505	398.25
367.731	407.25
367.957	406.25
368.184	397.25
368.41	422.25
368.636	394.25
368.862	427.25
369.089	426.25
369.315	400.25
369.541	415.25
369.767	404.25
369.993	394.25
370.219	420.25
370.445	419.25
370.672	412.25
370.898	406.25
371.124	419.25
371.35	403.25
371.576	403.25
371.802	387.25
372.028	405.25
372.254	419.25
372.48	401.25
372.706	397.25
372.932	423.25
373.158	419.25
373.384	417.25
373.61	407.25
373.835	431.25
374.061	409.25
374.287	414.25
374.513	427.25
374.739	419.25
374.965	428.25
375.191	427.25
375.416	428.25
375.642	435.25
375.868	425.25
376.094	432.25
376.319	428.25
376.545	427.25
376.771	407.25
376.997	401.25
377.222	401.25
377.448	397.25
377.674	404.25
377.899	396.25
378.125	416.25
378.35	406.25
378.576	416.25
378.802	406.25
379.027	413.25
379.253	408.25
379.478	404.25
379.704	413.25
379.929	431.25
380.155	413.25
380.38	427.25
380.606	414.25
380.831	413.25
381.057	416.25
381.282	416.25
381.507	423.25
381.733	404.25
381.958	430.25
382.184	430.25
382.409	437.25
382.634	429.25
382.86	423.25
383.085	418.25
383.31	413.25
383.535	440.25
383.761	446.25
383.986	452.25
384.211	424.25
384.436	416.25
384.662	424.25
384.887	442.25
385.112	435.25
385.337	453.25
385.562	442.25
385.787	450.25
386.013	469.25
386.238	443.25
386.463	461.25
386.688	459.25
386.913	460.25
387.138	455.25
387.363	467.25
387.588	457.25
387.813	472.25
388.038	469.25
388.263	477.25
388.488	468.25
388.713	480.25
388.938	461.25
389.163	471.25
389.387	486.25
389.612	435.25
389.837	471.25
390.062	455.25
390.287	449.25
390.512	457.25
390.736	450.25
390.961	471.25
391.186	468.25
391.411	489.25
391.636	457.25
391.86	479.25
392.085	465.25
392.31	473.25
392.534	484.25
392.759	468.25
392.984	482.25
393.208	468.25
393.433	476.25
393.658	465.25
393.882	491.25
394.107	495.25
394.331	467.25
394.556	466.25
394.78	464.25
395.005	456.25
395.229	465.25
395.454	496.25
395.678	473.25
395.903	492.25
396.127	528.25
396.352	512.25
396.576	489.25
396.801	483.25
397.025	505.25
397.249	493.25
397.474	509.25
397.698	504.25
397.922	514.25
398.147	537.25
398.371	548.25
398.595	536.25
398.82	524.25
399.044	530.25
399.268	555.25
399.492	573.25
399.717	632.25
399.941	624.25
400.165	665.25
400.389	678.25
400.613	637.25
400.837	575.25
401.062	560.25
401.286	548.25
401.51	537.25
401.734	527.25
401.958	553.25
402.182	557.25
402.406	567.25
402.63	553.25
402.854	567.25
403.078	563.25
403.302	541.25
403.526	552.25
403.75	569.25
403.974	556.25
404.198	558.25
404.422	563.25
404.645	564.25
404.869	587.25
405.093	601.25
405.317	641.25
405.541	652.25
405.765	611.25
405.988	572.25
406.212	601.25
406.436	591.25
406.66	597.25
406.883	605.25
407.107	651.25
407.331	688.25
407.555	749.25
407.778	747.25
408.002	656.25
408.226	641.25
408.449	616.25
408.673	629.25
408.896	639.25
409.12	721.25
409.344	666.25
409.567	559.25
409.791	586.25
410.014	585.25
410.238	570.25
410.461	563.25
410.685	585.25
410.908	582.25
411.132	616.25
411.355	644.25
411.578	623.25
411.802	573.25
412.025	564.25
412.249	555.25
412.472	593.25
412.695	642.25
412.919	620.25
413.142	579.25
413.365	553.25
413.589	566.25
413.812	533.25
414.035	532.25
414.258	529.25
414.482	541.25
414.705	537.25
414.928	521.25
415.151	526.25
415.374	534.25
415.597	531.25
415.821	539.25
416.044	528.25
416.267	529.25
416.49	558.25
416.713	524.25
416.936	508.25
417.159	505.25
417.382	503.25
417.605	527.25
417.828	558.25
418.051	555.25
418.274	541.25
418.497	525.25
418.72	531.25
418.943	530.25
419.166	548.25
419.389	582.25
419.611	566.25
419.834	563.25
420.057	577.25
420.28	543.25
420.503	556.25
420.726	552.25
420.948	578.25
421.171	595.25
421.394	651.25
421.617	583.25
421.839	553.25
422.062	536.25
422.285	545.25
422.507	637.25
422.73	689.25
422.953	670.25
423.175	596.25
423.398	589.25
423.621	565.25
423.843	607.25
424.066	585.25
424.288	585.25
424.511	596.25
424.733	670.25
424.956	717.25
425.178	691.25
425.401	713.25
425.623	744.25
425.846	623.25
426.068	585.25
426.291	569.25
426.513	572.25
426.735	597.25
426.958	620.25
427.18	718.25
427.402	882.25
427.625	953.25
427.847	795.25
428.069	687.25
428.292	615.25
428.514	596.25
428.736	563.25
428.958	571.25
429.181	523.25
429.403	519.25
429.625	556.25
429.847	580.25
430.069	645.25
430.292	649.25
430.514	560.25
430.736	531.25
430.958	551.25
431.18	522.25
431.402	509.25
431.624	498.25
431.846	511.25
432.068	523.25
432.29	554.25
432.512	534.25
432.734	545.25
432.956	534.25
433.178	549.25
433.4	529.25
433.622	542.25
433.844	521.25
434.066	513.25
434.287	539.25
434.509	539.25
434.731	526.25
434.953	565.25
435.175	543.25
435.397	603.25
435.618	577.25
435.84	603.25
436.062	714.25
436.284	810.25
436.505	650.25
436.727	624.25
436.949	567.25
437.17	555.25
437.392	554.25
437.614	570.25
437.835	585.25
438.057	667.25
438.278	788.25
438.5	763.25
438.721	861.25
438.943	827.25
439.165	667.25
439.386	594.25
439.608	597.25
439.829	581.25
440.05	620.25
440.272	665.25
440.493	615.25
440.715	581.25
440.936	539.25
441.158	551.25
441.379	545.25
441.6	538.25
441.822	598.25
442.043	626.25
442.264	713.25
442.486	738.25
442.707	633.25
442.928	605.25
443.149	597.25
443.371	641.25
443.592	649.25
443.813	779.25
444.034	850.25
444.255	714.25
444.476	617.25
444.698	593.25
444.919	586.25
445.14	695.25
445.361	654.25
445.582	652.25
445.803	677.25
446.024	808.25
446.245	835.25
446.466	731.25
446.687	631.25
446.908	576.25
447.129	564.25
447.35	569.25
447.571	552.25
447.792	547.25
448.013	575.25
448.234	570.25
448.455	632.25
448.675	736.25
448.896	864.25
449.117	725.25
449.338	667.25
449.559	793.25
449.779	905.25
450	721.25
450.221	596.25
450.442	559.25
450.662	547.25
450.883	511.25
451.104	530.25
451.324	534.25
451.545	523.25
451.766	491.25
451.986	498.25
452.207	462.25
452.428	489.25
452.648	486.25
452.869	481.25
453.089	490.25
453.31	522.25
453.53	485.25
453.751	484.25
453.971	496.25
454.192	516.25
454.412	503.25
454.633	483.25
454.853	483.25
455.073	481.25
455.294	524.25
455.514	569.25
455.734	556.25
455.955	504.25
456.175	471.25
456.395	460.25
456.616	463.25
456.836	466.25
457.056	479.25
457.276	441.25
457.497	461.25
457.717	467.25
457.937	485.25
458.157	492.25
458.377	477.25
458.598	502.25
458.818	557.25
459.038	621.25
459.258	656.25
459.478	569.25
459.698	549.25
459.918	544.25
460.138	533.25
460.358	539.25
460.578	525.25
460.798	526.25
461.018	539.25
461.238	523.25
461.458	535.25
461.678	543.25
461.898	532.25
462.118	526.25
462.338	540.25
462.558	569.25
462.777	588.25
462.997	602.25
463.217	596.25
463.437	572.25
463.657	575.25
463.876	589.25
464.096	580.25
464.316	584.25
464.536	602.25
464.755	595.25
464.975	563.25
465.195	609.25
465.414	651.25
465.634	602.25
465.854	570.25
466.073	547.25
466.293	497.25
466.512	493.25
466.732	510.25
466.951	500.25
467.171	506.25
467.391	514.25
467.61	505.25
467.829	506.25
468.049	516.25
468.268	509.25
468.488	492.25
468.707	516.25
468.927	496.25
469.146	490.25
469.365	489.25
469.585	489.25
469.804	521.25
470.023	523.25
470.243	496.25
470.462	526.25
470.681	529.25
470.901	536.25
471.12	494.25
471.339	525.25
471.558	513.25
471.777	511.25
471.997	529.25
472.216	514.25
472.435	541.25
472.654	510.25
472.873	516.25
473.092	506.25
473.311	493.25
473.53	524.25
473.749	529.25
473.968	560.25
474.187	647.25
474.406	678.25
474.625	578.25
474.844	516.25
475.063	525.25
475.282	534.25
475.501	529.25
475.72	526.25
475.939	517.25
476.158	519.25
476.377	539.25
476.596	522.25
476.814	556.25
477.033	543.25
477.252	573.25
477.471	559.25
477.69	549.25
477.908	559.25
478.127	602.25
478.346	560.25
478.564	562.25
478.783	563.25
479.002	591.25
479.22	600.25
479.439	608.25
479.658	624.25
479.876	628.25
480.095	587.25
480.313	645.25
480.532	641.25
480.751	608.25
480.969	640.25
481.188	655.25
481.406	683.25
481.624	644.25
481.843	634.25
482.061	612.25
482.28	628.25
482.498	603.25
482.717	615.25
482.935	605.25
483.153	602.25
483.372	601.25
483.59	593.25
483.808	580.25
484.027	600.25
484.245	582.25
484.463	601.25
484.681	632.25
484.9	615.25
485.118	609.25
485.336	608.25
485.554	621.25
485.772	624.25
485.99	606.25
486.209	640.25
486.427	630.25
486.645	624.25
486.863	665.25
487.081	627.25
487.299	623.25
487.517	630.25
487.735	623.25
487.953	655.25
488.171	622.25
488.389	641.25
488.607	625.25
488.825	647.25
489.043	667.25
489.261	639.25
489.479	631.25
489.696	662.25
489.914	643.25
490.132	648.25
490.35	645.25
490.568	673.25
490.786	662.25
491.003	674.25
491.221	664.25
491.439	687.25
491.657	675.25
491.874	706.25
492.092	697.25
492.31	721.25
492.527	672.25
492.745	687.25
492.963	709.25
493.18	714.25
493.398	741.25
493.615	740.25
493.833	712.25
494.05	723.25
494.268	750.25
494.485	721.25
494.703	743.25
494.92	739.25
495.138	737.25
495.355	744.25
495.573	720.25
495.79	726.25
496.008	737.25
496.225	736.25
496.442	755.25
496.66	754.25
496.877	777.25
497.094	761.25
497.312	767.25
497.529	785.25
497.746	786.25
497.963	800.25
498.181	829.25
498.398	815.25
498.615	840.25
498.832	881.25
499.049	882.25
499.267	906.25
499.484	937.25
499.701	969.25
499.918	972.25
500.135	1063.25
500.352	1061.25
500.569	1095.25
500.786	1115.25
501.003	1081.25
501.22	1050.25
501.437	1028.25
501.654	1015.25
501.871	995.25
