Data from 1978.PennyLincolnUp.Lamp.En5.5.200Scan.071719.P1_HRD10591_16-11-46-864.txt Node
Date: Thu Jul 18 16:11:46 EDT 2019
User: cochatt
Spectrometer: HR+D1059
Trigger mode: 1
Integration Time (sec): 1.000000E-1
Scans to average: 1
Electric dark correction enabled: true
Nonlinearity correction enabled: false
Boxcar width: 0
XAxis mode: Wavelengths
Number of Pixels in Spectrum: 2048
>>>>>Begin Spectral Data<<<<<
223.165	-19.31
223.4	-19.31
223.635	-19.31
223.869	-27.31
224.104	-21.31
224.338	-11.31
224.573	-9.31
224.808	-8.31
225.042	-11.31
225.277	-11.31
225.511	-18.31
225.746	9.69
225.98	1.69
226.215	17.69
226.449	18.69
226.683	27.69
226.918	28.69
227.152	33.69
227.387	26.69
227.621	44.69
227.856	42.69
228.09	43.69
228.324	34.69
228.559	57.69
228.793	61.69
229.027	89.69
229.262	95.69
229.496	93.69
229.73	104.69
229.964	113.69
230.199	114.69
230.433	90.69
230.667	102.69
230.901	103.69
231.136	105.69
231.37	98.69
231.604	107.69
231.838	116.69
232.072	115.69
232.306	98.69
232.541	112.69
232.775	106.69
233.009	118.69
233.243	111.69
233.477	97.69
233.711	110.69
233.945	110.69
234.179	107.69
234.413	114.69
234.647	105.69
234.881	97.69
235.115	94.69
235.349	95.69
235.583	107.69
235.817	121.69
236.051	105.69
236.285	93.69
236.519	116.69
236.753	103.69
236.987	130.69
237.221	150.69
237.455	191.69
237.689	127.69
237.922	114.69
238.156	113.69
238.39	123.69
238.624	116.69
238.858	115.69
239.091	102.69
239.325	93.69
239.559	101.69
239.793	103.69
240.027	119.69
240.26	105.69
240.494	117.69
240.728	123.69
240.961	113.69
241.195	131.69
241.429	133.69
241.662	119.69
241.896	122.69
242.13	132.69
242.363	121.69
242.597	113.69
242.83	126.69
243.064	108.69
243.298	125.69
243.531	125.69
243.765	123.69
243.998	126.69
244.232	118.69
244.465	133.69
244.699	118.69
244.932	138.69
245.166	123.69
245.399	134.69
245.633	122.69
245.866	138.69
246.099	136.69
246.333	141.69
246.566	152.69
246.8	117.69
247.033	120.69
247.266	137.69
247.5	149.69
247.733	151.69
247.966	152.69
248.2	149.69
248.433	136.69
248.666	154.69
248.899	156.69
249.133	159.69
249.366	178.69
249.599	161.69
249.832	137.69
250.066	153.69
250.299	152.69
250.532	161.69
250.765	156.69
250.998	173.69
251.231	177.69
251.465	170.69
251.698	173.69
251.931	158.69
252.164	161.69
252.397	162.69
252.63	167.69
252.863	174.69
253.096	186.69
253.329	182.69
253.562	166.69
253.795	166.69
254.028	177.69
254.261	181.69
254.494	175.69
254.727	200.69
254.96	196.69
255.193	193.69
255.426	176.69
255.659	170.69
255.892	174.69
256.124	168.69
256.357	171.69
256.59	191.69
256.823	172.69
257.056	179.69
257.289	149.69
257.521	174.69
257.754	172.69
257.987	187.69
258.22	189.69
258.452	168.69
258.685	182.69
258.918	169.69
259.151	170.69
259.383	186.69
259.616	175.69
259.849	182.69
260.081	184.69
260.314	203.69
260.547	205.69
260.779	173.69
261.012	176.69
261.244	185.69
261.477	180.69
261.71	208.69
261.942	190.69
262.175	177.69
262.407	190.69
262.64	179.69
262.872	173.69
263.105	174.69
263.337	188.69
263.57	192.69
263.802	186.69
264.035	170.69
264.267	185.69
264.499	163.69
264.732	190.69
264.964	171.69
265.197	187.69
265.429	193.69
265.661	186.69
265.894	184.69
266.126	188.69
266.358	201.69
266.591	190.69
266.823	189.69
267.055	195.69
267.287	181.69
267.52	189.69
267.752	182.69
267.984	188.69
268.216	194.69
268.448	200.69
268.681	200.69
268.913	184.69
269.145	213.69
269.377	230.69
269.609	230.69
269.841	205.69
270.073	217.69
270.306	220.69
270.538	247.69
270.77	235.69
271.002	231.69
271.234	232.69
271.466	219.69
271.698	227.69
271.93	230.69
272.162	219.69
272.394	229.69
272.626	234.69
272.858	216.69
273.09	207.69
273.322	224.69
273.553	215.69
273.785	223.69
274.017	230.69
274.249	232.69
274.481	227.69
274.713	222.69
274.945	225.69
275.176	221.69
275.408	221.69
275.64	215.69
275.872	211.69
276.104	207.69
276.335	220.69
276.567	227.69
276.799	232.69
277.031	240.69
277.262	253.69
277.494	245.69
277.726	235.69
277.957	241.69
278.189	229.69
278.421	224.69
278.652	223.69
278.884	235.69
279.115	221.69
279.347	215.69
279.579	221.69
279.81	220.69
280.042	218.69
280.273	215.69
280.505	213.69
280.736	253.69
280.968	232.69
281.199	213.69
281.431	227.69
281.662	229.69
281.894	234.69
282.125	239.69
282.356	249.69
282.588	259.69
282.819	271.69
283.051	229.69
283.282	210.69
283.513	241.69
283.745	226.69
283.976	257.69
284.207	237.69
284.439	236.69
284.67	222.69
284.901	242.69
285.132	224.69
285.364	251.69
285.595	241.69
285.826	260.69
286.057	251.69
286.288	236.69
286.52	247.69
286.751	246.69
286.982	235.69
287.213	250.69
287.444	248.69
287.675	242.69
287.906	262.69
288.138	247.69
288.369	258.69
288.6	258.69
288.831	238.69
289.062	239.69
289.293	263.69
289.524	263.69
289.755	257.69
289.986	253.69
290.217	258.69
290.448	249.69
290.679	234.69
290.91	248.69
291.141	263.69
291.371	265.69
291.602	247.69
291.833	265.69
292.064	248.69
292.295	247.69
292.526	254.69
292.757	260.69
292.987	255.69
293.218	242.69
293.449	261.69
293.68	262.69
293.91	271.69
294.141	261.69
294.372	256.69
294.603	245.69
294.833	247.69
295.064	260.69
295.295	257.69
295.525	261.69
295.756	267.69
295.987	259.69
296.217	258.69
296.448	280.69
296.679	271.69
296.909	257.69
297.14	265.69
297.37	253.69
297.601	243.69
297.831	260.69
298.062	265.69
298.292	271.69
298.523	284.69
298.753	264.69
298.984	270.69
299.214	284.69
299.445	259.69
299.675	259.69
299.905	270.69
300.136	278.69
300.366	259.69
300.597	270.69
300.827	270.69
301.057	278.69
301.288	292.69
301.518	261.69
301.748	289.69
301.979	283.69
302.209	283.69
302.439	285.69
302.669	269.69
302.9	282.69
303.13	297.69
303.36	273.69
303.59	284.69
303.82	270.69
304.051	285.69
304.281	311.69
304.511	289.69
304.741	293.69
304.971	299.69
305.201	295.69
305.431	289.69
305.661	278.69
305.891	268.69
306.121	290.69
306.352	298.69
306.582	305.69
306.812	275.69
307.042	270.69
307.272	300.69
307.502	289.69
307.731	289.69
307.961	300.69
308.191	278.69
308.421	271.69
308.651	300.69
308.881	276.69
309.111	301.69
309.341	297.69
309.571	307.69
309.8	302.69
310.03	298.69
310.26	308.69
310.49	295.69
310.72	313.69
310.949	299.69
311.179	313.69
311.409	311.69
311.639	319.69
311.868	312.69
312.098	325.69
312.328	320.69
312.557	311.69
312.787	325.69
313.017	333.69
313.246	338.69
313.476	307.69
313.706	309.69
313.935	312.69
314.165	325.69
314.394	350.69
314.624	336.69
314.853	336.69
315.083	318.69
315.312	329.69
315.542	305.69
315.771	319.69
316.001	297.69
316.23	312.69
316.46	320.69
316.689	326.69
316.919	339.69
317.148	333.69
317.377	321.69
317.607	318.69
317.836	341.69
318.065	327.69
318.295	337.69
318.524	299.69
318.753	323.69
318.983	328.69
319.212	335.69
319.441	335.69
319.67	340.69
319.9	332.69
320.129	307.69
320.358	321.69
320.587	314.69
320.816	328.69
321.046	327.69
321.275	340.69
321.504	328.69
321.733	326.69
321.962	328.69
322.191	327.69
322.42	334.69
322.649	322.69
322.878	361.69
323.108	340.69
323.337	378.69
323.566	387.69
323.795	379.69
324.024	411.69
324.253	468.69
324.482	635.69
324.71	959.69
324.939	1390.69
325.168	1203.69
325.397	640.69
325.626	451.69
325.855	424.69
326.084	405.69
326.313	389.69
326.542	376.69
326.77	410.69
326.999	483.69
327.228	574.69
327.457	888.69
327.686	1064.69
327.914	695.69
328.143	509.69
328.372	417.69
328.6	421.69
328.829	434.69
329.058	429.69
329.287	420.69
329.515	418.69
329.744	379.69
329.972	397.69
330.201	420.69
330.43	424.69
330.658	413.69
330.887	426.69
331.115	441.69
331.344	395.69
331.572	414.69
331.801	378.69
332.03	408.69
332.258	370.69
332.486	369.69
332.715	379.69
332.943	369.69
333.172	385.69
333.4	378.69
333.629	406.69
333.857	406.69
334.085	402.69
334.314	397.69
334.542	413.69
334.771	414.69
334.999	403.69
335.227	391.69
335.455	396.69
335.684	391.69
335.912	381.69
336.14	373.69
336.369	371.69
336.597	380.69
336.825	394.69
337.053	374.69
337.281	385.69
337.51	392.69
337.738	381.69
337.966	387.69
338.194	370.69
338.422	393.69
338.65	371.69
338.878	373.69
339.106	376.69
339.334	382.69
339.562	369.69
339.79	384.69
340.018	376.69
340.246	369.69
340.474	390.69
340.702	381.69
340.93	369.69
341.158	375.69
341.386	385.69
341.614	364.69
341.842	373.69
342.07	377.69
342.298	381.69
342.526	383.69
342.754	366.69
342.981	379.69
343.209	361.69
343.437	372.69
343.665	387.69
343.893	405.69
344.12	377.69
344.348	378.69
344.576	381.69
344.804	387.69
345.031	393.69
345.259	382.69
345.487	382.69
345.714	383.69
345.942	366.69
346.17	383.69
346.397	358.69
346.625	369.69
346.853	366.69
347.08	352.69
347.308	367.69
347.535	352.69
347.763	383.69
347.99	356.69
348.218	355.69
348.445	366.69
348.673	372.69
348.9	368.69
349.128	377.69
349.355	349.69
349.583	369.69
349.81	360.69
350.037	380.69
350.265	353.69
350.492	357.69
350.72	381.69
350.947	363.69
351.174	366.69
351.402	364.69
351.629	357.69
351.856	357.69
352.083	366.69
352.311	379.69
352.538	362.69
352.765	365.69
352.992	362.69
353.22	353.69
353.447	351.69
353.674	356.69
353.901	360.69
354.128	369.69
354.355	345.69
354.583	348.69
354.81	362.69
355.037	367.69
355.264	335.69
355.491	334.69
355.718	336.69
355.945	348.69
356.172	343.69
356.399	333.69
356.626	350.69
356.853	344.69
357.08	340.69
357.307	356.69
357.534	356.69
357.761	363.69
357.988	342.69
358.215	357.69
358.441	338.69
358.668	348.69
358.895	359.69
359.122	339.69
359.349	359.69
359.576	375.69
359.802	372.69
360.029	386.69
360.256	373.69
360.483	394.69
360.709	351.69
360.936	364.69
361.163	367.69
361.39	354.69
361.616	365.69
361.843	364.69
362.07	371.69
362.296	358.69
362.523	380.69
362.749	369.69
362.976	361.69
363.203	360.69
363.429	342.69
363.656	375.69
363.882	371.69
364.109	363.69
364.335	333.69
364.562	356.69
364.788	345.69
365.015	352.69
365.241	372.69
365.468	355.69
365.694	359.69
365.92	378.69
366.147	370.69
366.373	367.69
366.599	349.69
366.826	358.69
367.052	362.69
367.278	357.69
367.505	352.69
367.731	373.69
367.957	362.69
368.184	369.69
368.41	393.69
368.636	385.69
368.862	365.69
369.089	379.69
369.315	364.69
369.541	357.69
369.767	375.69
369.993	375.69
370.219	374.69
370.445	393.69
370.672	353.69
370.898	356.69
371.124	354.69
371.35	378.69
371.576	378.69
371.802	374.69
372.028	366.69
372.254	368.69
372.48	375.69
372.706	365.69
372.932	377.69
373.158	395.69
373.384	374.69
373.61	366.69
373.835	391.69
374.061	387.69
374.287	375.69
374.513	379.69
374.739	382.69
374.965	375.69
375.191	394.69
375.416	380.69
375.642	378.69
375.868	387.69
376.094	383.69
376.319	387.69
376.545	395.69
376.771	398.69
376.997	386.69
377.222	384.69
377.448	370.69
377.674	380.69
377.899	373.69
378.125	366.69
378.35	364.69
378.576	351.69
378.802	382.69
379.027	381.69
379.253	375.69
379.478	380.69
379.704	389.69
379.929	390.69
380.155	386.69
380.38	376.69
380.606	383.69
380.831	378.69
381.057	391.69
381.282	381.69
381.507	386.69
381.733	389.69
381.958	383.69
382.184	375.69
382.409	397.69
382.634	390.69
382.86	389.69
383.085	399.69
383.31	371.69
383.535	405.69
383.761	412.69
383.986	386.69
384.211	406.69
384.436	412.69
384.662	403.69
384.887	427.69
385.112	423.69
385.337	398.69
385.562	405.69
385.787	419.69
386.013	429.69
386.238	426.69
386.463	431.69
386.688	446.69
386.913	417.69
387.138	423.69
387.363	427.69
387.588	435.69
387.813	416.69
388.038	433.69
388.263	415.69
388.488	414.69
388.713	429.69
388.938	403.69
389.163	427.69
389.387	447.69
389.612	424.69
389.837	444.69
390.062	421.69
390.287	416.69
390.512	427.69
390.736	435.69
390.961	429.69
391.186	437.69
391.411	417.69
391.636	421.69
391.86	445.69
392.085	443.69
392.31	456.69
392.534	437.69
392.759	456.69
392.984	429.69
393.208	426.69
393.433	443.69
393.658	437.69
393.882	429.69
394.107	422.69
394.331	420.69
394.556	448.69
394.78	419.69
395.005	446.69
395.229	429.69
395.454	455.69
395.678	449.69
395.903	447.69
396.127	469.69
396.352	471.69
396.576	442.69
396.801	464.69
397.025	451.69
397.249	445.69
397.474	462.69
397.698	481.69
397.922	499.69
398.147	481.69
398.371	494.69
398.595	480.69
398.82	492.69
399.044	520.69
399.268	514.69
399.492	550.69
399.717	576.69
399.941	606.69
400.165	598.69
400.389	592.69
400.613	534.69
400.837	508.69
401.062	527.69
401.286	501.69
401.51	501.69
401.734	514.69
401.958	511.69
402.182	487.69
402.406	500.69
402.63	494.69
402.854	495.69
403.078	505.69
403.302	507.69
403.526	495.69
403.75	519.69
403.974	525.69
404.198	516.69
404.422	513.69
404.645	537.69
404.869	516.69
405.093	548.69
405.317	546.69
405.541	604.69
405.765	553.69
405.988	514.69
406.212	543.69
406.436	536.69
406.66	569.69
406.883	551.69
407.107	565.69
407.331	585.69
407.555	649.69
407.778	646.69
408.002	591.69
408.226	571.69
408.449	558.69
408.673	562.69
408.896	589.69
409.12	609.69
409.344	586.69
409.567	521.69
409.791	531.69
410.014	515.69
410.238	508.69
410.461	498.69
410.685	516.69
410.908	543.69
411.132	563.69
411.355	577.69
411.578	552.69
411.802	521.69
412.025	522.69
412.249	521.69
412.472	537.69
412.695	544.69
412.919	535.69
413.142	515.69
413.365	512.69
413.589	493.69
413.812	479.69
414.035	493.69
414.258	479.69
414.482	485.69
414.705	482.69
414.928	507.69
415.151	492.69
415.374	487.69
415.597	483.69
415.821	486.69
416.044	482.69
416.267	488.69
416.49	476.69
416.713	461.69
416.936	468.69
417.159	491.69
417.382	481.69
417.605	486.69
417.828	495.69
418.051	479.69
418.274	482.69
418.497	470.69
418.72	479.69
418.943	476.69
419.166	488.69
419.389	506.69
419.611	551.69
419.834	511.69
420.057	519.69
420.28	498.69
420.503	510.69
420.726	487.69
420.948	487.69
421.171	515.69
421.394	555.69
421.617	495.69
421.839	489.69
422.062	507.69
422.285	505.69
422.507	540.69
422.73	614.69
422.953	572.69
423.175	521.69
423.398	516.69
423.621	513.69
423.843	525.69
424.066	517.69
424.288	513.69
424.511	515.69
424.733	556.69
424.956	649.69
425.178	601.69
425.401	616.69
425.623	643.69
425.846	557.69
426.068	544.69
426.291	513.69
426.513	541.69
426.735	554.69
426.958	549.69
427.18	598.69
427.402	722.69
427.625	798.69
427.847	660.69
428.069	583.69
428.292	558.69
428.514	509.69
428.736	505.69
428.958	492.69
429.181	491.69
429.403	484.69
429.625	478.69
429.847	511.69
430.069	558.69
430.292	563.69
430.514	482.69
430.736	479.69
430.958	491.69
431.18	479.69
431.402	468.69
431.624	439.69
431.846	462.69
432.068	455.69
432.29	471.69
432.512	469.69
432.734	496.69
432.956	453.69
433.178	462.69
433.4	486.69
433.622	497.69
433.844	461.69
434.066	457.69
434.287	486.69
434.509	481.69
434.731	478.69
434.953	511.69
435.175	513.69
435.397	540.69
435.618	507.69
435.84	542.69
436.062	603.69
436.284	670.69
436.505	593.69
436.727	515.69
436.949	492.69
437.17	477.69
437.392	492.69
437.614	509.69
437.835	509.69
438.057	578.69
438.278	665.69
438.5	676.69
438.721	721.69
438.943	708.69
439.165	556.69
439.386	525.69
439.608	532.69
439.829	489.69
440.05	534.69
440.272	531.69
440.493	528.69
440.715	501.69
440.936	485.69
441.158	476.69
441.379	492.69
441.6	501.69
441.822	495.69
442.043	527.69
442.264	589.69
442.486	645.69
442.707	557.69
442.928	535.69
443.149	521.69
443.371	535.69
443.592	549.69
443.813	652.69
444.034	719.69
444.255	595.69
444.476	527.69
444.698	529.69
444.919	537.69
445.14	650.69
445.361	583.69
445.582	556.69
445.803	579.69
446.024	649.69
446.245	672.69
446.466	610.69
446.687	533.69
446.908	510.69
447.129	472.69
447.35	498.69
447.571	490.69
447.792	462.69
448.013	474.69
448.234	478.69
448.455	531.69
448.675	631.69
448.896	715.69
449.117	579.69
449.338	538.69
449.559	643.69
449.779	787.69
450	629.69
450.221	520.69
450.442	494.69
450.662	470.69
450.883	477.69
451.104	464.69
451.324	447.69
451.545	453.69
451.766	457.69
451.986	446.69
452.207	439.69
452.428	445.69
452.648	450.69
452.869	429.69
453.089	437.69
453.31	434.69
453.53	437.69
453.751	421.69
453.971	433.69
454.192	450.69
454.412	437.69
454.633	442.69
454.853	425.69
455.073	426.69
455.294	446.69
455.514	496.69
455.734	476.69
455.955	427.69
456.175	445.69
456.395	422.69
456.616	418.69
456.836	410.69
457.056	406.69
457.276	407.69
457.497	425.69
457.717	434.69
457.937	436.69
458.157	426.69
458.377	419.69
458.598	425.69
458.818	480.69
459.038	515.69
459.258	547.69
459.478	489.69
459.698	464.69
459.918	469.69
460.138	462.69
460.358	499.69
460.578	496.69
460.798	479.69
461.018	511.69
461.238	484.69
461.458	507.69
461.678	507.69
461.898	526.69
462.118	513.69
462.338	539.69
462.558	513.69
462.777	531.69
462.997	530.69
463.217	557.69
463.437	565.69
463.657	545.69
463.876	548.69
464.096	542.69
464.316	562.69
464.536	524.69
464.755	531.69
464.975	524.69
465.195	535.69
465.414	549.69
465.634	534.69
465.854	501.69
466.073	476.69
466.293	474.69
466.512	488.69
466.732	478.69
466.951	463.69
467.171	469.69
467.391	467.69
467.61	489.69
467.829	479.69
468.049	460.69
468.268	449.69
468.488	475.69
468.707	452.69
468.927	449.69
469.146	449.69
469.365	445.69
469.585	454.69
469.804	475.69
470.023	469.69
470.243	475.69
470.462	453.69
470.681	471.69
470.901	486.69
471.12	470.69
471.339	469.69
471.558	484.69
471.777	471.69
471.997	476.69
472.216	489.69
472.435	490.69
472.654	477.69
472.873	465.69
473.092	463.69
473.311	449.69
473.53	449.69
473.749	465.69
473.968	498.69
474.187	574.69
474.406	571.69
474.625	506.69
474.844	492.69
475.063	460.69
475.282	469.69
475.501	460.69
475.72	482.69
475.939	471.69
476.158	492.69
476.377	472.69
476.596	500.69
476.814	492.69
477.033	504.69
477.252	515.69
477.471	510.69
477.69	503.69
477.908	514.69
478.127	503.69
478.346	504.69
478.564	519.69
478.783	527.69
479.002	517.69
479.22	518.69
479.439	545.69
479.658	561.69
479.876	565.69
480.095	556.69
480.313	597.69
480.532	578.69
480.751	562.69
480.969	567.69
481.188	586.69
481.406	588.69
481.624	570.69
481.843	561.69
482.061	563.69
482.28	558.69
482.498	531.69
482.717	537.69
482.935	539.69
483.153	532.69
483.372	540.69
483.59	531.69
483.808	553.69
484.027	550.69
484.245	563.69
484.463	539.69
484.681	575.69
484.9	557.69
485.118	556.69
485.336	583.69
485.554	580.69
485.772	555.69
485.99	555.69
486.209	575.69
486.427	566.69
486.645	562.69
486.863	568.69
487.081	600.69
487.299	578.69
487.517	570.69
487.735	569.69
487.953	566.69
488.171	575.69
488.389	587.69
488.607	573.69
488.825	577.69
489.043	587.69
489.261	575.69
489.479	589.69
489.696	592.69
489.914	591.69
490.132	585.69
490.35	592.69
490.568	604.69
490.786	584.69
491.003	602.69
491.221	601.69
491.439	631.69
491.657	609.69
491.874	644.69
492.092	643.69
492.31	641.69
492.527	622.69
492.745	620.69
492.963	642.69
493.18	615.69
493.398	658.69
493.615	637.69
493.833	631.69
494.05	667.69
494.268	675.69
494.485	662.69
494.703	672.69
494.92	668.69
495.138	633.69
495.355	660.69
495.573	658.69
495.79	662.69
496.008	672.69
496.225	686.69
496.442	674.69
496.66	697.69
496.877	682.69
497.094	712.69
497.312	709.69
497.529	716.69
497.746	727.69
497.963	743.69
498.181	759.69
498.398	763.69
498.615	762.69
498.832	802.69
499.049	817.69
499.267	829.69
499.484	868.69
499.701	891.69
499.918	923.69
500.135	1014.69
500.352	1014.69
500.569	1023.69
500.786	1041.69
501.003	1002.69
501.22	988.69
501.437	955.69
501.654	876.69
501.871	890.69
502.088	830.69
