Data from 1978.PennyLincolnUp.Lamp.En5.5.200Scan.071719.P1_HRD10591_16-13-03-864.txt Node
Date: Thu Jul 18 16:13:03 EDT 2019
User: cochatt
Spectrometer: HR+D1059
Trigger mode: 1
Integration Time (sec): 1.000000E-1
Scans to average: 1
Electric dark correction enabled: true
Nonlinearity correction enabled: false
Boxcar width: 0
XAxis mode: Wavelengths
Number of Pixels in Spectrum: 2048
>>>>>Begin Spectral Data<<<<<
223.165	-0.81
223.4	-0.81
223.635	-0.81
223.869	-21.81
224.104	-20.81
224.338	-16.81
224.573	-6.81
224.808	-11.81
225.042	-10.81
225.277	-12.81
225.511	-4.81
225.746	-6.81
225.98	13.19
226.215	25.19
226.449	12.19
226.683	27.19
226.918	17.19
227.152	19.19
227.387	21.19
227.621	36.19
227.856	44.19
228.09	21.19
228.324	46.19
228.559	51.19
228.793	66.19
229.027	97.19
229.262	103.19
229.496	96.19
229.73	115.19
229.964	141.19
230.199	129.19
230.433	105.19
230.667	122.19
230.901	105.19
231.136	111.19
231.37	88.19
231.604	104.19
231.838	102.19
232.072	104.19
232.306	107.19
232.541	117.19
232.775	95.19
233.009	111.19
233.243	103.19
233.477	104.19
233.711	106.19
233.945	103.19
234.179	107.19
234.413	118.19
234.647	123.19
234.881	104.19
235.115	113.19
235.349	114.19
235.583	114.19
235.817	115.19
236.051	119.19
236.285	107.19
236.519	113.19
236.753	121.19
236.987	139.19
237.221	145.19
237.455	197.19
237.689	172.19
237.922	118.19
238.156	127.19
238.39	117.19
238.624	102.19
238.858	102.19
239.091	100.19
239.325	103.19
239.559	119.19
239.793	122.19
240.027	118.19
240.26	149.19
240.494	160.19
240.728	132.19
240.961	131.19
241.195	135.19
241.429	135.19
241.662	136.19
241.896	124.19
242.13	127.19
242.363	136.19
242.597	125.19
242.83	128.19
243.064	137.19
243.298	127.19
243.531	124.19
243.765	140.19
243.998	135.19
244.232	135.19
244.465	134.19
244.699	137.19
244.932	151.19
245.166	134.19
245.399	141.19
245.633	136.19
245.866	135.19
246.099	145.19
246.333	142.19
246.566	136.19
246.8	154.19
247.033	146.19
247.266	144.19
247.5	139.19
247.733	147.19
247.966	150.19
248.2	164.19
248.433	162.19
248.666	149.19
248.899	172.19
249.133	186.19
249.366	192.19
249.599	176.19
249.832	167.19
250.066	163.19
250.299	153.19
250.532	185.19
250.765	184.19
250.998	183.19
251.231	183.19
251.465	168.19
251.698	185.19
251.931	181.19
252.164	183.19
252.397	164.19
252.63	183.19
252.863	195.19
253.096	179.19
253.329	186.19
253.562	188.19
253.795	196.19
254.028	184.19
254.261	188.19
254.494	217.19
254.727	212.19
254.96	236.19
255.193	219.19
255.426	228.19
255.659	209.19
255.892	209.19
256.124	221.19
256.357	217.19
256.59	215.19
256.823	193.19
257.056	187.19
257.289	192.19
257.521	196.19
257.754	191.19
257.987	191.19
258.22	182.19
258.452	195.19
258.685	189.19
258.918	195.19
259.151	196.19
259.383	194.19
259.616	183.19
259.849	207.19
260.081	220.19
260.314	224.19
260.547	227.19
260.779	215.19
261.012	220.19
261.244	216.19
261.477	213.19
261.71	213.19
261.942	197.19
262.175	213.19
262.407	205.19
262.64	203.19
262.872	180.19
263.105	186.19
263.337	207.19
263.57	193.19
263.802	192.19
264.035	191.19
264.267	198.19
264.499	203.19
264.732	187.19
264.964	192.19
265.197	201.19
265.429	192.19
265.661	200.19
265.894	209.19
266.126	203.19
266.358	202.19
266.591	195.19
266.823	214.19
267.055	208.19
267.287	204.19
267.52	207.19
267.752	204.19
267.984	212.19
268.216	212.19
268.448	209.19
268.681	229.19
268.913	220.19
269.145	220.19
269.377	246.19
269.609	244.19
269.841	236.19
270.073	253.19
270.306	282.19
270.538	265.19
270.77	272.19
271.002	258.19
271.234	259.19
271.466	269.19
271.698	263.19
271.93	281.19
272.162	271.19
272.394	276.19
272.626	264.19
272.858	252.19
273.09	261.19
273.322	242.19
273.553	229.19
273.785	236.19
274.017	228.19
274.249	238.19
274.481	245.19
274.713	247.19
274.945	241.19
275.176	246.19
275.408	236.19
275.64	255.19
275.872	230.19
276.104	220.19
276.335	226.19
276.567	247.19
276.799	235.19
277.031	287.19
277.262	289.19
277.494	272.19
277.726	281.19
277.957	272.19
278.189	271.19
278.421	244.19
278.652	255.19
278.884	249.19
279.115	239.19
279.347	242.19
279.579	247.19
279.81	246.19
280.042	247.19
280.273	266.19
280.505	256.19
280.736	250.19
280.968	242.19
281.199	247.19
281.431	259.19
281.662	255.19
281.894	262.19
282.125	244.19
282.356	269.19
282.588	272.19
282.819	265.19
283.051	263.19
283.282	264.19
283.513	261.19
283.745	288.19
283.976	252.19
284.207	248.19
284.439	261.19
284.67	273.19
284.901	255.19
285.132	269.19
285.364	265.19
285.595	270.19
285.826	259.19
286.057	278.19
286.288	259.19
286.52	258.19
286.751	269.19
286.982	258.19
287.213	267.19
287.444	269.19
287.675	277.19
287.906	269.19
288.138	294.19
288.369	275.19
288.6	283.19
288.831	265.19
289.062	279.19
289.293	255.19
289.524	269.19
289.755	268.19
289.986	274.19
290.217	271.19
290.448	251.19
290.679	280.19
290.91	275.19
291.141	257.19
291.371	271.19
291.602	262.19
291.833	269.19
292.064	263.19
292.295	276.19
292.526	280.19
292.757	270.19
292.987	266.19
293.218	274.19
293.449	272.19
293.68	268.19
293.91	275.19
294.141	289.19
294.372	276.19
294.603	259.19
294.833	275.19
295.064	268.19
295.295	284.19
295.525	290.19
295.756	292.19
295.987	284.19
296.217	276.19
296.448	304.19
296.679	312.19
296.909	297.19
297.14	300.19
297.37	294.19
297.601	299.19
297.831	281.19
298.062	278.19
298.292	265.19
298.523	289.19
298.753	299.19
298.984	282.19
299.214	287.19
299.445	303.19
299.675	298.19
299.905	301.19
300.136	300.19
300.366	281.19
300.597	291.19
300.827	293.19
301.057	303.19
301.288	298.19
301.518	299.19
301.748	311.19
301.979	305.19
302.209	291.19
302.439	312.19
302.669	305.19
302.9	311.19
303.13	321.19
303.36	307.19
303.59	297.19
303.82	293.19
304.051	316.19
304.281	324.19
304.511	326.19
304.741	312.19
304.971	291.19
305.201	288.19
305.431	314.19
305.661	312.19
305.891	299.19
306.121	317.19
306.352	313.19
306.582	318.19
306.812	309.19
307.042	316.19
307.272	315.19
307.502	308.19
307.731	322.19
307.961	310.19
308.191	331.19
308.421	315.19
308.651	321.19
308.881	319.19
309.111	343.19
309.341	333.19
309.571	318.19
309.8	331.19
310.03	316.19
310.26	354.19
310.49	340.19
310.72	376.19
310.949	371.19
311.179	370.19
311.409	360.19
311.639	351.19
311.868	363.19
312.098	363.19
312.328	363.19
312.557	380.19
312.787	351.19
313.017	374.19
313.246	348.19
313.476	355.19
313.706	356.19
313.935	370.19
314.165	373.19
314.394	377.19
314.624	386.19
314.853	358.19
315.083	369.19
315.312	351.19
315.542	353.19
315.771	344.19
316.001	338.19
316.23	351.19
316.46	344.19
316.689	364.19
316.919	350.19
317.148	353.19
317.377	375.19
317.607	373.19
317.836	349.19
318.065	372.19
318.295	345.19
318.524	361.19
318.753	357.19
318.983	369.19
319.212	359.19
319.441	344.19
319.67	363.19
319.9	358.19
320.129	366.19
320.358	355.19
320.587	361.19
320.816	379.19
321.046	375.19
321.275	373.19
321.504	391.19
321.733	387.19
321.962	377.19
322.191	393.19
322.42	402.19
322.649	419.19
322.878	421.19
323.108	433.19
323.337	448.19
323.566	456.19
323.795	498.19
324.024	551.19
324.253	629.19
324.482	894.19
324.71	1427.19
324.939	2152.19
325.168	1908.19
325.397	911.19
325.626	635.19
325.855	513.19
326.084	461.19
326.313	464.19
326.542	489.19
326.77	504.19
326.999	576.19
327.228	811.19
327.457	1258.19
327.686	1651.19
327.914	1038.19
328.143	650.19
328.372	562.19
328.6	537.19
328.829	509.19
329.058	531.19
329.287	523.19
329.515	513.19
329.744	457.19
329.972	465.19
330.201	481.19
330.43	513.19
330.658	541.19
330.887	553.19
331.115	522.19
331.344	474.19
331.572	461.19
331.801	473.19
332.03	470.19
332.258	415.19
332.486	451.19
332.715	448.19
332.943	425.19
333.172	439.19
333.4	441.19
333.629	440.19
333.857	463.19
334.085	474.19
334.314	477.19
334.542	483.19
334.771	511.19
334.999	467.19
335.227	439.19
335.455	437.19
335.684	431.19
335.912	431.19
336.14	420.19
336.369	431.19
336.597	415.19
336.825	406.19
337.053	427.19
337.281	423.19
337.51	410.19
337.738	431.19
337.966	421.19
338.194	437.19
338.422	408.19
338.65	421.19
338.878	423.19
339.106	391.19
339.334	423.19
339.562	411.19
339.79	409.19
340.018	425.19
340.246	409.19
340.474	406.19
340.702	406.19
340.93	424.19
341.158	398.19
341.386	429.19
341.614	410.19
341.842	397.19
342.07	413.19
342.298	428.19
342.526	391.19
342.754	401.19
342.981	397.19
343.209	391.19
343.437	415.19
343.665	415.19
343.893	409.19
344.12	429.19
344.348	446.19
344.576	441.19
344.804	425.19
345.031	427.19
345.259	443.19
345.487	430.19
345.714	416.19
345.942	410.19
346.17	401.19
346.397	392.19
346.625	410.19
346.853	402.19
347.08	398.19
347.308	393.19
347.535	424.19
347.763	410.19
347.99	413.19
348.218	424.19
348.445	411.19
348.673	403.19
348.9	402.19
349.128	405.19
349.355	392.19
349.583	375.19
349.81	391.19
350.037	384.19
350.265	394.19
350.492	379.19
350.72	385.19
350.947	399.19
351.174	405.19
351.402	392.19
351.629	411.19
351.856	399.19
352.083	421.19
352.311	423.19
352.538	404.19
352.765	432.19
352.992	408.19
353.22	395.19
353.447	396.19
353.674	392.19
353.901	413.19
354.128	389.19
354.355	394.19
354.583	410.19
354.81	385.19
355.037	385.19
355.264	372.19
355.491	374.19
355.718	362.19
355.945	387.19
356.172	401.19
356.399	356.19
356.626	393.19
356.853	405.19
357.08	379.19
357.307	377.19
357.534	386.19
357.761	386.19
357.988	387.19
358.215	379.19
358.441	388.19
358.668	378.19
358.895	388.19
359.122	392.19
359.349	388.19
359.576	402.19
359.802	444.19
360.029	438.19
360.256	442.19
360.483	424.19
360.709	424.19
360.936	418.19
361.163	403.19
361.39	407.19
361.616	414.19
361.843	421.19
362.07	404.19
362.296	391.19
362.523	401.19
362.749	415.19
362.976	406.19
363.203	407.19
363.429	404.19
363.656	393.19
363.882	407.19
364.109	381.19
364.335	390.19
364.562	380.19
364.788	392.19
365.015	410.19
365.241	392.19
365.468	387.19
365.694	400.19
365.92	389.19
366.147	393.19
366.373	424.19
366.599	405.19
366.826	377.19
367.052	386.19
367.278	398.19
367.505	389.19
367.731	391.19
367.957	392.19
368.184	385.19
368.41	401.19
368.636	395.19
368.862	414.19
369.089	393.19
369.315	399.19
369.541	416.19
369.767	397.19
369.993	424.19
370.219	397.19
370.445	407.19
370.672	393.19
370.898	405.19
371.124	408.19
371.35	397.19
371.576	412.19
371.802	412.19
372.028	395.19
372.254	405.19
372.48	414.19
372.706	424.19
372.932	397.19
373.158	405.19
373.384	406.19
373.61	410.19
373.835	411.19
374.061	400.19
374.287	405.19
374.513	399.19
374.739	403.19
374.965	417.19
375.191	404.19
375.416	417.19
375.642	409.19
375.868	419.19
376.094	400.19
376.319	399.19
376.545	395.19
376.771	397.19
376.997	394.19
377.222	402.19
377.448	399.19
377.674	411.19
377.899	401.19
378.125	409.19
378.35	411.19
378.576	390.19
378.802	391.19
379.027	406.19
379.253	403.19
379.478	380.19
379.704	414.19
379.929	424.19
380.155	410.19
380.38	430.19
380.606	408.19
380.831	393.19
381.057	407.19
381.282	395.19
381.507	417.19
381.733	415.19
381.958	416.19
382.184	395.19
382.409	396.19
382.634	417.19
382.86	409.19
383.085	415.19
383.31	420.19
383.535	424.19
383.761	436.19
383.986	419.19
384.211	419.19
384.436	429.19
384.662	420.19
384.887	431.19
385.112	438.19
385.337	432.19
385.562	425.19
385.787	455.19
386.013	450.19
386.238	452.19
386.463	451.19
386.688	460.19
386.913	443.19
387.138	453.19
387.363	447.19
387.588	457.19
387.813	433.19
388.038	443.19
388.263	456.19
388.488	434.19
388.713	433.19
388.938	435.19
389.163	434.19
389.387	443.19
389.612	442.19
389.837	444.19
390.062	455.19
390.287	454.19
390.512	445.19
390.736	435.19
390.961	435.19
391.186	461.19
391.411	445.19
391.636	459.19
391.86	485.19
392.085	458.19
392.31	481.19
392.534	452.19
392.759	456.19
392.984	461.19
393.208	454.19
393.433	442.19
393.658	466.19
393.882	469.19
394.107	452.19
394.331	452.19
394.556	457.19
394.78	472.19
395.005	480.19
395.229	449.19
395.454	472.19
395.678	484.19
395.903	481.19
396.127	486.19
396.352	510.19
396.576	485.19
396.801	472.19
397.025	474.19
397.249	468.19
397.474	479.19
397.698	448.19
397.922	516.19
398.147	527.19
398.371	518.19
398.595	527.19
398.82	532.19
399.044	565.19
399.268	545.19
399.492	569.19
399.717	586.19
399.941	604.19
400.165	634.19
400.389	644.19
400.613	600.19
400.837	547.19
401.062	533.19
401.286	559.19
401.51	521.19
401.734	521.19
401.958	531.19
402.182	523.19
402.406	551.19
402.63	540.19
402.854	524.19
403.078	521.19
403.302	546.19
403.526	542.19
403.75	553.19
403.974	538.19
404.198	536.19
404.422	549.19
404.645	570.19
404.869	547.19
405.093	592.19
405.317	629.19
405.541	649.19
405.765	615.19
405.988	583.19
406.212	595.19
406.436	581.19
406.66	583.19
406.883	562.19
407.107	609.19
407.331	641.19
407.555	735.19
407.778	732.19
408.002	659.19
408.226	625.19
408.449	612.19
408.673	602.19
408.896	628.19
409.12	667.19
409.344	643.19
409.567	601.19
409.791	574.19
410.014	559.19
410.238	544.19
410.461	548.19
410.685	563.19
410.908	557.19
411.132	615.19
411.355	636.19
411.578	609.19
411.802	586.19
412.025	560.19
412.249	561.19
412.472	580.19
412.695	622.19
412.919	605.19
413.142	566.19
413.365	535.19
413.589	540.19
413.812	529.19
414.035	521.19
414.258	521.19
414.482	521.19
414.705	531.19
414.928	533.19
415.151	526.19
415.374	527.19
415.597	533.19
415.821	521.19
416.044	515.19
416.267	509.19
416.49	530.19
416.713	516.19
416.936	519.19
417.159	512.19
417.382	529.19
417.605	506.19
417.828	513.19
418.051	540.19
418.274	551.19
418.497	548.19
418.72	525.19
418.943	518.19
419.166	531.19
419.389	559.19
419.611	554.19
419.834	547.19
420.057	542.19
420.28	516.19
420.503	551.19
420.726	545.19
420.948	537.19
421.171	619.19
421.394	598.19
421.617	549.19
421.839	527.19
422.062	526.19
422.285	550.19
422.507	619.19
422.73	679.19
422.953	643.19
423.175	598.19
423.398	577.19
423.621	566.19
423.843	587.19
424.066	569.19
424.288	572.19
424.511	603.19
424.733	633.19
424.956	737.19
425.178	703.19
425.401	682.19
425.623	708.19
425.846	619.19
426.068	567.19
426.291	586.19
426.513	578.19
426.735	571.19
426.958	603.19
427.18	695.19
427.402	836.19
427.625	939.19
427.847	809.19
428.069	701.19
428.292	614.19
428.514	560.19
428.736	561.19
428.958	560.19
429.181	539.19
429.403	546.19
429.625	535.19
429.847	583.19
430.069	636.19
430.292	640.19
430.514	548.19
430.736	525.19
430.958	529.19
431.18	512.19
431.402	513.19
431.624	512.19
431.846	517.19
432.068	517.19
432.29	527.19
432.512	519.19
432.734	523.19
432.956	526.19
433.178	527.19
433.4	526.19
433.622	510.19
433.844	503.19
434.066	520.19
434.287	537.19
434.509	528.19
434.731	528.19
434.953	534.19
435.175	548.19
435.397	569.19
435.618	582.19
435.84	607.19
436.062	690.19
436.284	812.19
436.505	653.19
436.727	585.19
436.949	575.19
437.17	540.19
437.392	535.19
437.614	539.19
437.835	561.19
438.057	658.19
438.278	785.19
438.5	745.19
438.721	851.19
438.943	828.19
439.165	638.19
439.386	584.19
439.608	572.19
439.829	560.19
440.05	604.19
440.272	653.19
440.493	598.19
440.715	577.19
440.936	539.19
441.158	541.19
441.379	526.19
441.6	541.19
441.822	551.19
442.043	606.19
442.264	688.19
442.486	751.19
442.707	634.19
442.928	617.19
443.149	617.19
443.371	612.19
443.592	647.19
443.813	748.19
444.034	832.19
444.255	671.19
444.476	619.19
444.698	605.19
444.919	576.19
445.14	689.19
445.361	646.19
445.582	634.19
445.803	716.19
446.024	795.19
446.245	815.19
446.466	735.19
446.687	623.19
446.908	572.19
447.129	547.19
447.35	520.19
447.571	536.19
447.792	530.19
448.013	527.19
448.234	530.19
448.455	595.19
448.675	759.19
448.896	845.19
449.117	693.19
449.338	634.19
449.559	772.19
449.779	889.19
450	699.19
450.221	582.19
450.442	532.19
450.662	518.19
450.883	517.19
451.104	535.19
451.324	533.19
451.545	500.19
451.766	516.19
451.986	476.19
452.207	485.19
452.428	463.19
452.648	468.19
452.869	465.19
453.089	470.19
453.31	483.19
453.53	479.19
453.751	483.19
453.971	476.19
454.192	500.19
454.412	495.19
454.633	509.19
454.853	461.19
455.073	463.19
455.294	497.19
455.514	554.19
455.734	549.19
455.955	470.19
456.175	473.19
456.395	455.19
456.616	452.19
456.836	451.19
457.056	454.19
457.276	459.19
457.497	461.19
457.717	444.19
457.937	448.19
458.157	469.19
458.377	487.19
458.598	500.19
458.818	539.19
459.038	637.19
459.258	627.19
459.478	545.19
459.698	522.19
459.918	516.19
460.138	528.19
460.358	520.19
460.578	520.19
460.798	531.19
461.018	543.19
461.238	537.19
461.458	531.19
461.678	532.19
461.898	523.19
462.118	551.19
462.338	553.19
462.558	526.19
462.777	553.19
462.997	573.19
463.217	577.19
463.437	599.19
463.657	590.19
463.876	560.19
464.096	547.19
464.316	563.19
464.536	574.19
464.755	573.19
464.975	553.19
465.195	575.19
465.414	660.19
465.634	576.19
465.854	550.19
466.073	534.19
466.293	512.19
466.512	534.19
466.732	512.19
466.951	487.19
467.171	498.19
467.391	489.19
467.61	517.19
467.829	505.19
468.049	526.19
468.268	505.19
468.488	479.19
468.707	479.19
468.927	484.19
469.146	483.19
469.365	494.19
469.585	483.19
469.804	495.19
470.023	525.19
470.243	499.19
470.462	497.19
470.681	520.19
470.901	534.19
471.12	510.19
471.339	513.19
471.558	505.19
471.777	516.19
471.997	513.19
472.216	511.19
472.435	519.19
472.654	516.19
472.873	497.19
473.092	466.19
473.311	492.19
473.53	495.19
473.749	511.19
473.968	539.19
474.187	632.19
474.406	676.19
474.625	567.19
474.844	519.19
475.063	481.19
475.282	526.19
475.501	508.19
475.72	503.19
475.939	511.19
476.158	508.19
476.377	520.19
476.596	533.19
476.814	517.19
477.033	548.19
477.252	536.19
477.471	526.19
477.69	532.19
477.908	549.19
478.127	566.19
478.346	547.19
478.564	564.19
478.783	561.19
479.002	559.19
479.22	565.19
479.439	614.19
479.658	585.19
479.876	590.19
480.095	601.19
480.313	628.19
480.532	609.19
480.751	634.19
480.969	608.19
481.188	665.19
481.406	676.19
481.624	627.19
481.843	611.19
482.061	615.19
482.28	593.19
482.498	592.19
482.717	579.19
482.935	604.19
483.153	588.19
483.372	571.19
483.59	602.19
483.808	588.19
484.027	582.19
484.245	595.19
484.463	587.19
484.681	604.19
484.9	582.19
485.118	587.19
485.336	606.19
485.554	593.19
485.772	578.19
485.99	604.19
486.209	606.19
486.427	631.19
486.645	607.19
486.863	624.19
487.081	637.19
487.299	613.19
487.517	628.19
487.735	633.19
487.953	597.19
488.171	628.19
488.389	626.19
488.607	623.19
488.825	625.19
489.043	635.19
489.261	606.19
489.479	620.19
489.696	633.19
489.914	643.19
490.132	655.19
490.35	656.19
490.568	666.19
490.786	673.19
491.003	671.19
491.221	682.19
491.439	681.19
491.657	693.19
491.874	682.19
492.092	709.19
492.31	700.19
492.527	683.19
492.745	697.19
492.963	715.19
493.18	718.19
493.398	711.19
493.615	697.19
493.833	720.19
494.05	727.19
494.268	719.19
494.485	737.19
494.703	716.19
494.92	714.19
495.138	716.19
495.355	727.19
495.573	734.19
495.79	736.19
496.008	729.19
496.225	745.19
496.442	727.19
496.66	728.19
496.877	746.19
497.094	765.19
497.312	755.19
497.529	768.19
497.746	755.19
497.963	789.19
498.181	806.19
498.398	797.19
498.615	830.19
498.832	879.19
499.049	887.19
499.267	900.19
499.484	891.19
499.701	932.19
499.918	982.19
500.135	1025.19
500.352	1077.19
500.569	1068.19
500.786	1071.19
501.003	1068.19
501.22	1029.19
501.437	1023.19
501.654	985.19
501.871	942.19
