Data from 1978.PennyLincolnUp.Lamp.En5.5.200Scan.071719.P1_HRD10591_16-13-47-863.txt Node
Date: Thu Jul 18 16:13:47 EDT 2019
User: cochatt
Spectrometer: HR+D1059
Trigger mode: 1
Integration Time (sec): 1.000000E-1
Scans to average: 1
Electric dark correction enabled: true
Nonlinearity correction enabled: false
Boxcar width: 0
XAxis mode: Wavelengths
Number of Pixels in Spectrum: 2048
>>>>>Begin Spectral Data<<<<<
223.165	-15.75
223.4	-15.75
223.635	-15.75
223.869	-23.75
224.104	-9.75
224.338	-14.75
224.573	-15.75
224.808	-18.75
225.042	4.25
225.277	-16.75
225.511	-1.75
225.746	7.25
225.98	6.25
226.215	5.25
226.449	17.25
226.683	17.25
226.918	19.25
227.152	40.25
227.387	39.25
227.621	36.25
227.856	50.25
228.09	47.25
228.324	45.25
228.559	56.25
228.793	67.25
229.027	89.25
229.262	109.25
229.496	104.25
229.73	123.25
229.964	160.25
230.199	116.25
230.433	103.25
230.667	112.25
230.901	115.25
231.136	109.25
231.37	112.25
231.604	102.25
231.838	122.25
232.072	110.25
232.306	111.25
232.541	125.25
232.775	115.25
233.009	104.25
233.243	109.25
233.477	120.25
233.711	109.25
233.945	114.25
234.179	120.25
234.413	119.25
234.647	116.25
234.881	114.25
235.115	124.25
235.349	132.25
235.583	124.25
235.817	129.25
236.051	114.25
236.285	111.25
236.519	135.25
236.753	130.25
236.987	138.25
237.221	184.25
237.455	219.25
237.689	188.25
237.922	124.25
238.156	136.25
238.39	128.25
238.624	124.25
238.858	122.25
239.091	119.25
239.325	136.25
239.559	136.25
239.793	127.25
240.027	134.25
240.26	136.25
240.494	142.25
240.728	142.25
240.961	144.25
241.195	159.25
241.429	127.25
241.662	128.25
241.896	126.25
242.13	135.25
242.363	142.25
242.597	123.25
242.83	127.25
243.064	135.25
243.298	130.25
243.531	140.25
243.765	135.25
243.998	126.25
244.232	145.25
244.465	134.25
244.699	126.25
244.932	152.25
245.166	125.25
245.399	159.25
245.633	150.25
245.866	127.25
246.099	135.25
246.333	154.25
246.566	135.25
246.8	142.25
247.033	157.25
247.266	152.25
247.5	157.25
247.733	169.25
247.966	168.25
248.2	163.25
248.433	165.25
248.666	156.25
248.899	184.25
249.133	178.25
249.366	196.25
249.599	183.25
249.832	171.25
250.066	173.25
250.299	166.25
250.532	173.25
250.765	205.25
250.998	205.25
251.231	220.25
251.465	212.25
251.698	192.25
251.931	192.25
252.164	184.25
252.397	178.25
252.63	196.25
252.863	196.25
253.096	186.25
253.329	222.25
253.562	217.25
253.795	204.25
254.028	207.25
254.261	206.25
254.494	219.25
254.727	224.25
254.96	251.25
255.193	237.25
255.426	206.25
255.659	212.25
255.892	223.25
256.124	234.25
256.357	215.25
256.59	189.25
256.823	212.25
257.056	190.25
257.289	186.25
257.521	190.25
257.754	175.25
257.987	183.25
258.22	219.25
258.452	203.25
258.685	197.25
258.918	180.25
259.151	185.25
259.383	195.25
259.616	205.25
259.849	224.25
260.081	236.25
260.314	238.25
260.547	219.25
260.779	224.25
261.012	221.25
261.244	215.25
261.477	189.25
261.71	208.25
261.942	213.25
262.175	217.25
262.407	230.25
262.64	197.25
262.872	209.25
263.105	210.25
263.337	205.25
263.57	188.25
263.802	199.25
264.035	209.25
264.267	215.25
264.499	206.25
264.732	229.25
264.964	212.25
265.197	209.25
265.429	208.25
265.661	207.25
265.894	197.25
266.126	215.25
266.358	210.25
266.591	200.25
266.823	200.25
267.055	213.25
267.287	207.25
267.52	220.25
267.752	214.25
267.984	218.25
268.216	210.25
268.448	220.25
268.681	222.25
268.913	231.25
269.145	241.25
269.377	258.25
269.609	263.25
269.841	259.25
270.073	251.25
270.306	264.25
270.538	285.25
270.77	285.25
271.002	287.25
271.234	272.25
271.466	284.25
271.698	290.25
271.93	277.25
272.162	297.25
272.394	299.25
272.626	290.25
272.858	251.25
273.09	264.25
273.322	264.25
273.553	265.25
273.785	257.25
274.017	252.25
274.249	272.25
274.481	263.25
274.713	249.25
274.945	256.25
275.176	255.25
275.408	266.25
275.64	255.25
275.872	254.25
276.104	268.25
276.335	257.25
276.567	267.25
276.799	272.25
277.031	298.25
277.262	305.25
277.494	300.25
277.726	287.25
277.957	291.25
278.189	256.25
278.421	264.25
278.652	265.25
278.884	252.25
279.115	264.25
279.347	271.25
279.579	251.25
279.81	253.25
280.042	258.25
280.273	258.25
280.505	268.25
280.736	248.25
280.968	273.25
281.199	249.25
281.431	238.25
281.662	265.25
281.894	259.25
282.125	262.25
282.356	295.25
282.588	294.25
282.819	298.25
283.051	278.25
283.282	263.25
283.513	270.25
283.745	276.25
283.976	277.25
284.207	285.25
284.439	277.25
284.67	258.25
284.901	272.25
285.132	276.25
285.364	270.25
285.595	255.25
285.826	268.25
286.057	265.25
286.288	272.25
286.52	276.25
286.751	263.25
286.982	286.25
287.213	269.25
287.444	275.25
287.675	294.25
287.906	283.25
288.138	286.25
288.369	281.25
288.6	295.25
288.831	273.25
289.062	291.25
289.293	275.25
289.524	294.25
289.755	284.25
289.986	294.25
290.217	285.25
290.448	273.25
290.679	262.25
290.91	280.25
291.141	277.25
291.371	286.25
291.602	284.25
291.833	290.25
292.064	274.25
292.295	285.25
292.526	271.25
292.757	272.25
292.987	282.25
293.218	263.25
293.449	291.25
293.68	278.25
293.91	280.25
294.141	276.25
294.372	296.25
294.603	276.25
294.833	278.25
295.064	266.25
295.295	279.25
295.525	290.25
295.756	300.25
295.987	292.25
296.217	324.25
296.448	319.25
296.679	319.25
296.909	302.25
297.14	286.25
297.37	283.25
297.601	302.25
297.831	288.25
298.062	294.25
298.292	287.25
298.523	296.25
298.753	295.25
298.984	296.25
299.214	291.25
299.445	294.25
299.675	308.25
299.905	324.25
300.136	294.25
300.366	312.25
300.597	293.25
300.827	324.25
301.057	324.25
301.288	334.25
301.518	314.25
301.748	304.25
301.979	325.25
302.209	335.25
302.439	330.25
302.669	310.25
302.9	333.25
303.13	318.25
303.36	327.25
303.59	317.25
303.82	317.25
304.051	346.25
304.281	310.25
304.511	311.25
304.741	329.25
304.971	320.25
305.201	319.25
305.431	318.25
305.661	304.25
305.891	321.25
306.121	323.25
306.352	321.25
306.582	324.25
306.812	310.25
307.042	322.25
307.272	338.25
307.502	332.25
307.731	314.25
307.961	332.25
308.191	325.25
308.421	323.25
308.651	322.25
308.881	308.25
309.111	344.25
309.341	327.25
309.571	344.25
309.8	346.25
310.03	347.25
310.26	358.25
310.49	341.25
310.72	378.25
310.949	387.25
311.179	388.25
311.409	383.25
311.639	351.25
311.868	350.25
312.098	366.25
312.328	375.25
312.557	398.25
312.787	404.25
313.017	368.25
313.246	383.25
313.476	366.25
313.706	378.25
313.935	356.25
314.165	380.25
314.394	390.25
314.624	393.25
314.853	392.25
315.083	373.25
315.312	345.25
315.542	355.25
315.771	374.25
316.001	360.25
316.23	343.25
316.46	360.25
316.689	359.25
316.919	371.25
317.148	379.25
317.377	368.25
317.607	390.25
317.836	374.25
318.065	375.25
318.295	375.25
318.524	351.25
318.753	372.25
318.983	382.25
319.212	382.25
319.441	390.25
319.67	386.25
319.9	389.25
320.129	385.25
320.358	377.25
320.587	380.25
320.816	392.25
321.046	392.25
321.275	398.25
321.504	379.25
321.733	401.25
321.962	387.25
322.191	406.25
322.42	420.25
322.649	446.25
322.878	451.25
323.108	452.25
323.337	457.25
323.566	487.25
323.795	518.25
324.024	549.25
324.253	693.25
324.482	964.25
324.71	1573.25
324.939	2360.25
325.168	2000.25
325.397	983.25
325.626	646.25
325.855	548.25
326.084	487.25
326.313	506.25
326.542	502.25
326.77	520.25
326.999	642.25
327.228	888.25
327.457	1386.25
327.686	1722.25
327.914	1119.25
328.143	702.25
328.372	600.25
328.6	566.25
328.829	561.25
329.058	560.25
329.287	569.25
329.515	543.25
329.744	501.25
329.972	506.25
330.201	496.25
330.43	536.25
330.658	569.25
330.887	585.25
331.115	575.25
331.344	534.25
331.572	489.25
331.801	466.25
332.03	458.25
332.258	464.25
332.486	461.25
332.715	446.25
332.943	454.25
333.172	473.25
333.4	444.25
333.629	463.25
333.857	478.25
334.085	483.25
334.314	494.25
334.542	491.25
334.771	532.25
334.999	492.25
335.227	481.25
335.455	463.25
335.684	458.25
335.912	468.25
336.14	440.25
336.369	456.25
336.597	453.25
336.825	443.25
337.053	445.25
337.281	424.25
337.51	426.25
337.738	450.25
337.966	431.25
338.194	452.25
338.422	448.25
338.65	447.25
338.878	455.25
339.106	446.25
339.334	422.25
339.562	445.25
339.79	426.25
340.018	438.25
340.246	420.25
340.474	427.25
340.702	439.25
340.93	412.25
341.158	422.25
341.386	429.25
341.614	421.25
341.842	425.25
342.07	429.25
342.298	428.25
342.526	415.25
342.754	417.25
342.981	427.25
343.209	429.25
343.437	412.25
343.665	427.25
343.893	442.25
344.12	445.25
344.348	446.25
344.576	458.25
344.804	462.25
345.031	452.25
345.259	461.25
345.487	462.25
345.714	434.25
345.942	429.25
346.17	422.25
346.397	426.25
346.625	427.25
346.853	423.25
347.08	416.25
347.308	418.25
347.535	421.25
347.763	427.25
347.99	426.25
348.218	432.25
348.445	431.25
348.673	426.25
348.9	436.25
349.128	422.25
349.355	408.25
349.583	417.25
349.81	405.25
350.037	399.25
350.265	387.25
350.492	408.25
350.72	418.25
350.947	407.25
351.174	426.25
351.402	442.25
351.629	418.25
351.856	431.25
352.083	428.25
352.311	451.25
352.538	438.25
352.765	431.25
352.992	436.25
353.22	431.25
353.447	427.25
353.674	445.25
353.901	399.25
354.128	405.25
354.355	418.25
354.583	391.25
354.81	414.25
355.037	382.25
355.264	397.25
355.491	404.25
355.718	402.25
355.945	397.25
356.172	363.25
356.399	412.25
356.626	403.25
356.853	408.25
357.08	382.25
357.307	388.25
357.534	380.25
357.761	387.25
357.988	387.25
358.215	397.25
358.441	399.25
358.668	408.25
358.895	396.25
359.122	376.25
359.349	409.25
359.576	422.25
359.802	441.25
360.029	460.25
360.256	486.25
360.483	456.25
360.709	430.25
360.936	414.25
361.163	426.25
361.39	442.25
361.616	420.25
361.843	426.25
362.07	414.25
362.296	427.25
362.523	430.25
362.749	408.25
362.976	415.25
363.203	421.25
363.429	406.25
363.656	420.25
363.882	414.25
364.109	391.25
364.335	410.25
364.562	422.25
364.788	387.25
365.015	401.25
365.241	397.25
365.468	415.25
365.694	435.25
365.92	430.25
366.147	406.25
366.373	398.25
366.599	422.25
366.826	401.25
367.052	397.25
367.278	388.25
367.505	406.25
367.731	414.25
367.957	406.25
368.184	419.25
368.41	418.25
368.636	421.25
368.862	413.25
369.089	410.25
369.315	427.25
369.541	411.25
369.767	411.25
369.993	434.25
370.219	412.25
370.445	416.25
370.672	400.25
370.898	408.25
371.124	424.25
371.35	409.25
371.576	398.25
371.802	404.25
372.028	395.25
372.254	412.25
372.48	419.25
372.706	410.25
372.932	430.25
373.158	411.25
373.384	410.25
373.61	432.25
373.835	406.25
374.061	431.25
374.287	409.25
374.513	426.25
374.739	418.25
374.965	430.25
375.191	442.25
375.416	450.25
375.642	425.25
375.868	430.25
376.094	433.25
376.319	406.25
376.545	424.25
376.771	426.25
376.997	395.25
377.222	411.25
377.448	441.25
377.674	413.25
377.899	408.25
378.125	402.25
378.35	419.25
378.576	412.25
378.802	402.25
379.027	417.25
379.253	414.25
379.478	419.25
379.704	407.25
379.929	404.25
380.155	423.25
380.38	419.25
380.606	420.25
380.831	400.25
381.057	409.25
381.282	406.25
381.507	416.25
381.733	414.25
381.958	415.25
382.184	422.25
382.409	429.25
382.634	435.25
382.86	413.25
383.085	413.25
383.31	422.25
383.535	437.25
383.761	431.25
383.986	446.25
384.211	424.25
384.436	427.25
384.662	454.25
384.887	438.25
385.112	447.25
385.337	445.25
385.562	459.25
385.787	448.25
386.013	461.25
386.238	484.25
386.463	490.25
386.688	451.25
386.913	439.25
387.138	463.25
387.363	438.25
387.588	457.25
387.813	473.25
388.038	463.25
388.263	469.25
388.488	457.25
388.713	445.25
388.938	458.25
389.163	464.25
389.387	466.25
389.612	459.25
389.837	447.25
390.062	467.25
390.287	458.25
390.512	452.25
390.736	456.25
390.961	460.25
391.186	454.25
391.411	492.25
391.636	487.25
391.86	484.25
392.085	487.25
392.31	490.25
392.534	494.25
392.759	478.25
392.984	458.25
393.208	474.25
393.433	469.25
393.658	475.25
393.882	467.25
394.107	479.25
394.331	459.25
394.556	459.25
394.78	461.25
395.005	462.25
395.229	493.25
395.454	495.25
395.678	484.25
395.903	508.25
396.127	500.25
396.352	529.25
396.576	492.25
396.801	468.25
397.025	481.25
397.249	509.25
397.474	510.25
397.698	480.25
397.922	508.25
398.147	553.25
398.371	547.25
398.595	512.25
398.82	518.25
399.044	540.25
399.268	549.25
399.492	558.25
399.717	618.25
399.941	632.25
400.165	658.25
400.389	669.25
400.613	619.25
400.837	586.25
401.062	570.25
401.286	555.25
401.51	565.25
401.734	536.25
401.958	553.25
402.182	542.25
402.406	535.25
402.63	557.25
402.854	555.25
403.078	539.25
403.302	543.25
403.526	557.25
403.75	550.25
403.974	573.25
404.198	559.25
404.422	558.25
404.645	554.25
404.869	562.25
405.093	605.25
405.317	637.25
405.541	662.25
405.765	623.25
405.988	594.25
406.212	595.25
406.436	615.25
406.66	629.25
406.883	594.25
407.107	644.25
407.331	677.25
407.555	756.25
407.778	763.25
408.002	684.25
408.226	656.25
408.449	611.25
408.673	628.25
408.896	675.25
409.12	693.25
409.344	655.25
409.567	582.25
409.791	581.25
410.014	552.25
410.238	570.25
410.461	559.25
410.685	578.25
410.908	582.25
411.132	627.25
411.355	663.25
411.578	615.25
411.802	573.25
412.025	573.25
412.249	566.25
412.472	577.25
412.695	630.25
412.919	610.25
413.142	593.25
413.365	584.25
413.589	554.25
413.812	555.25
414.035	545.25
414.258	547.25
414.482	527.25
414.705	514.25
414.928	534.25
415.151	547.25
415.374	544.25
415.597	527.25
415.821	506.25
416.044	534.25
416.267	540.25
416.49	524.25
416.713	495.25
416.936	522.25
417.159	523.25
417.382	540.25
417.605	538.25
417.828	546.25
418.051	549.25
418.274	547.25
418.497	540.25
418.72	536.25
418.943	522.25
419.166	532.25
419.389	570.25
419.611	562.25
419.834	553.25
420.057	567.25
420.28	566.25
420.503	544.25
420.726	547.25
420.948	583.25
421.171	606.25
421.394	651.25
421.617	568.25
421.839	553.25
422.062	552.25
422.285	569.25
422.507	628.25
422.73	727.25
422.953	703.25
423.175	603.25
423.398	580.25
423.621	551.25
423.843	588.25
424.066	576.25
424.288	583.25
424.511	606.25
424.733	653.25
424.956	741.25
425.178	752.25
425.401	708.25
425.623	762.25
425.846	627.25
426.068	604.25
426.291	587.25
426.513	595.25
426.735	588.25
426.958	627.25
427.18	727.25
427.402	854.25
427.625	974.25
427.847	822.25
428.069	735.25
428.292	661.25
428.514	586.25
428.736	550.25
428.958	577.25
429.181	572.25
429.403	554.25
429.625	570.25
429.847	574.25
430.069	674.25
430.292	674.25
430.514	579.25
430.736	551.25
430.958	545.25
431.18	548.25
431.402	524.25
431.624	523.25
431.846	502.25
432.068	526.25
432.29	521.25
432.512	523.25
432.734	534.25
432.956	532.25
433.178	559.25
433.4	564.25
433.622	526.25
433.844	514.25
434.066	509.25
434.287	521.25
434.509	541.25
434.731	538.25
434.953	546.25
435.175	566.25
435.397	588.25
435.618	601.25
435.84	647.25
436.062	747.25
436.284	862.25
436.505	684.25
436.727	607.25
436.949	580.25
437.17	562.25
437.392	571.25
437.614	576.25
437.835	594.25
438.057	682.25
438.278	833.25
438.5	793.25
438.721	895.25
438.943	879.25
439.165	678.25
439.386	616.25
439.608	585.25
439.829	614.25
440.05	642.25
440.272	670.25
440.493	644.25
440.715	596.25
440.936	559.25
441.158	547.25
441.379	541.25
441.6	562.25
441.822	573.25
442.043	608.25
442.264	719.25
442.486	782.25
442.707	653.25
442.928	614.25
443.149	618.25
443.371	627.25
443.592	671.25
443.813	767.25
444.034	862.25
444.255	717.25
444.476	620.25
444.698	610.25
444.919	595.25
445.14	663.25
445.361	652.25
445.582	661.25
445.803	718.25
446.024	832.25
446.245	845.25
446.466	778.25
446.687	656.25
446.908	597.25
447.129	588.25
447.35	545.25
447.571	527.25
447.792	531.25
448.013	537.25
448.234	567.25
448.455	646.25
448.675	762.25
448.896	874.25
449.117	747.25
449.338	679.25
449.559	824.25
449.779	946.25
450	724.25
450.221	615.25
450.442	562.25
450.662	530.25
450.883	530.25
451.104	550.25
451.324	533.25
451.545	537.25
451.766	502.25
451.986	487.25
452.207	492.25
452.428	488.25
452.648	459.25
452.869	496.25
453.089	478.25
453.31	522.25
453.53	504.25
453.751	483.25
453.971	499.25
454.192	517.25
454.412	498.25
454.633	483.25
454.853	492.25
455.073	502.25
455.294	530.25
455.514	604.25
455.734	582.25
455.955	502.25
456.175	470.25
456.395	455.25
456.616	473.25
456.836	452.25
457.056	466.25
457.276	460.25
457.497	455.25
457.717	460.25
457.937	490.25
458.157	478.25
458.377	499.25
458.598	521.25
458.818	572.25
459.038	613.25
459.258	672.25
459.478	573.25
459.698	540.25
459.918	530.25
460.138	516.25
460.358	535.25
460.578	536.25
460.798	553.25
461.018	553.25
461.238	536.25
461.458	549.25
461.678	544.25
461.898	543.25
462.118	555.25
462.338	556.25
462.558	558.25
462.777	567.25
462.997	588.25
463.217	606.25
463.437	597.25
463.657	570.25
463.876	605.25
464.096	608.25
464.316	579.25
464.536	603.25
464.755	589.25
464.975	597.25
465.195	604.25
465.414	649.25
465.634	616.25
465.854	583.25
466.073	559.25
466.293	532.25
466.512	499.25
466.732	512.25
466.951	532.25
467.171	506.25
467.391	512.25
467.61	516.25
467.829	538.25
468.049	526.25
468.268	532.25
468.488	522.25
468.707	507.25
468.927	491.25
469.146	499.25
469.365	484.25
469.585	482.25
469.804	485.25
470.023	509.25
470.243	513.25
470.462	520.25
470.681	544.25
470.901	537.25
471.12	545.25
471.339	516.25
471.558	531.25
471.777	518.25
471.997	503.25
472.216	521.25
472.435	547.25
472.654	534.25
472.873	522.25
473.092	512.25
473.311	538.25
473.53	514.25
473.749	528.25
473.968	568.25
474.187	666.25
474.406	707.25
474.625	596.25
474.844	541.25
475.063	538.25
475.282	517.25
475.501	522.25
475.72	523.25
475.939	539.25
476.158	534.25
476.377	542.25
476.596	523.25
476.814	531.25
477.033	547.25
477.252	553.25
477.471	549.25
477.69	554.25
477.908	560.25
478.127	583.25
478.346	580.25
478.564	563.25
478.783	562.25
479.002	590.25
479.22	571.25
479.439	580.25
479.658	630.25
479.876	623.25
480.095	636.25
480.313	674.25
480.532	662.25
480.751	650.25
480.969	632.25
481.188	696.25
481.406	720.25
481.624	655.25
481.843	650.25
482.061	623.25
482.28	623.25
482.498	596.25
482.717	613.25
482.935	596.25
483.153	605.25
483.372	604.25
483.59	605.25
483.808	598.25
484.027	611.25
484.245	601.25
484.463	618.25
484.681	629.25
484.9	612.25
485.118	614.25
485.336	627.25
485.554	636.25
485.772	631.25
485.99	624.25
486.209	645.25
486.427	644.25
486.645	640.25
486.863	641.25
487.081	653.25
487.299	656.25
487.517	650.25
487.735	636.25
487.953	657.25
488.171	659.25
488.389	644.25
488.607	655.25
488.825	646.25
489.043	654.25
489.261	636.25
489.479	664.25
489.696	650.25
489.914	659.25
490.132	671.25
490.35	678.25
490.568	674.25
490.786	682.25
491.003	696.25
491.221	701.25
491.439	718.25
491.657	690.25
491.874	734.25
492.092	724.25
492.31	721.25
492.527	735.25
492.745	711.25
492.963	738.25
493.18	744.25
493.398	741.25
493.615	749.25
493.833	734.25
494.05	743.25
494.268	762.25
494.485	763.25
494.703	770.25
494.92	766.25
495.138	742.25
495.355	733.25
495.573	780.25
495.79	747.25
496.008	761.25
496.225	750.25
496.442	758.25
496.66	754.25
496.877	771.25
497.094	786.25
497.312	774.25
497.529	795.25
497.746	799.25
497.963	836.25
498.181	846.25
498.398	847.25
498.615	846.25
498.832	875.25
499.049	894.25
499.267	910.25
499.484	973.25
499.701	965.25
499.918	1014.25
500.135	1039.25
500.352	1080.25
500.569	1110.25
500.786	1090.25
501.003	1087.25
501.22	1085.25
501.437	1051.25
501.654	1003.25
501.871	975.25
