Data from 1978.PennyLincolnUp.Lamp.En5.5.200Scan.071719.P1_HRD10591_16-13-18-864.txt Node
Date: Thu Jul 18 16:13:18 EDT 2019
User: cochatt
Spectrometer: HR+D1059
Trigger mode: 1
Integration Time (sec): 1.000000E-1
Scans to average: 1
Electric dark correction enabled: true
Nonlinearity correction enabled: false
Boxcar width: 0
XAxis mode: Wavelengths
Number of Pixels in Spectrum: 2048
>>>>>Begin Spectral Data<<<<<
223.165	-23.88
223.4	-23.88
223.635	-23.88
223.869	-12.88
224.104	-23.88
224.338	-5.88
224.573	-11.88
224.808	-17.88
225.042	0.12
225.277	-9.88
225.511	-9.88
225.746	3.12
225.98	-0.88
226.215	10.12
226.449	20.12
226.683	21.12
226.918	25.12
227.152	37.12
227.387	32.12
227.621	33.12
227.856	32.12
228.09	38.12
228.324	46.12
228.559	58.12
228.793	64.12
229.027	100.12
229.262	95.12
229.496	102.12
229.73	116.12
229.964	136.12
230.199	124.12
230.433	119.12
230.667	105.12
230.901	116.12
231.136	114.12
231.37	107.12
231.604	106.12
231.838	104.12
232.072	100.12
232.306	108.12
232.541	106.12
232.775	108.12
233.009	108.12
233.243	124.12
233.477	100.12
233.711	110.12
233.945	111.12
234.179	108.12
234.413	115.12
234.647	114.12
234.881	125.12
235.115	116.12
235.349	112.12
235.583	112.12
235.817	120.12
236.051	138.12
236.285	124.12
236.519	121.12
236.753	120.12
236.987	138.12
237.221	176.12
237.455	218.12
237.689	178.12
237.922	130.12
238.156	135.12
238.39	121.12
238.624	116.12
238.858	103.12
239.091	114.12
239.325	114.12
239.559	126.12
239.793	142.12
240.027	122.12
240.26	141.12
240.494	148.12
240.728	167.12
240.961	145.12
241.195	134.12
241.429	130.12
241.662	118.12
241.896	115.12
242.13	124.12
242.363	130.12
242.597	126.12
242.83	127.12
243.064	139.12
243.298	115.12
243.531	134.12
243.765	125.12
243.998	132.12
244.232	134.12
244.465	154.12
244.699	133.12
244.932	128.12
245.166	138.12
245.399	132.12
245.633	144.12
245.866	151.12
246.099	148.12
246.333	148.12
246.566	142.12
246.8	141.12
247.033	143.12
247.266	142.12
247.5	155.12
247.733	151.12
247.966	155.12
248.2	158.12
248.433	157.12
248.666	155.12
248.899	171.12
249.133	182.12
249.366	197.12
249.599	193.12
249.832	168.12
250.066	153.12
250.299	170.12
250.532	186.12
250.765	197.12
250.998	210.12
251.231	186.12
251.465	192.12
251.698	170.12
251.931	182.12
252.164	191.12
252.397	170.12
252.63	185.12
252.863	197.12
253.096	201.12
253.329	221.12
253.562	200.12
253.795	196.12
254.028	186.12
254.261	202.12
254.494	221.12
254.727	229.12
254.96	244.12
255.193	238.12
255.426	219.12
255.659	220.12
255.892	217.12
256.124	201.12
256.357	200.12
256.59	205.12
256.823	197.12
257.056	193.12
257.289	203.12
257.521	196.12
257.754	194.12
257.987	172.12
258.22	200.12
258.452	208.12
258.685	183.12
258.918	192.12
259.151	190.12
259.383	198.12
259.616	197.12
259.849	220.12
260.081	216.12
260.314	228.12
260.547	258.12
260.779	236.12
261.012	205.12
261.244	206.12
261.477	208.12
261.71	203.12
261.942	205.12
262.175	222.12
262.407	225.12
262.64	208.12
262.872	206.12
263.105	199.12
263.337	206.12
263.57	196.12
263.802	220.12
264.035	194.12
264.267	190.12
264.499	209.12
264.732	192.12
264.964	212.12
265.197	215.12
265.429	195.12
265.661	214.12
265.894	201.12
266.126	210.12
266.358	199.12
266.591	208.12
266.823	210.12
267.055	226.12
267.287	203.12
267.52	199.12
267.752	207.12
267.984	207.12
268.216	207.12
268.448	235.12
268.681	213.12
268.913	250.12
269.145	240.12
269.377	249.12
269.609	262.12
269.841	245.12
270.073	242.12
270.306	283.12
270.538	268.12
270.77	282.12
271.002	278.12
271.234	273.12
271.466	278.12
271.698	273.12
271.93	294.12
272.162	298.12
272.394	286.12
272.626	275.12
272.858	267.12
273.09	268.12
273.322	253.12
273.553	260.12
273.785	267.12
274.017	263.12
274.249	256.12
274.481	232.12
274.713	237.12
274.945	248.12
275.176	246.12
275.408	247.12
275.64	242.12
275.872	245.12
276.104	254.12
276.335	250.12
276.567	245.12
276.799	279.12
277.031	293.12
277.262	291.12
277.494	308.12
277.726	280.12
277.957	261.12
278.189	289.12
278.421	246.12
278.652	244.12
278.884	272.12
279.115	252.12
279.347	248.12
279.579	245.12
279.81	262.12
280.042	240.12
280.273	271.12
280.505	257.12
280.736	243.12
280.968	252.12
281.199	263.12
281.431	263.12
281.662	261.12
281.894	231.12
282.125	296.12
282.356	284.12
282.588	277.12
282.819	295.12
283.051	257.12
283.282	261.12
283.513	272.12
283.745	262.12
283.976	270.12
284.207	258.12
284.439	251.12
284.67	276.12
284.901	282.12
285.132	266.12
285.364	282.12
285.595	276.12
285.826	269.12
286.057	269.12
286.288	256.12
286.52	265.12
286.751	258.12
286.982	268.12
287.213	264.12
287.444	282.12
287.675	274.12
287.906	283.12
288.138	287.12
288.369	267.12
288.6	284.12
288.831	296.12
289.062	279.12
289.293	278.12
289.524	256.12
289.755	278.12
289.986	271.12
290.217	294.12
290.448	279.12
290.679	271.12
290.91	278.12
291.141	280.12
291.371	279.12
291.602	286.12
291.833	268.12
292.064	274.12
292.295	273.12
292.526	261.12
292.757	282.12
292.987	280.12
293.218	272.12
293.449	291.12
293.68	266.12
293.91	290.12
294.141	293.12
294.372	264.12
294.603	267.12
294.833	282.12
295.064	266.12
295.295	260.12
295.525	272.12
295.756	304.12
295.987	295.12
296.217	292.12
296.448	319.12
296.679	307.12
296.909	301.12
297.14	292.12
297.37	283.12
297.601	285.12
297.831	282.12
298.062	281.12
298.292	298.12
298.523	303.12
298.753	296.12
298.984	285.12
299.214	297.12
299.445	285.12
299.675	304.12
299.905	300.12
300.136	314.12
300.366	300.12
300.597	300.12
300.827	300.12
301.057	309.12
301.288	319.12
301.518	311.12
301.748	318.12
301.979	312.12
302.209	326.12
302.439	310.12
302.669	330.12
302.9	296.12
303.13	310.12
303.36	303.12
303.59	320.12
303.82	322.12
304.051	325.12
304.281	320.12
304.511	304.12
304.741	312.12
304.971	316.12
305.201	304.12
305.431	327.12
305.661	326.12
305.891	304.12
306.121	313.12
306.352	314.12
306.582	337.12
306.812	324.12
307.042	322.12
307.272	308.12
307.502	326.12
307.731	324.12
307.961	319.12
308.191	317.12
308.421	333.12
308.651	325.12
308.881	344.12
309.111	311.12
309.341	323.12
309.571	338.12
309.8	326.12
310.03	332.12
310.26	358.12
310.49	356.12
310.72	357.12
310.949	375.12
311.179	372.12
311.409	358.12
311.639	348.12
311.868	361.12
312.098	366.12
312.328	374.12
312.557	389.12
312.787	383.12
313.017	375.12
313.246	377.12
313.476	363.12
313.706	384.12
313.935	357.12
314.165	365.12
314.394	380.12
314.624	376.12
314.853	370.12
315.083	370.12
315.312	362.12
315.542	357.12
315.771	359.12
316.001	356.12
316.23	344.12
316.46	373.12
316.689	356.12
316.919	367.12
317.148	362.12
317.377	358.12
317.607	351.12
317.836	362.12
318.065	364.12
318.295	360.12
318.524	379.12
318.753	352.12
318.983	362.12
319.212	353.12
319.441	349.12
319.67	378.12
319.9	378.12
320.129	383.12
320.358	353.12
320.587	351.12
320.816	383.12
321.046	376.12
321.275	379.12
321.504	387.12
321.733	410.12
321.962	397.12
322.191	411.12
322.42	408.12
322.649	429.12
322.878	434.12
323.108	446.12
323.337	454.12
323.566	481.12
323.795	508.12
324.024	546.12
324.253	657.12
324.482	918.12
324.71	1432.12
324.939	2167.12
325.168	1911.12
325.397	919.12
325.626	623.12
325.855	530.12
326.084	467.12
326.313	480.12
326.542	478.12
326.77	499.12
326.999	624.12
327.228	840.12
327.457	1304.12
327.686	1613.12
327.914	1067.12
328.143	700.12
328.372	602.12
328.6	562.12
328.829	523.12
329.058	531.12
329.287	564.12
329.515	511.12
329.744	488.12
329.972	487.12
330.201	493.12
330.43	530.12
330.658	520.12
330.887	551.12
331.115	573.12
331.344	490.12
331.572	473.12
331.801	481.12
332.03	468.12
332.258	457.12
332.486	435.12
332.715	449.12
332.943	410.12
333.172	442.12
333.4	447.12
333.629	468.12
333.857	462.12
334.085	476.12
334.314	509.12
334.542	515.12
334.771	522.12
334.999	493.12
335.227	463.12
335.455	455.12
335.684	438.12
335.912	445.12
336.14	449.12
336.369	460.12
336.597	449.12
336.825	443.12
337.053	434.12
337.281	407.12
337.51	429.12
337.738	436.12
337.966	429.12
338.194	436.12
338.422	448.12
338.65	448.12
338.878	419.12
339.106	404.12
339.334	428.12
339.562	413.12
339.79	426.12
340.018	427.12
340.246	430.12
340.474	429.12
340.702	419.12
340.93	432.12
341.158	414.12
341.386	423.12
341.614	428.12
341.842	418.12
342.07	427.12
342.298	421.12
342.526	406.12
342.754	396.12
342.981	403.12
343.209	426.12
343.437	403.12
343.665	416.12
343.893	437.12
344.12	408.12
344.348	449.12
344.576	422.12
344.804	429.12
345.031	458.12
345.259	426.12
345.487	439.12
345.714	424.12
345.942	424.12
346.17	423.12
346.397	421.12
346.625	407.12
346.853	400.12
347.08	406.12
347.308	403.12
347.535	417.12
347.763	412.12
347.99	436.12
348.218	438.12
348.445	445.12
348.673	446.12
348.9	428.12
349.128	400.12
349.355	397.12
349.583	401.12
349.81	396.12
350.037	414.12
350.265	407.12
350.492	381.12
350.72	384.12
350.947	379.12
351.174	414.12
351.402	435.12
351.629	418.12
351.856	400.12
352.083	443.12
352.311	431.12
352.538	418.12
352.765	441.12
352.992	436.12
353.22	422.12
353.447	419.12
353.674	396.12
353.901	400.12
354.128	375.12
354.355	394.12
354.583	391.12
354.81	383.12
355.037	401.12
355.264	406.12
355.491	393.12
355.718	370.12
355.945	389.12
356.172	396.12
356.399	377.12
356.626	394.12
356.853	392.12
357.08	387.12
357.307	397.12
357.534	386.12
357.761	387.12
357.988	399.12
358.215	363.12
358.441	372.12
358.668	389.12
358.895	398.12
359.122	403.12
359.349	401.12
359.576	420.12
359.802	451.12
360.029	447.12
360.256	463.12
360.483	462.12
360.709	421.12
360.936	416.12
361.163	413.12
361.39	405.12
361.616	425.12
361.843	416.12
362.07	416.12
362.296	429.12
362.523	401.12
362.749	391.12
362.976	391.12
363.203	422.12
363.429	408.12
363.656	396.12
363.882	404.12
364.109	415.12
364.335	411.12
364.562	392.12
364.788	399.12
365.015	392.12
365.241	404.12
365.468	422.12
365.694	394.12
365.92	406.12
366.147	378.12
366.373	383.12
366.599	412.12
366.826	381.12
367.052	388.12
367.278	386.12
367.505	416.12
367.731	423.12
367.957	403.12
368.184	413.12
368.41	409.12
368.636	428.12
368.862	405.12
369.089	400.12
369.315	408.12
369.541	426.12
369.767	402.12
369.993	399.12
370.219	407.12
370.445	400.12
370.672	400.12
370.898	432.12
371.124	398.12
371.35	400.12
371.576	403.12
371.802	408.12
372.028	386.12
372.254	399.12
372.48	414.12
372.706	400.12
372.932	418.12
373.158	412.12
373.384	416.12
373.61	406.12
373.835	397.12
374.061	434.12
374.287	418.12
374.513	414.12
374.739	429.12
374.965	437.12
375.191	428.12
375.416	406.12
375.642	422.12
375.868	403.12
376.094	398.12
376.319	427.12
376.545	413.12
376.771	413.12
376.997	409.12
377.222	419.12
377.448	397.12
377.674	414.12
377.899	408.12
378.125	423.12
378.35	414.12
378.576	404.12
378.802	414.12
379.027	402.12
379.253	402.12
379.478	418.12
379.704	394.12
379.929	419.12
380.155	415.12
380.38	416.12
380.606	427.12
380.831	413.12
381.057	439.12
381.282	429.12
381.507	412.12
381.733	428.12
381.958	419.12
382.184	416.12
382.409	412.12
382.634	421.12
382.86	417.12
383.085	440.12
383.31	448.12
383.535	429.12
383.761	435.12
383.986	429.12
384.211	436.12
384.436	435.12
384.662	448.12
384.887	438.12
385.112	436.12
385.337	458.12
385.562	463.12
385.787	453.12
386.013	459.12
386.238	451.12
386.463	451.12
386.688	454.12
386.913	447.12
387.138	449.12
387.363	455.12
387.588	430.12
387.813	454.12
388.038	456.12
388.263	473.12
388.488	460.12
388.713	479.12
388.938	451.12
389.163	453.12
389.387	458.12
389.612	470.12
389.837	462.12
390.062	472.12
390.287	474.12
390.512	445.12
390.736	454.12
390.961	451.12
391.186	457.12
391.411	473.12
391.636	475.12
391.86	471.12
392.085	487.12
392.31	479.12
392.534	459.12
392.759	488.12
392.984	494.12
393.208	457.12
393.433	479.12
393.658	455.12
393.882	444.12
394.107	459.12
394.331	493.12
394.556	469.12
394.78	470.12
395.005	490.12
395.229	458.12
395.454	490.12
395.678	507.12
395.903	511.12
396.127	510.12
396.352	537.12
396.576	503.12
396.801	488.12
397.025	482.12
397.249	516.12
397.474	485.12
397.698	510.12
397.922	542.12
398.147	511.12
398.371	519.12
398.595	539.12
398.82	525.12
399.044	546.12
399.268	539.12
399.492	586.12
399.717	614.12
399.941	649.12
400.165	698.12
400.389	662.12
400.613	615.12
400.837	578.12
401.062	566.12
401.286	547.12
401.51	542.12
401.734	527.12
401.958	539.12
402.182	556.12
402.406	539.12
402.63	552.12
402.854	550.12
403.078	549.12
403.302	566.12
403.526	550.12
403.75	587.12
403.974	576.12
404.198	554.12
404.422	572.12
404.645	555.12
404.869	560.12
405.093	601.12
405.317	634.12
405.541	663.12
405.765	623.12
405.988	589.12
406.212	588.12
406.436	596.12
406.66	621.12
406.883	617.12
407.107	619.12
407.331	652.12
407.555	734.12
407.778	727.12
408.002	667.12
408.226	616.12
408.449	603.12
408.673	584.12
408.896	642.12
409.12	683.12
409.344	657.12
409.567	582.12
409.791	565.12
410.014	571.12
410.238	542.12
410.461	556.12
410.685	572.12
410.908	572.12
411.132	599.12
411.355	656.12
411.578	617.12
411.802	576.12
412.025	553.12
412.249	570.12
412.472	586.12
412.695	618.12
412.919	615.12
413.142	591.12
413.365	578.12
413.589	583.12
413.812	542.12
414.035	532.12
414.258	545.12
414.482	525.12
414.705	534.12
414.928	543.12
415.151	530.12
415.374	556.12
415.597	531.12
415.821	527.12
416.044	514.12
416.267	514.12
416.49	526.12
416.713	524.12
416.936	519.12
417.159	542.12
417.382	542.12
417.605	517.12
417.828	559.12
418.051	557.12
418.274	547.12
418.497	519.12
418.72	540.12
418.943	500.12
419.166	557.12
419.389	578.12
419.611	576.12
419.834	568.12
420.057	560.12
420.28	537.12
420.503	530.12
420.726	562.12
420.948	557.12
421.171	611.12
421.394	612.12
421.617	550.12
421.839	540.12
422.062	543.12
422.285	529.12
422.507	631.12
422.73	690.12
422.953	667.12
423.175	582.12
423.398	566.12
423.621	583.12
423.843	575.12
424.066	566.12
424.288	549.12
424.511	598.12
424.733	655.12
424.956	743.12
425.178	693.12
425.401	699.12
425.623	737.12
425.846	636.12
426.068	579.12
426.291	576.12
426.513	575.12
426.735	607.12
426.958	607.12
427.18	697.12
427.402	864.12
427.625	973.12
427.847	803.12
428.069	698.12
428.292	636.12
428.514	590.12
428.736	571.12
428.958	560.12
429.181	537.12
429.403	527.12
429.625	543.12
429.847	569.12
430.069	636.12
430.292	646.12
430.514	558.12
430.736	566.12
430.958	539.12
431.18	506.12
431.402	520.12
431.624	504.12
431.846	503.12
432.068	512.12
432.29	516.12
432.512	527.12
432.734	538.12
432.956	507.12
433.178	555.12
433.4	542.12
433.622	520.12
433.844	519.12
434.066	521.12
434.287	518.12
434.509	526.12
434.731	543.12
434.953	543.12
435.175	551.12
435.397	589.12
435.618	596.12
435.84	654.12
436.062	712.12
436.284	815.12
436.505	688.12
436.727	613.12
436.949	580.12
437.17	554.12
437.392	551.12
437.614	550.12
437.835	584.12
438.057	667.12
438.278	776.12
438.5	787.12
438.721	891.12
438.943	840.12
439.165	660.12
439.386	605.12
439.608	574.12
439.829	597.12
440.05	633.12
440.272	670.12
440.493	635.12
440.715	567.12
440.936	548.12
441.158	548.12
441.379	552.12
441.6	568.12
441.822	571.12
442.043	623.12
442.264	691.12
442.486	754.12
442.707	622.12
442.928	620.12
443.149	613.12
443.371	622.12
443.592	672.12
443.813	769.12
444.034	863.12
444.255	692.12
444.476	637.12
444.698	610.12
444.919	583.12
445.14	717.12
445.361	648.12
445.582	636.12
445.803	702.12
446.024	808.12
446.245	823.12
446.466	712.12
446.687	612.12
446.908	591.12
447.129	575.12
447.35	541.12
447.571	544.12
447.792	555.12
448.013	548.12
448.234	552.12
448.455	608.12
448.675	733.12
448.896	893.12
449.117	708.12
449.338	679.12
449.559	796.12
449.779	903.12
450	704.12
450.221	600.12
450.442	537.12
450.662	538.12
450.883	516.12
451.104	546.12
451.324	547.12
451.545	510.12
451.766	510.12
451.986	487.12
452.207	499.12
452.428	490.12
452.648	507.12
452.869	481.12
453.089	484.12
453.31	505.12
453.53	502.12
453.751	502.12
453.971	472.12
454.192	507.12
454.412	503.12
454.633	486.12
454.853	472.12
455.073	468.12
455.294	509.12
455.514	568.12
455.734	548.12
455.955	491.12
456.175	468.12
456.395	471.12
456.616	470.12
456.836	463.12
457.056	448.12
457.276	465.12
457.497	473.12
457.717	469.12
457.937	468.12
458.157	457.12
458.377	487.12
458.598	512.12
458.818	547.12
459.038	617.12
459.258	653.12
459.478	559.12
459.698	524.12
459.918	527.12
460.138	517.12
460.358	537.12
460.578	527.12
460.798	532.12
461.018	551.12
461.238	536.12
461.458	524.12
461.678	545.12
461.898	558.12
462.118	558.12
462.338	564.12
462.558	548.12
462.777	552.12
462.997	583.12
463.217	587.12
463.437	598.12
463.657	599.12
463.876	609.12
464.096	568.12
464.316	566.12
464.536	553.12
464.755	578.12
464.975	599.12
465.195	619.12
465.414	655.12
465.634	596.12
465.854	559.12
466.073	552.12
466.293	518.12
466.512	513.12
466.732	509.12
466.951	520.12
467.171	532.12
467.391	518.12
467.61	518.12
467.829	521.12
468.049	499.12
468.268	508.12
468.488	512.12
468.707	493.12
468.927	472.12
469.146	483.12
469.365	493.12
469.585	488.12
469.804	499.12
470.023	538.12
470.243	515.12
470.462	523.12
470.681	530.12
470.901	536.12
471.12	503.12
471.339	516.12
471.558	507.12
471.777	514.12
471.997	504.12
472.216	479.12
472.435	549.12
472.654	541.12
472.873	522.12
473.092	505.12
473.311	506.12
473.53	526.12
473.749	496.12
473.968	547.12
474.187	668.12
474.406	682.12
474.625	577.12
474.844	528.12
475.063	524.12
475.282	507.12
475.501	514.12
475.72	538.12
475.939	517.12
476.158	529.12
476.377	539.12
476.596	529.12
476.814	529.12
477.033	531.12
477.252	547.12
477.471	527.12
477.69	545.12
477.908	576.12
478.127	569.12
478.346	564.12
478.564	591.12
478.783	552.12
479.002	564.12
479.22	596.12
479.439	596.12
479.658	598.12
479.876	602.12
480.095	598.12
480.313	653.12
480.532	615.12
480.751	631.12
480.969	630.12
481.188	657.12
481.406	706.12
481.624	641.12
481.843	620.12
482.061	616.12
482.28	595.12
482.498	603.12
482.717	588.12
482.935	601.12
483.153	607.12
483.372	598.12
483.59	607.12
483.808	598.12
484.027	603.12
484.245	605.12
484.463	601.12
484.681	595.12
484.9	616.12
485.118	615.12
485.336	614.12
485.554	633.12
485.772	620.12
485.99	632.12
486.209	628.12
486.427	598.12
486.645	652.12
486.863	637.12
487.081	660.12
487.299	637.12
487.517	624.12
487.735	628.12
487.953	653.12
488.171	628.12
488.389	622.12
488.607	630.12
488.825	628.12
489.043	638.12
489.261	622.12
489.479	642.12
489.696	646.12
489.914	665.12
490.132	661.12
490.35	666.12
490.568	648.12
490.786	668.12
491.003	652.12
491.221	687.12
491.439	684.12
491.657	694.12
491.874	710.12
492.092	724.12
492.31	699.12
492.527	713.12
492.745	727.12
492.963	703.12
493.18	727.12
493.398	727.12
493.615	726.12
493.833	718.12
494.05	747.12
494.268	720.12
494.485	729.12
494.703	726.12
494.92	776.12
495.138	750.12
495.355	756.12
495.573	772.12
495.79	749.12
496.008	756.12
496.225	743.12
496.442	735.12
496.66	760.12
496.877	783.12
497.094	750.12
497.312	770.12
497.529	765.12
497.746	812.12
497.963	816.12
498.181	848.12
498.398	848.12
498.615	844.12
498.832	889.12
499.049	892.12
499.267	900.12
499.484	929.12
499.701	975.12
499.918	977.12
500.135	1031.12
500.352	1069.12
500.569	1074.12
500.786	1103.12
501.003	1070.12
501.22	1069.12
501.437	1040.12
501.654	1011.12
501.871	963.12
