Data from 1978.PennyLincolnUp.Lamp.En5.5.200Scan.071719.P1_HRD10591_16-12-51-864.txt Node
Date: Thu Jul 18 16:12:51 EDT 2019
User: cochatt
Spectrometer: HR+D1059
Trigger mode: 1
Integration Time (sec): 1.000000E-1
Scans to average: 1
Electric dark correction enabled: true
Nonlinearity correction enabled: false
Boxcar width: 0
XAxis mode: Wavelengths
Number of Pixels in Spectrum: 2048
>>>>>Begin Spectral Data<<<<<
223.165	-6.5
223.4	-6.5
223.635	-6.5
223.869	-25.5
224.104	-14.5
224.338	-3.5
224.573	-18.5
224.808	-14.5
225.042	-15.5
225.277	-19.5
225.511	-3.5
225.746	-2.5
225.98	14.5
226.215	-0.5
226.449	17.5
226.683	25.5
226.918	21.5
227.152	45.5
227.387	34.5
227.621	25.5
227.856	45.5
228.09	45.5
228.324	68.5
228.559	65.5
228.793	67.5
229.027	98.5
229.262	114.5
229.496	120.5
229.73	145.5
229.964	162.5
230.199	142.5
230.433	117.5
230.667	129.5
230.901	129.5
231.136	124.5
231.37	106.5
231.604	113.5
231.838	128.5
232.072	100.5
232.306	113.5
232.541	126.5
232.775	115.5
233.009	121.5
233.243	115.5
233.477	113.5
233.711	123.5
233.945	108.5
234.179	110.5
234.413	123.5
234.647	115.5
234.881	119.5
235.115	112.5
235.349	114.5
235.583	120.5
235.817	107.5
236.051	138.5
236.285	130.5
236.519	131.5
236.753	124.5
236.987	157.5
237.221	182.5
237.455	247.5
237.689	189.5
237.922	139.5
238.156	153.5
238.39	135.5
238.624	127.5
238.858	129.5
239.091	138.5
239.325	112.5
239.559	133.5
239.793	132.5
240.027	128.5
240.26	146.5
240.494	142.5
240.728	140.5
240.961	159.5
241.195	151.5
241.429	112.5
241.662	137.5
241.896	133.5
242.13	145.5
242.363	138.5
242.597	129.5
242.83	128.5
243.064	131.5
243.298	136.5
243.531	127.5
243.765	129.5
243.998	142.5
244.232	143.5
244.465	129.5
244.699	150.5
244.932	149.5
245.166	146.5
245.399	153.5
245.633	154.5
245.866	147.5
246.099	131.5
246.333	139.5
246.566	146.5
246.8	150.5
247.033	133.5
247.266	168.5
247.5	166.5
247.733	172.5
247.966	156.5
248.2	165.5
248.433	154.5
248.666	164.5
248.899	175.5
249.133	190.5
249.366	193.5
249.599	194.5
249.832	161.5
250.066	178.5
250.299	161.5
250.532	171.5
250.765	179.5
250.998	203.5
251.231	204.5
251.465	201.5
251.698	183.5
251.931	204.5
252.164	183.5
252.397	181.5
252.63	178.5
252.863	179.5
253.096	194.5
253.329	200.5
253.562	210.5
253.795	195.5
254.028	195.5
254.261	204.5
254.494	205.5
254.727	231.5
254.96	254.5
255.193	221.5
255.426	231.5
255.659	222.5
255.892	214.5
256.124	226.5
256.357	227.5
256.59	221.5
256.823	189.5
257.056	194.5
257.289	195.5
257.521	191.5
257.754	198.5
257.987	181.5
258.22	200.5
258.452	190.5
258.685	203.5
258.918	194.5
259.151	199.5
259.383	190.5
259.616	207.5
259.849	207.5
260.081	223.5
260.314	234.5
260.547	238.5
260.779	229.5
261.012	226.5
261.244	219.5
261.477	217.5
261.71	208.5
261.942	207.5
262.175	217.5
262.407	219.5
262.64	222.5
262.872	203.5
263.105	218.5
263.337	200.5
263.57	203.5
263.802	209.5
264.035	198.5
264.267	213.5
264.499	194.5
264.732	207.5
264.964	193.5
265.197	204.5
265.429	217.5
265.661	210.5
265.894	211.5
266.126	200.5
266.358	221.5
266.591	207.5
266.823	215.5
267.055	211.5
267.287	232.5
267.52	229.5
267.752	217.5
267.984	202.5
268.216	230.5
268.448	228.5
268.681	240.5
268.913	233.5
269.145	237.5
269.377	261.5
269.609	266.5
269.841	232.5
270.073	246.5
270.306	268.5
270.538	290.5
270.77	293.5
271.002	278.5
271.234	270.5
271.466	279.5
271.698	260.5
271.93	297.5
272.162	284.5
272.394	297.5
272.626	275.5
272.858	265.5
273.09	252.5
273.322	265.5
273.553	241.5
273.785	259.5
274.017	247.5
274.249	249.5
274.481	237.5
274.713	241.5
274.945	269.5
275.176	278.5
275.408	242.5
275.64	274.5
275.872	263.5
276.104	245.5
276.335	240.5
276.567	269.5
276.799	272.5
277.031	279.5
277.262	296.5
277.494	299.5
277.726	290.5
277.957	269.5
278.189	253.5
278.421	267.5
278.652	266.5
278.884	257.5
279.115	261.5
279.347	259.5
279.579	237.5
279.81	273.5
280.042	257.5
280.273	273.5
280.505	266.5
280.736	253.5
280.968	258.5
281.199	262.5
281.431	241.5
281.662	257.5
281.894	239.5
282.125	265.5
282.356	284.5
282.588	268.5
282.819	295.5
283.051	267.5
283.282	265.5
283.513	288.5
283.745	273.5
283.976	272.5
284.207	291.5
284.439	261.5
284.67	255.5
284.901	254.5
285.132	283.5
285.364	261.5
285.595	278.5
285.826	275.5
286.057	275.5
286.288	253.5
286.52	262.5
286.751	267.5
286.982	259.5
287.213	264.5
287.444	279.5
287.675	275.5
287.906	277.5
288.138	290.5
288.369	295.5
288.6	287.5
288.831	280.5
289.062	270.5
289.293	288.5
289.524	270.5
289.755	270.5
289.986	278.5
290.217	281.5
290.448	273.5
290.679	281.5
290.91	302.5
291.141	273.5
291.371	287.5
291.602	281.5
291.833	295.5
292.064	295.5
292.295	262.5
292.526	282.5
292.757	279.5
292.987	289.5
293.218	278.5
293.449	285.5
293.68	290.5
293.91	278.5
294.141	263.5
294.372	291.5
294.603	296.5
294.833	275.5
295.064	295.5
295.295	277.5
295.525	289.5
295.756	310.5
295.987	293.5
296.217	309.5
296.448	295.5
296.679	291.5
296.909	291.5
297.14	293.5
297.37	297.5
297.601	293.5
297.831	293.5
298.062	290.5
298.292	299.5
298.523	293.5
298.753	292.5
298.984	298.5
299.214	297.5
299.445	297.5
299.675	311.5
299.905	321.5
300.136	302.5
300.366	299.5
300.597	298.5
300.827	316.5
301.057	289.5
301.288	324.5
301.518	320.5
301.748	292.5
301.979	319.5
302.209	325.5
302.439	313.5
302.669	322.5
302.9	313.5
303.13	297.5
303.36	301.5
303.59	331.5
303.82	313.5
304.051	334.5
304.281	317.5
304.511	332.5
304.741	339.5
304.971	318.5
305.201	320.5
305.431	319.5
305.661	321.5
305.891	319.5
306.121	309.5
306.352	326.5
306.582	320.5
306.812	328.5
307.042	327.5
307.272	313.5
307.502	312.5
307.731	330.5
307.961	332.5
308.191	319.5
308.421	333.5
308.651	316.5
308.881	312.5
309.111	331.5
309.341	344.5
309.571	360.5
309.8	346.5
310.03	350.5
310.26	359.5
310.49	360.5
310.72	351.5
310.949	376.5
311.179	363.5
311.409	349.5
311.639	339.5
311.868	363.5
312.098	362.5
312.328	359.5
312.557	353.5
312.787	395.5
313.017	375.5
313.246	371.5
313.476	376.5
313.706	348.5
313.935	355.5
314.165	376.5
314.394	393.5
314.624	386.5
314.853	383.5
315.083	373.5
315.312	368.5
315.542	358.5
315.771	354.5
316.001	367.5
316.23	370.5
316.46	362.5
316.689	382.5
316.919	377.5
317.148	379.5
317.377	379.5
317.607	354.5
317.836	373.5
318.065	382.5
318.295	365.5
318.524	367.5
318.753	371.5
318.983	354.5
319.212	381.5
319.441	385.5
319.67	377.5
319.9	369.5
320.129	375.5
320.358	357.5
320.587	381.5
320.816	392.5
321.046	391.5
321.275	383.5
321.504	387.5
321.733	374.5
321.962	406.5
322.191	397.5
322.42	402.5
322.649	424.5
322.878	430.5
323.108	443.5
323.337	456.5
323.566	467.5
323.795	465.5
324.024	559.5
324.253	626.5
324.482	908.5
324.71	1439.5
324.939	2211.5
325.168	1909.5
325.397	892.5
325.626	615.5
325.855	532.5
326.084	496.5
326.313	468.5
326.542	495.5
326.77	541.5
326.999	610.5
327.228	839.5
327.457	1296.5
327.686	1655.5
327.914	1091.5
328.143	682.5
328.372	588.5
328.6	575.5
328.829	547.5
329.058	538.5
329.287	565.5
329.515	521.5
329.744	478.5
329.972	487.5
330.201	505.5
330.43	533.5
330.658	570.5
330.887	596.5
331.115	558.5
331.344	488.5
331.572	471.5
331.801	486.5
332.03	463.5
332.258	456.5
332.486	455.5
332.715	416.5
332.943	456.5
333.172	450.5
333.4	447.5
333.629	464.5
333.857	485.5
334.085	484.5
334.314	484.5
334.542	510.5
334.771	527.5
334.999	495.5
335.227	473.5
335.455	443.5
335.684	449.5
335.912	437.5
336.14	424.5
336.369	448.5
336.597	459.5
336.825	477.5
337.053	441.5
337.281	445.5
337.51	431.5
337.738	443.5
337.966	428.5
338.194	431.5
338.422	440.5
338.65	433.5
338.878	432.5
339.106	422.5
339.334	408.5
339.562	413.5
339.79	438.5
340.018	427.5
340.246	412.5
340.474	446.5
340.702	444.5
340.93	434.5
341.158	428.5
341.386	439.5
341.614	440.5
341.842	432.5
342.07	411.5
342.298	425.5
342.526	423.5
342.754	408.5
342.981	426.5
343.209	428.5
343.437	434.5
343.665	419.5
343.893	432.5
344.12	438.5
344.348	430.5
344.576	436.5
344.804	433.5
345.031	430.5
345.259	455.5
345.487	450.5
345.714	454.5
345.942	445.5
346.17	425.5
346.397	395.5
346.625	411.5
346.853	415.5
347.08	415.5
347.308	429.5
347.535	417.5
347.763	444.5
347.99	418.5
348.218	422.5
348.445	421.5
348.673	422.5
348.9	417.5
349.128	409.5
349.355	394.5
349.583	414.5
349.81	409.5
350.037	397.5
350.265	407.5
350.492	395.5
350.72	401.5
350.947	406.5
351.174	417.5
351.402	409.5
351.629	430.5
351.856	426.5
352.083	429.5
352.311	440.5
352.538	422.5
352.765	444.5
352.992	414.5
353.22	412.5
353.447	419.5
353.674	407.5
353.901	407.5
354.128	414.5
354.355	407.5
354.583	416.5
354.81	395.5
355.037	388.5
355.264	412.5
355.491	411.5
355.718	382.5
355.945	391.5
356.172	392.5
356.399	379.5
356.626	407.5
356.853	393.5
357.08	386.5
357.307	401.5
357.534	400.5
357.761	393.5
357.988	387.5
358.215	393.5
358.441	397.5
358.668	402.5
358.895	407.5
359.122	393.5
359.349	409.5
359.576	430.5
359.802	425.5
360.029	465.5
360.256	476.5
360.483	443.5
360.709	420.5
360.936	423.5
361.163	424.5
361.39	428.5
361.616	446.5
361.843	420.5
362.07	410.5
362.296	414.5
362.523	429.5
362.749	423.5
362.976	400.5
363.203	417.5
363.429	416.5
363.656	399.5
363.882	405.5
364.109	401.5
364.335	418.5
364.562	414.5
364.788	417.5
365.015	435.5
365.241	422.5
365.468	407.5
365.694	423.5
365.92	402.5
366.147	410.5
366.373	401.5
366.599	415.5
366.826	408.5
367.052	417.5
367.278	407.5
367.505	419.5
367.731	421.5
367.957	407.5
368.184	407.5
368.41	421.5
368.636	426.5
368.862	422.5
369.089	417.5
369.315	409.5
369.541	397.5
369.767	420.5
369.993	413.5
370.219	428.5
370.445	404.5
370.672	410.5
370.898	402.5
371.124	417.5
371.35	407.5
371.576	423.5
371.802	415.5
372.028	405.5
372.254	415.5
372.48	398.5
372.706	393.5
372.932	437.5
373.158	442.5
373.384	431.5
373.61	405.5
373.835	418.5
374.061	435.5
374.287	437.5
374.513	415.5
374.739	414.5
374.965	417.5
375.191	409.5
375.416	430.5
375.642	417.5
375.868	429.5
376.094	423.5
376.319	442.5
376.545	429.5
376.771	421.5
376.997	411.5
377.222	434.5
377.448	403.5
377.674	413.5
377.899	395.5
378.125	413.5
378.35	403.5
378.576	398.5
378.802	411.5
379.027	415.5
379.253	413.5
379.478	421.5
379.704	404.5
379.929	420.5
380.155	441.5
380.38	424.5
380.606	407.5
380.831	424.5
381.057	418.5
381.282	424.5
381.507	422.5
381.733	430.5
381.958	427.5
382.184	419.5
382.409	441.5
382.634	429.5
382.86	441.5
383.085	416.5
383.31	439.5
383.535	437.5
383.761	430.5
383.986	453.5
384.211	458.5
384.436	457.5
384.662	448.5
384.887	443.5
385.112	442.5
385.337	443.5
385.562	435.5
385.787	461.5
386.013	462.5
386.238	477.5
386.463	470.5
386.688	472.5
386.913	447.5
387.138	448.5
387.363	457.5
387.588	476.5
387.813	468.5
388.038	475.5
388.263	459.5
388.488	442.5
388.713	455.5
388.938	462.5
389.163	473.5
389.387	471.5
389.612	453.5
389.837	450.5
390.062	460.5
390.287	474.5
390.512	461.5
390.736	456.5
390.961	481.5
391.186	478.5
391.411	482.5
391.636	473.5
391.86	483.5
392.085	471.5
392.31	464.5
392.534	473.5
392.759	482.5
392.984	459.5
393.208	464.5
393.433	473.5
393.658	497.5
393.882	471.5
394.107	475.5
394.331	481.5
394.556	462.5
394.78	474.5
395.005	484.5
395.229	492.5
395.454	480.5
395.678	477.5
395.903	482.5
396.127	502.5
396.352	519.5
396.576	503.5
396.801	477.5
397.025	478.5
397.249	482.5
397.474	489.5
397.698	516.5
397.922	509.5
398.147	535.5
398.371	566.5
398.595	526.5
398.82	520.5
399.044	573.5
399.268	567.5
399.492	576.5
399.717	631.5
399.941	637.5
400.165	667.5
400.389	699.5
400.613	621.5
400.837	584.5
401.062	554.5
401.286	557.5
401.51	554.5
401.734	558.5
401.958	544.5
402.182	539.5
402.406	555.5
402.63	558.5
402.854	557.5
403.078	562.5
403.302	581.5
403.526	562.5
403.75	553.5
403.974	544.5
404.198	540.5
404.422	551.5
404.645	577.5
404.869	582.5
405.093	589.5
405.317	641.5
405.541	672.5
405.765	629.5
405.988	619.5
406.212	603.5
406.436	604.5
406.66	639.5
406.883	596.5
407.107	638.5
407.331	665.5
407.555	752.5
407.778	745.5
408.002	680.5
408.226	633.5
408.449	640.5
408.673	614.5
408.896	661.5
409.12	697.5
409.344	660.5
409.567	599.5
409.791	588.5
410.014	575.5
410.238	577.5
410.461	555.5
410.685	603.5
410.908	586.5
411.132	609.5
411.355	653.5
411.578	631.5
411.802	566.5
412.025	561.5
412.249	581.5
412.472	593.5
412.695	631.5
412.919	605.5
413.142	578.5
413.365	551.5
413.589	547.5
413.812	546.5
414.035	551.5
414.258	531.5
414.482	531.5
414.705	551.5
414.928	523.5
415.151	536.5
415.374	532.5
415.597	529.5
415.821	505.5
416.044	561.5
416.267	549.5
416.49	513.5
416.713	537.5
416.936	519.5
417.159	535.5
417.382	559.5
417.605	540.5
417.828	525.5
418.051	561.5
418.274	544.5
418.497	519.5
418.72	541.5
418.943	521.5
419.166	571.5
419.389	584.5
419.611	585.5
419.834	561.5
420.057	569.5
420.28	551.5
420.503	556.5
420.726	550.5
420.948	573.5
421.171	593.5
421.394	651.5
421.617	583.5
421.839	559.5
422.062	567.5
422.285	573.5
422.507	624.5
422.73	720.5
422.953	666.5
423.175	612.5
423.398	576.5
423.621	573.5
423.843	587.5
424.066	587.5
424.288	594.5
424.511	613.5
424.733	674.5
424.956	742.5
425.178	697.5
425.401	709.5
425.623	728.5
425.846	643.5
426.068	577.5
426.291	570.5
426.513	596.5
426.735	606.5
426.958	637.5
427.18	705.5
427.402	830.5
427.625	950.5
427.847	831.5
428.069	716.5
428.292	641.5
428.514	580.5
428.736	578.5
428.958	553.5
429.181	533.5
429.403	538.5
429.625	537.5
429.847	578.5
430.069	655.5
430.292	653.5
430.514	552.5
430.736	560.5
430.958	531.5
431.18	527.5
431.402	546.5
431.624	525.5
431.846	529.5
432.068	530.5
432.29	522.5
432.512	545.5
432.734	535.5
432.956	531.5
433.178	534.5
433.4	536.5
433.622	517.5
433.844	524.5
434.066	517.5
434.287	523.5
434.509	532.5
434.731	523.5
434.953	555.5
435.175	551.5
435.397	582.5
435.618	588.5
435.84	638.5
436.062	720.5
436.284	801.5
436.505	665.5
436.727	604.5
436.949	539.5
437.17	535.5
437.392	546.5
437.614	569.5
437.835	599.5
438.057	679.5
438.278	785.5
438.5	790.5
438.721	886.5
438.943	830.5
439.165	694.5
439.386	619.5
439.608	580.5
439.829	592.5
440.05	653.5
440.272	669.5
440.493	634.5
440.715	576.5
440.936	549.5
441.158	554.5
441.379	540.5
441.6	558.5
441.822	592.5
442.043	619.5
442.264	713.5
442.486	777.5
442.707	644.5
442.928	601.5
443.149	600.5
443.371	645.5
443.592	665.5
443.813	760.5
444.034	842.5
444.255	669.5
444.476	610.5
444.698	595.5
444.919	618.5
445.14	731.5
445.361	671.5
445.582	647.5
445.803	700.5
446.024	801.5
446.245	827.5
446.466	747.5
446.687	638.5
446.908	600.5
447.129	571.5
447.35	562.5
447.571	529.5
447.792	545.5
448.013	536.5
448.234	541.5
448.455	621.5
448.675	729.5
448.896	849.5
449.117	720.5
449.338	666.5
449.559	786.5
449.779	933.5
450	727.5
450.221	614.5
450.442	568.5
450.662	543.5
450.883	533.5
451.104	531.5
451.324	515.5
451.545	500.5
451.766	503.5
451.986	494.5
452.207	479.5
452.428	484.5
452.648	475.5
452.869	510.5
453.089	500.5
453.31	501.5
453.53	491.5
453.751	497.5
453.971	488.5
454.192	498.5
454.412	489.5
454.633	480.5
454.853	496.5
455.073	495.5
455.294	547.5
455.514	570.5
455.734	569.5
455.955	504.5
456.175	478.5
456.395	478.5
456.616	456.5
456.836	489.5
457.056	472.5
457.276	481.5
457.497	474.5
457.717	460.5
457.937	480.5
458.157	461.5
458.377	480.5
458.598	526.5
458.818	555.5
459.038	605.5
459.258	635.5
459.478	570.5
459.698	537.5
459.918	548.5
460.138	544.5
460.358	527.5
460.578	525.5
460.798	548.5
461.018	558.5
461.238	542.5
461.458	524.5
461.678	531.5
461.898	570.5
462.118	529.5
462.338	558.5
462.558	571.5
462.777	565.5
462.997	588.5
463.217	588.5
463.437	590.5
463.657	605.5
463.876	586.5
464.096	596.5
464.316	589.5
464.536	551.5
464.755	579.5
464.975	589.5
465.195	624.5
465.414	658.5
465.634	624.5
465.854	574.5
466.073	539.5
466.293	550.5
466.512	517.5
466.732	508.5
466.951	503.5
467.171	495.5
467.391	505.5
467.61	503.5
467.829	541.5
468.049	528.5
468.268	498.5
468.488	493.5
468.707	497.5
468.927	501.5
469.146	491.5
469.365	500.5
469.585	494.5
469.804	493.5
470.023	495.5
470.243	521.5
470.462	533.5
470.681	524.5
470.901	531.5
471.12	505.5
471.339	515.5
471.558	511.5
471.777	526.5
471.997	528.5
472.216	525.5
472.435	554.5
472.654	525.5
472.873	494.5
473.092	524.5
473.311	530.5
473.53	508.5
473.749	513.5
473.968	549.5
474.187	620.5
474.406	713.5
474.625	570.5
474.844	520.5
475.063	535.5
475.282	518.5
475.501	528.5
475.72	515.5
475.939	538.5
476.158	543.5
476.377	539.5
476.596	522.5
476.814	534.5
477.033	544.5
477.252	534.5
477.471	541.5
477.69	571.5
477.908	557.5
478.127	557.5
478.346	572.5
478.564	554.5
478.783	563.5
479.002	584.5
479.22	594.5
479.439	598.5
479.658	631.5
479.876	607.5
480.095	623.5
480.313	651.5
480.532	647.5
480.751	642.5
480.969	634.5
481.188	689.5
481.406	693.5
481.624	662.5
481.843	627.5
482.061	591.5
482.28	626.5
482.498	599.5
482.717	612.5
482.935	587.5
483.153	602.5
483.372	587.5
483.59	603.5
483.808	597.5
484.027	594.5
484.245	587.5
484.463	606.5
484.681	591.5
484.9	600.5
485.118	619.5
485.336	612.5
485.554	623.5
485.772	617.5
485.99	614.5
486.209	625.5
486.427	618.5
486.645	634.5
486.863	639.5
487.081	664.5
487.299	647.5
487.517	655.5
487.735	634.5
487.953	644.5
488.171	642.5
488.389	642.5
488.607	652.5
488.825	667.5
489.043	651.5
489.261	639.5
489.479	656.5
489.696	647.5
489.914	656.5
490.132	650.5
490.35	688.5
490.568	676.5
490.786	684.5
491.003	690.5
491.221	686.5
491.439	724.5
491.657	706.5
491.874	699.5
492.092	735.5
492.31	730.5
492.527	705.5
492.745	736.5
492.963	760.5
493.18	746.5
493.398	751.5
493.615	730.5
493.833	735.5
494.05	720.5
494.268	741.5
494.485	734.5
494.703	745.5
494.92	733.5
495.138	763.5
495.355	760.5
495.573	740.5
495.79	752.5
496.008	739.5
496.225	752.5
496.442	746.5
496.66	743.5
496.877	748.5
497.094	746.5
497.312	759.5
497.529	781.5
497.746	809.5
497.963	796.5
498.181	821.5
498.398	830.5
498.615	871.5
498.832	897.5
499.049	893.5
499.267	913.5
499.484	929.5
499.701	975.5
499.918	976.5
500.135	1040.5
500.352	1118.5
500.569	1118.5
500.786	1096.5
501.003	1085.5
501.22	1075.5
501.437	1077.5
501.654	995.5
501.871	986.5
502.088	975.5
502.305	935.5
502.522	891.5
502.739	874.5
502.956	844.5
503.172	808.5
503.389	824.5
503.606	786.5
503.823	805.5
504.04	801.5
504.256	781.5
504.473	766.5
504.69	752.5
504.907	766.5
505.123	763.5
505.34	757.5
505.557	788.5
505.773	743.5
505.99	713.5
506.207	720.5
506.423	739.5
506.64	709.5
506.856	708.5
507.073	693.5
507.289	710.5
507.506	701.5
507.722	706.5
507.939	677.5
508.155	690.5
508.372	664.5
508.588	662.5
508.805	683.5
509.021	665.5
509.238	701.5
509.454	703.5
509.67	678.5
509.887	689.5
510.103	697.5
510.319	678.5
510.536	757.5
510.752	1145.5
510.968	984.5
511.184	679.5
511.401	655.5
511.617	650.5
511.833	675.5
512.049	640.5
512.265	637.5
512.481	649.5
512.698	677.5
512.914	646.5
513.13	648.5
513.346	641.5
513.562	605.5
513.778	636.5
513.994	641.5
514.21	661.5
514.426	681.5
514.642	713.5
514.858	714.5
515.074	776.5
515.29	878.5
515.506	1177.5
515.721	1038.5
515.937	738.5
516.153	727.5
516.369	691.5
516.585	699.5
516.801	649.5
517.016	676.5
517.232	709.5
517.448	686.5
517.664	693.5
517.879	685.5
518.095	707.5
518.311	689.5
518.527	681.5
518.742	690.5
518.958	675.5
519.173	677.5
519.389	682.5
519.605	665.5
519.82	632.5
