Data from 1978.PennyLincolnUp.Lamp.En5.5.200Scan.071719.P1_HRD10591_16-11-37-866.txt Node
Date: Thu Jul 18 16:11:37 EDT 2019
User: cochatt
Spectrometer: HR+D1059
Trigger mode: 1
Integration Time (sec): 1.000000E-1
Scans to average: 1
Electric dark correction enabled: true
Nonlinearity correction enabled: false
Boxcar width: 0
XAxis mode: Wavelengths
Number of Pixels in Spectrum: 2048
>>>>>Begin Spectral Data<<<<<
223.165	-11.69
223.4	-11.69
223.635	-11.69
223.869	-26.69
224.104	-8.69
224.338	-17.69
224.573	-22.69
224.808	-3.69
225.042	-15.69
225.277	-2.69
225.511	-5.69
225.746	5.31
225.98	2.31
226.215	22.31
226.449	19.31
226.683	15.31
226.918	14.31
227.152	36.31
227.387	41.31
227.621	36.31
227.856	51.31
228.09	42.31
228.324	49.31
228.559	53.31
228.793	63.31
229.027	88.31
229.262	65.31
229.496	78.31
229.73	104.31
229.964	118.31
230.199	99.31
230.433	96.31
230.667	98.31
230.901	98.31
231.136	98.31
231.37	100.31
231.604	100.31
231.838	108.31
232.072	97.31
232.306	104.31
232.541	102.31
232.775	100.31
233.009	110.31
233.243	113.31
233.477	100.31
233.711	103.31
233.945	118.31
234.179	109.31
234.413	106.31
234.647	105.31
234.881	102.31
235.115	110.31
235.349	117.31
235.583	103.31
235.817	97.31
236.051	112.31
236.285	109.31
236.519	106.31
236.753	105.31
236.987	122.31
237.221	128.31
237.455	143.31
237.689	136.31
237.922	118.31
238.156	104.31
238.39	114.31
238.624	107.31
238.858	106.31
239.091	102.31
239.325	105.31
239.559	116.31
239.793	114.31
240.027	113.31
240.26	122.31
240.494	112.31
240.728	124.31
240.961	127.31
241.195	114.31
241.429	109.31
241.662	122.31
241.896	118.31
242.13	116.31
242.363	108.31
242.597	100.31
242.83	126.31
243.064	122.31
243.298	114.31
243.531	119.31
243.765	106.31
243.998	123.31
244.232	113.31
244.465	118.31
244.699	136.31
244.932	136.31
245.166	124.31
245.399	114.31
245.633	118.31
245.866	113.31
246.099	126.31
246.333	121.31
246.566	128.31
246.8	140.31
247.033	125.31
247.266	135.31
247.5	132.31
247.733	121.31
247.966	145.31
248.2	145.31
248.433	141.31
248.666	140.31
248.899	142.31
249.133	163.31
249.366	152.31
249.599	155.31
249.832	149.31
250.066	151.31
250.299	147.31
250.532	136.31
250.765	141.31
250.998	160.31
251.231	170.31
251.465	148.31
251.698	140.31
251.931	147.31
252.164	162.31
252.397	149.31
252.63	153.31
252.863	151.31
253.096	181.31
253.329	152.31
253.562	162.31
253.795	157.31
254.028	164.31
254.261	162.31
254.494	177.31
254.727	167.31
254.96	185.31
255.193	185.31
255.426	186.31
255.659	170.31
255.892	186.31
256.124	169.31
256.357	181.31
256.59	157.31
256.823	162.31
257.056	163.31
257.289	161.31
257.521	165.31
257.754	169.31
257.987	171.31
258.22	161.31
258.452	149.31
258.685	182.31
258.918	160.31
259.151	171.31
259.383	184.31
259.616	170.31
259.849	184.31
260.081	170.31
260.314	177.31
260.547	189.31
260.779	189.31
261.012	193.31
261.244	173.31
261.477	185.31
261.71	184.31
261.942	172.31
262.175	181.31
262.407	170.31
262.64	171.31
262.872	163.31
263.105	176.31
263.337	178.31
263.57	187.31
263.802	173.31
264.035	169.31
264.267	179.31
264.499	173.31
264.732	184.31
264.964	169.31
265.197	162.31
265.429	181.31
265.661	173.31
265.894	194.31
266.126	189.31
266.358	178.31
266.591	181.31
266.823	184.31
267.055	189.31
267.287	190.31
267.52	171.31
267.752	187.31
267.984	188.31
268.216	197.31
268.448	190.31
268.681	192.31
268.913	186.31
269.145	186.31
269.377	197.31
269.609	214.31
269.841	205.31
270.073	200.31
270.306	200.31
270.538	216.31
270.77	203.31
271.002	199.31
271.234	208.31
271.466	219.31
271.698	223.31
271.93	214.31
272.162	228.31
272.394	238.31
272.626	212.31
272.858	195.31
273.09	210.31
273.322	198.31
273.553	201.31
273.785	188.31
274.017	198.31
274.249	214.31
274.481	203.31
274.713	200.31
274.945	206.31
275.176	219.31
275.408	199.31
275.64	212.31
275.872	205.31
276.104	228.31
276.335	234.31
276.567	204.31
276.799	219.31
277.031	225.31
277.262	230.31
277.494	217.31
277.726	236.31
277.957	213.31
278.189	224.31
278.421	204.31
278.652	215.31
278.884	206.31
279.115	217.31
279.347	215.31
279.579	210.31
279.81	224.31
280.042	226.31
280.273	222.31
280.505	223.31
280.736	219.31
280.968	210.31
281.199	221.31
281.431	208.31
281.662	219.31
281.894	239.31
282.125	231.31
282.356	226.31
282.588	240.31
282.819	239.31
283.051	210.31
283.282	237.31
283.513	218.31
283.745	224.31
283.976	232.31
284.207	229.31
284.439	244.31
284.67	246.31
284.901	231.31
285.132	241.31
285.364	230.31
285.595	232.31
285.826	235.31
286.057	218.31
286.288	230.31
286.52	225.31
286.751	208.31
286.982	238.31
287.213	237.31
287.444	226.31
287.675	229.31
287.906	236.31
288.138	229.31
288.369	238.31
288.6	248.31
288.831	222.31
289.062	235.31
289.293	245.31
289.524	241.31
289.755	231.31
289.986	220.31
290.217	250.31
290.448	241.31
290.679	252.31
290.91	241.31
291.141	230.31
291.371	241.31
291.602	261.31
291.833	247.31
292.064	252.31
292.295	230.31
292.526	242.31
292.757	251.31
292.987	247.31
293.218	242.31
293.449	247.31
293.68	257.31
293.91	247.31
294.141	272.31
294.372	233.31
294.603	244.31
294.833	238.31
295.064	233.31
295.295	253.31
295.525	248.31
295.756	270.31
295.987	242.31
296.217	254.31
296.448	261.31
296.679	257.31
296.909	252.31
297.14	248.31
297.37	260.31
297.601	258.31
297.831	250.31
298.062	242.31
298.292	245.31
298.523	251.31
298.753	256.31
298.984	254.31
299.214	252.31
299.445	267.31
299.675	265.31
299.905	260.31
300.136	253.31
300.366	256.31
300.597	262.31
300.827	267.31
301.057	268.31
301.288	273.31
301.518	279.31
301.748	269.31
301.979	270.31
302.209	261.31
302.439	260.31
302.669	277.31
302.9	270.31
303.13	246.31
303.36	256.31
303.59	270.31
303.82	268.31
304.051	262.31
304.281	270.31
304.511	292.31
304.741	270.31
304.971	270.31
305.201	250.31
305.431	267.31
305.661	263.31
305.891	275.31
306.121	282.31
306.352	292.31
306.582	270.31
306.812	265.31
307.042	285.31
307.272	277.31
307.502	269.31
307.731	273.31
307.961	258.31
308.191	256.31
308.421	273.31
308.651	264.31
308.881	277.31
309.111	275.31
309.341	299.31
309.571	283.31
309.8	277.31
310.03	283.31
310.26	284.31
310.49	287.31
310.72	317.31
310.949	285.31
311.179	291.31
311.409	308.31
311.639	293.31
311.868	286.31
312.098	299.31
312.328	303.31
312.557	309.31
312.787	308.31
313.017	304.31
313.246	316.31
313.476	305.31
313.706	307.31
313.935	296.31
314.165	300.31
314.394	284.31
314.624	293.31
314.853	285.31
315.083	311.31
315.312	295.31
315.542	293.31
315.771	302.31
316.001	310.31
316.23	305.31
316.46	290.31
316.689	321.31
316.919	305.31
317.148	318.31
317.377	320.31
317.607	310.31
317.836	314.31
318.065	305.31
318.295	308.31
318.524	314.31
318.753	299.31
318.983	307.31
319.212	292.31
319.441	301.31
319.67	315.31
319.9	305.31
320.129	299.31
320.358	300.31
320.587	301.31
320.816	307.31
321.046	294.31
321.275	311.31
321.504	310.31
321.733	326.31
321.962	330.31
322.191	309.31
322.42	318.31
322.649	330.31
322.878	323.31
323.108	318.31
323.337	346.31
323.566	333.31
323.795	341.31
324.024	368.31
324.253	417.31
324.482	566.31
324.71	806.31
324.939	1150.31
325.168	977.31
325.397	538.31
325.626	394.31
325.855	361.31
326.084	349.31
326.313	363.31
326.542	380.31
326.77	366.31
326.999	428.31
327.228	532.31
327.457	737.31
327.686	877.31
327.914	590.31
328.143	420.31
328.372	377.31
328.6	384.31
328.829	357.31
329.058	378.31
329.287	388.31
329.515	354.31
329.744	380.31
329.972	361.31
330.201	382.31
330.43	392.31
330.658	390.31
330.887	407.31
331.115	378.31
331.344	378.31
331.572	368.31
331.801	380.31
332.03	375.31
332.258	372.31
332.486	361.31
332.715	353.31
332.943	378.31
333.172	368.31
333.4	385.31
333.629	371.31
333.857	376.31
334.085	397.31
334.314	393.31
334.542	387.31
334.771	402.31
334.999	382.31
335.227	373.31
335.455	369.31
335.684	380.31
335.912	366.31
336.14	369.31
336.369	374.31
336.597	375.31
336.825	360.31
337.053	384.31
337.281	364.31
337.51	364.31
337.738	370.31
337.966	363.31
338.194	364.31
338.422	383.31
338.65	354.31
338.878	355.31
339.106	354.31
339.334	355.31
339.562	361.31
339.79	353.31
340.018	341.31
340.246	365.31
340.474	355.31
340.702	374.31
340.93	363.31
341.158	344.31
341.386	339.31
341.614	342.31
341.842	330.31
342.07	367.31
342.298	356.31
342.526	352.31
342.754	342.31
342.981	352.31
343.209	339.31
343.437	353.31
343.665	364.31
343.893	389.31
344.12	378.31
344.348	369.31
344.576	375.31
344.804	383.31
345.031	364.31
345.259	368.31
345.487	360.31
345.714	338.31
345.942	333.31
346.17	335.31
346.397	346.31
346.625	344.31
346.853	332.31
347.08	345.31
347.308	347.31
347.535	364.31
347.763	346.31
347.99	348.31
348.218	362.31
348.445	325.31
348.673	358.31
348.9	352.31
349.128	338.31
349.355	359.31
349.583	344.31
349.81	347.31
350.037	353.31
350.265	335.31
350.492	350.31
350.72	339.31
350.947	333.31
351.174	353.31
351.402	365.31
351.629	363.31
351.856	362.31
352.083	352.31
352.311	337.31
352.538	341.31
352.765	360.31
352.992	327.31
353.22	327.31
353.447	336.31
353.674	354.31
353.901	330.31
354.128	351.31
354.355	342.31
354.583	356.31
354.81	341.31
355.037	342.31
355.264	341.31
355.491	340.31
355.718	354.31
355.945	338.31
356.172	339.31
356.399	340.31
356.626	332.31
356.853	333.31
357.08	354.31
357.307	348.31
357.534	341.31
357.761	348.31
357.988	347.31
358.215	356.31
358.441	348.31
358.668	349.31
358.895	344.31
359.122	330.31
359.349	348.31
359.576	341.31
359.802	357.31
360.029	345.31
360.256	346.31
360.483	376.31
360.709	358.31
360.936	364.31
361.163	354.31
361.39	340.31
361.616	338.31
361.843	343.31
362.07	348.31
362.296	359.31
362.523	324.31
362.749	354.31
362.976	331.31
363.203	360.31
363.429	329.31
363.656	329.31
363.882	341.31
364.109	329.31
364.335	330.31
364.562	342.31
364.788	360.31
365.015	350.31
365.241	340.31
365.468	347.31
365.694	356.31
365.92	344.31
366.147	344.31
366.373	349.31
366.599	347.31
366.826	348.31
367.052	343.31
367.278	348.31
367.505	357.31
367.731	349.31
367.957	346.31
368.184	362.31
368.41	360.31
368.636	373.31
368.862	353.31
369.089	355.31
369.315	338.31
369.541	351.31
369.767	344.31
369.993	339.31
370.219	343.31
370.445	339.31
370.672	346.31
370.898	339.31
371.124	346.31
371.35	370.31
371.576	371.31
371.802	356.31
372.028	382.31
372.254	375.31
372.48	349.31
372.706	359.31
372.932	394.31
373.158	363.31
373.384	346.31
373.61	379.31
373.835	347.31
374.061	342.31
374.287	377.31
374.513	370.31
374.739	375.31
374.965	355.31
375.191	378.31
375.416	390.31
375.642	363.31
375.868	358.31
376.094	373.31
376.319	376.31
376.545	363.31
376.771	368.31
376.997	376.31
377.222	351.31
377.448	373.31
377.674	378.31
377.899	380.31
378.125	365.31
378.35	367.31
378.576	365.31
378.802	348.31
379.027	355.31
379.253	374.31
379.478	372.31
379.704	356.31
379.929	374.31
380.155	377.31
380.38	380.31
380.606	355.31
380.831	376.31
381.057	390.31
381.282	361.31
381.507	377.31
381.733	393.31
381.958	363.31
382.184	384.31
382.409	388.31
382.634	394.31
382.86	361.31
383.085	396.31
383.31	400.31
383.535	387.31
383.761	413.31
383.986	374.31
384.211	385.31
384.436	420.31
384.662	410.31
384.887	441.31
385.112	411.31
385.337	413.31
385.562	397.31
385.787	405.31
386.013	409.31
386.238	410.31
386.463	413.31
386.688	421.31
386.913	416.31
387.138	427.31
387.363	404.31
387.588	414.31
387.813	397.31
388.038	412.31
388.263	436.31
388.488	423.31
388.713	404.31
388.938	398.31
389.163	398.31
389.387	424.31
389.612	416.31
389.837	407.31
390.062	406.31
390.287	410.31
390.512	380.31
390.736	395.31
390.961	389.31
391.186	386.31
391.411	415.31
391.636	426.31
391.86	427.31
392.085	423.31
392.31	425.31
392.534	423.31
392.759	424.31
392.984	450.31
393.208	458.31
393.433	437.31
393.658	437.31
393.882	451.31
394.107	441.31
394.331	413.31
394.556	419.31
394.78	418.31
395.005	415.31
395.229	425.31
395.454	448.31
395.678	440.31
395.903	449.31
396.127	458.31
396.352	453.31
396.576	435.31
396.801	438.31
397.025	456.31
397.249	444.31
397.474	480.31
397.698	445.31
397.922	452.31
398.147	453.31
398.371	477.31
398.595	462.31
398.82	473.31
399.044	494.31
399.268	512.31
399.492	530.31
399.717	565.31
399.941	608.31
400.165	573.31
400.389	574.31
400.613	534.31
400.837	530.31
401.062	491.31
401.286	480.31
401.51	497.31
401.734	491.31
401.958	500.31
402.182	471.31
402.406	492.31
402.63	482.31
402.854	470.31
403.078	487.31
403.302	518.31
403.526	494.31
403.75	477.31
403.974	486.31
404.198	493.31
404.422	511.31
404.645	520.31
404.869	506.31
405.093	510.31
405.317	532.31
405.541	548.31
405.765	525.31
405.988	500.31
406.212	522.31
406.436	517.31
406.66	508.31
406.883	535.31
407.107	534.31
407.331	567.31
407.555	613.31
407.778	640.31
408.002	570.31
408.226	548.31
408.449	539.31
408.673	532.31
408.896	545.31
409.12	570.31
409.344	580.31
409.567	510.31
409.791	505.31
410.014	515.31
410.238	486.31
410.461	509.31
410.685	498.31
410.908	509.31
411.132	506.31
411.355	568.31
411.578	564.31
411.802	523.31
412.025	489.31
412.249	510.31
412.472	514.31
412.695	532.31
412.919	538.31
413.142	487.31
413.365	475.31
413.589	485.31
413.812	499.31
414.035	498.31
414.258	464.31
414.482	481.31
414.705	494.31
414.928	484.31
415.151	485.31
415.374	475.31
415.597	468.31
415.821	474.31
416.044	460.31
416.267	467.31
416.49	473.31
416.713	497.31
416.936	464.31
417.159	479.31
417.382	466.31
417.605	476.31
417.828	457.31
418.051	454.31
418.274	474.31
418.497	465.31
418.72	475.31
418.943	465.31
419.166	496.31
419.389	506.31
419.611	499.31
419.834	500.31
420.057	492.31
420.28	464.31
420.503	457.31
420.726	488.31
420.948	466.31
421.171	498.31
421.394	541.31
421.617	483.31
421.839	475.31
422.062	491.31
422.285	480.31
422.507	509.31
422.73	578.31
422.953	566.31
423.175	504.31
423.398	483.31
423.621	476.31
423.843	487.31
424.066	504.31
424.288	501.31
424.511	520.31
424.733	554.31
424.956	593.31
425.178	555.31
425.401	564.31
425.623	589.31
425.846	532.31
426.068	520.31
426.291	492.31
426.513	476.31
426.735	496.31
426.958	500.31
427.18	542.31
427.402	691.31
427.625	736.31
427.847	605.31
428.069	533.31
428.292	505.31
428.514	481.31
428.736	466.31
428.958	464.31
429.181	463.31
429.403	449.31
429.625	476.31
429.847	491.31
430.069	539.31
430.292	529.31
430.514	487.31
430.736	458.31
430.958	457.31
431.18	454.31
431.402	452.31
431.624	437.31
431.846	440.31
432.068	427.31
432.29	443.31
432.512	445.31
432.734	469.31
432.956	465.31
433.178	444.31
433.4	462.31
433.622	459.31
433.844	449.31
434.066	443.31
434.287	463.31
434.509	471.31
434.731	466.31
434.953	463.31
435.175	463.31
435.397	497.31
435.618	504.31
435.84	509.31
436.062	612.31
436.284	640.31
436.505	541.31
436.727	472.31
436.949	487.31
437.17	464.31
437.392	465.31
437.614	470.31
437.835	465.31
438.057	549.31
438.278	609.31
438.5	629.31
438.721	685.31
438.943	677.31
439.165	538.31
439.386	511.31
439.608	491.31
439.829	464.31
440.05	495.31
440.272	515.31
440.493	515.31
440.715	486.31
440.936	464.31
441.158	474.31
441.379	456.31
441.6	465.31
441.822	480.31
442.043	526.31
442.264	573.31
442.486	588.31
442.707	527.31
442.928	496.31
443.149	472.31
443.371	516.31
443.592	550.31
443.813	614.31
444.034	672.31
444.255	576.31
444.476	493.31
444.698	536.31
444.919	539.31
445.14	623.31
445.361	577.31
445.582	525.31
445.803	532.31
446.024	610.31
446.245	600.31
446.466	564.31
446.687	524.31
446.908	489.31
447.129	466.31
447.35	466.31
447.571	471.31
447.792	448.31
448.013	467.31
448.234	455.31
448.455	479.31
448.675	584.31
448.896	669.31
449.117	548.31
449.338	544.31
449.559	626.31
449.779	701.31
450	552.31
450.221	489.31
450.442	455.31
450.662	449.31
450.883	434.31
451.104	424.31
451.324	448.31
451.545	437.31
451.766	418.31
451.986	414.31
452.207	408.31
452.428	410.31
452.648	421.31
452.869	425.31
453.089	420.31
453.31	445.31
453.53	422.31
453.751	423.31
453.971	425.31
454.192	428.31
454.412	409.31
454.633	415.31
454.853	410.31
455.073	421.31
455.294	436.31
455.514	466.31
455.734	466.31
455.955	436.31
456.175	420.31
456.395	405.31
456.616	407.31
456.836	429.31
457.056	407.31
457.276	414.31
457.497	435.31
457.717	408.31
457.937	437.31
458.157	428.31
458.377	408.31
458.598	439.31
458.818	480.31
459.038	500.31
459.258	520.31
459.478	469.31
459.698	446.31
459.918	469.31
460.138	455.31
460.358	464.31
460.578	489.31
460.798	477.31
461.018	510.31
461.238	485.31
461.458	473.31
461.678	486.31
461.898	475.31
462.118	497.31
462.338	486.31
462.558	508.31
462.777	506.31
462.997	527.31
463.217	557.31
463.437	557.31
463.657	538.31
463.876	524.31
464.096	541.31
464.316	530.31
464.536	538.31
464.755	538.31
464.975	500.31
465.195	514.31
465.414	534.31
465.634	502.31
465.854	487.31
466.073	479.31
466.293	461.31
466.512	456.31
466.732	473.31
466.951	460.31
467.171	450.31
467.391	452.31
467.61	448.31
467.829	452.31
468.049	455.31
468.268	440.31
468.488	436.31
468.707	433.31
468.927	412.31
469.146	433.31
469.365	443.31
469.585	438.31
469.804	455.31
470.023	450.31
470.243	450.31
470.462	447.31
470.681	454.31
470.901	443.31
471.12	456.31
471.339	445.31
471.558	462.31
471.777	448.31
471.997	450.31
472.216	427.31
472.435	436.31
472.654	454.31
472.873	455.31
473.092	435.31
473.311	454.31
473.53	465.31
473.749	460.31
473.968	481.31
474.187	519.31
474.406	557.31
474.625	467.31
474.844	469.31
475.063	472.31
475.282	443.31
475.501	459.31
475.72	472.31
475.939	483.31
476.158	455.31
476.377	474.31
476.596	469.31
476.814	485.31
477.033	459.31
477.252	489.31
477.471	496.31
477.69	468.31
477.908	483.31
478.127	521.31
478.346	494.31
478.564	496.31
478.783	515.31
479.002	523.31
479.22	532.31
479.439	524.31
479.658	526.31
479.876	536.31
480.095	536.31
480.313	561.31
480.532	573.31
480.751	545.31
480.969	532.31
481.188	562.31
481.406	561.31
481.624	547.31
481.843	549.31
482.061	538.31
482.28	524.31
482.498	553.31
482.717	544.31
482.935	526.31
483.153	535.31
483.372	540.31
483.59	538.31
483.808	521.31
484.027	519.31
484.245	540.31
484.463	527.31
484.681	525.31
484.9	564.31
485.118	544.31
485.336	556.31
485.554	555.31
485.772	545.31
485.99	535.31
486.209	545.31
486.427	553.31
486.645	574.31
486.863	530.31
487.081	565.31
487.299	562.31
487.517	573.31
487.735	544.31
487.953	578.31
488.171	573.31
488.389	557.31
488.607	547.31
488.825	573.31
489.043	570.31
489.261	567.31
489.479	548.31
489.696	568.31
489.914	564.31
490.132	589.31
490.35	577.31
490.568	590.31
490.786	579.31
491.003	590.31
491.221	595.31
491.439	598.31
491.657	600.31
491.874	601.31
492.092	599.31
492.31	602.31
492.527	605.31
492.745	596.31
492.963	629.31
493.18	619.31
493.398	626.31
493.615	598.31
493.833	617.31
494.05	609.31
494.268	620.31
494.485	618.31
494.703	612.31
494.92	625.31
495.138	635.31
495.355	640.31
495.573	626.31
495.79	642.31
496.008	642.31
496.225	647.31
496.442	634.31
496.66	643.31
496.877	646.31
497.094	669.31
497.312	683.31
497.529	681.31
497.746	680.31
497.963	701.31
498.181	725.31
498.398	731.31
498.615	740.31
498.832	772.31
499.049	785.31
499.267	826.31
499.484	855.31
499.701	849.31
499.918	926.31
500.135	956.31
500.352	979.31
500.569	993.31
500.786	1034.31
501.003	997.31
501.22	960.31
501.437	941.31
501.654	885.31
501.871	850.31
502.088	833.31
