Data from 1978.PennyLincolnUp.Lamp.En5.5.200Scan.071719.P1_HRD10591_16-12-07-864.txt Node
Date: Thu Jul 18 16:12:07 EDT 2019
User: cochatt
Spectrometer: HR+D1059
Trigger mode: 1
Integration Time (sec): 1.000000E-1
Scans to average: 1
Electric dark correction enabled: true
Nonlinearity correction enabled: false
Boxcar width: 0
XAxis mode: Wavelengths
Number of Pixels in Spectrum: 2048
>>>>>Begin Spectral Data<<<<<
223.165	-14.12
223.4	-14.12
223.635	-14.12
223.869	-20.12
224.104	-23.12
224.338	-12.12
224.573	-9.12
224.808	-12.12
225.042	-5.12
225.277	-7.12
225.511	-7.12
225.746	-5.12
225.98	12.88
226.215	16.88
226.449	20.88
226.683	9.88
226.918	29.88
227.152	24.88
227.387	45.88
227.621	39.88
227.856	54.88
228.09	51.88
228.324	48.88
228.559	55.88
228.793	76.88
229.027	85.88
229.262	94.88
229.496	98.88
229.73	119.88
229.964	154.88
230.199	113.88
230.433	113.88
230.667	107.88
230.901	104.88
231.136	97.88
231.37	100.88
231.604	124.88
231.838	108.88
232.072	104.88
232.306	100.88
232.541	115.88
232.775	110.88
233.009	103.88
233.243	119.88
233.477	120.88
233.711	114.88
233.945	126.88
234.179	114.88
234.413	108.88
234.647	115.88
234.881	107.88
235.115	106.88
235.349	127.88
235.583	114.88
235.817	131.88
236.051	122.88
236.285	124.88
236.519	119.88
236.753	135.88
236.987	135.88
237.221	150.88
237.455	198.88
237.689	163.88
237.922	134.88
238.156	118.88
238.39	126.88
238.624	125.88
238.858	128.88
239.091	131.88
239.325	128.88
239.559	130.88
239.793	129.88
240.027	119.88
240.26	145.88
240.494	139.88
240.728	138.88
240.961	153.88
241.195	118.88
241.429	132.88
241.662	121.88
241.896	123.88
242.13	126.88
242.363	131.88
242.597	128.88
242.83	146.88
243.064	136.88
243.298	134.88
243.531	135.88
243.765	135.88
243.998	137.88
244.232	143.88
244.465	139.88
244.699	142.88
244.932	132.88
245.166	134.88
245.399	147.88
245.633	146.88
245.866	130.88
246.099	145.88
246.333	135.88
246.566	138.88
246.8	143.88
247.033	138.88
247.266	148.88
247.5	155.88
247.733	160.88
247.966	150.88
248.2	152.88
248.433	143.88
248.666	158.88
248.899	171.88
249.133	172.88
249.366	179.88
249.599	174.88
249.832	166.88
250.066	172.88
250.299	166.88
250.532	165.88
250.765	156.88
250.998	195.88
251.231	193.88
251.465	207.88
251.698	194.88
251.931	190.88
252.164	179.88
252.397	195.88
252.63	187.88
252.863	184.88
253.096	178.88
253.329	193.88
253.562	192.88
253.795	203.88
254.028	190.88
254.261	199.88
254.494	201.88
254.727	219.88
254.96	231.88
255.193	218.88
255.426	215.88
255.659	196.88
255.892	206.88
256.124	188.88
256.357	198.88
256.59	206.88
256.823	199.88
257.056	204.88
257.289	192.88
257.521	185.88
257.754	181.88
257.987	183.88
258.22	196.88
258.452	187.88
258.685	182.88
258.918	188.88
259.151	196.88
259.383	189.88
259.616	214.88
259.849	198.88
260.081	204.88
260.314	232.88
260.547	244.88
260.779	201.88
261.012	208.88
261.244	210.88
261.477	218.88
261.71	195.88
261.942	195.88
262.175	208.88
262.407	189.88
262.64	191.88
262.872	183.88
263.105	208.88
263.337	199.88
263.57	209.88
263.802	195.88
264.035	195.88
264.267	193.88
264.499	203.88
264.732	200.88
264.964	216.88
265.197	205.88
265.429	174.88
265.661	204.88
265.894	204.88
266.126	206.88
266.358	190.88
266.591	215.88
266.823	209.88
267.055	195.88
267.287	219.88
267.52	199.88
267.752	196.88
267.984	198.88
268.216	212.88
268.448	213.88
268.681	214.88
268.913	235.88
269.145	219.88
269.377	239.88
269.609	247.88
269.841	239.88
270.073	237.88
270.306	253.88
270.538	253.88
270.77	288.88
271.002	262.88
271.234	243.88
271.466	251.88
271.698	284.88
271.93	271.88
272.162	275.88
272.394	264.88
272.626	258.88
272.858	250.88
273.09	242.88
273.322	226.88
273.553	229.88
273.785	237.88
274.017	261.88
274.249	235.88
274.481	246.88
274.713	226.88
274.945	241.88
275.176	247.88
275.408	230.88
275.64	229.88
275.872	233.88
276.104	233.88
276.335	231.88
276.567	231.88
276.799	242.88
277.031	278.88
277.262	275.88
277.494	269.88
277.726	270.88
277.957	277.88
278.189	257.88
278.421	253.88
278.652	236.88
278.884	246.88
279.115	238.88
279.347	249.88
279.579	257.88
279.81	250.88
280.042	239.88
280.273	262.88
280.505	242.88
280.736	238.88
280.968	267.88
281.199	246.88
281.431	237.88
281.662	271.88
281.894	273.88
282.125	259.88
282.356	264.88
282.588	263.88
282.819	294.88
283.051	255.88
283.282	263.88
283.513	260.88
283.745	259.88
283.976	239.88
284.207	284.88
284.439	252.88
284.67	269.88
284.901	256.88
285.132	262.88
285.364	242.88
285.595	274.88
285.826	271.88
286.057	265.88
286.288	278.88
286.52	271.88
286.751	256.88
286.982	270.88
287.213	264.88
287.444	278.88
287.675	280.88
287.906	277.88
288.138	279.88
288.369	293.88
288.6	271.88
288.831	269.88
289.062	265.88
289.293	274.88
289.524	270.88
289.755	272.88
289.986	275.88
290.217	250.88
290.448	270.88
290.679	277.88
290.91	274.88
291.141	278.88
291.371	265.88
291.602	265.88
291.833	274.88
292.064	260.88
292.295	270.88
292.526	274.88
292.757	290.88
292.987	294.88
293.218	250.88
293.449	271.88
293.68	292.88
293.91	283.88
294.141	284.88
294.372	279.88
294.603	283.88
294.833	275.88
295.064	286.88
295.295	292.88
295.525	284.88
295.756	276.88
295.987	284.88
296.217	302.88
296.448	321.88
296.679	289.88
296.909	271.88
297.14	281.88
297.37	301.88
297.601	280.88
297.831	274.88
298.062	276.88
298.292	294.88
298.523	288.88
298.753	286.88
298.984	308.88
299.214	295.88
299.445	281.88
299.675	294.88
299.905	302.88
300.136	313.88
300.366	288.88
300.597	282.88
300.827	303.88
301.057	319.88
301.288	321.88
301.518	292.88
301.748	306.88
301.979	306.88
302.209	303.88
302.439	310.88
302.669	328.88
302.9	307.88
303.13	300.88
303.36	312.88
303.59	313.88
303.82	312.88
304.051	314.88
304.281	326.88
304.511	314.88
304.741	319.88
304.971	314.88
305.201	305.88
305.431	324.88
305.661	322.88
305.891	329.88
306.121	332.88
306.352	314.88
306.582	329.88
306.812	302.88
307.042	309.88
307.272	303.88
307.502	328.88
307.731	310.88
307.961	333.88
308.191	322.88
308.421	312.88
308.651	307.88
308.881	302.88
309.111	328.88
309.341	331.88
309.571	353.88
309.8	317.88
310.03	349.88
310.26	333.88
310.49	323.88
310.72	364.88
310.949	347.88
311.179	354.88
311.409	346.88
311.639	343.88
311.868	353.88
312.098	350.88
312.328	359.88
312.557	349.88
312.787	374.88
313.017	360.88
313.246	360.88
313.476	346.88
313.706	353.88
313.935	348.88
314.165	364.88
314.394	367.88
314.624	349.88
314.853	368.88
315.083	356.88
315.312	369.88
315.542	358.88
315.771	353.88
316.001	374.88
316.23	350.88
316.46	336.88
316.689	359.88
316.919	371.88
317.148	376.88
317.377	364.88
317.607	359.88
317.836	352.88
318.065	344.88
318.295	354.88
318.524	373.88
318.753	356.88
318.983	358.88
319.212	362.88
319.441	368.88
319.67	380.88
319.9	377.88
320.129	356.88
320.358	381.88
320.587	376.88
320.816	364.88
321.046	374.88
321.275	358.88
321.504	363.88
321.733	367.88
321.962	380.88
322.191	366.88
322.42	386.88
322.649	405.88
322.878	413.88
323.108	401.88
323.337	424.88
323.566	421.88
323.795	451.88
324.024	502.88
324.253	563.88
324.482	815.88
324.71	1210.88
324.939	1818.88
325.168	1583.88
325.397	814.88
325.626	562.88
325.855	499.88
326.084	464.88
326.313	444.88
326.542	467.88
326.77	494.88
326.999	552.88
327.228	724.88
327.457	1073.88
327.686	1368.88
327.914	895.88
328.143	603.88
328.372	518.88
328.6	484.88
328.829	484.88
329.058	491.88
329.287	494.88
329.515	474.88
329.744	430.88
329.972	448.88
330.201	451.88
330.43	467.88
330.658	482.88
330.887	522.88
331.115	515.88
331.344	447.88
331.572	445.88
331.801	463.88
332.03	466.88
332.258	429.88
332.486	417.88
332.715	397.88
332.943	430.88
333.172	434.88
333.4	404.88
333.629	449.88
333.857	446.88
334.085	451.88
334.314	463.88
334.542	476.88
334.771	476.88
334.999	469.88
335.227	449.88
335.455	434.88
335.684	435.88
335.912	431.88
336.14	428.88
336.369	426.88
336.597	452.88
336.825	422.88
337.053	430.88
337.281	431.88
337.51	423.88
337.738	413.88
337.966	417.88
338.194	410.88
338.422	416.88
338.65	416.88
338.878	429.88
339.106	396.88
339.334	393.88
339.562	416.88
339.79	412.88
340.018	411.88
340.246	418.88
340.474	412.88
340.702	420.88
340.93	426.88
341.158	407.88
341.386	400.88
341.614	396.88
341.842	395.88
342.07	390.88
342.298	416.88
342.526	412.88
342.754	417.88
342.981	410.88
343.209	400.88
343.437	400.88
343.665	418.88
343.893	431.88
344.12	411.88
344.348	425.88
344.576	404.88
344.804	426.88
345.031	441.88
345.259	420.88
345.487	424.88
345.714	409.88
345.942	419.88
346.17	403.88
346.397	403.88
346.625	398.88
346.853	402.88
347.08	418.88
347.308	422.88
347.535	423.88
347.763	412.88
347.99	401.88
348.218	401.88
348.445	408.88
348.673	422.88
348.9	386.88
349.128	398.88
349.355	395.88
349.583	412.88
349.81	376.88
350.037	404.88
350.265	388.88
350.492	390.88
350.72	396.88
350.947	397.88
351.174	399.88
351.402	412.88
351.629	383.88
351.856	396.88
352.083	408.88
352.311	403.88
352.538	426.88
352.765	390.88
352.992	402.88
353.22	398.88
353.447	396.88
353.674	398.88
353.901	389.88
354.128	411.88
354.355	386.88
354.583	388.88
354.81	384.88
355.037	388.88
355.264	383.88
355.491	402.88
355.718	385.88
355.945	390.88
356.172	384.88
356.399	374.88
356.626	384.88
356.853	372.88
357.08	409.88
357.307	372.88
357.534	377.88
357.761	374.88
357.988	379.88
358.215	383.88
358.441	383.88
358.668	372.88
358.895	393.88
359.122	383.88
359.349	404.88
359.576	387.88
359.802	413.88
360.029	420.88
360.256	466.88
360.483	423.88
360.709	419.88
360.936	404.88
361.163	408.88
361.39	401.88
361.616	423.88
361.843	421.88
362.07	398.88
362.296	410.88
362.523	400.88
362.749	412.88
362.976	397.88
363.203	409.88
363.429	383.88
363.656	427.88
363.882	397.88
364.109	395.88
364.335	392.88
364.562	383.88
364.788	375.88
365.015	419.88
365.241	400.88
365.468	405.88
365.694	414.88
365.92	403.88
366.147	392.88
366.373	385.88
366.599	382.88
366.826	406.88
367.052	379.88
367.278	402.88
367.505	385.88
367.731	409.88
367.957	376.88
368.184	428.88
368.41	403.88
368.636	395.88
368.862	420.88
369.089	401.88
369.315	392.88
369.541	400.88
369.767	410.88
369.993	383.88
370.219	406.88
370.445	400.88
370.672	396.88
370.898	399.88
371.124	410.88
371.35	410.88
371.576	401.88
371.802	426.88
372.028	409.88
372.254	416.88
372.48	393.88
372.706	404.88
372.932	413.88
373.158	418.88
373.384	427.88
373.61	399.88
373.835	412.88
374.061	410.88
374.287	416.88
374.513	405.88
374.739	410.88
374.965	422.88
375.191	412.88
375.416	423.88
375.642	419.88
375.868	427.88
376.094	399.88
376.319	417.88
376.545	409.88
376.771	416.88
376.997	410.88
377.222	405.88
377.448	401.88
377.674	394.88
377.899	403.88
378.125	433.88
378.35	395.88
378.576	409.88
378.802	396.88
379.027	396.88
379.253	398.88
379.478	415.88
379.704	415.88
379.929	402.88
380.155	391.88
380.38	417.88
380.606	410.88
380.831	408.88
381.057	417.88
381.282	407.88
381.507	416.88
381.733	399.88
381.958	419.88
382.184	426.88
382.409	414.88
382.634	417.88
382.86	410.88
383.085	416.88
383.31	423.88
383.535	432.88
383.761	440.88
383.986	450.88
384.211	449.88
384.436	420.88
384.662	442.88
384.887	448.88
385.112	449.88
385.337	452.88
385.562	446.88
385.787	471.88
386.013	456.88
386.238	463.88
386.463	447.88
386.688	464.88
386.913	453.88
387.138	464.88
387.363	443.88
387.588	458.88
387.813	451.88
388.038	446.88
388.263	448.88
388.488	461.88
388.713	434.88
388.938	431.88
389.163	450.88
389.387	480.88
389.612	438.88
389.837	457.88
390.062	443.88
390.287	457.88
390.512	457.88
390.736	444.88
390.961	454.88
391.186	454.88
391.411	450.88
391.636	464.88
391.86	463.88
392.085	481.88
392.31	473.88
392.534	462.88
392.759	472.88
392.984	481.88
393.208	454.88
393.433	468.88
393.658	458.88
393.882	477.88
394.107	458.88
394.331	461.88
394.556	480.88
394.78	469.88
395.005	463.88
395.229	460.88
395.454	489.88
395.678	495.88
395.903	484.88
396.127	508.88
396.352	493.88
396.576	490.88
396.801	486.88
397.025	478.88
397.249	483.88
397.474	483.88
397.698	478.88
397.922	505.88
398.147	504.88
398.371	504.88
398.595	501.88
398.82	540.88
399.044	515.88
399.268	557.88
399.492	595.88
399.717	606.88
399.941	626.88
400.165	658.88
400.389	653.88
400.613	613.88
400.837	578.88
401.062	571.88
401.286	546.88
401.51	524.88
401.734	525.88
401.958	528.88
402.182	527.88
402.406	532.88
402.63	545.88
402.854	548.88
403.078	553.88
403.302	563.88
403.526	547.88
403.75	559.88
403.974	550.88
404.198	548.88
404.422	549.88
404.645	559.88
404.869	561.88
405.093	588.88
405.317	633.88
405.541	638.88
405.765	599.88
405.988	600.88
406.212	588.88
406.436	615.88
406.66	584.88
406.883	593.88
407.107	596.88
407.331	636.88
407.555	709.88
407.778	709.88
408.002	667.88
408.226	594.88
408.449	606.88
408.673	630.88
408.896	645.88
409.12	660.88
409.344	619.88
409.567	570.88
409.791	567.88
410.014	583.88
410.238	579.88
410.461	562.88
410.685	566.88
410.908	566.88
411.132	595.88
411.355	640.88
411.578	611.88
411.802	567.88
412.025	556.88
412.249	569.88
412.472	556.88
412.695	608.88
412.919	588.88
413.142	576.88
413.365	575.88
413.589	533.88
413.812	537.88
414.035	547.88
414.258	544.88
414.482	516.88
414.705	530.88
414.928	519.88
415.151	528.88
415.374	520.88
415.597	511.88
415.821	520.88
416.044	509.88
416.267	531.88
416.49	514.88
416.713	506.88
416.936	528.88
417.159	520.88
417.382	514.88
417.605	541.88
417.828	553.88
418.051	535.88
418.274	526.88
418.497	542.88
418.72	532.88
418.943	508.88
419.166	550.88
419.389	554.88
419.611	575.88
419.834	544.88
420.057	530.88
420.28	528.88
420.503	525.88
420.726	554.88
420.948	544.88
421.171	575.88
421.394	607.88
421.617	567.88
421.839	542.88
422.062	552.88
422.285	517.88
422.507	609.88
422.73	667.88
422.953	664.88
423.175	561.88
423.398	562.88
423.621	549.88
423.843	572.88
424.066	578.88
424.288	562.88
424.511	578.88
424.733	659.88
424.956	686.88
425.178	676.88
425.401	664.88
425.623	697.88
425.846	592.88
426.068	563.88
426.291	567.88
426.513	586.88
426.735	578.88
426.958	608.88
427.18	661.88
427.402	786.88
427.625	872.88
427.847	729.88
428.069	664.88
428.292	600.88
428.514	582.88
428.736	532.88
428.958	538.88
429.181	508.88
429.403	530.88
429.625	540.88
429.847	570.88
430.069	618.88
430.292	598.88
430.514	546.88
430.736	514.88
430.958	511.88
431.18	514.88
431.402	525.88
431.624	508.88
431.846	522.88
432.068	525.88
432.29	522.88
432.512	509.88
432.734	511.88
432.956	491.88
433.178	520.88
433.4	530.88
433.622	535.88
433.844	536.88
434.066	521.88
434.287	516.88
434.509	524.88
434.731	513.88
434.953	514.88
435.175	529.88
435.397	583.88
435.618	556.88
435.84	593.88
436.062	698.88
436.284	742.88
436.505	627.88
436.727	560.88
436.949	564.88
437.17	529.88
437.392	523.88
437.614	546.88
437.835	588.88
438.057	646.88
438.278	766.88
438.5	780.88
438.721	806.88
438.943	758.88
439.165	602.88
439.386	570.88
439.608	560.88
439.829	570.88
440.05	574.88
440.272	607.88
440.493	616.88
440.715	571.88
440.936	552.88
441.158	533.88
441.379	526.88
441.6	527.88
441.822	559.88
442.043	589.88
442.264	673.88
442.486	698.88
442.707	647.88
442.928	572.88
443.149	582.88
443.371	588.88
443.592	626.88
443.813	728.88
444.034	812.88
444.255	652.88
444.476	593.88
444.698	585.88
444.919	577.88
445.14	683.88
445.361	625.88
445.582	586.88
445.803	639.88
446.024	739.88
446.245	758.88
446.466	695.88
446.687	594.88
446.908	563.88
447.129	537.88
447.35	521.88
447.571	519.88
447.792	502.88
448.013	516.88
448.234	535.88
448.455	593.88
448.675	668.88
448.896	778.88
449.117	672.88
449.338	630.88
449.559	744.88
449.779	860.88
450	687.88
450.221	552.88
450.442	523.88
450.662	502.88
450.883	512.88
451.104	511.88
451.324	520.88
451.545	507.88
451.766	488.88
451.986	486.88
452.207	479.88
452.428	476.88
452.648	485.88
452.869	490.88
453.089	462.88
453.31	478.88
453.53	454.88
453.751	472.88
453.971	488.88
454.192	490.88
454.412	456.88
454.633	494.88
454.853	479.88
455.073	460.88
455.294	487.88
455.514	518.88
455.734	542.88
455.955	473.88
456.175	456.88
456.395	459.88
456.616	444.88
456.836	454.88
457.056	458.88
457.276	422.88
457.497	478.88
457.717	471.88
457.937	457.88
458.157	488.88
458.377	467.88
458.598	482.88
458.818	538.88
459.038	566.88
459.258	596.88
459.478	540.88
459.698	511.88
459.918	526.88
460.138	528.88
460.358	533.88
460.578	530.88
460.798	553.88
461.018	537.88
461.238	524.88
461.458	533.88
461.678	532.88
461.898	546.88
462.118	553.88
462.338	552.88
462.558	574.88
462.777	572.88
462.997	582.88
463.217	593.88
463.437	595.88
463.657	569.88
463.876	566.88
464.096	561.88
464.316	568.88
464.536	586.88
464.755	580.88
464.975	583.88
465.195	602.88
465.414	625.88
465.634	560.88
465.854	545.88
466.073	547.88
466.293	526.88
466.512	508.88
466.732	497.88
466.951	498.88
467.171	483.88
467.391	506.88
467.61	521.88
467.829	489.88
468.049	526.88
468.268	514.88
468.488	493.88
468.707	508.88
468.927	492.88
469.146	480.88
469.365	481.88
469.585	491.88
469.804	503.88
470.023	482.88
470.243	495.88
470.462	492.88
470.681	493.88
470.901	519.88
471.12	498.88
471.339	505.88
471.558	513.88
471.777	503.88
471.997	481.88
472.216	502.88
472.435	504.88
472.654	517.88
472.873	515.88
473.092	486.88
473.311	482.88
473.53	518.88
473.749	489.88
473.968	542.88
474.187	619.88
474.406	654.88
474.625	569.88
474.844	524.88
475.063	501.88
475.282	543.88
475.501	492.88
475.72	516.88
475.939	508.88
476.158	509.88
476.377	513.88
476.596	530.88
476.814	534.88
477.033	539.88
477.252	560.88
477.471	555.88
477.69	547.88
477.908	534.88
478.127	551.88
478.346	543.88
478.564	559.88
478.783	572.88
479.002	561.88
479.22	584.88
479.439	577.88
479.658	596.88
479.876	616.88
480.095	598.88
480.313	626.88
480.532	641.88
480.751	626.88
480.969	603.88
481.188	640.88
481.406	668.88
481.624	632.88
481.843	600.88
482.061	608.88
482.28	584.88
482.498	580.88
482.717	591.88
482.935	600.88
483.153	606.88
483.372	609.88
483.59	590.88
483.808	576.88
484.027	572.88
484.245	575.88
484.463	604.88
484.681	601.88
484.9	576.88
485.118	588.88
485.336	605.88
485.554	606.88
485.772	614.88
485.99	606.88
486.209	603.88
486.427	603.88
486.645	611.88
486.863	655.88
487.081	638.88
487.299	626.88
487.517	642.88
487.735	628.88
487.953	632.88
488.171	612.88
488.389	618.88
488.607	621.88
488.825	620.88
489.043	620.88
489.261	637.88
489.479	645.88
489.696	648.88
489.914	638.88
490.132	670.88
490.35	640.88
490.568	638.88
490.786	633.88
491.003	638.88
491.221	681.88
491.439	691.88
491.657	660.88
491.874	712.88
492.092	691.88
492.31	680.88
492.527	679.88
492.745	674.88
492.963	703.88
493.18	686.88
493.398	710.88
493.615	717.88
493.833	679.88
494.05	706.88
494.268	720.88
494.485	723.88
494.703	721.88
494.92	706.88
495.138	706.88
495.355	717.88
495.573	733.88
495.79	724.88
496.008	744.88
496.225	727.88
496.442	719.88
496.66	737.88
496.877	739.88
497.094	725.88
497.312	744.88
497.529	726.88
497.746	758.88
497.963	782.88
498.181	790.88
498.398	811.88
498.615	820.88
498.832	833.88
499.049	842.88
499.267	898.88
499.484	910.88
499.701	945.88
499.918	1003.88
500.135	1047.88
500.352	1094.88
500.569	1080.88
500.786	1108.88
501.003	1106.88
501.22	1043.88
501.437	995.88
501.654	954.88
501.871	977.88
