Data from 1978.PennyLincolnUp.Lamp.En5.5.200Scan.071719.P1_HRD10591_16-12-06-866.txt Node
Date: Thu Jul 18 16:12:06 EDT 2019
User: cochatt
Spectrometer: HR+D1059
Trigger mode: 1
Integration Time (sec): 1.000000E-1
Scans to average: 1
Electric dark correction enabled: true
Nonlinearity correction enabled: false
Boxcar width: 0
XAxis mode: Wavelengths
Number of Pixels in Spectrum: 2048
>>>>>Begin Spectral Data<<<<<
223.165	-24.88
223.4	-24.88
223.635	-24.88
223.869	-23.88
224.104	-19.88
224.338	-16.88
224.573	-9.88
224.808	-1.88
225.042	-13.88
225.277	-3.88
225.511	-6.88
225.746	10.12
225.98	14.12
226.215	0.12
226.449	19.12
226.683	17.12
226.918	19.12
227.152	42.12
227.387	35.12
227.621	23.12
227.856	45.12
228.09	45.12
228.324	36.12
228.559	44.12
228.793	61.12
229.027	79.12
229.262	90.12
229.496	105.12
229.73	106.12
229.964	146.12
230.199	116.12
230.433	110.12
230.667	95.12
230.901	103.12
231.136	108.12
231.37	115.12
231.604	110.12
231.838	123.12
232.072	118.12
232.306	102.12
232.541	119.12
232.775	115.12
233.009	90.12
233.243	107.12
233.477	107.12
233.711	108.12
233.945	111.12
234.179	109.12
234.413	102.12
234.647	102.12
234.881	110.12
235.115	97.12
235.349	104.12
235.583	121.12
235.817	96.12
236.051	117.12
236.285	122.12
236.519	98.12
236.753	138.12
236.987	138.12
237.221	164.12
237.455	214.12
237.689	165.12
237.922	125.12
238.156	127.12
238.39	123.12
238.624	119.12
238.858	118.12
239.091	119.12
239.325	120.12
239.559	125.12
239.793	127.12
240.027	124.12
240.26	127.12
240.494	127.12
240.728	127.12
240.961	140.12
241.195	120.12
241.429	134.12
241.662	134.12
241.896	124.12
242.13	111.12
242.363	134.12
242.597	136.12
242.83	131.12
243.064	137.12
243.298	119.12
243.531	122.12
243.765	126.12
243.998	126.12
244.232	137.12
244.465	132.12
244.699	144.12
244.932	142.12
245.166	128.12
245.399	126.12
245.633	137.12
245.866	130.12
246.099	140.12
246.333	135.12
246.566	134.12
246.8	134.12
247.033	143.12
247.266	129.12
247.5	146.12
247.733	136.12
247.966	151.12
248.2	148.12
248.433	162.12
248.666	148.12
248.899	141.12
249.133	153.12
249.366	190.12
249.599	183.12
249.832	159.12
250.066	165.12
250.299	157.12
250.532	165.12
250.765	174.12
250.998	184.12
251.231	192.12
251.465	184.12
251.698	180.12
251.931	163.12
252.164	168.12
252.397	192.12
252.63	166.12
252.863	186.12
253.096	193.12
253.329	202.12
253.562	204.12
253.795	187.12
254.028	182.12
254.261	179.12
254.494	194.12
254.727	202.12
254.96	218.12
255.193	215.12
255.426	194.12
255.659	190.12
255.892	191.12
256.124	201.12
256.357	196.12
256.59	197.12
256.823	187.12
257.056	178.12
257.289	160.12
257.521	194.12
257.754	186.12
257.987	180.12
258.22	177.12
258.452	197.12
258.685	163.12
258.918	182.12
259.151	184.12
259.383	195.12
259.616	196.12
259.849	187.12
260.081	199.12
260.314	218.12
260.547	201.12
260.779	207.12
261.012	196.12
261.244	203.12
261.477	200.12
261.71	202.12
261.942	201.12
262.175	213.12
262.407	195.12
262.64	213.12
262.872	162.12
263.105	191.12
263.337	202.12
263.57	188.12
263.802	203.12
264.035	194.12
264.267	187.12
264.499	182.12
264.732	192.12
264.964	196.12
265.197	188.12
265.429	192.12
265.661	193.12
265.894	187.12
266.126	212.12
266.358	207.12
266.591	194.12
266.823	203.12
267.055	202.12
267.287	216.12
267.52	205.12
267.752	175.12
267.984	197.12
268.216	209.12
268.448	219.12
268.681	212.12
268.913	216.12
269.145	223.12
269.377	230.12
269.609	234.12
269.841	221.12
270.073	243.12
270.306	245.12
270.538	261.12
270.77	244.12
271.002	246.12
271.234	235.12
271.466	250.12
271.698	260.12
271.93	234.12
272.162	269.12
272.394	255.12
272.626	252.12
272.858	242.12
273.09	234.12
273.322	266.12
273.553	229.12
273.785	236.12
274.017	249.12
274.249	228.12
274.481	234.12
274.713	229.12
274.945	246.12
275.176	250.12
275.408	231.12
275.64	225.12
275.872	244.12
276.104	236.12
276.335	209.12
276.567	235.12
276.799	253.12
277.031	260.12
277.262	264.12
277.494	272.12
277.726	243.12
277.957	263.12
278.189	270.12
278.421	240.12
278.652	244.12
278.884	233.12
279.115	226.12
279.347	232.12
279.579	258.12
279.81	230.12
280.042	258.12
280.273	252.12
280.505	240.12
280.736	240.12
280.968	246.12
281.199	247.12
281.431	250.12
281.662	234.12
281.894	245.12
282.125	243.12
282.356	252.12
282.588	273.12
282.819	261.12
283.051	238.12
283.282	268.12
283.513	254.12
283.745	247.12
283.976	260.12
284.207	278.12
284.439	238.12
284.67	240.12
284.901	260.12
285.132	251.12
285.364	247.12
285.595	245.12
285.826	261.12
286.057	260.12
286.288	245.12
286.52	262.12
286.751	250.12
286.982	269.12
287.213	259.12
287.444	271.12
287.675	258.12
287.906	271.12
288.138	249.12
288.369	284.12
288.6	260.12
288.831	258.12
289.062	245.12
289.293	264.12
289.524	269.12
289.755	262.12
289.986	267.12
290.217	259.12
290.448	259.12
290.679	259.12
290.91	262.12
291.141	259.12
291.371	254.12
291.602	256.12
291.833	264.12
292.064	266.12
292.295	284.12
292.526	280.12
292.757	283.12
292.987	270.12
293.218	244.12
293.449	253.12
293.68	273.12
293.91	273.12
294.141	277.12
294.372	251.12
294.603	263.12
294.833	282.12
295.064	270.12
295.295	264.12
295.525	255.12
295.756	271.12
295.987	266.12
296.217	304.12
296.448	294.12
296.679	290.12
296.909	291.12
297.14	262.12
297.37	274.12
297.601	268.12
297.831	288.12
298.062	279.12
298.292	285.12
298.523	299.12
298.753	294.12
298.984	258.12
299.214	292.12
299.445	285.12
299.675	271.12
299.905	290.12
300.136	272.12
300.366	285.12
300.597	291.12
300.827	287.12
301.057	274.12
301.288	297.12
301.518	279.12
301.748	300.12
301.979	310.12
302.209	290.12
302.439	306.12
302.669	301.12
302.9	287.12
303.13	298.12
303.36	294.12
303.59	301.12
303.82	293.12
304.051	301.12
304.281	294.12
304.511	304.12
304.741	317.12
304.971	312.12
305.201	294.12
305.431	296.12
305.661	295.12
305.891	312.12
306.121	303.12
306.352	312.12
306.582	301.12
306.812	306.12
307.042	297.12
307.272	301.12
307.502	306.12
307.731	322.12
307.961	311.12
308.191	304.12
308.421	303.12
308.651	301.12
308.881	327.12
309.111	317.12
309.341	296.12
309.571	330.12
309.8	335.12
310.03	325.12
310.26	322.12
310.49	351.12
310.72	330.12
310.949	340.12
311.179	343.12
311.409	356.12
311.639	325.12
311.868	340.12
312.098	339.12
312.328	349.12
312.557	355.12
312.787	353.12
313.017	359.12
313.246	359.12
313.476	334.12
313.706	312.12
313.935	336.12
314.165	333.12
314.394	366.12
314.624	366.12
314.853	345.12
315.083	344.12
315.312	336.12
315.542	334.12
315.771	336.12
316.001	322.12
316.23	323.12
316.46	345.12
316.689	333.12
316.919	349.12
317.148	366.12
317.377	331.12
317.607	354.12
317.836	342.12
318.065	360.12
318.295	346.12
318.524	352.12
318.753	354.12
318.983	348.12
319.212	355.12
319.441	333.12
319.67	359.12
319.9	356.12
320.129	347.12
320.358	336.12
320.587	350.12
320.816	351.12
321.046	352.12
321.275	371.12
321.504	360.12
321.733	373.12
321.962	370.12
322.191	364.12
322.42	373.12
322.649	384.12
322.878	396.12
323.108	390.12
323.337	409.12
323.566	408.12
323.795	448.12
324.024	460.12
324.253	562.12
324.482	768.12
324.71	1162.12
324.939	1718.12
325.168	1525.12
325.397	760.12
325.626	511.12
325.855	448.12
326.084	434.12
326.313	421.12
326.542	441.12
326.77	464.12
326.999	552.12
327.228	706.12
327.457	1064.12
327.686	1301.12
327.914	889.12
328.143	573.12
328.372	511.12
328.6	488.12
328.829	483.12
329.058	479.12
329.287	492.12
329.515	469.12
329.744	438.12
329.972	431.12
330.201	431.12
330.43	486.12
330.658	469.12
330.887	507.12
331.115	485.12
331.344	459.12
331.572	446.12
331.801	426.12
332.03	439.12
332.258	424.12
332.486	400.12
332.715	395.12
332.943	419.12
333.172	426.12
333.4	440.12
333.629	436.12
333.857	437.12
334.085	434.12
334.314	470.12
334.542	461.12
334.771	488.12
334.999	460.12
335.227	422.12
335.455	432.12
335.684	397.12
335.912	406.12
336.14	421.12
336.369	408.12
336.597	405.12
336.825	416.12
337.053	412.12
337.281	406.12
337.51	404.12
337.738	407.12
337.966	396.12
338.194	403.12
338.422	399.12
338.65	420.12
338.878	396.12
339.106	406.12
339.334	380.12
339.562	404.12
339.79	402.12
340.018	405.12
340.246	399.12
340.474	403.12
340.702	407.12
340.93	396.12
341.158	408.12
341.386	398.12
341.614	392.12
341.842	379.12
342.07	394.12
342.298	391.12
342.526	396.12
342.754	380.12
342.981	393.12
343.209	376.12
343.437	414.12
343.665	405.12
343.893	397.12
344.12	436.12
344.348	400.12
344.576	415.12
344.804	409.12
345.031	401.12
345.259	445.12
345.487	400.12
345.714	409.12
345.942	405.12
346.17	422.12
346.397	389.12
346.625	398.12
346.853	399.12
347.08	399.12
347.308	394.12
347.535	410.12
347.763	407.12
347.99	405.12
348.218	398.12
348.445	411.12
348.673	387.12
348.9	398.12
349.128	362.12
349.355	402.12
349.583	387.12
349.81	384.12
350.037	383.12
350.265	399.12
350.492	378.12
350.72	364.12
350.947	400.12
351.174	382.12
351.402	400.12
351.629	388.12
351.856	385.12
352.083	410.12
352.311	392.12
352.538	414.12
352.765	393.12
352.992	394.12
353.22	366.12
353.447	375.12
353.674	382.12
353.901	386.12
354.128	362.12
354.355	371.12
354.583	384.12
354.81	360.12
355.037	386.12
355.264	372.12
355.491	375.12
355.718	364.12
355.945	372.12
356.172	378.12
356.399	372.12
356.626	384.12
356.853	370.12
357.08	378.12
357.307	367.12
357.534	373.12
357.761	367.12
357.988	368.12
358.215	397.12
358.441	372.12
358.668	374.12
358.895	372.12
359.122	367.12
359.349	412.12
359.576	388.12
359.802	399.12
360.029	422.12
360.256	414.12
360.483	408.12
360.709	401.12
360.936	402.12
361.163	376.12
361.39	384.12
361.616	410.12
361.843	385.12
362.07	401.12
362.296	392.12
362.523	398.12
362.749	401.12
362.976	390.12
363.203	390.12
363.429	401.12
363.656	382.12
363.882	380.12
364.109	389.12
364.335	399.12
364.562	392.12
364.788	377.12
365.015	393.12
365.241	419.12
365.468	384.12
365.694	392.12
365.92	391.12
366.147	404.12
366.373	403.12
366.599	389.12
366.826	372.12
367.052	370.12
367.278	392.12
367.505	392.12
367.731	396.12
367.957	380.12
368.184	390.12
368.41	382.12
368.636	397.12
368.862	405.12
369.089	369.12
369.315	378.12
369.541	375.12
369.767	390.12
369.993	382.12
370.219	375.12
370.445	374.12
370.672	382.12
370.898	385.12
371.124	377.12
371.35	384.12
371.576	398.12
371.802	387.12
372.028	404.12
372.254	374.12
372.48	394.12
372.706	411.12
372.932	388.12
373.158	406.12
373.384	416.12
373.61	400.12
373.835	393.12
374.061	391.12
374.287	390.12
374.513	400.12
374.739	384.12
374.965	414.12
375.191	410.12
375.416	412.12
375.642	397.12
375.868	400.12
376.094	377.12
376.319	404.12
376.545	406.12
376.771	404.12
376.997	414.12
377.222	404.12
377.448	381.12
377.674	388.12
377.899	400.12
378.125	406.12
378.35	395.12
378.576	398.12
378.802	409.12
379.027	397.12
379.253	406.12
379.478	383.12
379.704	409.12
379.929	398.12
380.155	384.12
380.38	382.12
380.606	425.12
380.831	412.12
381.057	399.12
381.282	390.12
381.507	389.12
381.733	405.12
381.958	403.12
382.184	391.12
382.409	409.12
382.634	402.12
382.86	413.12
383.085	405.12
383.31	418.12
383.535	434.12
383.761	408.12
383.986	431.12
384.211	437.12
384.436	423.12
384.662	413.12
384.887	418.12
385.112	432.12
385.337	447.12
385.562	456.12
385.787	418.12
386.013	420.12
386.238	445.12
386.463	458.12
386.688	442.12
386.913	451.12
387.138	436.12
387.363	416.12
387.588	446.12
387.813	443.12
388.038	423.12
388.263	438.12
388.488	461.12
388.713	441.12
388.938	439.12
389.163	448.12
389.387	445.12
389.612	442.12
389.837	426.12
390.062	452.12
390.287	442.12
390.512	432.12
390.736	448.12
390.961	440.12
391.186	460.12
391.411	454.12
391.636	453.12
391.86	475.12
392.085	476.12
392.31	473.12
392.534	455.12
392.759	462.12
392.984	478.12
393.208	467.12
393.433	473.12
393.658	448.12
393.882	458.12
394.107	464.12
394.331	455.12
394.556	461.12
394.78	459.12
395.005	463.12
395.229	451.12
395.454	463.12
395.678	466.12
395.903	476.12
396.127	488.12
396.352	510.12
396.576	484.12
396.801	475.12
397.025	478.12
397.249	484.12
397.474	475.12
397.698	475.12
397.922	469.12
398.147	515.12
398.371	516.12
398.595	494.12
398.82	510.12
399.044	518.12
399.268	560.12
399.492	587.12
399.717	606.12
399.941	647.12
400.165	640.12
400.389	629.12
400.613	589.12
400.837	548.12
401.062	559.12
401.286	549.12
401.51	541.12
401.734	527.12
401.958	561.12
402.182	518.12
402.406	520.12
402.63	506.12
402.854	540.12
403.078	547.12
403.302	550.12
403.526	535.12
403.75	532.12
403.974	546.12
404.198	532.12
404.422	537.12
404.645	546.12
404.869	557.12
405.093	574.12
405.317	607.12
405.541	669.12
405.765	577.12
405.988	532.12
406.212	558.12
406.436	584.12
406.66	580.12
406.883	579.12
407.107	584.12
407.331	636.12
407.555	702.12
407.778	711.12
408.002	650.12
408.226	619.12
408.449	587.12
408.673	613.12
408.896	605.12
409.12	648.12
409.344	617.12
409.567	580.12
409.791	577.12
410.014	553.12
410.238	541.12
410.461	546.12
410.685	540.12
410.908	569.12
411.132	576.12
411.355	629.12
411.578	612.12
411.802	542.12
412.025	516.12
412.249	538.12
412.472	551.12
412.695	573.12
412.919	580.12
413.142	547.12
413.365	525.12
413.589	512.12
413.812	501.12
414.035	494.12
414.258	532.12
414.482	552.12
414.705	549.12
414.928	518.12
415.151	518.12
415.374	496.12
415.597	505.12
415.821	515.12
416.044	527.12
416.267	536.12
416.49	502.12
416.713	528.12
416.936	518.12
417.159	489.12
417.382	496.12
417.605	497.12
417.828	534.12
418.051	501.12
418.274	514.12
418.497	503.12
418.72	524.12
418.943	518.12
419.166	516.12
419.389	542.12
419.611	543.12
419.834	535.12
420.057	515.12
420.28	510.12
420.503	525.12
420.726	521.12
420.948	532.12
421.171	562.12
421.394	617.12
421.617	546.12
421.839	529.12
422.062	531.12
422.285	532.12
422.507	578.12
422.73	670.12
422.953	638.12
423.175	569.12
423.398	574.12
423.621	533.12
423.843	546.12
424.066	567.12
424.288	576.12
424.511	566.12
424.733	606.12
424.956	683.12
425.178	662.12
425.401	662.12
425.623	673.12
425.846	600.12
426.068	557.12
426.291	538.12
426.513	527.12
426.735	557.12
426.958	607.12
427.18	670.12
427.402	771.12
427.625	867.12
427.847	766.12
428.069	640.12
428.292	577.12
428.514	550.12
428.736	540.12
428.958	526.12
429.181	509.12
429.403	514.12
429.625	523.12
429.847	530.12
430.069	602.12
430.292	613.12
430.514	536.12
430.736	512.12
430.958	515.12
431.18	514.12
431.402	492.12
431.624	492.12
431.846	500.12
432.068	479.12
432.29	505.12
432.512	485.12
432.734	496.12
432.956	496.12
433.178	492.12
433.4	494.12
433.622	501.12
433.844	516.12
434.066	504.12
434.287	504.12
434.509	504.12
434.731	491.12
434.953	504.12
435.175	526.12
435.397	555.12
435.618	558.12
435.84	619.12
436.062	684.12
436.284	735.12
436.505	615.12
436.727	568.12
436.949	535.12
437.17	528.12
437.392	504.12
437.614	521.12
437.835	556.12
438.057	619.12
438.278	720.12
438.5	701.12
438.721	820.12
438.943	782.12
439.165	607.12
439.386	589.12
439.608	542.12
439.829	544.12
440.05	591.12
440.272	610.12
440.493	589.12
440.715	562.12
440.936	523.12
441.158	518.12
441.379	521.12
441.6	542.12
441.822	563.12
442.043	597.12
442.264	652.12
442.486	697.12
442.707	613.12
442.928	553.12
443.149	573.12
443.371	587.12
443.592	611.12
443.813	723.12
444.034	766.12
444.255	640.12
444.476	579.12
444.698	550.12
444.919	545.12
445.14	671.12
445.361	641.12
445.582	597.12
445.803	652.12
446.024	713.12
446.245	746.12
446.466	685.12
446.687	594.12
446.908	563.12
447.129	537.12
447.35	508.12
447.571	527.12
447.792	518.12
448.013	526.12
448.234	499.12
448.455	582.12
448.675	701.12
448.896	786.12
449.117	682.12
449.338	631.12
449.559	746.12
449.779	828.12
450	670.12
450.221	557.12
450.442	514.12
450.662	482.12
450.883	502.12
451.104	486.12
451.324	488.12
451.545	478.12
451.766	487.12
451.986	468.12
452.207	458.12
452.428	468.12
452.648	467.12
452.869	478.12
453.089	463.12
453.31	480.12
453.53	489.12
453.751	482.12
453.971	475.12
454.192	491.12
454.412	466.12
454.633	461.12
454.853	460.12
455.073	469.12
455.294	498.12
455.514	529.12
455.734	495.12
455.955	444.12
456.175	462.12
456.395	440.12
456.616	434.12
456.836	450.12
457.056	449.12
457.276	429.12
457.497	457.12
457.717	462.12
457.937	441.12
458.157	443.12
458.377	469.12
458.598	484.12
458.818	527.12
459.038	580.12
459.258	584.12
459.478	545.12
459.698	528.12
459.918	505.12
460.138	504.12
460.358	516.12
460.578	493.12
460.798	500.12
461.018	524.12
461.238	531.12
461.458	529.12
461.678	516.12
461.898	522.12
462.118	544.12
462.338	544.12
462.558	535.12
462.777	556.12
462.997	554.12
463.217	572.12
463.437	581.12
463.657	546.12
463.876	565.12
464.096	565.12
464.316	548.12
464.536	570.12
464.755	573.12
464.975	540.12
465.195	579.12
465.414	602.12
465.634	582.12
465.854	532.12
466.073	510.12
466.293	506.12
466.512	491.12
466.732	492.12
466.951	501.12
467.171	474.12
467.391	492.12
467.61	494.12
467.829	490.12
468.049	497.12
468.268	468.12
468.488	471.12
468.707	485.12
468.927	473.12
469.146	474.12
469.365	455.12
469.585	463.12
469.804	482.12
470.023	487.12
470.243	475.12
470.462	498.12
470.681	490.12
470.901	494.12
471.12	483.12
471.339	508.12
471.558	490.12
471.777	494.12
471.997	499.12
472.216	477.12
472.435	520.12
472.654	506.12
472.873	494.12
473.092	492.12
473.311	491.12
473.53	492.12
473.749	514.12
473.968	539.12
474.187	575.12
474.406	611.12
474.625	542.12
474.844	489.12
475.063	477.12
475.282	488.12
475.501	487.12
475.72	501.12
475.939	512.12
476.158	502.12
476.377	499.12
476.596	506.12
476.814	502.12
477.033	533.12
477.252	512.12
477.471	525.12
477.69	531.12
477.908	535.12
478.127	548.12
478.346	553.12
478.564	557.12
478.783	543.12
479.002	564.12
479.22	580.12
479.439	566.12
479.658	583.12
479.876	602.12
480.095	607.12
480.313	619.12
480.532	621.12
480.751	589.12
480.969	611.12
481.188	635.12
481.406	666.12
481.624	611.12
481.843	607.12
482.061	585.12
482.28	566.12
482.498	591.12
482.717	567.12
482.935	585.12
483.153	589.12
483.372	575.12
483.59	556.12
483.808	572.12
484.027	569.12
484.245	562.12
484.463	589.12
484.681	607.12
484.9	591.12
485.118	569.12
485.336	596.12
485.554	579.12
485.772	589.12
485.99	584.12
486.209	600.12
486.427	605.12
486.645	598.12
486.863	588.12
487.081	613.12
487.299	606.12
487.517	589.12
487.735	608.12
487.953	588.12
488.171	617.12
488.389	602.12
488.607	606.12
488.825	610.12
489.043	618.12
489.261	612.12
489.479	605.12
489.696	616.12
489.914	621.12
490.132	627.12
490.35	659.12
490.568	642.12
490.786	652.12
491.003	645.12
491.221	634.12
491.439	652.12
491.657	667.12
491.874	684.12
492.092	685.12
492.31	648.12
492.527	651.12
492.745	678.12
492.963	680.12
493.18	665.12
493.398	683.12
493.615	695.12
493.833	690.12
494.05	685.12
494.268	680.12
494.485	684.12
494.703	699.12
494.92	679.12
495.138	702.12
495.355	685.12
495.573	706.12
495.79	694.12
496.008	704.12
496.225	708.12
496.442	716.12
496.66	694.12
496.877	733.12
497.094	729.12
497.312	754.12
497.529	751.12
497.746	766.12
497.963	781.12
498.181	783.12
498.398	802.12
498.615	802.12
498.832	861.12
499.049	834.12
499.267	883.12
499.484	898.12
499.701	922.12
499.918	976.12
500.135	1020.12
500.352	1050.12
500.569	1066.12
500.786	1068.12
501.003	1076.12
501.22	1033.12
501.437	988.12
501.654	965.12
501.871	945.12
