Data from 1978.PennyLincolnUp.Lamp.En5.5.200Scan.071719.P1_HRD10591_16-13-45-864.txt Node
Date: Thu Jul 18 16:13:45 EDT 2019
User: cochatt
Spectrometer: HR+D1059
Trigger mode: 1
Integration Time (sec): 1.000000E-1
Scans to average: 1
Electric dark correction enabled: true
Nonlinearity correction enabled: false
Boxcar width: 0
XAxis mode: Wavelengths
Number of Pixels in Spectrum: 2048
>>>>>Begin Spectral Data<<<<<
223.165	-10.69
223.4	-10.69
223.635	-10.69
223.869	-3.69
224.104	-21.69
224.338	-11.69
224.573	-20.69
224.808	-10.69
225.042	-11.69
225.277	-6.69
225.511	-11.69
225.746	2.31
225.98	-0.69
226.215	17.31
226.449	14.31
226.683	27.31
226.918	30.31
227.152	18.31
227.387	36.31
227.621	30.31
227.856	50.31
228.09	53.31
228.324	50.31
228.559	54.31
228.793	59.31
229.027	88.31
229.262	109.31
229.496	106.31
229.73	125.31
229.964	146.31
230.199	122.31
230.433	128.31
230.667	113.31
230.901	119.31
231.136	98.31
231.37	122.31
231.604	118.31
231.838	117.31
232.072	111.31
232.306	117.31
232.541	107.31
232.775	106.31
233.009	122.31
233.243	106.31
233.477	100.31
233.711	99.31
233.945	128.31
234.179	112.31
234.413	127.31
234.647	115.31
234.881	116.31
235.115	103.31
235.349	120.31
235.583	131.31
235.817	114.31
236.051	126.31
236.285	126.31
236.519	132.31
236.753	132.31
236.987	149.31
237.221	156.31
237.455	234.31
237.689	197.31
237.922	144.31
238.156	123.31
238.39	128.31
238.624	130.31
238.858	121.31
239.091	118.31
239.325	123.31
239.559	119.31
239.793	126.31
240.027	132.31
240.26	129.31
240.494	151.31
240.728	142.31
240.961	125.31
241.195	124.31
241.429	132.31
241.662	136.31
241.896	141.31
242.13	140.31
242.363	120.31
242.597	125.31
242.83	135.31
243.064	118.31
243.298	137.31
243.531	134.31
243.765	121.31
243.998	125.31
244.232	134.31
244.465	141.31
244.699	157.31
244.932	134.31
245.166	141.31
245.399	126.31
245.633	142.31
245.866	143.31
246.099	127.31
246.333	138.31
246.566	148.31
246.8	144.31
247.033	156.31
247.266	161.31
247.5	149.31
247.733	150.31
247.966	168.31
248.2	161.31
248.433	157.31
248.666	170.31
248.899	163.31
249.133	174.31
249.366	213.31
249.599	183.31
249.832	174.31
250.066	178.31
250.299	172.31
250.532	177.31
250.765	198.31
250.998	215.31
251.231	232.31
251.465	184.31
251.698	198.31
251.931	187.31
252.164	183.31
252.397	185.31
252.63	193.31
252.863	179.31
253.096	182.31
253.329	210.31
253.562	222.31
253.795	209.31
254.028	199.31
254.261	205.31
254.494	200.31
254.727	216.31
254.96	250.31
255.193	248.31
255.426	212.31
255.659	223.31
255.892	210.31
256.124	225.31
256.357	219.31
256.59	199.31
256.823	191.31
257.056	193.31
257.289	178.31
257.521	185.31
257.754	197.31
257.987	211.31
258.22	204.31
258.452	189.31
258.685	199.31
258.918	190.31
259.151	193.31
259.383	191.31
259.616	190.31
259.849	217.31
260.081	220.31
260.314	238.31
260.547	250.31
260.779	236.31
261.012	202.31
261.244	223.31
261.477	202.31
261.71	211.31
261.942	215.31
262.175	226.31
262.407	210.31
262.64	203.31
262.872	212.31
263.105	209.31
263.337	196.31
263.57	197.31
263.802	206.31
264.035	208.31
264.267	202.31
264.499	206.31
264.732	190.31
264.964	189.31
265.197	187.31
265.429	201.31
265.661	202.31
265.894	205.31
266.126	195.31
266.358	214.31
266.591	222.31
266.823	208.31
267.055	214.31
267.287	203.31
267.52	226.31
267.752	219.31
267.984	215.31
268.216	220.31
268.448	209.31
268.681	225.31
268.913	223.31
269.145	234.31
269.377	231.31
269.609	257.31
269.841	245.31
270.073	234.31
270.306	280.31
270.538	285.31
270.77	273.31
271.002	271.31
271.234	266.31
271.466	283.31
271.698	280.31
271.93	281.31
272.162	296.31
272.394	302.31
272.626	269.31
272.858	269.31
273.09	248.31
273.322	269.31
273.553	257.31
273.785	253.31
274.017	265.31
274.249	247.31
274.481	247.31
274.713	250.31
274.945	262.31
275.176	251.31
275.408	224.31
275.64	243.31
275.872	269.31
276.104	239.31
276.335	229.31
276.567	247.31
276.799	280.31
277.031	290.31
277.262	298.31
277.494	307.31
277.726	279.31
277.957	268.31
278.189	248.31
278.421	266.31
278.652	265.31
278.884	264.31
279.115	238.31
279.347	245.31
279.579	248.31
279.81	247.31
280.042	232.31
280.273	259.31
280.505	254.31
280.736	268.31
280.968	261.31
281.199	283.31
281.431	278.31
281.662	249.31
281.894	257.31
282.125	274.31
282.356	269.31
282.588	295.31
282.819	286.31
283.051	265.31
283.282	284.31
283.513	269.31
283.745	276.31
283.976	276.31
284.207	246.31
284.439	267.31
284.67	266.31
284.901	273.31
285.132	267.31
285.364	273.31
285.595	265.31
285.826	247.31
286.057	269.31
286.288	266.31
286.52	273.31
286.751	274.31
286.982	261.31
287.213	271.31
287.444	261.31
287.675	283.31
287.906	291.31
288.138	299.31
288.369	278.31
288.6	302.31
288.831	293.31
289.062	280.31
289.293	261.31
289.524	291.31
289.755	282.31
289.986	282.31
290.217	271.31
290.448	276.31
290.679	277.31
290.91	279.31
291.141	273.31
291.371	282.31
291.602	276.31
291.833	281.31
292.064	272.31
292.295	265.31
292.526	286.31
292.757	280.31
292.987	279.31
293.218	271.31
293.449	285.31
293.68	294.31
293.91	285.31
294.141	277.31
294.372	268.31
294.603	275.31
294.833	279.31
295.064	276.31
295.295	291.31
295.525	276.31
295.756	297.31
295.987	287.31
296.217	308.31
296.448	307.31
296.679	310.31
296.909	269.31
297.14	310.31
297.37	277.31
297.601	294.31
297.831	286.31
298.062	299.31
298.292	312.31
298.523	296.31
298.753	301.31
298.984	310.31
299.214	309.31
299.445	293.31
299.675	299.31
299.905	310.31
300.136	298.31
300.366	295.31
300.597	309.31
300.827	309.31
301.057	308.31
301.288	314.31
301.518	326.31
301.748	320.31
301.979	311.31
302.209	311.31
302.439	328.31
302.669	314.31
302.9	311.31
303.13	322.31
303.36	310.31
303.59	324.31
303.82	316.31
304.051	324.31
304.281	322.31
304.511	330.31
304.741	300.31
304.971	333.31
305.201	324.31
305.431	313.31
305.661	323.31
305.891	303.31
306.121	325.31
306.352	321.31
306.582	340.31
306.812	329.31
307.042	340.31
307.272	318.31
307.502	323.31
307.731	328.31
307.961	332.31
308.191	337.31
308.421	330.31
308.651	338.31
308.881	328.31
309.111	322.31
309.341	338.31
309.571	334.31
309.8	341.31
310.03	335.31
310.26	343.31
310.49	356.31
310.72	339.31
310.949	377.31
311.179	393.31
311.409	349.31
311.639	345.31
311.868	339.31
312.098	356.31
312.328	369.31
312.557	381.31
312.787	395.31
313.017	390.31
313.246	386.31
313.476	373.31
313.706	373.31
313.935	371.31
314.165	376.31
314.394	395.31
314.624	371.31
314.853	387.31
315.083	382.31
315.312	355.31
315.542	356.31
315.771	354.31
316.001	365.31
316.23	354.31
316.46	355.31
316.689	358.31
316.919	365.31
317.148	367.31
317.377	383.31
317.607	374.31
317.836	381.31
318.065	369.31
318.295	366.31
318.524	380.31
318.753	368.31
318.983	358.31
319.212	362.31
319.441	383.31
319.67	366.31
319.9	361.31
320.129	370.31
320.358	383.31
320.587	375.31
320.816	377.31
321.046	385.31
321.275	389.31
321.504	396.31
321.733	405.31
321.962	390.31
322.191	399.31
322.42	405.31
322.649	438.31
322.878	449.31
323.108	459.31
323.337	450.31
323.566	496.31
323.795	511.31
324.024	556.31
324.253	673.31
324.482	946.31
324.71	1541.31
324.939	2333.31
325.168	2007.31
325.397	977.31
325.626	645.31
325.855	527.31
326.084	489.31
326.313	466.31
326.542	482.31
326.77	546.31
326.999	629.31
327.228	903.31
327.457	1374.31
327.686	1757.31
327.914	1129.31
328.143	713.31
328.372	612.31
328.6	579.31
328.829	541.31
329.058	557.31
329.287	552.31
329.515	539.31
329.744	483.31
329.972	495.31
330.201	511.31
330.43	547.31
330.658	554.31
330.887	598.31
331.115	588.31
331.344	498.31
331.572	473.31
331.801	464.31
332.03	458.31
332.258	465.31
332.486	431.31
332.715	427.31
332.943	439.31
333.172	449.31
333.4	456.31
333.629	462.31
333.857	459.31
334.085	469.31
334.314	478.31
334.542	499.31
334.771	550.31
334.999	497.31
335.227	471.31
335.455	461.31
335.684	439.31
335.912	448.31
336.14	448.31
336.369	449.31
336.597	446.31
336.825	466.31
337.053	454.31
337.281	430.31
337.51	447.31
337.738	451.31
337.966	432.31
338.194	428.31
338.422	432.31
338.65	450.31
338.878	421.31
339.106	408.31
339.334	425.31
339.562	425.31
339.79	431.31
340.018	436.31
340.246	429.31
340.474	396.31
340.702	410.31
340.93	435.31
341.158	422.31
341.386	405.31
341.614	401.31
341.842	431.31
342.07	401.31
342.298	410.31
342.526	399.31
342.754	426.31
342.981	406.31
343.209	406.31
343.437	428.31
343.665	424.31
343.893	439.31
344.12	460.31
344.348	422.31
344.576	422.31
344.804	430.31
345.031	433.31
345.259	481.31
345.487	422.31
345.714	435.31
345.942	426.31
346.17	409.31
346.397	414.31
346.625	433.31
346.853	397.31
347.08	416.31
347.308	433.31
347.535	437.31
347.763	447.31
347.99	417.31
348.218	423.31
348.445	421.31
348.673	422.31
348.9	415.31
349.128	421.31
349.355	400.31
349.583	404.31
349.81	377.31
350.037	392.31
350.265	398.31
350.492	413.31
350.72	397.31
350.947	430.31
351.174	430.31
351.402	433.31
351.629	421.31
351.856	408.31
352.083	406.31
352.311	427.31
352.538	448.31
352.765	425.31
352.992	410.31
353.22	409.31
353.447	411.31
353.674	404.31
353.901	409.31
354.128	402.31
354.355	400.31
354.583	406.31
354.81	405.31
355.037	367.31
355.264	378.31
355.491	385.31
355.718	403.31
355.945	396.31
356.172	388.31
356.399	390.31
356.626	387.31
356.853	395.31
357.08	363.31
357.307	383.31
357.534	405.31
357.761	390.31
357.988	392.31
358.215	407.31
358.441	387.31
358.668	412.31
358.895	398.31
359.122	396.31
359.349	414.31
359.576	441.31
359.802	428.31
360.029	459.31
360.256	470.31
360.483	453.31
360.709	450.31
360.936	445.31
361.163	399.31
361.39	411.31
361.616	435.31
361.843	417.31
362.07	415.31
362.296	411.31
362.523	412.31
362.749	433.31
362.976	433.31
363.203	418.31
363.429	399.31
363.656	399.31
363.882	413.31
364.109	409.31
364.335	408.31
364.562	403.31
364.788	405.31
365.015	402.31
365.241	411.31
365.468	407.31
365.694	413.31
365.92	437.31
366.147	417.31
366.373	399.31
366.599	404.31
366.826	387.31
367.052	384.31
367.278	407.31
367.505	382.31
367.731	398.31
367.957	394.31
368.184	392.31
368.41	404.31
368.636	415.31
368.862	414.31
369.089	415.31
369.315	414.31
369.541	405.31
369.767	429.31
369.993	402.31
370.219	401.31
370.445	407.31
370.672	413.31
370.898	401.31
371.124	405.31
371.35	406.31
371.576	404.31
371.802	421.31
372.028	400.31
372.254	409.31
372.48	400.31
372.706	425.31
372.932	399.31
373.158	407.31
373.384	423.31
373.61	418.31
373.835	395.31
374.061	411.31
374.287	415.31
374.513	393.31
374.739	425.31
374.965	400.31
375.191	412.31
375.416	399.31
375.642	410.31
375.868	417.31
376.094	417.31
376.319	414.31
376.545	415.31
376.771	400.31
376.997	430.31
377.222	398.31
377.448	407.31
377.674	420.31
377.899	396.31
378.125	414.31
378.35	394.31
378.576	403.31
378.802	396.31
379.027	403.31
379.253	424.31
379.478	413.31
379.704	411.31
379.929	411.31
380.155	418.31
380.38	421.31
380.606	411.31
380.831	398.31
381.057	422.31
381.282	413.31
381.507	405.31
381.733	404.31
381.958	418.31
382.184	417.31
382.409	412.31
382.634	433.31
382.86	443.31
383.085	411.31
383.31	421.31
383.535	443.31
383.761	441.31
383.986	448.31
384.211	436.31
384.436	436.31
384.662	438.31
384.887	443.31
385.112	443.31
385.337	466.31
385.562	439.31
385.787	462.31
386.013	457.31
386.238	465.31
386.463	471.31
386.688	477.31
386.913	472.31
387.138	460.31
387.363	452.31
387.588	458.31
387.813	470.31
388.038	454.31
388.263	461.31
388.488	467.31
388.713	443.31
388.938	462.31
389.163	471.31
389.387	452.31
389.612	465.31
389.837	459.31
390.062	444.31
390.287	443.31
390.512	462.31
390.736	470.31
390.961	462.31
391.186	463.31
391.411	470.31
391.636	462.31
391.86	478.31
392.085	472.31
392.31	463.31
392.534	484.31
392.759	453.31
392.984	473.31
393.208	459.31
393.433	460.31
393.658	469.31
393.882	474.31
394.107	452.31
394.331	476.31
394.556	431.31
394.78	444.31
395.005	466.31
395.229	455.31
395.454	476.31
395.678	490.31
395.903	505.31
396.127	507.31
396.352	523.31
396.576	494.31
396.801	484.31
397.025	499.31
397.249	489.31
397.474	492.31
397.698	497.31
397.922	503.31
398.147	509.31
398.371	545.31
398.595	535.31
398.82	539.31
399.044	531.31
399.268	544.31
399.492	577.31
399.717	621.31
399.941	621.31
400.165	677.31
400.389	662.31
400.613	613.31
400.837	585.31
401.062	569.31
401.286	549.31
401.51	539.31
401.734	522.31
401.958	556.31
402.182	564.31
402.406	555.31
402.63	539.31
402.854	536.31
403.078	548.31
403.302	559.31
403.526	558.31
403.75	574.31
403.974	548.31
404.198	545.31
404.422	570.31
404.645	565.31
404.869	568.31
405.093	591.31
405.317	639.31
405.541	669.31
405.765	633.31
405.988	590.31
406.212	600.31
406.436	597.31
406.66	602.31
406.883	606.31
407.107	617.31
407.331	675.31
407.555	743.31
407.778	734.31
408.002	681.31
408.226	633.31
408.449	605.31
408.673	620.31
408.896	631.31
409.12	681.31
409.344	641.31
409.567	595.31
409.791	575.31
410.014	586.31
410.238	543.31
410.461	559.31
410.685	557.31
410.908	557.31
411.132	635.31
411.355	673.31
411.578	608.31
411.802	583.31
412.025	557.31
412.249	542.31
412.472	603.31
412.695	631.31
412.919	631.31
413.142	568.31
413.365	541.31
413.589	546.31
413.812	527.31
414.035	541.31
414.258	535.31
414.482	516.31
414.705	526.31
414.928	530.31
415.151	541.31
415.374	539.31
415.597	540.31
415.821	525.31
416.044	525.31
416.267	545.31
416.49	534.31
416.713	533.31
416.936	519.31
417.159	507.31
417.382	532.31
417.605	513.31
417.828	538.31
418.051	581.31
418.274	537.31
418.497	515.31
418.72	547.31
418.943	525.31
419.166	538.31
419.389	579.31
419.611	553.31
419.834	547.31
420.057	560.31
420.28	539.31
420.503	543.31
420.726	568.31
420.948	577.31
421.171	597.31
421.394	650.31
421.617	585.31
421.839	552.31
422.062	563.31
422.285	567.31
422.507	620.31
422.73	703.31
422.953	679.31
423.175	597.31
423.398	583.31
423.621	578.31
423.843	583.31
424.066	601.31
424.288	580.31
424.511	585.31
424.733	680.31
424.956	753.31
425.178	715.31
425.401	735.31
425.623	761.31
425.846	645.31
426.068	607.31
426.291	575.31
426.513	591.31
426.735	615.31
426.958	613.31
427.18	717.31
427.402	876.31
427.625	963.31
427.847	833.31
428.069	706.31
428.292	647.31
428.514	574.31
428.736	565.31
428.958	565.31
429.181	535.31
429.403	536.31
429.625	550.31
429.847	567.31
430.069	672.31
430.292	643.31
430.514	554.31
430.736	537.31
430.958	541.31
431.18	529.31
431.402	497.31
431.624	485.31
431.846	519.31
432.068	524.31
432.29	522.31
432.512	531.31
432.734	527.31
432.956	533.31
433.178	513.31
433.4	527.31
433.622	528.31
433.844	511.31
434.066	511.31
434.287	500.31
434.509	529.31
434.731	532.31
434.953	537.31
435.175	563.31
435.397	581.31
435.618	605.31
435.84	646.31
436.062	729.31
436.284	799.31
436.505	685.31
436.727	608.31
436.949	574.31
437.17	558.31
437.392	528.31
437.614	574.31
437.835	580.31
438.057	690.31
438.278	783.31
438.5	811.31
438.721	887.31
438.943	821.31
439.165	669.31
439.386	621.31
439.608	581.31
439.829	595.31
440.05	608.31
440.272	658.31
440.493	636.31
440.715	593.31
440.936	556.31
441.158	543.31
441.379	542.31
441.6	574.31
441.822	589.31
442.043	618.31
442.264	726.31
442.486	771.31
442.707	657.31
442.928	611.31
443.149	614.31
443.371	653.31
443.592	692.31
443.813	791.31
444.034	835.31
444.255	702.31
444.476	626.31
444.698	609.31
444.919	611.31
445.14	677.31
445.361	621.31
445.582	641.31
445.803	706.31
446.024	829.31
446.245	823.31
446.466	771.31
446.687	645.31
446.908	611.31
447.129	555.31
447.35	545.31
447.571	553.31
447.792	552.31
448.013	558.31
448.234	576.31
448.455	598.31
448.675	722.31
448.896	881.31
449.117	737.31
449.338	661.31
449.559	830.31
449.779	923.31
450	739.31
450.221	593.31
450.442	551.31
450.662	541.31
450.883	555.31
451.104	563.31
451.324	574.31
451.545	524.31
451.766	531.31
451.986	503.31
452.207	491.31
452.428	487.31
452.648	494.31
452.869	493.31
453.089	510.31
453.31	500.31
453.53	518.31
453.751	479.31
453.971	471.31
454.192	499.31
454.412	476.31
454.633	474.31
454.853	466.31
455.073	459.31
455.294	512.31
455.514	583.31
455.734	575.31
455.955	488.31
456.175	462.31
456.395	468.31
456.616	455.31
456.836	468.31
457.056	459.31
457.276	484.31
457.497	467.31
457.717	470.31
457.937	466.31
458.157	461.31
458.377	483.31
458.598	502.31
458.818	571.31
459.038	626.31
459.258	651.31
459.478	551.31
459.698	516.31
459.918	511.31
460.138	517.31
460.358	526.31
460.578	518.31
460.798	531.31
461.018	531.31
461.238	549.31
461.458	535.31
461.678	540.31
461.898	533.31
462.118	547.31
462.338	539.31
462.558	573.31
462.777	565.31
462.997	606.31
463.217	604.31
463.437	578.31
463.657	568.31
463.876	601.31
464.096	554.31
464.316	580.31
464.536	578.31
464.755	563.31
464.975	593.31
465.195	623.31
465.414	689.31
465.634	600.31
465.854	557.31
466.073	534.31
466.293	531.31
466.512	534.31
466.732	526.31
466.951	511.31
467.171	494.31
467.391	521.31
467.61	527.31
467.829	517.31
468.049	545.31
468.268	521.31
468.488	498.31
468.707	493.31
468.927	489.31
469.146	513.31
469.365	517.31
469.585	494.31
469.804	520.31
470.023	524.31
470.243	518.31
470.462	493.31
470.681	537.31
470.901	540.31
471.12	517.31
471.339	521.31
471.558	526.31
471.777	524.31
471.997	498.31
472.216	493.31
472.435	527.31
472.654	551.31
472.873	524.31
473.092	497.31
473.311	501.31
473.53	498.31
473.749	530.31
473.968	547.31
474.187	667.31
474.406	675.31
474.625	573.31
474.844	523.31
475.063	537.31
475.282	521.31
475.501	515.31
475.72	528.31
475.939	518.31
476.158	545.31
476.377	547.31
476.596	541.31
476.814	527.31
477.033	548.31
477.252	557.31
477.471	525.31
477.69	550.31
477.908	548.31
478.127	554.31
478.346	556.31
478.564	574.31
478.783	546.31
479.002	582.31
479.22	596.31
479.439	604.31
479.658	587.31
479.876	615.31
480.095	625.31
480.313	631.31
480.532	639.31
480.751	643.31
480.969	623.31
481.188	680.31
481.406	704.31
481.624	649.31
481.843	618.31
482.061	631.31
482.28	607.31
482.498	605.31
482.717	605.31
482.935	580.31
483.153	614.31
483.372	602.31
483.59	596.31
483.808	605.31
484.027	625.31
484.245	596.31
484.463	591.31
484.681	618.31
484.9	592.31
485.118	610.31
485.336	607.31
485.554	611.31
485.772	628.31
485.99	632.31
486.209	595.31
486.427	620.31
486.645	634.31
486.863	655.31
487.081	659.31
487.299	654.31
487.517	657.31
487.735	641.31
487.953	611.31
488.171	628.31
488.389	639.31
488.607	619.31
488.825	625.31
489.043	645.31
489.261	662.31
489.479	637.31
489.696	675.31
489.914	631.31
490.132	655.31
490.35	657.31
490.568	691.31
490.786	659.31
491.003	677.31
491.221	703.31
491.439	727.31
491.657	690.31
491.874	677.31
492.092	705.31
492.31	715.31
492.527	707.31
492.745	734.31
492.963	721.31
493.18	742.31
493.398	734.31
493.615	718.31
493.833	734.31
494.05	721.31
494.268	722.31
494.485	724.31
494.703	734.31
494.92	734.31
495.138	743.31
495.355	733.31
495.573	749.31
495.79	749.31
496.008	747.31
496.225	721.31
496.442	742.31
496.66	748.31
496.877	764.31
497.094	747.31
497.312	769.31
497.529	806.31
497.746	805.31
497.963	822.31
498.181	833.31
498.398	829.31
498.615	854.31
498.832	870.31
499.049	879.31
499.267	910.31
499.484	918.31
499.701	969.31
499.918	984.31
500.135	1022.31
500.352	1053.31
500.569	1073.31
500.786	1085.31
501.003	1055.31
501.22	1053.31
501.437	1004.31
501.654	1001.31
501.871	980.31
