Data from 1978.PennyLincolnUp.Lamp.En5.5.200Scan.071719.P1_HRD10591_16-13-49-863.txt Node
Date: Thu Jul 18 16:13:49 EDT 2019
User: cochatt
Spectrometer: HR+D1059
Trigger mode: 1
Integration Time (sec): 1.000000E-1
Scans to average: 1
Electric dark correction enabled: true
Nonlinearity correction enabled: false
Boxcar width: 0
XAxis mode: Wavelengths
Number of Pixels in Spectrum: 2048
>>>>>Begin Spectral Data<<<<<
223.165	-9.31
223.4	-9.31
223.635	-9.31
223.869	-22.31
224.104	-12.31
224.338	-13.31
224.573	-5.31
224.808	-12.31
225.042	-8.31
225.277	-5.31
225.511	-1.31
225.746	-6.31
225.98	-4.31
226.215	24.69
226.449	10.69
226.683	18.69
226.918	10.69
227.152	35.69
227.387	30.69
227.621	38.69
227.856	37.69
228.09	42.69
228.324	42.69
228.559	49.69
228.793	69.69
229.027	90.69
229.262	104.69
229.496	112.69
229.73	133.69
229.964	156.69
230.199	122.69
230.433	113.69
230.667	119.69
230.901	103.69
231.136	89.69
231.37	108.69
231.604	102.69
231.838	108.69
232.072	103.69
232.306	112.69
232.541	97.69
232.775	111.69
233.009	124.69
233.243	91.69
233.477	103.69
233.711	106.69
233.945	113.69
234.179	107.69
234.413	116.69
234.647	113.69
234.881	117.69
235.115	113.69
235.349	117.69
235.583	116.69
235.817	104.69
236.051	104.69
236.285	123.69
236.519	121.69
236.753	130.69
236.987	148.69
237.221	171.69
237.455	218.69
237.689	184.69
237.922	126.69
238.156	122.69
238.39	117.69
238.624	116.69
238.858	120.69
239.091	121.69
239.325	113.69
239.559	128.69
239.793	124.69
240.027	129.69
240.26	119.69
240.494	145.69
240.728	144.69
240.961	140.69
241.195	140.69
241.429	130.69
241.662	127.69
241.896	122.69
242.13	120.69
242.363	129.69
242.597	136.69
242.83	137.69
243.064	133.69
243.298	131.69
243.531	132.69
243.765	131.69
243.998	136.69
244.232	131.69
244.465	120.69
244.699	135.69
244.932	133.69
245.166	143.69
245.399	150.69
245.633	136.69
245.866	140.69
246.099	138.69
246.333	129.69
246.566	146.69
246.8	155.69
247.033	139.69
247.266	135.69
247.5	163.69
247.733	137.69
247.966	147.69
248.2	155.69
248.433	165.69
248.666	158.69
248.899	161.69
249.133	182.69
249.366	190.69
249.599	188.69
249.832	191.69
250.066	177.69
250.299	183.69
250.532	174.69
250.765	191.69
250.998	190.69
251.231	193.69
251.465	194.69
251.698	186.69
251.931	163.69
252.164	178.69
252.397	190.69
252.63	176.69
252.863	193.69
253.096	201.69
253.329	207.69
253.562	207.69
253.795	196.69
254.028	200.69
254.261	192.69
254.494	217.69
254.727	220.69
254.96	253.69
255.193	229.69
255.426	219.69
255.659	215.69
255.892	211.69
256.124	203.69
256.357	227.69
256.59	194.69
256.823	194.69
257.056	210.69
257.289	203.69
257.521	189.69
257.754	204.69
257.987	184.69
258.22	188.69
258.452	176.69
258.685	179.69
258.918	180.69
259.151	202.69
259.383	187.69
259.616	200.69
259.849	208.69
260.081	225.69
260.314	227.69
260.547	242.69
260.779	232.69
261.012	220.69
261.244	210.69
261.477	205.69
261.71	236.69
261.942	217.69
262.175	204.69
262.407	222.69
262.64	193.69
262.872	204.69
263.105	216.69
263.337	209.69
263.57	207.69
263.802	200.69
264.035	197.69
264.267	194.69
264.499	189.69
264.732	214.69
264.964	192.69
265.197	191.69
265.429	190.69
265.661	181.69
265.894	190.69
266.126	205.69
266.358	213.69
266.591	212.69
266.823	210.69
267.055	207.69
267.287	205.69
267.52	202.69
267.752	221.69
267.984	224.69
268.216	197.69
268.448	215.69
268.681	234.69
268.913	246.69
269.145	247.69
269.377	250.69
269.609	250.69
269.841	236.69
270.073	240.69
270.306	274.69
270.538	273.69
270.77	276.69
271.002	286.69
271.234	265.69
271.466	288.69
271.698	281.69
271.93	308.69
272.162	275.69
272.394	288.69
272.626	264.69
272.858	264.69
273.09	269.69
273.322	246.69
273.553	246.69
273.785	245.69
274.017	242.69
274.249	242.69
274.481	248.69
274.713	245.69
274.945	239.69
275.176	253.69
275.408	243.69
275.64	247.69
275.872	259.69
276.104	257.69
276.335	244.69
276.567	252.69
276.799	259.69
277.031	304.69
277.262	289.69
277.494	290.69
277.726	282.69
277.957	286.69
278.189	269.69
278.421	264.69
278.652	257.69
278.884	252.69
279.115	254.69
279.347	244.69
279.579	254.69
279.81	261.69
280.042	234.69
280.273	282.69
280.505	268.69
280.736	261.69
280.968	234.69
281.199	262.69
281.431	254.69
281.662	230.69
281.894	235.69
282.125	246.69
282.356	272.69
282.588	287.69
282.819	299.69
283.051	273.69
283.282	274.69
283.513	258.69
283.745	273.69
283.976	254.69
284.207	258.69
284.439	263.69
284.67	268.69
284.901	258.69
285.132	262.69
285.364	269.69
285.595	280.69
285.826	270.69
286.057	268.69
286.288	274.69
286.52	282.69
286.751	264.69
286.982	257.69
287.213	268.69
287.444	280.69
287.675	271.69
287.906	270.69
288.138	263.69
288.369	266.69
288.6	282.69
288.831	275.69
289.062	263.69
289.293	278.69
289.524	266.69
289.755	282.69
289.986	267.69
290.217	278.69
290.448	273.69
290.679	279.69
290.91	264.69
291.141	285.69
291.371	286.69
291.602	281.69
291.833	264.69
292.064	260.69
292.295	278.69
292.526	289.69
292.757	289.69
292.987	282.69
293.218	269.69
293.449	289.69
293.68	280.69
293.91	280.69
294.141	280.69
294.372	284.69
294.603	259.69
294.833	281.69
295.064	276.69
295.295	285.69
295.525	294.69
295.756	288.69
295.987	282.69
296.217	319.69
296.448	324.69
296.679	293.69
296.909	286.69
297.14	281.69
297.37	287.69
297.601	289.69
297.831	307.69
298.062	298.69
298.292	294.69
298.523	299.69
298.753	284.69
298.984	291.69
299.214	286.69
299.445	296.69
299.675	311.69
299.905	302.69
300.136	284.69
300.366	288.69
300.597	288.69
300.827	316.69
301.057	302.69
301.288	303.69
301.518	322.69
301.748	300.69
301.979	336.69
302.209	311.69
302.439	325.69
302.669	312.69
302.9	315.69
303.13	306.69
303.36	309.69
303.59	320.69
303.82	328.69
304.051	325.69
304.281	312.69
304.511	307.69
304.741	305.69
304.971	321.69
305.201	310.69
305.431	325.69
305.661	328.69
305.891	318.69
306.121	322.69
306.352	318.69
306.582	327.69
306.812	316.69
307.042	327.69
307.272	316.69
307.502	306.69
307.731	320.69
307.961	326.69
308.191	312.69
308.421	311.69
308.651	335.69
308.881	316.69
309.111	315.69
309.341	328.69
309.571	330.69
309.8	335.69
310.03	353.69
310.26	359.69
310.49	349.69
310.72	367.69
310.949	370.69
311.179	382.69
311.409	379.69
311.639	353.69
311.868	360.69
312.098	354.69
312.328	370.69
312.557	388.69
312.787	401.69
313.017	389.69
313.246	368.69
313.476	370.69
313.706	355.69
313.935	370.69
314.165	370.69
314.394	381.69
314.624	369.69
314.853	370.69
315.083	364.69
315.312	368.69
315.542	352.69
315.771	340.69
316.001	335.69
316.23	372.69
316.46	352.69
316.689	370.69
316.919	368.69
317.148	346.69
317.377	390.69
317.607	370.69
317.836	378.69
318.065	366.69
318.295	356.69
318.524	354.69
318.753	361.69
318.983	367.69
319.212	373.69
319.441	383.69
319.67	374.69
319.9	359.69
320.129	367.69
320.358	363.69
320.587	370.69
320.816	380.69
321.046	371.69
321.275	385.69
321.504	391.69
321.733	380.69
321.962	376.69
322.191	395.69
322.42	407.69
322.649	423.69
322.878	425.69
323.108	440.69
323.337	450.69
323.566	491.69
323.795	504.69
324.024	546.69
324.253	658.69
324.482	938.69
324.71	1536.69
324.939	2320.69
325.168	2044.69
325.397	974.69
325.626	607.69
325.855	540.69
326.084	510.69
326.313	483.69
326.542	483.69
326.77	528.69
326.999	620.69
327.228	852.69
327.457	1378.69
327.686	1735.69
327.914	1102.69
328.143	674.69
328.372	608.69
328.6	571.69
328.829	551.69
329.058	550.69
329.287	581.69
329.515	526.69
329.744	510.69
329.972	506.69
330.201	484.69
330.43	532.69
330.658	564.69
330.887	581.69
331.115	581.69
331.344	513.69
331.572	454.69
331.801	466.69
332.03	453.69
332.258	464.69
332.486	454.69
332.715	450.69
332.943	427.69
333.172	440.69
333.4	447.69
333.629	442.69
333.857	467.69
334.085	463.69
334.314	478.69
334.542	494.69
334.771	531.69
334.999	477.69
335.227	467.69
335.455	443.69
335.684	441.69
335.912	443.69
336.14	448.69
336.369	424.69
336.597	447.69
336.825	462.69
337.053	460.69
337.281	446.69
337.51	418.69
337.738	432.69
337.966	414.69
338.194	430.69
338.422	434.69
338.65	420.69
338.878	430.69
339.106	418.69
339.334	434.69
339.562	398.69
339.79	413.69
340.018	415.69
340.246	418.69
340.474	433.69
340.702	417.69
340.93	415.69
341.158	421.69
341.386	416.69
341.614	426.69
341.842	435.69
342.07	442.69
342.298	408.69
342.526	422.69
342.754	421.69
342.981	415.69
343.209	414.69
343.437	419.69
343.665	432.69
343.893	406.69
344.12	450.69
344.348	421.69
344.576	434.69
344.804	432.69
345.031	437.69
345.259	454.69
345.487	436.69
345.714	448.69
345.942	433.69
346.17	417.69
346.397	408.69
346.625	423.69
346.853	432.69
347.08	416.69
347.308	441.69
347.535	406.69
347.763	415.69
347.99	424.69
348.218	408.69
348.445	419.69
348.673	426.69
348.9	419.69
349.128	415.69
349.355	411.69
349.583	396.69
349.81	394.69
350.037	391.69
350.265	410.69
350.492	412.69
350.72	391.69
350.947	390.69
351.174	421.69
351.402	407.69
351.629	408.69
351.856	402.69
352.083	427.69
352.311	432.69
352.538	414.69
352.765	420.69
352.992	402.69
353.22	404.69
353.447	418.69
353.674	413.69
353.901	400.69
354.128	393.69
354.355	390.69
354.583	393.69
354.81	394.69
355.037	400.69
355.264	397.69
355.491	396.69
355.718	379.69
355.945	386.69
356.172	392.69
356.399	386.69
356.626	401.69
356.853	402.69
357.08	375.69
357.307	366.69
357.534	401.69
357.761	392.69
357.988	404.69
358.215	394.69
358.441	376.69
358.668	404.69
358.895	390.69
359.122	391.69
359.349	412.69
359.576	431.69
359.802	437.69
360.029	449.69
360.256	464.69
360.483	454.69
360.709	411.69
360.936	404.69
361.163	428.69
361.39	420.69
361.616	424.69
361.843	430.69
362.07	443.69
362.296	415.69
362.523	396.69
362.749	410.69
362.976	423.69
363.203	390.69
363.429	401.69
363.656	395.69
363.882	410.69
364.109	394.69
364.335	409.69
364.562	397.69
364.788	392.69
365.015	411.69
365.241	392.69
365.468	417.69
365.694	419.69
365.92	408.69
366.147	430.69
366.373	399.69
366.599	390.69
366.826	397.69
367.052	398.69
367.278	385.69
367.505	392.69
367.731	395.69
367.957	418.69
368.184	387.69
368.41	411.69
368.636	398.69
368.862	395.69
369.089	402.69
369.315	404.69
369.541	421.69
369.767	408.69
369.993	393.69
370.219	414.69
370.445	408.69
370.672	413.69
370.898	385.69
371.124	405.69
371.35	385.69
371.576	423.69
371.802	411.69
372.028	393.69
372.254	414.69
372.48	388.69
372.706	398.69
372.932	422.69
373.158	414.69
373.384	410.69
373.61	418.69
373.835	421.69
374.061	423.69
374.287	410.69
374.513	402.69
374.739	404.69
374.965	382.69
375.191	409.69
375.416	422.69
375.642	404.69
375.868	412.69
376.094	437.69
376.319	416.69
376.545	427.69
376.771	416.69
376.997	411.69
377.222	382.69
377.448	410.69
377.674	421.69
377.899	394.69
378.125	379.69
378.35	400.69
378.576	420.69
378.802	420.69
379.027	411.69
379.253	429.69
379.478	418.69
379.704	408.69
379.929	410.69
380.155	390.69
380.38	417.69
380.606	404.69
380.831	402.69
381.057	419.69
381.282	411.69
381.507	412.69
381.733	422.69
381.958	400.69
382.184	420.69
382.409	418.69
382.634	419.69
382.86	407.69
383.085	442.69
383.31	430.69
383.535	421.69
383.761	415.69
383.986	420.69
384.211	422.69
384.436	439.69
384.662	461.69
384.887	454.69
385.112	448.69
385.337	466.69
385.562	443.69
385.787	456.69
386.013	457.69
386.238	467.69
386.463	457.69
386.688	450.69
386.913	425.69
387.138	450.69
387.363	442.69
387.588	455.69
387.813	451.69
388.038	446.69
388.263	465.69
388.488	455.69
388.713	464.69
388.938	443.69
389.163	450.69
389.387	462.69
389.612	452.69
389.837	467.69
390.062	456.69
390.287	464.69
390.512	432.69
390.736	461.69
390.961	473.69
391.186	435.69
391.411	481.69
391.636	471.69
391.86	466.69
392.085	483.69
392.31	487.69
392.534	475.69
392.759	474.69
392.984	455.69
393.208	474.69
393.433	462.69
393.658	475.69
393.882	443.69
394.107	467.69
394.331	491.69
394.556	450.69
394.78	461.69
395.005	464.69
395.229	465.69
395.454	474.69
395.678	476.69
395.903	486.69
396.127	514.69
396.352	509.69
396.576	496.69
396.801	508.69
397.025	470.69
397.249	471.69
397.474	481.69
397.698	483.69
397.922	525.69
398.147	532.69
398.371	531.69
398.595	514.69
398.82	533.69
399.044	516.69
399.268	537.69
399.492	583.69
399.717	602.69
399.941	633.69
400.165	654.69
400.389	677.69
400.613	619.69
400.837	566.69
401.062	541.69
401.286	532.69
401.51	544.69
401.734	519.69
401.958	545.69
402.182	534.69
402.406	568.69
402.63	566.69
402.854	535.69
403.078	518.69
403.302	558.69
403.526	546.69
403.75	564.69
403.974	554.69
404.198	552.69
404.422	557.69
404.645	560.69
404.869	570.69
405.093	587.69
405.317	628.69
405.541	665.69
405.765	592.69
405.988	601.69
406.212	589.69
406.436	591.69
406.66	618.69
406.883	596.69
407.107	632.69
407.331	679.69
407.555	751.69
407.778	755.69
408.002	676.69
408.226	628.69
408.449	614.69
408.673	604.69
408.896	637.69
409.12	682.69
409.344	643.69
409.567	586.69
409.791	583.69
410.014	543.69
410.238	558.69
410.461	569.69
410.685	574.69
410.908	590.69
411.132	595.69
411.355	646.69
411.578	626.69
411.802	554.69
412.025	555.69
412.249	565.69
412.472	584.69
412.695	625.69
412.919	630.69
413.142	582.69
413.365	561.69
413.589	544.69
413.812	530.69
414.035	522.69
414.258	519.69
414.482	517.69
414.705	502.69
414.928	524.69
415.151	556.69
415.374	523.69
415.597	523.69
415.821	525.69
416.044	534.69
416.267	510.69
416.49	526.69
416.713	521.69
416.936	531.69
417.159	532.69
417.382	514.69
417.605	542.69
417.828	549.69
418.051	544.69
418.274	531.69
418.497	520.69
418.72	538.69
418.943	530.69
419.166	541.69
419.389	568.69
419.611	572.69
419.834	551.69
420.057	573.69
420.28	549.69
420.503	547.69
420.726	538.69
420.948	563.69
421.171	613.69
421.394	626.69
421.617	557.69
421.839	545.69
422.062	570.69
422.285	564.69
422.507	607.69
422.73	712.69
422.953	692.69
423.175	602.69
423.398	561.69
423.621	581.69
423.843	566.69
424.066	598.69
424.288	553.69
424.511	592.69
424.733	670.69
424.956	753.69
425.178	722.69
425.401	717.69
425.623	755.69
425.846	638.69
426.068	596.69
426.291	570.69
426.513	592.69
426.735	598.69
426.958	625.69
427.18	704.69
427.402	858.69
427.625	981.69
427.847	838.69
428.069	734.69
428.292	631.69
428.514	569.69
428.736	571.69
428.958	576.69
429.181	541.69
429.403	541.69
429.625	540.69
429.847	597.69
430.069	644.69
430.292	681.69
430.514	546.69
430.736	537.69
430.958	539.69
431.18	537.69
431.402	517.69
431.624	521.69
431.846	507.69
432.068	500.69
432.29	534.69
432.512	519.69
432.734	518.69
432.956	537.69
433.178	546.69
433.4	538.69
433.622	516.69
433.844	526.69
434.066	498.69
434.287	516.69
434.509	538.69
434.731	505.69
434.953	532.69
435.175	555.69
435.397	573.69
435.618	582.69
435.84	633.69
436.062	739.69
436.284	803.69
436.505	655.69
436.727	599.69
436.949	553.69
437.17	552.69
437.392	536.69
437.614	561.69
437.835	586.69
438.057	719.69
438.278	791.69
438.5	816.69
438.721	896.69
438.943	868.69
439.165	664.69
439.386	591.69
439.608	611.69
439.829	585.69
440.05	628.69
440.272	679.69
440.493	619.69
440.715	587.69
440.936	561.69
441.158	553.69
441.379	563.69
441.6	555.69
441.822	576.69
442.043	622.69
442.264	729.69
442.486	780.69
442.707	643.69
442.928	606.69
443.149	609.69
443.371	634.69
443.592	683.69
443.813	791.69
444.034	873.69
444.255	704.69
444.476	614.69
444.698	582.69
444.919	606.69
445.14	664.69
445.361	632.69
445.582	634.69
445.803	699.69
446.024	832.69
446.245	824.69
446.466	764.69
446.687	639.69
446.908	588.69
447.129	542.69
447.35	535.69
447.571	526.69
447.792	540.69
448.013	523.69
448.234	574.69
448.455	603.69
448.675	738.69
448.896	845.69
449.117	740.69
449.338	682.69
449.559	802.69
449.779	918.69
450	722.69
450.221	598.69
450.442	574.69
450.662	540.69
450.883	528.69
451.104	532.69
451.324	522.69
451.545	525.69
451.766	499.69
451.986	469.69
452.207	494.69
452.428	482.69
452.648	490.69
452.869	483.69
453.089	509.69
453.31	516.69
453.53	495.69
453.751	491.69
453.971	483.69
454.192	482.69
454.412	492.69
454.633	486.69
454.853	484.69
455.073	499.69
455.294	516.69
455.514	577.69
455.734	570.69
455.955	491.69
456.175	459.69
456.395	444.69
456.616	450.69
456.836	454.69
457.056	463.69
457.276	471.69
457.497	476.69
457.717	468.69
457.937	455.69
458.157	480.69
458.377	502.69
458.598	508.69
458.818	567.69
459.038	627.69
459.258	686.69
459.478	582.69
459.698	536.69
459.918	508.69
460.138	509.69
460.358	523.69
460.578	522.69
460.798	528.69
461.018	538.69
461.238	531.69
461.458	519.69
461.678	532.69
461.898	544.69
462.118	541.69
462.338	537.69
462.558	566.69
462.777	562.69
462.997	586.69
463.217	594.69
463.437	603.69
463.657	611.69
463.876	560.69
464.096	563.69
464.316	576.69
464.536	602.69
464.755	572.69
464.975	582.69
465.195	582.69
465.414	677.69
465.634	583.69
465.854	570.69
466.073	525.69
466.293	548.69
466.512	503.69
466.732	508.69
466.951	515.69
467.171	491.69
467.391	494.69
467.61	510.69
467.829	513.69
468.049	491.69
468.268	491.69
468.488	496.69
468.707	481.69
468.927	483.69
469.146	471.69
469.365	491.69
469.585	497.69
469.804	495.69
470.023	533.69
470.243	506.69
470.462	495.69
470.681	508.69
470.901	503.69
471.12	525.69
471.339	496.69
471.558	490.69
471.777	520.69
471.997	507.69
472.216	512.69
472.435	538.69
472.654	514.69
472.873	519.69
473.092	496.69
473.311	514.69
473.53	512.69
473.749	505.69
473.968	558.69
474.187	666.69
474.406	698.69
474.625	592.69
474.844	520.69
475.063	514.69
475.282	503.69
475.501	547.69
475.72	527.69
475.939	499.69
476.158	522.69
476.377	520.69
476.596	526.69
476.814	521.69
477.033	539.69
477.252	550.69
477.471	544.69
477.69	562.69
477.908	554.69
478.127	535.69
478.346	558.69
478.564	560.69
478.783	563.69
479.002	595.69
479.22	604.69
479.439	626.69
479.658	611.69
479.876	627.69
480.095	607.69
480.313	617.69
480.532	628.69
480.751	630.69
480.969	634.69
481.188	676.69
481.406	712.69
481.624	651.69
481.843	654.69
482.061	615.69
482.28	585.69
482.498	594.69
482.717	594.69
482.935	599.69
483.153	600.69
483.372	601.69
483.59	583.69
483.808	594.69
484.027	576.69
484.245	597.69
484.463	605.69
484.681	631.69
484.9	616.69
485.118	594.69
485.336	615.69
485.554	610.69
485.772	624.69
485.99	605.69
486.209	626.69
486.427	617.69
486.645	625.69
486.863	623.69
487.081	643.69
487.299	622.69
487.517	631.69
487.735	648.69
487.953	619.69
488.171	658.69
488.389	634.69
488.607	652.69
488.825	660.69
489.043	639.69
489.261	637.69
489.479	662.69
489.696	645.69
489.914	658.69
490.132	630.69
490.35	648.69
490.568	653.69
490.786	664.69
491.003	661.69
491.221	699.69
491.439	698.69
491.657	731.69
491.874	710.69
492.092	699.69
492.31	722.69
492.527	724.69
492.745	754.69
492.963	727.69
493.18	720.69
493.398	724.69
493.615	726.69
493.833	746.69
494.05	731.69
494.268	710.69
494.485	754.69
494.703	754.69
494.92	739.69
495.138	726.69
495.355	742.69
495.573	743.69
495.79	766.69
496.008	776.69
496.225	770.69
496.442	761.69
496.66	746.69
496.877	735.69
497.094	760.69
497.312	807.69
497.529	786.69
497.746	790.69
497.963	806.69
498.181	847.69
498.398	851.69
498.615	848.69
498.832	891.69
499.049	891.69
499.267	888.69
499.484	943.69
499.701	956.69
499.918	983.69
500.135	1032.69
500.352	1088.69
500.569	1066.69
500.786	1093.69
501.003	1087.69
501.22	1055.69
501.437	1042.69
501.654	982.69
501.871	979.69
