Data from 1978.PennyLincolnUp.Lamp.En5.5.200Scan.071719.P1_HRD10591_16-12-13-865.txt Node
Date: Thu Jul 18 16:12:13 EDT 2019
User: cochatt
Spectrometer: HR+D1059
Trigger mode: 1
Integration Time (sec): 1.000000E-1
Scans to average: 1
Electric dark correction enabled: true
Nonlinearity correction enabled: false
Boxcar width: 0
XAxis mode: Wavelengths
Number of Pixels in Spectrum: 2048
>>>>>Begin Spectral Data<<<<<
223.165	-23.25
223.4	-23.25
223.635	-23.25
223.869	-10.25
224.104	-3.25
224.338	-21.25
224.573	-8.25
224.808	-24.25
225.042	-28.25
225.277	-2.25
225.511	10.75
225.746	4.75
225.98	6.75
226.215	9.75
226.449	24.75
226.683	7.75
226.918	31.75
227.152	24.75
227.387	20.75
227.621	32.75
227.856	35.75
228.09	46.75
228.324	44.75
228.559	57.75
228.793	70.75
229.027	81.75
229.262	93.75
229.496	90.75
229.73	125.75
229.964	140.75
230.199	102.75
230.433	104.75
230.667	100.75
230.901	114.75
231.136	97.75
231.37	123.75
231.604	118.75
231.838	94.75
232.072	98.75
232.306	117.75
232.541	102.75
232.775	99.75
233.009	104.75
233.243	105.75
233.477	111.75
233.711	111.75
233.945	100.75
234.179	108.75
234.413	94.75
234.647	107.75
234.881	106.75
235.115	98.75
235.349	92.75
235.583	115.75
235.817	97.75
236.051	108.75
236.285	105.75
236.519	113.75
236.753	111.75
236.987	119.75
237.221	161.75
237.455	192.75
237.689	165.75
237.922	125.75
238.156	114.75
238.39	111.75
238.624	115.75
238.858	115.75
239.091	119.75
239.325	109.75
239.559	113.75
239.793	115.75
240.027	121.75
240.26	115.75
240.494	151.75
240.728	122.75
240.961	131.75
241.195	133.75
241.429	120.75
241.662	123.75
241.896	119.75
242.13	116.75
242.363	115.75
242.597	128.75
242.83	122.75
243.064	122.75
243.298	133.75
243.531	127.75
243.765	117.75
243.998	122.75
244.232	127.75
244.465	127.75
244.699	134.75
244.932	140.75
245.166	134.75
245.399	135.75
245.633	145.75
245.866	128.75
246.099	133.75
246.333	153.75
246.566	125.75
246.8	146.75
247.033	125.75
247.266	130.75
247.5	141.75
247.733	165.75
247.966	154.75
248.2	139.75
248.433	169.75
248.666	139.75
248.899	151.75
249.133	172.75
249.366	191.75
249.599	177.75
249.832	159.75
250.066	167.75
250.299	161.75
250.532	168.75
250.765	180.75
250.998	175.75
251.231	178.75
251.465	177.75
251.698	157.75
251.931	175.75
252.164	179.75
252.397	183.75
252.63	176.75
252.863	169.75
253.096	172.75
253.329	192.75
253.562	177.75
253.795	197.75
254.028	193.75
254.261	192.75
254.494	194.75
254.727	211.75
254.96	234.75
255.193	216.75
255.426	188.75
255.659	192.75
255.892	206.75
256.124	193.75
256.357	193.75
256.59	194.75
256.823	176.75
257.056	197.75
257.289	171.75
257.521	185.75
257.754	164.75
257.987	185.75
258.22	178.75
258.452	189.75
258.685	200.75
258.918	194.75
259.151	195.75
259.383	213.75
259.616	193.75
259.849	181.75
260.081	202.75
260.314	208.75
260.547	201.75
260.779	204.75
261.012	202.75
261.244	190.75
261.477	218.75
261.71	189.75
261.942	219.75
262.175	180.75
262.407	206.75
262.64	193.75
262.872	184.75
263.105	200.75
263.337	196.75
263.57	189.75
263.802	192.75
264.035	193.75
264.267	173.75
264.499	187.75
264.732	172.75
264.964	208.75
265.197	198.75
265.429	186.75
265.661	192.75
265.894	200.75
266.126	192.75
266.358	188.75
266.591	204.75
266.823	194.75
267.055	208.75
267.287	198.75
267.52	201.75
267.752	220.75
267.984	209.75
268.216	206.75
268.448	217.75
268.681	216.75
268.913	217.75
269.145	224.75
269.377	223.75
269.609	228.75
269.841	239.75
270.073	223.75
270.306	247.75
270.538	259.75
270.77	250.75
271.002	230.75
271.234	243.75
271.466	243.75
271.698	258.75
271.93	243.75
272.162	261.75
272.394	251.75
272.626	264.75
272.858	225.75
273.09	228.75
273.322	234.75
273.553	230.75
273.785	239.75
274.017	237.75
274.249	230.75
274.481	241.75
274.713	219.75
274.945	235.75
275.176	244.75
275.408	232.75
275.64	227.75
275.872	235.75
276.104	229.75
276.335	244.75
276.567	233.75
276.799	255.75
277.031	258.75
277.262	251.75
277.494	291.75
277.726	231.75
277.957	248.75
278.189	241.75
278.421	224.75
278.652	240.75
278.884	246.75
279.115	259.75
279.347	249.75
279.579	250.75
279.81	243.75
280.042	248.75
280.273	243.75
280.505	239.75
280.736	236.75
280.968	239.75
281.199	248.75
281.431	243.75
281.662	252.75
281.894	230.75
282.125	248.75
282.356	262.75
282.588	268.75
282.819	272.75
283.051	251.75
283.282	222.75
283.513	257.75
283.745	244.75
283.976	242.75
284.207	249.75
284.439	245.75
284.67	248.75
284.901	248.75
285.132	252.75
285.364	248.75
285.595	243.75
285.826	266.75
286.057	257.75
286.288	253.75
286.52	253.75
286.751	258.75
286.982	255.75
287.213	240.75
287.444	250.75
287.675	272.75
287.906	280.75
288.138	269.75
288.369	276.75
288.6	276.75
288.831	271.75
289.062	265.75
289.293	268.75
289.524	264.75
289.755	252.75
289.986	267.75
290.217	252.75
290.448	255.75
290.679	284.75
290.91	265.75
291.141	264.75
291.371	277.75
291.602	271.75
291.833	275.75
292.064	269.75
292.295	273.75
292.526	261.75
292.757	260.75
292.987	281.75
293.218	253.75
293.449	276.75
293.68	267.75
293.91	274.75
294.141	264.75
294.372	255.75
294.603	267.75
294.833	263.75
295.064	266.75
295.295	264.75
295.525	268.75
295.756	277.75
295.987	268.75
296.217	304.75
296.448	289.75
296.679	287.75
296.909	287.75
297.14	276.75
297.37	285.75
297.601	291.75
297.831	269.75
298.062	268.75
298.292	277.75
298.523	306.75
298.753	278.75
298.984	293.75
299.214	274.75
299.445	268.75
299.675	292.75
299.905	292.75
300.136	297.75
300.366	282.75
300.597	277.75
300.827	290.75
301.057	298.75
301.288	288.75
301.518	315.75
301.748	311.75
301.979	288.75
302.209	320.75
302.439	316.75
302.669	299.75
302.9	294.75
303.13	298.75
303.36	292.75
303.59	293.75
303.82	298.75
304.051	300.75
304.281	306.75
304.511	311.75
304.741	295.75
304.971	303.75
305.201	306.75
305.431	304.75
305.661	308.75
305.891	305.75
306.121	293.75
306.352	304.75
306.582	291.75
306.812	279.75
307.042	300.75
307.272	295.75
307.502	315.75
307.731	320.75
307.961	304.75
308.191	316.75
308.421	290.75
308.651	310.75
308.881	307.75
309.111	326.75
309.341	303.75
309.571	313.75
309.8	330.75
310.03	340.75
310.26	323.75
310.49	326.75
310.72	353.75
310.949	352.75
311.179	347.75
311.409	338.75
311.639	316.75
311.868	323.75
312.098	353.75
312.328	351.75
312.557	341.75
312.787	351.75
313.017	346.75
313.246	367.75
313.476	341.75
313.706	361.75
313.935	355.75
314.165	350.75
314.394	345.75
314.624	352.75
314.853	349.75
315.083	345.75
315.312	330.75
315.542	339.75
315.771	323.75
316.001	338.75
316.23	331.75
316.46	347.75
316.689	352.75
316.919	344.75
317.148	346.75
317.377	317.75
317.607	322.75
317.836	344.75
318.065	354.75
318.295	348.75
318.524	361.75
318.753	348.75
318.983	343.75
319.212	349.75
319.441	338.75
319.67	351.75
319.9	346.75
320.129	348.75
320.358	345.75
320.587	353.75
320.816	358.75
321.046	365.75
321.275	372.75
321.504	335.75
321.733	345.75
321.962	361.75
322.191	385.75
322.42	392.75
322.649	392.75
322.878	389.75
323.108	422.75
323.337	425.75
323.566	408.75
323.795	436.75
324.024	465.75
324.253	557.75
324.482	780.75
324.71	1205.75
324.939	1871.75
325.168	1601.75
325.397	805.75
325.626	575.75
325.855	466.75
326.084	467.75
326.313	431.75
326.542	428.75
326.77	484.75
326.999	537.75
327.228	722.75
327.457	1123.75
327.686	1417.75
327.914	888.75
328.143	616.75
328.372	506.75
328.6	490.75
328.829	487.75
329.058	482.75
329.287	507.75
329.515	465.75
329.744	445.75
329.972	445.75
330.201	467.75
330.43	476.75
330.658	519.75
330.887	515.75
331.115	502.75
331.344	449.75
331.572	421.75
331.801	439.75
332.03	443.75
332.258	427.75
332.486	417.75
332.715	416.75
332.943	416.75
333.172	419.75
333.4	415.75
333.629	434.75
333.857	443.75
334.085	448.75
334.314	452.75
334.542	499.75
334.771	488.75
334.999	459.75
335.227	445.75
335.455	419.75
335.684	427.75
335.912	432.75
336.14	407.75
336.369	425.75
336.597	412.75
336.825	412.75
337.053	405.75
337.281	433.75
337.51	405.75
337.738	405.75
337.966	420.75
338.194	413.75
338.422	424.75
338.65	416.75
338.878	401.75
339.106	410.75
339.334	425.75
339.562	398.75
339.79	413.75
340.018	422.75
340.246	387.75
340.474	388.75
340.702	406.75
340.93	397.75
341.158	388.75
341.386	397.75
341.614	406.75
341.842	399.75
342.07	396.75
342.298	395.75
342.526	419.75
342.754	389.75
342.981	378.75
343.209	410.75
343.437	381.75
343.665	405.75
343.893	437.75
344.12	413.75
344.348	394.75
344.576	416.75
344.804	432.75
345.031	428.75
345.259	434.75
345.487	428.75
345.714	407.75
345.942	397.75
346.17	402.75
346.397	396.75
346.625	381.75
346.853	387.75
347.08	387.75
347.308	378.75
347.535	400.75
347.763	404.75
347.99	383.75
348.218	405.75
348.445	409.75
348.673	407.75
348.9	410.75
349.128	380.75
349.355	369.75
349.583	391.75
349.81	387.75
350.037	397.75
350.265	381.75
350.492	369.75
350.72	387.75
350.947	420.75
351.174	420.75
351.402	399.75
351.629	396.75
351.856	363.75
352.083	403.75
352.311	411.75
352.538	411.75
352.765	413.75
352.992	400.75
353.22	371.75
353.447	387.75
353.674	390.75
353.901	369.75
354.128	387.75
354.355	375.75
354.583	375.75
354.81	368.75
355.037	356.75
355.264	376.75
355.491	352.75
355.718	362.75
355.945	377.75
356.172	343.75
356.399	375.75
356.626	377.75
356.853	388.75
357.08	364.75
357.307	367.75
357.534	389.75
357.761	363.75
357.988	373.75
358.215	370.75
358.441	388.75
358.668	385.75
358.895	371.75
359.122	388.75
359.349	384.75
359.576	380.75
359.802	389.75
360.029	433.75
360.256	430.75
360.483	425.75
360.709	426.75
360.936	385.75
361.163	394.75
361.39	399.75
361.616	377.75
361.843	388.75
362.07	412.75
362.296	387.75
362.523	390.75
362.749	392.75
362.976	397.75
363.203	375.75
363.429	399.75
363.656	391.75
363.882	377.75
364.109	397.75
364.335	387.75
364.562	380.75
364.788	375.75
365.015	383.75
365.241	387.75
365.468	375.75
365.694	384.75
365.92	386.75
366.147	394.75
366.373	392.75
366.599	389.75
366.826	361.75
367.052	377.75
367.278	384.75
367.505	402.75
367.731	393.75
367.957	393.75
368.184	382.75
368.41	381.75
368.636	399.75
368.862	396.75
369.089	408.75
369.315	394.75
369.541	391.75
369.767	389.75
369.993	383.75
370.219	373.75
370.445	372.75
370.672	398.75
370.898	401.75
371.124	401.75
371.35	379.75
371.576	385.75
371.802	393.75
372.028	383.75
372.254	402.75
372.48	388.75
372.706	389.75
372.932	407.75
373.158	423.75
373.384	410.75
373.61	372.75
373.835	384.75
374.061	394.75
374.287	396.75
374.513	404.75
374.739	416.75
374.965	417.75
375.191	417.75
375.416	398.75
375.642	419.75
375.868	395.75
376.094	391.75
376.319	392.75
376.545	391.75
376.771	380.75
376.997	397.75
377.222	381.75
377.448	390.75
377.674	403.75
377.899	405.75
378.125	381.75
378.35	406.75
378.576	407.75
378.802	411.75
379.027	402.75
379.253	400.75
379.478	405.75
379.704	403.75
379.929	407.75
380.155	397.75
380.38	387.75
380.606	391.75
380.831	410.75
381.057	407.75
381.282	406.75
381.507	404.75
381.733	395.75
381.958	411.75
382.184	423.75
382.409	424.75
382.634	406.75
382.86	394.75
383.085	409.75
383.31	434.75
383.535	403.75
383.761	404.75
383.986	429.75
384.211	415.75
384.436	425.75
384.662	422.75
384.887	441.75
385.112	419.75
385.337	436.75
385.562	429.75
385.787	420.75
386.013	461.75
386.238	431.75
386.463	455.75
386.688	436.75
386.913	442.75
387.138	441.75
387.363	450.75
387.588	423.75
387.813	442.75
388.038	439.75
388.263	445.75
388.488	447.75
388.713	445.75
388.938	456.75
389.163	445.75
389.387	444.75
389.612	451.75
389.837	448.75
390.062	433.75
390.287	459.75
390.512	449.75
390.736	453.75
390.961	443.75
391.186	461.75
391.411	453.75
391.636	455.75
391.86	468.75
392.085	458.75
392.31	464.75
392.534	475.75
392.759	467.75
392.984	464.75
393.208	442.75
393.433	471.75
393.658	457.75
393.882	450.75
394.107	442.75
394.331	449.75
394.556	456.75
394.78	442.75
395.005	447.75
395.229	466.75
395.454	469.75
395.678	486.75
395.903	481.75
396.127	477.75
396.352	476.75
396.576	465.75
396.801	478.75
397.025	473.75
397.249	491.75
397.474	467.75
397.698	473.75
397.922	483.75
398.147	490.75
398.371	490.75
398.595	517.75
398.82	523.75
399.044	541.75
399.268	562.75
399.492	568.75
399.717	598.75
399.941	636.75
400.165	657.75
400.389	657.75
400.613	565.75
400.837	552.75
401.062	535.75
401.286	536.75
401.51	533.75
401.734	527.75
401.958	526.75
402.182	506.75
402.406	523.75
402.63	543.75
402.854	533.75
403.078	547.75
403.302	550.75
403.526	521.75
403.75	532.75
403.974	516.75
404.198	515.75
404.422	513.75
404.645	567.75
404.869	555.75
405.093	602.75
405.317	624.75
405.541	653.75
405.765	593.75
405.988	559.75
406.212	561.75
406.436	594.75
406.66	604.75
406.883	579.75
407.107	582.75
407.331	633.75
407.555	695.75
407.778	697.75
408.002	643.75
408.226	594.75
408.449	607.75
408.673	612.75
408.896	619.75
409.12	647.75
409.344	603.75
409.567	554.75
409.791	556.75
410.014	549.75
410.238	563.75
410.461	565.75
410.685	551.75
410.908	563.75
411.132	607.75
411.355	600.75
411.578	609.75
411.802	543.75
412.025	539.75
412.249	540.75
412.472	562.75
412.695	587.75
412.919	569.75
413.142	537.75
413.365	523.75
413.589	534.75
413.812	524.75
414.035	495.75
414.258	509.75
414.482	530.75
414.705	532.75
414.928	533.75
415.151	518.75
415.374	485.75
415.597	481.75
415.821	499.75
416.044	507.75
416.267	527.75
416.49	525.75
416.713	498.75
416.936	517.75
417.159	513.75
417.382	498.75
417.605	488.75
417.828	508.75
418.051	515.75
418.274	523.75
418.497	513.75
418.72	487.75
418.943	503.75
419.166	512.75
419.389	557.75
419.611	548.75
419.834	546.75
420.057	528.75
420.28	531.75
420.503	517.75
420.726	518.75
420.948	561.75
421.171	573.75
421.394	600.75
421.617	562.75
421.839	529.75
422.062	534.75
422.285	537.75
422.507	589.75
422.73	651.75
422.953	630.75
423.175	550.75
423.398	531.75
423.621	566.75
423.843	541.75
424.066	565.75
424.288	588.75
424.511	578.75
424.733	593.75
424.956	699.75
425.178	671.75
425.401	661.75
425.623	680.75
425.846	573.75
426.068	575.75
426.291	547.75
426.513	554.75
426.735	570.75
426.958	581.75
427.18	668.75
427.402	783.75
427.625	872.75
427.847	751.75
428.069	643.75
428.292	600.75
428.514	553.75
428.736	536.75
428.958	529.75
429.181	522.75
429.403	501.75
429.625	511.75
429.847	568.75
430.069	610.75
430.292	603.75
430.514	537.75
430.736	517.75
430.958	523.75
431.18	519.75
431.402	496.75
431.624	469.75
431.846	497.75
432.068	484.75
432.29	511.75
432.512	505.75
432.734	478.75
432.956	479.75
433.178	489.75
433.4	505.75
433.622	507.75
433.844	497.75
434.066	497.75
434.287	492.75
434.509	511.75
434.731	522.75
434.953	520.75
435.175	529.75
435.397	568.75
435.618	544.75
435.84	570.75
436.062	672.75
436.284	768.75
436.505	640.75
436.727	580.75
436.949	554.75
437.17	526.75
437.392	532.75
437.614	530.75
437.835	552.75
438.057	624.75
438.278	747.75
438.5	743.75
438.721	825.75
438.943	784.75
439.165	602.75
439.386	552.75
439.608	560.75
439.829	549.75
440.05	568.75
440.272	602.75
440.493	597.75
440.715	554.75
440.936	555.75
441.158	528.75
441.379	518.75
441.6	547.75
441.822	535.75
442.043	588.75
442.264	641.75
442.486	693.75
442.707	606.75
442.928	581.75
443.149	565.75
443.371	577.75
443.592	625.75
443.813	701.75
444.034	775.75
444.255	671.75
444.476	573.75
444.698	589.75
444.919	577.75
445.14	643.75
445.361	627.75
445.582	595.75
445.803	649.75
446.024	775.75
446.245	743.75
446.466	700.75
446.687	563.75
446.908	555.75
447.129	538.75
447.35	524.75
447.571	514.75
447.792	517.75
448.013	531.75
448.234	535.75
448.455	559.75
448.675	690.75
448.896	801.75
449.117	687.75
449.338	605.75
449.559	734.75
449.779	846.75
450	678.75
450.221	547.75
450.442	541.75
450.662	492.75
450.883	485.75
451.104	505.75
451.324	499.75
451.545	487.75
451.766	458.75
451.986	458.75
452.207	465.75
452.428	472.75
452.648	478.75
452.869	482.75
453.089	477.75
453.31	486.75
453.53	472.75
453.751	448.75
453.971	446.75
454.192	479.75
454.412	466.75
454.633	462.75
454.853	476.75
455.073	474.75
455.294	484.75
455.514	547.75
455.734	515.75
455.955	475.75
456.175	449.75
456.395	449.75
456.616	443.75
456.836	451.75
457.056	461.75
457.276	439.75
457.497	461.75
457.717	459.75
457.937	471.75
458.157	463.75
458.377	461.75
458.598	457.75
458.818	501.75
459.038	544.75
459.258	625.75
459.478	531.75
459.698	511.75
459.918	503.75
460.138	498.75
460.358	531.75
460.578	513.75
460.798	511.75
461.018	536.75
461.238	522.75
461.458	516.75
461.678	505.75
461.898	543.75
462.118	517.75
462.338	551.75
462.558	544.75
462.777	559.75
462.997	583.75
463.217	559.75
463.437	584.75
463.657	570.75
463.876	582.75
464.096	575.75
464.316	546.75
464.536	558.75
464.755	564.75
464.975	566.75
465.195	579.75
465.414	629.75
465.634	558.75
465.854	530.75
466.073	523.75
466.293	514.75
466.512	504.75
466.732	501.75
466.951	480.75
467.171	482.75
467.391	503.75
467.61	492.75
467.829	493.75
468.049	472.75
468.268	492.75
468.488	461.75
468.707	470.75
468.927	480.75
469.146	465.75
469.365	461.75
469.585	493.75
469.804	471.75
470.023	480.75
470.243	490.75
470.462	482.75
470.681	520.75
470.901	503.75
471.12	504.75
471.339	486.75
471.558	504.75
471.777	485.75
471.997	474.75
472.216	477.75
472.435	509.75
472.654	496.75
472.873	484.75
473.092	480.75
473.311	473.75
473.53	505.75
473.749	521.75
473.968	513.75
474.187	609.75
474.406	640.75
474.625	533.75
474.844	501.75
475.063	500.75
475.282	495.75
475.501	491.75
475.72	519.75
475.939	504.75
476.158	531.75
476.377	495.75
476.596	502.75
476.814	512.75
477.033	516.75
477.252	517.75
477.471	540.75
477.69	533.75
477.908	533.75
478.127	554.75
478.346	560.75
478.564	545.75
478.783	569.75
479.002	580.75
479.22	565.75
479.439	584.75
479.658	563.75
479.876	588.75
480.095	582.75
480.313	626.75
480.532	581.75
480.751	602.75
480.969	609.75
481.188	643.75
481.406	657.75
481.624	626.75
481.843	600.75
482.061	619.75
482.28	570.75
482.498	595.75
482.717	588.75
482.935	580.75
483.153	563.75
483.372	586.75
483.59	566.75
483.808	582.75
484.027	568.75
484.245	598.75
484.463	565.75
484.681	572.75
484.9	561.75
485.118	571.75
485.336	602.75
485.554	589.75
485.772	600.75
485.99	577.75
486.209	591.75
486.427	594.75
486.645	599.75
486.863	609.75
487.081	581.75
487.299	616.75
487.517	605.75
487.735	603.75
487.953	608.75
488.171	603.75
488.389	623.75
488.607	613.75
488.825	605.75
489.043	614.75
489.261	619.75
489.479	602.75
489.696	599.75
489.914	598.75
490.132	626.75
490.35	633.75
490.568	620.75
490.786	635.75
491.003	626.75
491.221	677.75
491.439	661.75
491.657	651.75
491.874	664.75
492.092	667.75
492.31	662.75
492.527	649.75
492.745	685.75
492.963	689.75
493.18	707.75
493.398	704.75
493.615	692.75
493.833	708.75
494.05	702.75
494.268	677.75
494.485	712.75
494.703	703.75
494.92	674.75
495.138	719.75
495.355	684.75
495.573	701.75
495.79	737.75
496.008	704.75
496.225	705.75
496.442	701.75
496.66	735.75
496.877	713.75
497.094	728.75
497.312	715.75
497.529	766.75
497.746	762.75
497.963	767.75
498.181	800.75
498.398	809.75
498.615	810.75
498.832	850.75
499.049	855.75
499.267	875.75
499.484	912.75
499.701	941.75
499.918	960.75
500.135	1002.75
500.352	1027.75
500.569	1067.75
500.786	1060.75
501.003	1053.75
501.22	1038.75
501.437	1004.75
501.654	939.75
501.871	927.75
502.088	916.75
