Data from 1978.PennyLincolnUp.Lamp.En5.5.200Scan.071719.P1_HRD10591_16-14-39-863.txt Node
Date: Thu Jul 18 16:14:39 EDT 2019
User: cochatt
Spectrometer: HR+D1059
Trigger mode: 1
Integration Time (sec): 1.000000E-1
Scans to average: 1
Electric dark correction enabled: true
Nonlinearity correction enabled: false
Boxcar width: 0
XAxis mode: Wavelengths
Number of Pixels in Spectrum: 2048
>>>>>Begin Spectral Data<<<<<
223.165	0.38
223.4	0.38
223.635	0.38
223.869	-15.62
224.104	-15.62
224.338	-12.62
224.573	-12.62
224.808	-14.62
225.042	3.38
225.277	-6.62
225.511	-4.62
225.746	-8.62
225.98	-1.62
226.215	7.38
226.449	18.38
226.683	11.38
226.918	27.38
227.152	24.38
227.387	33.38
227.621	46.38
227.856	43.38
228.09	47.38
228.324	56.38
228.559	67.38
228.793	71.38
229.027	99.38
229.262	109.38
229.496	120.38
229.73	145.38
229.964	173.38
230.199	130.38
230.433	123.38
230.667	123.38
230.901	116.38
231.136	110.38
231.37	111.38
231.604	109.38
231.838	105.38
232.072	111.38
232.306	115.38
232.541	112.38
232.775	109.38
233.009	139.38
233.243	119.38
233.477	113.38
233.711	114.38
233.945	125.38
234.179	126.38
234.413	107.38
234.647	126.38
234.881	123.38
235.115	132.38
235.349	132.38
235.583	132.38
235.817	128.38
236.051	127.38
236.285	114.38
236.519	115.38
236.753	141.38
236.987	142.38
237.221	164.38
237.455	247.38
237.689	183.38
237.922	136.38
238.156	131.38
238.39	127.38
238.624	128.38
238.858	124.38
239.091	126.38
239.325	129.38
239.559	118.38
239.793	132.38
240.027	127.38
240.26	129.38
240.494	155.38
240.728	167.38
240.961	145.38
241.195	154.38
241.429	133.38
241.662	144.38
241.896	142.38
242.13	137.38
242.363	138.38
242.597	133.38
242.83	135.38
243.064	147.38
243.298	141.38
243.531	157.38
243.765	138.38
243.998	134.38
244.232	152.38
244.465	148.38
244.699	150.38
244.932	139.38
245.166	140.38
245.399	145.38
245.633	133.38
245.866	137.38
246.099	144.38
246.333	142.38
246.566	145.38
246.8	151.38
247.033	157.38
247.266	156.38
247.5	164.38
247.733	172.38
247.966	175.38
248.2	171.38
248.433	173.38
248.666	183.38
248.899	184.38
249.133	185.38
249.366	192.38
249.599	196.38
249.832	176.38
250.066	191.38
250.299	182.38
250.532	172.38
250.765	204.38
250.998	232.38
251.231	212.38
251.465	214.38
251.698	211.38
251.931	186.38
252.164	179.38
252.397	192.38
252.63	189.38
252.863	190.38
253.096	214.38
253.329	229.38
253.562	208.38
253.795	217.38
254.028	202.38
254.261	214.38
254.494	227.38
254.727	252.38
254.96	262.38
255.193	271.38
255.426	244.38
255.659	227.38
255.892	223.38
256.124	208.38
256.357	217.38
256.59	219.38
256.823	234.38
257.056	209.38
257.289	209.38
257.521	194.38
257.754	218.38
257.987	185.38
258.22	198.38
258.452	211.38
258.685	214.38
258.918	215.38
259.151	201.38
259.383	220.38
259.616	210.38
259.849	220.38
260.081	215.38
260.314	237.38
260.547	234.38
260.779	236.38
261.012	216.38
261.244	224.38
261.477	213.38
261.71	215.38
261.942	227.38
262.175	219.38
262.407	230.38
262.64	222.38
262.872	195.38
263.105	214.38
263.337	221.38
263.57	201.38
263.802	216.38
264.035	210.38
264.267	225.38
264.499	222.38
264.732	202.38
264.964	205.38
265.197	217.38
265.429	211.38
265.661	215.38
265.894	200.38
266.126	216.38
266.358	201.38
266.591	210.38
266.823	250.38
267.055	222.38
267.287	212.38
267.52	225.38
267.752	224.38
267.984	228.38
268.216	230.38
268.448	232.38
268.681	228.38
268.913	233.38
269.145	261.38
269.377	273.38
269.609	271.38
269.841	269.38
270.073	264.38
270.306	277.38
270.538	293.38
270.77	297.38
271.002	312.38
271.234	276.38
271.466	281.38
271.698	307.38
271.93	301.38
272.162	330.38
272.394	311.38
272.626	290.38
272.858	273.38
273.09	257.38
273.322	259.38
273.553	265.38
273.785	272.38
274.017	244.38
274.249	250.38
274.481	255.38
274.713	257.38
274.945	259.38
275.176	255.38
275.408	264.38
275.64	267.38
275.872	255.38
276.104	276.38
276.335	266.38
276.567	268.38
276.799	278.38
277.031	325.38
277.262	293.38
277.494	321.38
277.726	294.38
277.957	283.38
278.189	263.38
278.421	281.38
278.652	272.38
278.884	262.38
279.115	255.38
279.347	287.38
279.579	255.38
279.81	256.38
280.042	265.38
280.273	268.38
280.505	259.38
280.736	261.38
280.968	262.38
281.199	269.38
281.431	258.38
281.662	270.38
281.894	268.38
282.125	263.38
282.356	287.38
282.588	308.38
282.819	315.38
283.051	281.38
283.282	270.38
283.513	276.38
283.745	279.38
283.976	261.38
284.207	272.38
284.439	267.38
284.67	276.38
284.901	281.38
285.132	280.38
285.364	278.38
285.595	281.38
285.826	251.38
286.057	281.38
286.288	293.38
286.52	299.38
286.751	264.38
286.982	266.38
287.213	282.38
287.444	284.38
287.675	286.38
287.906	281.38
288.138	289.38
288.369	304.38
288.6	312.38
288.831	319.38
289.062	308.38
289.293	296.38
289.524	301.38
289.755	274.38
289.986	310.38
290.217	300.38
290.448	272.38
290.679	302.38
290.91	292.38
291.141	271.38
291.371	287.38
291.602	291.38
291.833	302.38
292.064	300.38
292.295	299.38
292.526	300.38
292.757	285.38
292.987	289.38
293.218	284.38
293.449	293.38
293.68	304.38
293.91	293.38
294.141	283.38
294.372	289.38
294.603	289.38
294.833	291.38
295.064	298.38
295.295	290.38
295.525	295.38
295.756	303.38
295.987	324.38
296.217	320.38
296.448	337.38
296.679	304.38
296.909	298.38
297.14	291.38
297.37	316.38
297.601	303.38
297.831	303.38
298.062	288.38
298.292	320.38
298.523	303.38
298.753	311.38
298.984	311.38
299.214	307.38
299.445	325.38
299.675	293.38
299.905	308.38
300.136	332.38
300.366	323.38
300.597	328.38
300.827	326.38
301.057	355.38
301.288	344.38
301.518	322.38
301.748	331.38
301.979	331.38
302.209	340.38
302.439	332.38
302.669	327.38
302.9	316.38
303.13	321.38
303.36	317.38
303.59	342.38
303.82	349.38
304.051	351.38
304.281	350.38
304.511	315.38
304.741	317.38
304.971	331.38
305.201	349.38
305.431	344.38
305.661	326.38
305.891	326.38
306.121	342.38
306.352	342.38
306.582	355.38
306.812	344.38
307.042	304.38
307.272	324.38
307.502	319.38
307.731	343.38
307.961	325.38
308.191	342.38
308.421	333.38
308.651	344.38
308.881	343.38
309.111	337.38
309.341	344.38
309.571	379.38
309.8	360.38
310.03	361.38
310.26	364.38
310.49	376.38
310.72	371.38
310.949	416.38
311.179	379.38
311.409	388.38
311.639	383.38
311.868	360.38
312.098	379.38
312.328	396.38
312.557	383.38
312.787	416.38
313.017	391.38
313.246	399.38
313.476	373.38
313.706	380.38
313.935	379.38
314.165	396.38
314.394	389.38
314.624	410.38
314.853	393.38
315.083	381.38
315.312	378.38
315.542	365.38
315.771	366.38
316.001	362.38
316.23	377.38
316.46	381.38
316.689	393.38
316.919	395.38
317.148	398.38
317.377	396.38
317.607	364.38
317.836	386.38
318.065	378.38
318.295	377.38
318.524	385.38
318.753	377.38
318.983	385.38
319.212	371.38
319.441	402.38
319.67	390.38
319.9	407.38
320.129	389.38
320.358	380.38
320.587	390.38
320.816	385.38
321.046	396.38
321.275	413.38
321.504	381.38
321.733	405.38
321.962	428.38
322.191	411.38
322.42	436.38
322.649	451.38
322.878	462.38
323.108	452.38
323.337	488.38
323.566	504.38
323.795	529.38
324.024	601.38
324.253	703.38
324.482	1012.38
324.71	1621.38
324.939	2519.38
325.168	2160.38
325.397	1059.38
325.626	663.38
325.855	575.38
326.084	539.38
326.313	499.38
326.542	518.38
326.77	555.38
326.999	655.38
327.228	942.38
327.457	1470.38
327.686	1835.38
327.914	1188.38
328.143	747.38
328.372	649.38
328.6	590.38
328.829	556.38
329.058	573.38
329.287	605.38
329.515	570.38
329.744	525.38
329.972	500.38
330.201	542.38
330.43	560.38
330.658	595.38
330.887	601.38
331.115	607.38
331.344	525.38
331.572	487.38
331.801	486.38
332.03	520.38
332.258	496.38
332.486	471.38
332.715	460.38
332.943	449.38
333.172	480.38
333.4	471.38
333.629	480.38
333.857	486.38
334.085	480.38
334.314	509.38
334.542	539.38
334.771	541.38
334.999	509.38
335.227	461.38
335.455	483.38
335.684	463.38
335.912	443.38
336.14	454.38
336.369	460.38
336.597	463.38
336.825	465.38
337.053	454.38
337.281	440.38
337.51	448.38
337.738	465.38
337.966	458.38
338.194	437.38
338.422	456.38
338.65	434.38
338.878	458.38
339.106	439.38
339.334	444.38
339.562	455.38
339.79	443.38
340.018	473.38
340.246	456.38
340.474	446.38
340.702	444.38
340.93	433.38
341.158	439.38
341.386	432.38
341.614	443.38
341.842	465.38
342.07	446.38
342.298	418.38
342.526	443.38
342.754	409.38
342.981	420.38
343.209	412.38
343.437	440.38
343.665	448.38
343.893	438.38
344.12	455.38
344.348	436.38
344.576	439.38
344.804	465.38
345.031	440.38
345.259	469.38
345.487	454.38
345.714	447.38
345.942	436.38
346.17	440.38
346.397	437.38
346.625	437.38
346.853	423.38
347.08	428.38
347.308	439.38
347.535	447.38
347.763	459.38
347.99	442.38
348.218	444.38
348.445	431.38
348.673	445.38
348.9	432.38
349.128	416.38
349.355	401.38
349.583	398.38
349.81	422.38
350.037	435.38
350.265	408.38
350.492	412.38
350.72	397.38
350.947	402.38
351.174	429.38
351.402	438.38
351.629	451.38
351.856	446.38
352.083	456.38
352.311	462.38
352.538	467.38
352.765	445.38
352.992	439.38
353.22	418.38
353.447	421.38
353.674	400.38
353.901	404.38
354.128	397.38
354.355	383.38
354.583	377.38
354.81	408.38
355.037	408.38
355.264	422.38
355.491	413.38
355.718	399.38
355.945	384.38
356.172	407.38
356.399	395.38
356.626	393.38
356.853	409.38
357.08	397.38
357.307	393.38
357.534	391.38
357.761	398.38
357.988	420.38
358.215	414.38
358.441	398.38
358.668	414.38
358.895	391.38
359.122	395.38
359.349	413.38
359.576	416.38
359.802	457.38
360.029	476.38
360.256	492.38
360.483	483.38
360.709	477.38
360.936	449.38
361.163	429.38
361.39	463.38
361.616	433.38
361.843	437.38
362.07	435.38
362.296	440.38
362.523	435.38
362.749	408.38
362.976	426.38
363.203	425.38
363.429	403.38
363.656	426.38
363.882	414.38
364.109	396.38
364.335	421.38
364.562	409.38
364.788	421.38
365.015	400.38
365.241	415.38
365.468	417.38
365.694	441.38
365.92	419.38
366.147	424.38
366.373	405.38
366.599	428.38
366.826	421.38
367.052	414.38
367.278	437.38
367.505	426.38
367.731	428.38
367.957	402.38
368.184	414.38
368.41	414.38
368.636	418.38
368.862	423.38
369.089	432.38
369.315	425.38
369.541	420.38
369.767	425.38
369.993	402.38
370.219	428.38
370.445	404.38
370.672	428.38
370.898	413.38
371.124	425.38
371.35	408.38
371.576	425.38
371.802	437.38
372.028	415.38
372.254	423.38
372.48	419.38
372.706	417.38
372.932	425.38
373.158	409.38
373.384	418.38
373.61	424.38
373.835	425.38
374.061	427.38
374.287	441.38
374.513	421.38
374.739	425.38
374.965	420.38
375.191	438.38
375.416	423.38
375.642	428.38
375.868	426.38
376.094	423.38
376.319	421.38
376.545	431.38
376.771	438.38
376.997	421.38
377.222	424.38
377.448	428.38
377.674	413.38
377.899	406.38
378.125	424.38
378.35	416.38
378.576	424.38
378.802	417.38
379.027	429.38
379.253	414.38
379.478	417.38
379.704	411.38
379.929	420.38
380.155	438.38
380.38	415.38
380.606	425.38
380.831	422.38
381.057	410.38
381.282	410.38
381.507	422.38
381.733	421.38
381.958	435.38
382.184	417.38
382.409	435.38
382.634	452.38
382.86	440.38
383.085	454.38
383.31	456.38
383.535	427.38
383.761	431.38
383.986	448.38
384.211	449.38
384.436	472.38
384.662	468.38
384.887	466.38
385.112	467.38
385.337	461.38
385.562	464.38
385.787	461.38
386.013	462.38
386.238	479.38
386.463	465.38
386.688	481.38
386.913	452.38
387.138	467.38
387.363	487.38
387.588	449.38
387.813	467.38
388.038	465.38
388.263	448.38
388.488	483.38
388.713	472.38
388.938	495.38
389.163	485.38
389.387	464.38
389.612	461.38
389.837	471.38
390.062	474.38
390.287	494.38
390.512	462.38
390.736	476.38
390.961	473.38
391.186	457.38
391.411	486.38
391.636	492.38
391.86	492.38
392.085	486.38
392.31	494.38
392.534	473.38
392.759	487.38
392.984	489.38
393.208	488.38
393.433	468.38
393.658	471.38
393.882	494.38
394.107	480.38
394.331	480.38
394.556	477.38
394.78	484.38
395.005	470.38
395.229	487.38
395.454	506.38
395.678	510.38
395.903	516.38
396.127	520.38
396.352	539.38
396.576	501.38
396.801	518.38
397.025	493.38
397.249	502.38
397.474	511.38
397.698	504.38
397.922	537.38
398.147	550.38
398.371	556.38
398.595	541.38
398.82	530.38
399.044	545.38
399.268	590.38
399.492	614.38
399.717	641.38
399.941	675.38
400.165	680.38
400.389	684.38
400.613	649.38
400.837	597.38
401.062	576.38
401.286	557.38
401.51	537.38
401.734	556.38
401.958	550.38
402.182	563.38
402.406	569.38
402.63	583.38
402.854	567.38
403.078	581.38
403.302	570.38
403.526	580.38
403.75	575.38
403.974	589.38
404.198	564.38
404.422	575.38
404.645	583.38
404.869	583.38
405.093	619.38
405.317	670.38
405.541	714.38
405.765	647.38
405.988	587.38
406.212	607.38
406.436	603.38
406.66	629.38
406.883	647.38
407.107	655.38
407.331	687.38
407.555	784.38
407.778	753.38
408.002	715.38
408.226	673.38
408.449	639.38
408.673	651.38
408.896	667.38
409.12	700.38
409.344	667.38
409.567	605.38
409.791	599.38
410.014	605.38
410.238	579.38
410.461	590.38
410.685	574.38
410.908	605.38
411.132	618.38
411.355	684.38
411.578	679.38
411.802	604.38
412.025	551.38
412.249	595.38
412.472	598.38
412.695	637.38
412.919	631.38
413.142	595.38
413.365	593.38
413.589	569.38
413.812	555.38
414.035	560.38
414.258	554.38
414.482	528.38
414.705	560.38
414.928	543.38
415.151	549.38
415.374	535.38
415.597	537.38
415.821	542.38
416.044	540.38
416.267	554.38
416.49	552.38
416.713	538.38
416.936	530.38
417.159	534.38
417.382	530.38
417.605	558.38
417.828	574.38
418.051	573.38
418.274	542.38
418.497	545.38
418.72	543.38
418.943	539.38
419.166	575.38
419.389	580.38
419.611	570.38
419.834	547.38
420.057	574.38
420.28	569.38
420.503	568.38
420.726	572.38
420.948	594.38
421.171	624.38
421.394	683.38
421.617	598.38
421.839	574.38
422.062	544.38
422.285	558.38
422.507	640.38
422.73	724.38
422.953	713.38
423.175	620.38
423.398	578.38
423.621	592.38
423.843	601.38
424.066	618.38
424.288	601.38
424.511	623.38
424.733	692.38
424.956	798.38
425.178	757.38
425.401	707.38
425.623	772.38
425.846	646.38
426.068	622.38
426.291	603.38
426.513	604.38
426.735	613.38
426.958	653.38
427.18	739.38
427.402	917.38
427.625	1011.38
427.847	855.38
428.069	749.38
428.292	677.38
428.514	607.38
428.736	601.38
428.958	573.38
429.181	556.38
429.403	571.38
429.625	588.38
429.847	599.38
430.069	667.38
430.292	681.38
430.514	565.38
430.736	575.38
430.958	541.38
431.18	535.38
431.402	549.38
431.624	527.38
431.846	552.38
432.068	531.38
432.29	563.38
432.512	523.38
432.734	541.38
432.956	547.38
433.178	563.38
433.4	556.38
433.622	555.38
433.844	531.38
434.066	545.38
434.287	534.38
434.509	551.38
434.731	559.38
434.953	560.38
435.175	551.38
435.397	616.38
435.618	612.38
435.84	654.38
436.062	781.38
436.284	860.38
436.505	719.38
436.727	643.38
436.949	583.38
437.17	583.38
437.392	579.38
437.614	565.38
437.835	619.38
438.057	719.38
438.278	828.38
438.5	831.38
438.721	924.38
438.943	892.38
439.165	700.38
439.386	608.38
439.608	635.38
439.829	627.38
440.05	648.38
440.272	709.38
440.493	668.38
440.715	617.38
440.936	573.38
441.158	553.38
441.379	567.38
441.6	579.38
441.822	603.38
442.043	640.38
442.264	747.38
442.486	758.38
442.707	687.38
442.928	644.38
443.149	656.38
443.371	648.38
443.592	693.38
443.813	812.38
444.034	877.38
444.255	728.38
444.476	639.38
444.698	621.38
444.919	615.38
445.14	699.38
445.361	681.38
445.582	664.38
445.803	727.38
446.024	893.38
446.245	873.38
446.466	800.38
446.687	667.38
446.908	628.38
447.129	579.38
447.35	571.38
447.571	566.38
447.792	536.38
448.013	567.38
448.234	593.38
448.455	628.38
448.675	777.38
448.896	894.38
449.117	757.38
449.338	730.38
449.559	848.38
449.779	982.38
450	748.38
450.221	614.38
450.442	588.38
450.662	568.38
450.883	552.38
451.104	571.38
451.324	553.38
451.545	538.38
451.766	533.38
451.986	514.38
452.207	515.38
452.428	495.38
452.648	504.38
452.869	493.38
453.089	521.38
453.31	525.38
453.53	515.38
453.751	519.38
453.971	509.38
454.192	530.38
454.412	510.38
454.633	501.38
454.853	503.38
455.073	477.38
455.294	533.38
455.514	606.38
455.734	590.38
455.955	523.38
456.175	500.38
456.395	483.38
456.616	484.38
456.836	467.38
457.056	471.38
457.276	476.38
457.497	458.38
457.717	467.38
457.937	482.38
458.157	485.38
458.377	494.38
458.598	547.38
458.818	567.38
459.038	663.38
459.258	698.38
459.478	581.38
459.698	561.38
459.918	558.38
460.138	556.38
460.358	550.38
460.578	540.38
460.798	537.38
461.018	579.38
461.238	558.38
461.458	559.38
461.678	528.38
461.898	561.38
462.118	567.38
462.338	577.38
462.558	568.38
462.777	570.38
462.997	592.38
463.217	593.38
463.437	611.38
463.657	605.38
463.876	579.38
464.096	628.38
464.316	577.38
464.536	602.38
464.755	605.38
464.975	615.38
465.195	630.38
465.414	689.38
465.634	633.38
465.854	574.38
466.073	560.38
466.293	538.38
466.512	529.38
466.732	498.38
466.951	527.38
467.171	535.38
467.391	529.38
467.61	519.38
467.829	550.38
468.049	534.38
468.268	537.38
468.488	534.38
468.707	521.38
468.927	505.38
469.146	521.38
469.365	502.38
469.585	519.38
469.804	519.38
470.023	529.38
470.243	520.38
470.462	521.38
470.681	546.38
470.901	539.38
471.12	539.38
471.339	522.38
471.558	547.38
471.777	541.38
471.997	527.38
472.216	547.38
472.435	556.38
472.654	548.38
472.873	543.38
473.092	527.38
473.311	517.38
473.53	518.38
473.749	524.38
473.968	572.38
474.187	706.38
474.406	730.38
474.625	596.38
474.844	560.38
475.063	544.38
475.282	543.38
475.501	550.38
475.72	534.38
475.939	535.38
476.158	538.38
476.377	538.38
476.596	543.38
476.814	560.38
477.033	557.38
477.252	558.38
477.471	554.38
477.69	570.38
477.908	586.38
478.127	587.38
478.346	590.38
478.564	606.38
478.783	599.38
479.002	599.38
479.22	596.38
479.439	624.38
479.658	638.38
479.876	616.38
480.095	643.38
480.313	663.38
480.532	658.38
480.751	664.38
480.969	672.38
481.188	743.38
481.406	750.38
481.624	685.38
481.843	655.38
482.061	639.38
482.28	634.38
482.498	602.38
482.717	621.38
482.935	636.38
483.153	628.38
483.372	602.38
483.59	634.38
483.808	639.38
484.027	620.38
484.245	640.38
484.463	637.38
484.681	646.38
484.9	642.38
485.118	646.38
485.336	641.38
485.554	645.38
485.772	636.38
485.99	662.38
486.209	603.38
486.427	658.38
486.645	658.38
486.863	656.38
487.081	664.38
487.299	652.38
487.517	661.38
487.735	675.38
487.953	660.38
488.171	656.38
488.389	661.38
488.607	647.38
488.825	646.38
489.043	658.38
489.261	649.38
489.479	679.38
489.696	674.38
489.914	679.38
490.132	690.38
490.35	677.38
490.568	691.38
490.786	701.38
491.003	712.38
491.221	735.38
491.439	751.38
491.657	720.38
491.874	733.38
492.092	733.38
492.31	768.38
492.527	740.38
492.745	769.38
492.963	780.38
493.18	744.38
493.398	765.38
493.615	785.38
493.833	758.38
494.05	789.38
494.268	776.38
494.485	764.38
494.703	775.38
494.92	775.38
495.138	750.38
495.355	735.38
495.573	779.38
495.79	788.38
496.008	795.38
496.225	775.38
496.442	760.38
496.66	772.38
496.877	767.38
497.094	788.38
497.312	803.38
497.529	828.38
497.746	816.38
497.963	817.38
498.181	854.38
498.398	876.38
498.615	895.38
498.832	904.38
499.049	921.38
499.267	928.38
499.484	980.38
499.701	982.38
499.918	1014.38
500.135	1060.38
500.352	1092.38
500.569	1135.38
500.786	1124.38
501.003	1121.38
501.22	1086.38
501.437	1083.38
501.654	1027.38
501.871	1033.38
