Data from 1978.PennyLincolnUp.Lamp.En5.5.200Scan.071719.P1_HRD10591_16-13-56-864.txt Node
Date: Thu Jul 18 16:13:56 EDT 2019
User: cochatt
Spectrometer: HR+D1059
Trigger mode: 1
Integration Time (sec): 1.000000E-1
Scans to average: 1
Electric dark correction enabled: true
Nonlinearity correction enabled: false
Boxcar width: 0
XAxis mode: Wavelengths
Number of Pixels in Spectrum: 2048
>>>>>Begin Spectral Data<<<<<
223.165	-15.44
223.4	-15.44
223.635	-15.44
223.869	-20.44
224.104	-14.44
224.338	-15.44
224.573	-22.44
224.808	-11.44
225.042	-10.44
225.277	-1.44
225.511	2.56
225.746	1.56
225.98	3.56
226.215	9.56
226.449	14.56
226.683	20.56
226.918	26.56
227.152	32.56
227.387	57.56
227.621	46.56
227.856	31.56
228.09	39.56
228.324	61.56
228.559	60.56
228.793	72.56
229.027	96.56
229.262	126.56
229.496	107.56
229.73	131.56
229.964	149.56
230.199	126.56
230.433	98.56
230.667	117.56
230.901	108.56
231.136	113.56
231.37	109.56
231.604	120.56
231.838	117.56
232.072	120.56
232.306	124.56
232.541	103.56
232.775	120.56
233.009	127.56
233.243	126.56
233.477	128.56
233.711	127.56
233.945	127.56
234.179	134.56
234.413	131.56
234.647	130.56
234.881	144.56
235.115	121.56
235.349	115.56
235.583	122.56
235.817	129.56
236.051	119.56
236.285	130.56
236.519	122.56
236.753	134.56
236.987	144.56
237.221	179.56
237.455	240.56
237.689	169.56
237.922	148.56
238.156	129.56
238.39	129.56
238.624	113.56
238.858	135.56
239.091	119.56
239.325	132.56
239.559	115.56
239.793	128.56
240.027	133.56
240.26	141.56
240.494	154.56
240.728	158.56
240.961	157.56
241.195	133.56
241.429	143.56
241.662	156.56
241.896	135.56
242.13	149.56
242.363	139.56
242.597	135.56
242.83	136.56
243.064	148.56
243.298	124.56
243.531	133.56
243.765	142.56
243.998	150.56
244.232	139.56
244.465	141.56
244.699	146.56
244.932	145.56
245.166	142.56
245.399	133.56
245.633	150.56
245.866	135.56
246.099	154.56
246.333	150.56
246.566	145.56
246.8	147.56
247.033	153.56
247.266	158.56
247.5	158.56
247.733	165.56
247.966	175.56
248.2	167.56
248.433	165.56
248.666	153.56
248.899	175.56
249.133	171.56
249.366	202.56
249.599	194.56
249.832	185.56
250.066	173.56
250.299	180.56
250.532	173.56
250.765	181.56
250.998	204.56
251.231	210.56
251.465	204.56
251.698	207.56
251.931	197.56
252.164	182.56
252.397	167.56
252.63	196.56
252.863	198.56
253.096	192.56
253.329	214.56
253.562	218.56
253.795	214.56
254.028	223.56
254.261	222.56
254.494	210.56
254.727	232.56
254.96	277.56
255.193	263.56
255.426	227.56
255.659	222.56
255.892	228.56
256.124	216.56
256.357	202.56
256.59	211.56
256.823	206.56
257.056	227.56
257.289	211.56
257.521	199.56
257.754	186.56
257.987	183.56
258.22	195.56
258.452	207.56
258.685	210.56
258.918	199.56
259.151	206.56
259.383	228.56
259.616	209.56
259.849	214.56
260.081	223.56
260.314	254.56
260.547	258.56
260.779	231.56
261.012	235.56
261.244	205.56
261.477	233.56
261.71	219.56
261.942	235.56
262.175	232.56
262.407	232.56
262.64	215.56
262.872	214.56
263.105	211.56
263.337	205.56
263.57	215.56
263.802	199.56
264.035	199.56
264.267	202.56
264.499	206.56
264.732	196.56
264.964	216.56
265.197	213.56
265.429	220.56
265.661	199.56
265.894	223.56
266.126	220.56
266.358	218.56
266.591	213.56
266.823	212.56
267.055	224.56
267.287	232.56
267.52	219.56
267.752	228.56
267.984	203.56
268.216	218.56
268.448	225.56
268.681	216.56
268.913	248.56
269.145	259.56
269.377	257.56
269.609	263.56
269.841	264.56
270.073	261.56
270.306	269.56
270.538	290.56
270.77	295.56
271.002	280.56
271.234	294.56
271.466	281.56
271.698	292.56
271.93	289.56
272.162	313.56
272.394	298.56
272.626	286.56
272.858	267.56
273.09	268.56
273.322	266.56
273.553	261.56
273.785	260.56
274.017	261.56
274.249	262.56
274.481	257.56
274.713	266.56
274.945	266.56
275.176	266.56
275.408	256.56
275.64	246.56
275.872	248.56
276.104	254.56
276.335	270.56
276.567	271.56
276.799	274.56
277.031	295.56
277.262	303.56
277.494	321.56
277.726	303.56
277.957	263.56
278.189	261.56
278.421	265.56
278.652	258.56
278.884	272.56
279.115	269.56
279.347	277.56
279.579	268.56
279.81	253.56
280.042	267.56
280.273	281.56
280.505	269.56
280.736	263.56
280.968	259.56
281.199	272.56
281.431	249.56
281.662	255.56
281.894	292.56
282.125	275.56
282.356	276.56
282.588	312.56
282.819	315.56
283.051	283.56
283.282	281.56
283.513	273.56
283.745	280.56
283.976	279.56
284.207	273.56
284.439	275.56
284.67	282.56
284.901	281.56
285.132	291.56
285.364	284.56
285.595	279.56
285.826	265.56
286.057	267.56
286.288	277.56
286.52	251.56
286.751	269.56
286.982	287.56
287.213	269.56
287.444	287.56
287.675	290.56
287.906	287.56
288.138	294.56
288.369	298.56
288.6	295.56
288.831	292.56
289.062	291.56
289.293	285.56
289.524	293.56
289.755	290.56
289.986	270.56
290.217	297.56
290.448	277.56
290.679	283.56
290.91	287.56
291.141	293.56
291.371	266.56
291.602	311.56
291.833	295.56
292.064	289.56
292.295	299.56
292.526	282.56
292.757	294.56
292.987	280.56
293.218	278.56
293.449	292.56
293.68	293.56
293.91	278.56
294.141	283.56
294.372	300.56
294.603	294.56
294.833	293.56
295.064	300.56
295.295	296.56
295.525	303.56
295.756	289.56
295.987	299.56
296.217	347.56
296.448	354.56
296.679	334.56
296.909	282.56
297.14	295.56
297.37	307.56
297.601	304.56
297.831	303.56
298.062	311.56
298.292	304.56
298.523	293.56
298.753	308.56
298.984	315.56
299.214	291.56
299.445	303.56
299.675	304.56
299.905	333.56
300.136	289.56
300.366	313.56
300.597	309.56
300.827	315.56
301.057	313.56
301.288	325.56
301.518	319.56
301.748	315.56
301.979	334.56
302.209	331.56
302.439	332.56
302.669	318.56
302.9	326.56
303.13	326.56
303.36	340.56
303.59	334.56
303.82	325.56
304.051	330.56
304.281	318.56
304.511	312.56
304.741	314.56
304.971	309.56
305.201	329.56
305.431	312.56
305.661	338.56
305.891	313.56
306.121	321.56
306.352	318.56
306.582	335.56
306.812	350.56
307.042	327.56
307.272	312.56
307.502	319.56
307.731	326.56
307.961	347.56
308.191	324.56
308.421	328.56
308.651	350.56
308.881	336.56
309.111	345.56
309.341	344.56
309.571	354.56
309.8	354.56
310.03	368.56
310.26	359.56
310.49	361.56
310.72	371.56
310.949	399.56
311.179	384.56
311.409	364.56
311.639	381.56
311.868	370.56
312.098	376.56
312.328	378.56
312.557	399.56
312.787	395.56
313.017	381.56
313.246	369.56
313.476	380.56
313.706	381.56
313.935	384.56
314.165	375.56
314.394	402.56
314.624	403.56
314.853	388.56
315.083	375.56
315.312	385.56
315.542	381.56
315.771	386.56
316.001	383.56
316.23	378.56
316.46	363.56
316.689	366.56
316.919	394.56
317.148	384.56
317.377	372.56
317.607	402.56
317.836	379.56
318.065	391.56
318.295	358.56
318.524	352.56
318.753	364.56
318.983	367.56
319.212	385.56
319.441	415.56
319.67	385.56
319.9	383.56
320.129	379.56
320.358	367.56
320.587	389.56
320.816	381.56
321.046	413.56
321.275	396.56
321.504	385.56
321.733	400.56
321.962	405.56
322.191	428.56
322.42	422.56
322.649	450.56
322.878	458.56
323.108	470.56
323.337	499.56
323.566	519.56
323.795	532.56
324.024	597.56
324.253	681.56
324.482	1008.56
324.71	1568.56
324.939	2443.56
325.168	2067.56
325.397	989.56
325.626	653.56
325.855	551.56
326.084	503.56
326.313	500.56
326.542	526.56
326.77	543.56
326.999	652.56
327.228	914.56
327.457	1403.56
327.686	1765.56
327.914	1140.56
328.143	726.56
328.372	629.56
328.6	589.56
328.829	563.56
329.058	577.56
329.287	606.56
329.515	529.56
329.744	515.56
329.972	511.56
330.201	515.56
330.43	568.56
330.658	571.56
330.887	596.56
331.115	611.56
331.344	518.56
331.572	484.56
331.801	506.56
332.03	489.56
332.258	468.56
332.486	476.56
332.715	453.56
332.943	455.56
333.172	465.56
333.4	459.56
333.629	472.56
333.857	480.56
334.085	505.56
334.314	507.56
334.542	513.56
334.771	543.56
334.999	496.56
335.227	479.56
335.455	475.56
335.684	465.56
335.912	469.56
336.14	450.56
336.369	462.56
336.597	441.56
336.825	463.56
337.053	445.56
337.281	458.56
337.51	459.56
337.738	459.56
337.966	449.56
338.194	450.56
338.422	445.56
338.65	445.56
338.878	442.56
339.106	432.56
339.334	421.56
339.562	440.56
339.79	419.56
340.018	451.56
340.246	440.56
340.474	440.56
340.702	431.56
340.93	439.56
341.158	425.56
341.386	455.56
341.614	449.56
341.842	439.56
342.07	427.56
342.298	440.56
342.526	453.56
342.754	432.56
342.981	433.56
343.209	438.56
343.437	411.56
343.665	432.56
343.893	416.56
344.12	452.56
344.348	455.56
344.576	447.56
344.804	476.56
345.031	463.56
345.259	459.56
345.487	442.56
345.714	438.56
345.942	435.56
346.17	430.56
346.397	417.56
346.625	429.56
346.853	434.56
347.08	432.56
347.308	440.56
347.535	428.56
347.763	435.56
347.99	430.56
348.218	455.56
348.445	423.56
348.673	438.56
348.9	429.56
349.128	422.56
349.355	419.56
349.583	432.56
349.81	414.56
350.037	431.56
350.265	416.56
350.492	419.56
350.72	427.56
350.947	415.56
351.174	445.56
351.402	456.56
351.629	433.56
351.856	433.56
352.083	440.56
352.311	447.56
352.538	437.56
352.765	446.56
352.992	435.56
353.22	434.56
353.447	429.56
353.674	415.56
353.901	408.56
354.128	413.56
354.355	410.56
354.583	418.56
354.81	407.56
355.037	411.56
355.264	409.56
355.491	398.56
355.718	424.56
355.945	395.56
356.172	409.56
356.399	409.56
356.626	416.56
356.853	412.56
357.08	404.56
357.307	411.56
357.534	387.56
357.761	396.56
357.988	419.56
358.215	387.56
358.441	397.56
358.668	402.56
358.895	417.56
359.122	406.56
359.349	428.56
359.576	439.56
359.802	447.56
360.029	468.56
360.256	476.56
360.483	458.56
360.709	461.56
360.936	455.56
361.163	437.56
361.39	441.56
361.616	430.56
361.843	421.56
362.07	433.56
362.296	419.56
362.523	422.56
362.749	450.56
362.976	443.56
363.203	428.56
363.429	426.56
363.656	414.56
363.882	428.56
364.109	403.56
364.335	408.56
364.562	409.56
364.788	401.56
365.015	400.56
365.241	394.56
365.468	440.56
365.694	435.56
365.92	419.56
366.147	421.56
366.373	415.56
366.599	434.56
366.826	409.56
367.052	430.56
367.278	417.56
367.505	432.56
367.731	419.56
367.957	425.56
368.184	408.56
368.41	420.56
368.636	420.56
368.862	432.56
369.089	423.56
369.315	420.56
369.541	411.56
369.767	444.56
369.993	420.56
370.219	440.56
370.445	428.56
370.672	416.56
370.898	419.56
371.124	397.56
371.35	429.56
371.576	442.56
371.802	414.56
372.028	396.56
372.254	413.56
372.48	437.56
372.706	425.56
372.932	412.56
373.158	413.56
373.384	407.56
373.61	442.56
373.835	435.56
374.061	417.56
374.287	416.56
374.513	423.56
374.739	432.56
374.965	443.56
375.191	440.56
375.416	443.56
375.642	427.56
375.868	427.56
376.094	419.56
376.319	417.56
376.545	424.56
376.771	439.56
376.997	398.56
377.222	395.56
377.448	404.56
377.674	431.56
377.899	423.56
378.125	425.56
378.35	399.56
378.576	410.56
378.802	435.56
379.027	428.56
379.253	443.56
379.478	410.56
379.704	389.56
379.929	407.56
380.155	411.56
380.38	423.56
380.606	435.56
380.831	408.56
381.057	410.56
381.282	424.56
381.507	426.56
381.733	421.56
381.958	421.56
382.184	435.56
382.409	442.56
382.634	430.56
382.86	444.56
383.085	440.56
383.31	437.56
383.535	439.56
383.761	445.56
383.986	453.56
384.211	430.56
384.436	440.56
384.662	456.56
384.887	454.56
385.112	447.56
385.337	443.56
385.562	463.56
385.787	461.56
386.013	460.56
386.238	474.56
386.463	470.56
386.688	474.56
386.913	461.56
387.138	478.56
387.363	461.56
387.588	474.56
387.813	469.56
388.038	490.56
388.263	462.56
388.488	449.56
388.713	462.56
388.938	453.56
389.163	460.56
389.387	471.56
389.612	476.56
389.837	470.56
390.062	454.56
390.287	477.56
390.512	478.56
390.736	458.56
390.961	464.56
391.186	477.56
391.411	479.56
391.636	500.56
391.86	492.56
392.085	477.56
392.31	473.56
392.534	509.56
392.759	479.56
392.984	492.56
393.208	467.56
393.433	499.56
393.658	484.56
393.882	485.56
394.107	478.56
394.331	487.56
394.556	470.56
394.78	491.56
395.005	469.56
395.229	474.56
395.454	493.56
395.678	495.56
395.903	521.56
396.127	533.56
396.352	547.56
396.576	496.56
396.801	513.56
397.025	512.56
397.249	505.56
397.474	514.56
397.698	526.56
397.922	534.56
398.147	548.56
398.371	567.56
398.595	521.56
398.82	533.56
399.044	549.56
399.268	592.56
399.492	598.56
399.717	610.56
399.941	655.56
400.165	692.56
400.389	665.56
400.613	610.56
400.837	579.56
401.062	573.56
401.286	549.56
401.51	541.56
401.734	536.56
401.958	573.56
402.182	558.56
402.406	582.56
402.63	560.56
402.854	567.56
403.078	586.56
403.302	564.56
403.526	573.56
403.75	563.56
403.974	558.56
404.198	534.56
404.422	569.56
404.645	573.56
404.869	568.56
405.093	614.56
405.317	645.56
405.541	683.56
405.765	619.56
405.988	604.56
406.212	625.56
406.436	627.56
406.66	643.56
406.883	607.56
407.107	637.56
407.331	688.56
407.555	784.56
407.778	760.56
408.002	699.56
408.226	663.56
408.449	652.56
408.673	617.56
408.896	653.56
409.12	709.56
409.344	679.56
409.567	608.56
409.791	605.56
410.014	578.56
410.238	585.56
410.461	568.56
410.685	548.56
410.908	608.56
411.132	630.56
411.355	699.56
411.578	651.56
411.802	602.56
412.025	590.56
412.249	604.56
412.472	643.56
412.695	636.56
412.919	633.56
413.142	582.56
413.365	551.56
413.589	569.56
413.812	537.56
414.035	549.56
414.258	539.56
414.482	535.56
414.705	533.56
414.928	550.56
415.151	540.56
415.374	547.56
415.597	527.56
415.821	565.56
416.044	567.56
416.267	551.56
416.49	544.56
416.713	520.56
416.936	533.56
417.159	539.56
417.382	538.56
417.605	543.56
417.828	573.56
418.051	560.56
418.274	542.56
418.497	561.56
418.72	550.56
418.943	543.56
419.166	555.56
419.389	590.56
419.611	567.56
419.834	554.56
420.057	563.56
420.28	575.56
420.503	568.56
420.726	553.56
420.948	560.56
421.171	623.56
421.394	637.56
421.617	598.56
421.839	573.56
422.062	549.56
422.285	558.56
422.507	629.56
422.73	730.56
422.953	687.56
423.175	612.56
423.398	609.56
423.621	585.56
423.843	619.56
424.066	612.56
424.288	601.56
424.511	620.56
424.733	665.56
424.956	789.56
425.178	712.56
425.401	743.56
425.623	744.56
425.846	661.56
426.068	606.56
426.291	587.56
426.513	604.56
426.735	632.56
426.958	661.56
427.18	727.56
427.402	913.56
427.625	996.56
427.847	861.56
428.069	729.56
428.292	651.56
428.514	593.56
428.736	586.56
428.958	565.56
429.181	583.56
429.403	554.56
429.625	607.56
429.847	592.56
430.069	676.56
430.292	680.56
430.514	588.56
430.736	550.56
430.958	530.56
431.18	550.56
431.402	510.56
431.624	528.56
431.846	514.56
432.068	533.56
432.29	538.56
432.512	534.56
432.734	538.56
432.956	553.56
433.178	554.56
433.4	573.56
433.622	541.56
433.844	549.56
434.066	544.56
434.287	547.56
434.509	546.56
434.731	537.56
434.953	542.56
435.175	572.56
435.397	604.56
435.618	600.56
435.84	649.56
436.062	729.56
436.284	849.56
436.505	679.56
436.727	609.56
436.949	597.56
437.17	566.56
437.392	555.56
437.614	556.56
437.835	622.56
438.057	687.56
438.278	848.56
438.5	824.56
438.721	910.56
438.943	889.56
439.165	669.56
439.386	639.56
439.608	625.56
439.829	627.56
440.05	648.56
440.272	710.56
440.493	649.56
440.715	603.56
440.936	585.56
441.158	553.56
441.379	563.56
441.6	560.56
441.822	616.56
442.043	640.56
442.264	751.56
442.486	779.56
442.707	664.56
442.928	632.56
443.149	634.56
443.371	651.56
443.592	704.56
443.813	787.56
444.034	875.56
444.255	741.56
444.476	651.56
444.698	620.56
444.919	591.56
445.14	688.56
445.361	650.56
445.582	655.56
445.803	705.56
446.024	833.56
446.245	848.56
446.466	783.56
446.687	680.56
446.908	624.56
447.129	579.56
447.35	570.56
447.571	565.56
447.792	557.56
448.013	569.56
448.234	575.56
448.455	635.56
448.675	773.56
448.896	895.56
449.117	737.56
449.338	710.56
449.559	807.56
449.779	954.56
450	729.56
450.221	630.56
450.442	550.56
450.662	549.56
450.883	563.56
451.104	558.56
451.324	551.56
451.545	532.56
451.766	523.56
451.986	528.56
452.207	506.56
452.428	517.56
452.648	492.56
452.869	484.56
453.089	510.56
453.31	535.56
453.53	495.56
453.751	518.56
453.971	487.56
454.192	510.56
454.412	514.56
454.633	503.56
454.853	514.56
455.073	489.56
455.294	531.56
455.514	614.56
455.734	565.56
455.955	503.56
456.175	485.56
456.395	461.56
456.616	475.56
456.836	465.56
457.056	466.56
457.276	463.56
457.497	503.56
457.717	488.56
457.937	492.56
458.157	488.56
458.377	501.56
458.598	528.56
458.818	571.56
459.038	648.56
459.258	655.56
459.478	566.56
459.698	578.56
459.918	512.56
460.138	535.56
460.358	549.56
460.578	573.56
460.798	566.56
461.018	553.56
461.238	557.56
461.458	551.56
461.678	525.56
461.898	568.56
462.118	528.56
462.338	586.56
462.558	567.56
462.777	602.56
462.997	597.56
463.217	608.56
463.437	616.56
463.657	591.56
463.876	573.56
464.096	583.56
464.316	579.56
464.536	587.56
464.755	582.56
464.975	597.56
465.195	613.56
465.414	702.56
465.634	622.56
465.854	572.56
466.073	551.56
466.293	535.56
466.512	541.56
466.732	527.56
466.951	506.56
467.171	515.56
467.391	520.56
467.61	516.56
467.829	511.56
468.049	521.56
468.268	517.56
468.488	506.56
468.707	496.56
468.927	497.56
469.146	504.56
469.365	481.56
469.585	517.56
469.804	519.56
470.023	518.56
470.243	508.56
470.462	529.56
470.681	525.56
470.901	523.56
471.12	539.56
471.339	522.56
471.558	516.56
471.777	522.56
471.997	536.56
472.216	529.56
472.435	545.56
472.654	534.56
472.873	512.56
473.092	525.56
473.311	531.56
473.53	532.56
473.749	519.56
473.968	580.56
474.187	677.56
474.406	713.56
474.625	588.56
474.844	534.56
475.063	523.56
475.282	529.56
475.501	529.56
475.72	548.56
475.939	525.56
476.158	525.56
476.377	530.56
476.596	535.56
476.814	559.56
477.033	538.56
477.252	589.56
477.471	578.56
477.69	569.56
477.908	554.56
478.127	577.56
478.346	581.56
478.564	570.56
478.783	609.56
479.002	615.56
479.22	584.56
479.439	610.56
479.658	610.56
479.876	640.56
480.095	649.56
480.313	682.56
480.532	648.56
480.751	631.56
480.969	623.56
481.188	665.56
481.406	710.56
481.624	671.56
481.843	660.56
482.061	657.56
482.28	637.56
482.498	600.56
482.717	600.56
482.935	632.56
483.153	603.56
483.372	609.56
483.59	598.56
483.808	609.56
484.027	582.56
484.245	618.56
484.463	622.56
484.681	617.56
484.9	637.56
485.118	636.56
485.336	644.56
485.554	622.56
485.772	623.56
485.99	634.56
486.209	643.56
486.427	632.56
486.645	672.56
486.863	683.56
487.081	699.56
487.299	649.56
487.517	654.56
487.735	663.56
487.953	660.56
488.171	664.56
488.389	661.56
488.607	662.56
488.825	683.56
489.043	654.56
489.261	651.56
489.479	678.56
489.696	654.56
489.914	675.56
490.132	684.56
490.35	695.56
490.568	695.56
490.786	715.56
491.003	707.56
491.221	702.56
491.439	739.56
491.657	708.56
491.874	714.56
492.092	741.56
492.31	743.56
492.527	763.56
492.745	752.56
492.963	771.56
493.18	746.56
493.398	727.56
493.615	760.56
493.833	759.56
494.05	739.56
494.268	766.56
494.485	733.56
494.703	769.56
494.92	769.56
495.138	788.56
495.355	726.56
495.573	757.56
495.79	769.56
496.008	803.56
496.225	791.56
496.442	788.56
496.66	776.56
496.877	778.56
497.094	820.56
497.312	798.56
497.529	811.56
497.746	830.56
497.963	836.56
498.181	863.56
498.398	848.56
498.615	884.56
498.832	907.56
499.049	919.56
499.267	914.56
499.484	992.56
499.701	975.56
499.918	1016.56
500.135	1035.56
500.352	1101.56
500.569	1108.56
500.786	1126.56
501.003	1088.56
501.22	1087.56
501.437	1038.56
501.654	1030.56
501.871	993.56
