Data from 1978.PennyLincolnUp.Lamp.En5.5.200Scan.071719.P1_HRD10591_16-13-21-863.txt Node
Date: Thu Jul 18 16:13:21 EDT 2019
User: cochatt
Spectrometer: HR+D1059
Trigger mode: 1
Integration Time (sec): 1.000000E-1
Scans to average: 1
Electric dark correction enabled: true
Nonlinearity correction enabled: false
Boxcar width: 0
XAxis mode: Wavelengths
Number of Pixels in Spectrum: 2048
>>>>>Begin Spectral Data<<<<<
223.165	-15.81
223.4	-15.81
223.635	-15.81
223.869	-13.81
224.104	-20.81
224.338	-17.81
224.573	-7.81
224.808	-6.81
225.042	-5.81
225.277	-2.81
225.511	3.19
225.746	-2.81
225.98	-6.81
226.215	15.19
226.449	12.19
226.683	12.19
226.918	28.19
227.152	30.19
227.387	48.19
227.621	42.19
227.856	47.19
228.09	34.19
228.324	56.19
228.559	64.19
228.793	54.19
229.027	103.19
229.262	116.19
229.496	125.19
229.73	147.19
229.964	161.19
230.199	136.19
230.433	112.19
230.667	120.19
230.901	105.19
231.136	123.19
231.37	118.19
231.604	135.19
231.838	125.19
232.072	117.19
232.306	123.19
232.541	109.19
232.775	133.19
233.009	103.19
233.243	133.19
233.477	124.19
233.711	111.19
233.945	123.19
234.179	120.19
234.413	113.19
234.647	116.19
234.881	106.19
235.115	120.19
235.349	118.19
235.583	128.19
235.817	131.19
236.051	127.19
236.285	131.19
236.519	121.19
236.753	119.19
236.987	131.19
237.221	180.19
237.455	228.19
237.689	188.19
237.922	156.19
238.156	144.19
238.39	136.19
238.624	132.19
238.858	132.19
239.091	130.19
239.325	124.19
239.559	123.19
239.793	133.19
240.027	130.19
240.26	153.19
240.494	156.19
240.728	146.19
240.961	146.19
241.195	141.19
241.429	148.19
241.662	120.19
241.896	137.19
242.13	121.19
242.363	134.19
242.597	124.19
242.83	147.19
243.064	139.19
243.298	134.19
243.531	141.19
243.765	149.19
243.998	139.19
244.232	139.19
244.465	160.19
244.699	154.19
244.932	141.19
245.166	133.19
245.399	155.19
245.633	147.19
245.866	153.19
246.099	146.19
246.333	156.19
246.566	137.19
246.8	147.19
247.033	157.19
247.266	139.19
247.5	147.19
247.733	165.19
247.966	146.19
248.2	150.19
248.433	157.19
248.666	193.19
248.899	176.19
249.133	182.19
249.366	209.19
249.599	194.19
249.832	178.19
250.066	186.19
250.299	179.19
250.532	186.19
250.765	188.19
250.998	216.19
251.231	202.19
251.465	203.19
251.698	200.19
251.931	196.19
252.164	201.19
252.397	188.19
252.63	181.19
252.863	189.19
253.096	207.19
253.329	223.19
253.562	197.19
253.795	216.19
254.028	194.19
254.261	194.19
254.494	224.19
254.727	219.19
254.96	256.19
255.193	241.19
255.426	235.19
255.659	225.19
255.892	226.19
256.124	220.19
256.357	216.19
256.59	228.19
256.823	202.19
257.056	201.19
257.289	209.19
257.521	201.19
257.754	208.19
257.987	204.19
258.22	197.19
258.452	197.19
258.685	192.19
258.918	205.19
259.151	184.19
259.383	229.19
259.616	205.19
259.849	207.19
260.081	223.19
260.314	254.19
260.547	257.19
260.779	240.19
261.012	226.19
261.244	213.19
261.477	215.19
261.71	206.19
261.942	218.19
262.175	238.19
262.407	196.19
262.64	211.19
262.872	217.19
263.105	223.19
263.337	229.19
263.57	216.19
263.802	195.19
264.035	217.19
264.267	199.19
264.499	215.19
264.732	197.19
264.964	203.19
265.197	208.19
265.429	206.19
265.661	211.19
265.894	215.19
266.126	227.19
266.358	220.19
266.591	204.19
266.823	223.19
267.055	201.19
267.287	210.19
267.52	221.19
267.752	208.19
267.984	219.19
268.216	201.19
268.448	211.19
268.681	233.19
268.913	234.19
269.145	250.19
269.377	251.19
269.609	252.19
269.841	244.19
270.073	238.19
270.306	261.19
270.538	275.19
270.77	287.19
271.002	280.19
271.234	268.19
271.466	269.19
271.698	280.19
271.93	303.19
272.162	292.19
272.394	313.19
272.626	292.19
272.858	274.19
273.09	280.19
273.322	263.19
273.553	247.19
273.785	240.19
274.017	262.19
274.249	255.19
274.481	241.19
274.713	249.19
274.945	274.19
275.176	259.19
275.408	259.19
275.64	258.19
275.872	255.19
276.104	253.19
276.335	243.19
276.567	259.19
276.799	271.19
277.031	273.19
277.262	306.19
277.494	303.19
277.726	285.19
277.957	290.19
278.189	256.19
278.421	268.19
278.652	266.19
278.884	263.19
279.115	273.19
279.347	268.19
279.579	267.19
279.81	266.19
280.042	260.19
280.273	268.19
280.505	268.19
280.736	251.19
280.968	271.19
281.199	253.19
281.431	252.19
281.662	283.19
281.894	270.19
282.125	264.19
282.356	276.19
282.588	282.19
282.819	296.19
283.051	263.19
283.282	242.19
283.513	279.19
283.745	262.19
283.976	244.19
284.207	276.19
284.439	271.19
284.67	275.19
284.901	271.19
285.132	290.19
285.364	260.19
285.595	269.19
285.826	253.19
286.057	272.19
286.288	279.19
286.52	271.19
286.751	283.19
286.982	265.19
287.213	270.19
287.444	269.19
287.675	267.19
287.906	278.19
288.138	291.19
288.369	305.19
288.6	287.19
288.831	286.19
289.062	283.19
289.293	292.19
289.524	272.19
289.755	293.19
289.986	283.19
290.217	281.19
290.448	280.19
290.679	280.19
290.91	280.19
291.141	289.19
291.371	273.19
291.602	285.19
291.833	277.19
292.064	295.19
292.295	281.19
292.526	283.19
292.757	271.19
292.987	275.19
293.218	288.19
293.449	298.19
293.68	276.19
293.91	307.19
294.141	287.19
294.372	273.19
294.603	287.19
294.833	289.19
295.064	289.19
295.295	268.19
295.525	281.19
295.756	307.19
295.987	297.19
296.217	307.19
296.448	335.19
296.679	304.19
296.909	281.19
297.14	284.19
297.37	295.19
297.601	291.19
297.831	287.19
298.062	301.19
298.292	299.19
298.523	306.19
298.753	329.19
298.984	304.19
299.214	289.19
299.445	312.19
299.675	305.19
299.905	307.19
300.136	309.19
300.366	310.19
300.597	312.19
300.827	315.19
301.057	321.19
301.288	318.19
301.518	303.19
301.748	315.19
301.979	319.19
302.209	306.19
302.439	337.19
302.669	335.19
302.9	321.19
303.13	325.19
303.36	311.19
303.59	338.19
303.82	312.19
304.051	327.19
304.281	336.19
304.511	326.19
304.741	306.19
304.971	319.19
305.201	321.19
305.431	321.19
305.661	341.19
305.891	331.19
306.121	314.19
306.352	321.19
306.582	321.19
306.812	316.19
307.042	320.19
307.272	312.19
307.502	332.19
307.731	309.19
307.961	355.19
308.191	328.19
308.421	302.19
308.651	314.19
308.881	335.19
309.111	353.19
309.341	344.19
309.571	338.19
309.8	348.19
310.03	359.19
310.26	361.19
310.49	357.19
310.72	360.19
310.949	393.19
311.179	398.19
311.409	363.19
311.639	361.19
311.868	367.19
312.098	376.19
312.328	350.19
312.557	388.19
312.787	397.19
313.017	399.19
313.246	357.19
313.476	371.19
313.706	364.19
313.935	363.19
314.165	375.19
314.394	399.19
314.624	393.19
314.853	361.19
315.083	369.19
315.312	368.19
315.542	391.19
315.771	353.19
316.001	366.19
316.23	345.19
316.46	372.19
316.689	358.19
316.919	359.19
317.148	376.19
317.377	372.19
317.607	367.19
317.836	369.19
318.065	366.19
318.295	365.19
318.524	385.19
318.753	366.19
318.983	373.19
319.212	368.19
319.441	370.19
319.67	388.19
319.9	397.19
320.129	365.19
320.358	387.19
320.587	382.19
320.816	402.19
321.046	381.19
321.275	380.19
321.504	386.19
321.733	395.19
321.962	392.19
322.191	410.19
322.42	401.19
322.649	441.19
322.878	446.19
323.108	440.19
323.337	453.19
323.566	474.19
323.795	510.19
324.024	550.19
324.253	633.19
324.482	930.19
324.71	1472.19
324.939	2219.19
325.168	1919.19
325.397	946.19
325.626	632.19
325.855	525.19
326.084	495.19
326.313	480.19
326.542	483.19
326.77	537.19
326.999	635.19
327.228	825.19
327.457	1311.19
327.686	1647.19
327.914	1082.19
328.143	693.19
328.372	600.19
328.6	543.19
328.829	551.19
329.058	533.19
329.287	575.19
329.515	525.19
329.744	506.19
329.972	481.19
330.201	495.19
330.43	550.19
330.658	572.19
330.887	572.19
331.115	562.19
331.344	523.19
331.572	465.19
331.801	476.19
332.03	479.19
332.258	460.19
332.486	469.19
332.715	444.19
332.943	449.19
333.172	453.19
333.4	448.19
333.629	439.19
333.857	483.19
334.085	473.19
334.314	492.19
334.542	515.19
334.771	507.19
334.999	507.19
335.227	477.19
335.455	464.19
335.684	438.19
335.912	453.19
336.14	457.19
336.369	445.19
336.597	460.19
336.825	479.19
337.053	469.19
337.281	430.19
337.51	460.19
337.738	424.19
337.966	443.19
338.194	447.19
338.422	421.19
338.65	433.19
338.878	416.19
339.106	428.19
339.334	441.19
339.562	419.19
339.79	444.19
340.018	411.19
340.246	440.19
340.474	435.19
340.702	441.19
340.93	415.19
341.158	418.19
341.386	414.19
341.614	427.19
341.842	429.19
342.07	420.19
342.298	429.19
342.526	420.19
342.754	422.19
342.981	412.19
343.209	417.19
343.437	416.19
343.665	415.19
343.893	439.19
344.12	452.19
344.348	443.19
344.576	450.19
344.804	415.19
345.031	453.19
345.259	453.19
345.487	447.19
345.714	465.19
345.942	447.19
346.17	420.19
346.397	395.19
346.625	404.19
346.853	427.19
347.08	435.19
347.308	422.19
347.535	432.19
347.763	429.19
347.99	420.19
348.218	423.19
348.445	439.19
348.673	430.19
348.9	420.19
349.128	422.19
349.355	411.19
349.583	400.19
349.81	418.19
350.037	414.19
350.265	413.19
350.492	399.19
350.72	414.19
350.947	431.19
351.174	425.19
351.402	411.19
351.629	423.19
351.856	414.19
352.083	433.19
352.311	433.19
352.538	440.19
352.765	431.19
352.992	433.19
353.22	410.19
353.447	430.19
353.674	419.19
353.901	393.19
354.128	391.19
354.355	388.19
354.583	417.19
354.81	410.19
355.037	397.19
355.264	413.19
355.491	382.19
355.718	403.19
355.945	405.19
356.172	412.19
356.399	409.19
356.626	404.19
356.853	386.19
357.08	392.19
357.307	396.19
357.534	392.19
357.761	378.19
357.988	402.19
358.215	391.19
358.441	400.19
358.668	407.19
358.895	403.19
359.122	388.19
359.349	421.19
359.576	439.19
359.802	417.19
360.029	468.19
360.256	474.19
360.483	462.19
360.709	435.19
360.936	428.19
361.163	418.19
361.39	423.19
361.616	421.19
361.843	402.19
362.07	412.19
362.296	441.19
362.523	412.19
362.749	417.19
362.976	431.19
363.203	435.19
363.429	392.19
363.656	429.19
363.882	402.19
364.109	425.19
364.335	404.19
364.562	385.19
364.788	406.19
365.015	395.19
365.241	428.19
365.468	412.19
365.694	414.19
365.92	420.19
366.147	431.19
366.373	409.19
366.599	401.19
366.826	400.19
367.052	412.19
367.278	417.19
367.505	394.19
367.731	415.19
367.957	403.19
368.184	411.19
368.41	403.19
368.636	428.19
368.862	425.19
369.089	421.19
369.315	412.19
369.541	423.19
369.767	406.19
369.993	403.19
370.219	403.19
370.445	411.19
370.672	415.19
370.898	410.19
371.124	401.19
371.35	423.19
371.576	397.19
371.802	439.19
372.028	403.19
372.254	415.19
372.48	393.19
372.706	423.19
372.932	426.19
373.158	411.19
373.384	418.19
373.61	418.19
373.835	416.19
374.061	405.19
374.287	420.19
374.513	424.19
374.739	416.19
374.965	424.19
375.191	432.19
375.416	447.19
375.642	425.19
375.868	433.19
376.094	417.19
376.319	404.19
376.545	401.19
376.771	413.19
376.997	401.19
377.222	418.19
377.448	439.19
377.674	406.19
377.899	413.19
378.125	427.19
378.35	391.19
378.576	393.19
378.802	402.19
379.027	397.19
379.253	420.19
379.478	431.19
379.704	402.19
379.929	416.19
380.155	427.19
380.38	415.19
380.606	426.19
380.831	410.19
381.057	409.19
381.282	412.19
381.507	413.19
381.733	418.19
381.958	405.19
382.184	433.19
382.409	422.19
382.634	443.19
382.86	422.19
383.085	431.19
383.31	441.19
383.535	419.19
383.761	447.19
383.986	431.19
384.211	436.19
384.436	445.19
384.662	445.19
384.887	436.19
385.112	436.19
385.337	441.19
385.562	454.19
385.787	450.19
386.013	469.19
386.238	479.19
386.463	462.19
386.688	440.19
386.913	452.19
387.138	468.19
387.363	455.19
387.588	459.19
387.813	457.19
388.038	441.19
388.263	473.19
388.488	481.19
388.713	462.19
388.938	460.19
389.163	449.19
389.387	464.19
389.612	459.19
389.837	458.19
390.062	474.19
390.287	467.19
390.512	458.19
390.736	495.19
390.961	463.19
391.186	464.19
391.411	465.19
391.636	482.19
391.86	493.19
392.085	475.19
392.31	469.19
392.534	493.19
392.759	506.19
392.984	484.19
393.208	472.19
393.433	473.19
393.658	466.19
393.882	483.19
394.107	473.19
394.331	454.19
394.556	462.19
394.78	463.19
395.005	479.19
395.229	482.19
395.454	484.19
395.678	486.19
395.903	491.19
396.127	487.19
396.352	533.19
396.576	487.19
396.801	487.19
397.025	495.19
397.249	506.19
397.474	504.19
397.698	493.19
397.922	531.19
398.147	536.19
398.371	549.19
398.595	532.19
398.82	507.19
399.044	534.19
399.268	543.19
399.492	594.19
399.717	625.19
399.941	628.19
400.165	647.19
400.389	667.19
400.613	609.19
400.837	581.19
401.062	581.19
401.286	532.19
401.51	579.19
401.734	554.19
401.958	553.19
402.182	543.19
402.406	553.19
402.63	584.19
402.854	538.19
403.078	549.19
403.302	561.19
403.526	551.19
403.75	583.19
403.974	580.19
404.198	545.19
404.422	568.19
404.645	575.19
404.869	566.19
405.093	613.19
405.317	631.19
405.541	658.19
405.765	611.19
405.988	585.19
406.212	594.19
406.436	595.19
406.66	621.19
406.883	611.19
407.107	624.19
407.331	658.19
407.555	741.19
407.778	735.19
408.002	675.19
408.226	622.19
408.449	628.19
408.673	601.19
408.896	649.19
409.12	685.19
409.344	640.19
409.567	593.19
409.791	577.19
410.014	574.19
410.238	575.19
410.461	572.19
410.685	572.19
410.908	603.19
411.132	627.19
411.355	647.19
411.578	631.19
411.802	560.19
412.025	567.19
412.249	563.19
412.472	583.19
412.695	637.19
412.919	614.19
413.142	567.19
413.365	564.19
413.589	547.19
413.812	536.19
414.035	546.19
414.258	548.19
414.482	537.19
414.705	550.19
414.928	543.19
415.151	550.19
415.374	545.19
415.597	534.19
415.821	541.19
416.044	553.19
416.267	532.19
416.49	531.19
416.713	540.19
416.936	525.19
417.159	527.19
417.382	525.19
417.605	519.19
417.828	551.19
418.051	579.19
418.274	531.19
418.497	526.19
418.72	533.19
418.943	508.19
419.166	551.19
419.389	595.19
419.611	583.19
419.834	579.19
420.057	575.19
420.28	577.19
420.503	555.19
420.726	547.19
420.948	546.19
421.171	617.19
421.394	620.19
421.617	571.19
421.839	557.19
422.062	557.19
422.285	569.19
422.507	625.19
422.73	708.19
422.953	681.19
423.175	603.19
423.398	563.19
423.621	592.19
423.843	583.19
424.066	583.19
424.288	572.19
424.511	610.19
424.733	660.19
424.956	747.19
425.178	737.19
425.401	722.19
425.623	759.19
425.846	622.19
426.068	587.19
426.291	593.19
426.513	602.19
426.735	601.19
426.958	639.19
427.18	711.19
427.402	871.19
427.625	955.19
427.847	819.19
428.069	690.19
428.292	620.19
428.514	597.19
428.736	594.19
428.958	577.19
429.181	545.19
429.403	548.19
429.625	572.19
429.847	589.19
430.069	642.19
430.292	667.19
430.514	570.19
430.736	559.19
430.958	558.19
431.18	537.19
431.402	521.19
431.624	516.19
431.846	525.19
432.068	535.19
432.29	535.19
432.512	539.19
432.734	533.19
432.956	545.19
433.178	521.19
433.4	541.19
433.622	542.19
433.844	553.19
434.066	527.19
434.287	533.19
434.509	536.19
434.731	534.19
434.953	546.19
435.175	546.19
435.397	586.19
435.618	583.19
435.84	641.19
436.062	733.19
436.284	824.19
436.505	691.19
436.727	589.19
436.949	575.19
437.17	558.19
437.392	546.19
437.614	578.19
437.835	587.19
438.057	692.19
438.278	827.19
438.5	762.19
438.721	879.19
438.943	858.19
439.165	665.19
439.386	617.19
439.608	591.19
439.829	593.19
440.05	625.19
440.272	669.19
440.493	618.19
440.715	557.19
440.936	573.19
441.158	553.19
441.379	548.19
441.6	573.19
441.822	585.19
442.043	638.19
442.264	712.19
442.486	751.19
442.707	624.19
442.928	608.19
443.149	607.19
443.371	631.19
443.592	673.19
443.813	778.19
444.034	867.19
444.255	671.19
444.476	629.19
444.698	607.19
444.919	601.19
445.14	705.19
445.361	663.19
445.582	632.19
445.803	689.19
446.024	792.19
446.245	840.19
446.466	733.19
446.687	641.19
446.908	568.19
447.129	538.19
447.35	554.19
447.571	560.19
447.792	551.19
448.013	554.19
448.234	553.19
448.455	612.19
448.675	731.19
448.896	867.19
449.117	751.19
449.338	672.19
449.559	807.19
449.779	932.19
450	725.19
450.221	592.19
450.442	545.19
450.662	528.19
450.883	536.19
451.104	564.19
451.324	545.19
451.545	532.19
451.766	511.19
451.986	501.19
452.207	494.19
452.428	480.19
452.648	494.19
452.869	483.19
453.089	499.19
453.31	484.19
453.53	494.19
453.751	487.19
453.971	495.19
454.192	506.19
454.412	477.19
454.633	509.19
454.853	481.19
455.073	499.19
455.294	522.19
455.514	583.19
455.734	599.19
455.955	509.19
456.175	471.19
456.395	461.19
456.616	488.19
456.836	476.19
457.056	469.19
457.276	466.19
457.497	465.19
457.717	472.19
457.937	474.19
458.157	467.19
458.377	473.19
458.598	524.19
458.818	547.19
459.038	636.19
459.258	681.19
459.478	570.19
459.698	545.19
459.918	526.19
460.138	550.19
460.358	540.19
460.578	541.19
460.798	531.19
461.018	535.19
461.238	543.19
461.458	556.19
461.678	557.19
461.898	552.19
462.118	524.19
462.338	568.19
462.558	551.19
462.777	566.19
462.997	571.19
463.217	590.19
463.437	609.19
463.657	586.19
463.876	571.19
464.096	597.19
464.316	577.19
464.536	584.19
464.755	559.19
464.975	558.19
465.195	615.19
465.414	656.19
465.634	592.19
465.854	558.19
466.073	545.19
466.293	538.19
466.512	531.19
466.732	496.19
466.951	487.19
467.171	534.19
467.391	504.19
467.61	519.19
467.829	514.19
468.049	519.19
468.268	500.19
468.488	507.19
468.707	483.19
468.927	483.19
469.146	511.19
469.365	515.19
469.585	484.19
469.804	513.19
470.023	519.19
470.243	525.19
470.462	508.19
470.681	520.19
470.901	568.19
471.12	495.19
471.339	532.19
471.558	508.19
471.777	512.19
471.997	511.19
472.216	526.19
472.435	553.19
472.654	534.19
472.873	522.19
473.092	500.19
473.311	527.19
473.53	509.19
473.749	540.19
473.968	572.19
474.187	656.19
474.406	699.19
474.625	561.19
474.844	517.19
475.063	511.19
475.282	494.19
475.501	496.19
475.72	512.19
475.939	550.19
476.158	533.19
476.377	520.19
476.596	529.19
476.814	538.19
477.033	563.19
477.252	550.19
477.471	549.19
477.69	527.19
477.908	563.19
478.127	571.19
478.346	558.19
478.564	566.19
478.783	559.19
479.002	561.19
479.22	573.19
479.439	614.19
479.658	613.19
479.876	642.19
480.095	632.19
480.313	657.19
480.532	644.19
480.751	636.19
480.969	620.19
481.188	669.19
481.406	705.19
481.624	669.19
481.843	629.19
482.061	618.19
482.28	610.19
482.498	614.19
482.717	600.19
482.935	611.19
483.153	594.19
483.372	603.19
483.59	602.19
483.808	601.19
484.027	588.19
484.245	610.19
484.463	611.19
484.681	605.19
484.9	601.19
485.118	616.19
485.336	610.19
485.554	618.19
485.772	607.19
485.99	613.19
486.209	617.19
486.427	610.19
486.645	612.19
486.863	665.19
487.081	622.19
487.299	635.19
487.517	651.19
487.735	640.19
487.953	648.19
488.171	638.19
488.389	646.19
488.607	631.19
488.825	651.19
489.043	633.19
489.261	654.19
489.479	636.19
489.696	655.19
489.914	671.19
490.132	655.19
490.35	674.19
490.568	661.19
490.786	675.19
491.003	688.19
491.221	662.19
491.439	717.19
491.657	713.19
491.874	724.19
492.092	704.19
492.31	717.19
492.527	731.19
492.745	697.19
492.963	717.19
493.18	711.19
493.398	736.19
493.615	749.19
493.833	746.19
494.05	766.19
494.268	739.19
494.485	738.19
494.703	732.19
494.92	755.19
495.138	744.19
495.355	762.19
495.573	747.19
495.79	747.19
496.008	747.19
496.225	752.19
496.442	755.19
496.66	766.19
496.877	737.19
497.094	767.19
497.312	768.19
497.529	794.19
497.746	785.19
497.963	807.19
498.181	833.19
498.398	817.19
498.615	870.19
498.832	888.19
499.049	884.19
499.267	939.19
499.484	925.19
499.701	961.19
499.918	1015.19
500.135	1053.19
500.352	1087.19
500.569	1087.19
500.786	1099.19
501.003	1072.19
501.22	1062.19
501.437	1018.19
501.654	978.19
501.871	978.19
