Data from 1978.PennyLincolnUp.Lamp.En5.5.200Scan.071719.P1_HRD10591_16-12-21-864.txt Node
Date: Thu Jul 18 16:12:21 EDT 2019
User: cochatt
Spectrometer: HR+D1059
Trigger mode: 1
Integration Time (sec): 1.000000E-1
Scans to average: 1
Electric dark correction enabled: true
Nonlinearity correction enabled: false
Boxcar width: 0
XAxis mode: Wavelengths
Number of Pixels in Spectrum: 2048
>>>>>Begin Spectral Data<<<<<
223.165	4.44
223.4	4.44
223.635	4.44
223.869	-28.56
224.104	-13.56
224.338	-19.56
224.573	-12.56
224.808	-10.56
225.042	-13.56
225.277	-15.56
225.511	5.44
225.746	10.44
225.98	-5.56
226.215	3.44
226.449	8.44
226.683	20.44
226.918	29.44
227.152	37.44
227.387	26.44
227.621	24.44
227.856	38.44
228.09	37.44
228.324	45.44
228.559	49.44
228.793	65.44
229.027	77.44
229.262	93.44
229.496	113.44
229.73	130.44
229.964	141.44
230.199	117.44
230.433	93.44
230.667	91.44
230.901	93.44
231.136	119.44
231.37	99.44
231.604	107.44
231.838	112.44
232.072	107.44
232.306	111.44
232.541	103.44
232.775	105.44
233.009	115.44
233.243	90.44
233.477	112.44
233.711	113.44
233.945	102.44
234.179	113.44
234.413	110.44
234.647	106.44
234.881	114.44
235.115	110.44
235.349	114.44
235.583	120.44
235.817	99.44
236.051	118.44
236.285	117.44
236.519	131.44
236.753	111.44
236.987	100.44
237.221	172.44
237.455	210.44
237.689	171.44
237.922	112.44
238.156	128.44
238.39	116.44
238.624	118.44
238.858	112.44
239.091	127.44
239.325	111.44
239.559	128.44
239.793	114.44
240.027	123.44
240.26	131.44
240.494	147.44
240.728	140.44
240.961	135.44
241.195	131.44
241.429	118.44
241.662	135.44
241.896	147.44
242.13	110.44
242.363	136.44
242.597	144.44
242.83	136.44
243.064	137.44
243.298	122.44
243.531	131.44
243.765	137.44
243.998	130.44
244.232	129.44
244.465	123.44
244.699	122.44
244.932	123.44
245.166	144.44
245.399	145.44
245.633	127.44
245.866	125.44
246.099	120.44
246.333	139.44
246.566	145.44
246.8	117.44
247.033	168.44
247.266	139.44
247.5	155.44
247.733	155.44
247.966	140.44
248.2	156.44
248.433	162.44
248.666	156.44
248.899	169.44
249.133	175.44
249.366	190.44
249.599	170.44
249.832	163.44
250.066	148.44
250.299	160.44
250.532	179.44
250.765	160.44
250.998	196.44
251.231	184.44
251.465	187.44
251.698	177.44
251.931	168.44
252.164	163.44
252.397	161.44
252.63	170.44
252.863	185.44
253.096	188.44
253.329	203.44
253.562	196.44
253.795	195.44
254.028	195.44
254.261	189.44
254.494	193.44
254.727	222.44
254.96	245.44
255.193	220.44
255.426	187.44
255.659	184.44
255.892	203.44
256.124	209.44
256.357	201.44
256.59	209.44
256.823	194.44
257.056	179.44
257.289	190.44
257.521	183.44
257.754	181.44
257.987	180.44
258.22	182.44
258.452	198.44
258.685	183.44
258.918	165.44
259.151	189.44
259.383	204.44
259.616	206.44
259.849	183.44
260.081	209.44
260.314	203.44
260.547	211.44
260.779	211.44
261.012	193.44
261.244	209.44
261.477	215.44
261.71	189.44
261.942	209.44
262.175	194.44
262.407	203.44
262.64	204.44
262.872	198.44
263.105	203.44
263.337	183.44
263.57	196.44
263.802	183.44
264.035	187.44
264.267	199.44
264.499	188.44
264.732	199.44
264.964	193.44
265.197	195.44
265.429	188.44
265.661	195.44
265.894	205.44
266.126	199.44
266.358	191.44
266.591	199.44
266.823	194.44
267.055	186.44
267.287	201.44
267.52	204.44
267.752	220.44
267.984	224.44
268.216	199.44
268.448	213.44
268.681	191.44
268.913	206.44
269.145	215.44
269.377	258.44
269.609	236.44
269.841	235.44
270.073	204.44
270.306	244.44
270.538	264.44
270.77	277.44
271.002	251.44
271.234	236.44
271.466	255.44
271.698	255.44
271.93	280.44
272.162	248.44
272.394	263.44
272.626	255.44
272.858	245.44
273.09	245.44
273.322	226.44
273.553	231.44
273.785	249.44
274.017	229.44
274.249	245.44
274.481	234.44
274.713	234.44
274.945	240.44
275.176	250.44
275.408	234.44
275.64	242.44
275.872	226.44
276.104	218.44
276.335	237.44
276.567	239.44
276.799	246.44
277.031	256.44
277.262	282.44
277.494	268.44
277.726	262.44
277.957	259.44
278.189	251.44
278.421	240.44
278.652	259.44
278.884	244.44
279.115	263.44
279.347	235.44
279.579	237.44
279.81	219.44
280.042	238.44
280.273	249.44
280.505	237.44
280.736	244.44
280.968	239.44
281.199	226.44
281.431	251.44
281.662	236.44
281.894	239.44
282.125	236.44
282.356	281.44
282.588	275.44
282.819	277.44
283.051	264.44
283.282	267.44
283.513	247.44
283.745	239.44
283.976	256.44
284.207	243.44
284.439	255.44
284.67	269.44
284.901	258.44
285.132	252.44
285.364	267.44
285.595	259.44
285.826	273.44
286.057	245.44
286.288	259.44
286.52	261.44
286.751	261.44
286.982	248.44
287.213	257.44
287.444	258.44
287.675	268.44
287.906	268.44
288.138	283.44
288.369	309.44
288.6	287.44
288.831	273.44
289.062	262.44
289.293	283.44
289.524	271.44
289.755	267.44
289.986	255.44
290.217	260.44
290.448	274.44
290.679	268.44
290.91	265.44
291.141	274.44
291.371	264.44
291.602	263.44
291.833	272.44
292.064	282.44
292.295	277.44
292.526	294.44
292.757	283.44
292.987	255.44
293.218	251.44
293.449	278.44
293.68	267.44
293.91	268.44
294.141	263.44
294.372	251.44
294.603	272.44
294.833	252.44
295.064	274.44
295.295	251.44
295.525	274.44
295.756	264.44
295.987	279.44
296.217	303.44
296.448	299.44
296.679	273.44
296.909	288.44
297.14	293.44
297.37	284.44
297.601	307.44
297.831	281.44
298.062	271.44
298.292	280.44
298.523	290.44
298.753	279.44
298.984	291.44
299.214	306.44
299.445	277.44
299.675	291.44
299.905	271.44
300.136	288.44
300.366	295.44
300.597	295.44
300.827	286.44
301.057	298.44
301.288	316.44
301.518	317.44
301.748	291.44
301.979	303.44
302.209	306.44
302.439	303.44
302.669	273.44
302.9	297.44
303.13	290.44
303.36	304.44
303.59	309.44
303.82	315.44
304.051	315.44
304.281	317.44
304.511	298.44
304.741	297.44
304.971	301.44
305.201	318.44
305.431	305.44
305.661	314.44
305.891	297.44
306.121	313.44
306.352	287.44
306.582	315.44
306.812	311.44
307.042	308.44
307.272	317.44
307.502	303.44
307.731	332.44
307.961	310.44
308.191	318.44
308.421	298.44
308.651	327.44
308.881	313.44
309.111	319.44
309.341	329.44
309.571	340.44
309.8	332.44
310.03	325.44
310.26	333.44
310.49	330.44
310.72	349.44
310.949	349.44
311.179	338.44
311.409	356.44
311.639	343.44
311.868	344.44
312.098	325.44
312.328	369.44
312.557	356.44
312.787	367.44
313.017	345.44
313.246	355.44
313.476	351.44
313.706	325.44
313.935	354.44
314.165	352.44
314.394	361.44
314.624	352.44
314.853	368.44
315.083	363.44
315.312	345.44
315.542	313.44
315.771	327.44
316.001	338.44
316.23	353.44
316.46	339.44
316.689	351.44
316.919	364.44
317.148	362.44
317.377	341.44
317.607	343.44
317.836	359.44
318.065	348.44
318.295	324.44
318.524	330.44
318.753	334.44
318.983	348.44
319.212	341.44
319.441	352.44
319.67	360.44
319.9	358.44
320.129	357.44
320.358	347.44
320.587	348.44
320.816	347.44
321.046	351.44
321.275	348.44
321.504	371.44
321.733	345.44
321.962	373.44
322.191	381.44
322.42	390.44
322.649	411.44
322.878	383.44
323.108	417.44
323.337	426.44
323.566	445.44
323.795	465.44
324.024	511.44
324.253	589.44
324.482	852.44
324.71	1305.44
324.939	1984.44
325.168	1731.44
325.397	859.44
325.626	574.44
325.855	512.44
326.084	457.44
326.313	453.44
326.542	443.44
326.77	471.44
326.999	555.44
327.228	748.44
327.457	1139.44
327.686	1464.44
327.914	983.44
328.143	629.44
328.372	519.44
328.6	503.44
328.829	487.44
329.058	498.44
329.287	529.44
329.515	479.44
329.744	443.44
329.972	455.44
330.201	467.44
330.43	484.44
330.658	505.44
330.887	558.44
331.115	521.44
331.344	469.44
331.572	452.44
331.801	441.44
332.03	433.44
332.258	432.44
332.486	423.44
332.715	425.44
332.943	432.44
333.172	425.44
333.4	407.44
333.629	425.44
333.857	452.44
334.085	435.44
334.314	449.44
334.542	484.44
334.771	495.44
334.999	464.44
335.227	453.44
335.455	421.44
335.684	435.44
335.912	438.44
336.14	413.44
336.369	425.44
336.597	418.44
336.825	418.44
337.053	433.44
337.281	396.44
337.51	409.44
337.738	400.44
337.966	415.44
338.194	402.44
338.422	411.44
338.65	410.44
338.878	444.44
339.106	421.44
339.334	407.44
339.562	383.44
339.79	412.44
340.018	395.44
340.246	395.44
340.474	404.44
340.702	405.44
340.93	403.44
341.158	381.44
341.386	391.44
341.614	411.44
341.842	406.44
342.07	408.44
342.298	387.44
342.526	392.44
342.754	394.44
342.981	386.44
343.209	391.44
343.437	406.44
343.665	425.44
343.893	421.44
344.12	436.44
344.348	427.44
344.576	424.44
344.804	440.44
345.031	415.44
345.259	415.44
345.487	407.44
345.714	415.44
345.942	407.44
346.17	401.44
346.397	381.44
346.625	395.44
346.853	412.44
347.08	390.44
347.308	391.44
347.535	392.44
347.763	392.44
347.99	386.44
348.218	410.44
348.445	401.44
348.673	400.44
348.9	394.44
349.128	373.44
349.355	372.44
349.583	380.44
349.81	377.44
350.037	395.44
350.265	384.44
350.492	389.44
350.72	380.44
350.947	390.44
351.174	410.44
351.402	397.44
351.629	401.44
351.856	396.44
352.083	401.44
352.311	397.44
352.538	390.44
352.765	417.44
352.992	403.44
353.22	393.44
353.447	397.44
353.674	393.44
353.901	381.44
354.128	364.44
354.355	378.44
354.583	375.44
354.81	365.44
355.037	358.44
355.264	375.44
355.491	357.44
355.718	374.44
355.945	397.44
356.172	370.44
356.399	371.44
356.626	354.44
356.853	363.44
357.08	384.44
357.307	381.44
357.534	381.44
357.761	381.44
357.988	403.44
358.215	369.44
358.441	399.44
358.668	376.44
358.895	405.44
359.122	397.44
359.349	385.44
359.576	413.44
359.802	411.44
360.029	428.44
360.256	417.44
360.483	428.44
360.709	405.44
360.936	407.44
361.163	406.44
361.39	394.44
361.616	402.44
361.843	393.44
362.07	426.44
362.296	412.44
362.523	381.44
362.749	415.44
362.976	383.44
363.203	401.44
363.429	374.44
363.656	380.44
363.882	387.44
364.109	378.44
364.335	386.44
364.562	368.44
364.788	383.44
365.015	387.44
365.241	385.44
365.468	388.44
365.694	396.44
365.92	384.44
366.147	393.44
366.373	376.44
366.599	368.44
366.826	390.44
367.052	375.44
367.278	379.44
367.505	360.44
367.731	398.44
367.957	375.44
368.184	395.44
368.41	368.44
368.636	387.44
368.862	402.44
369.089	427.44
369.315	387.44
369.541	388.44
369.767	386.44
369.993	371.44
370.219	385.44
370.445	399.44
370.672	388.44
370.898	387.44
371.124	392.44
371.35	395.44
371.576	397.44
371.802	394.44
372.028	384.44
372.254	394.44
372.48	382.44
372.706	413.44
372.932	387.44
373.158	390.44
373.384	392.44
373.61	392.44
373.835	386.44
374.061	396.44
374.287	398.44
374.513	407.44
374.739	409.44
374.965	394.44
375.191	415.44
375.416	406.44
375.642	385.44
375.868	388.44
376.094	391.44
376.319	392.44
376.545	411.44
376.771	399.44
376.997	395.44
377.222	416.44
377.448	398.44
377.674	392.44
377.899	397.44
378.125	384.44
378.35	376.44
378.576	386.44
378.802	375.44
379.027	387.44
379.253	403.44
379.478	387.44
379.704	394.44
379.929	399.44
380.155	409.44
380.38	391.44
380.606	393.44
380.831	382.44
381.057	391.44
381.282	400.44
381.507	411.44
381.733	418.44
381.958	415.44
382.184	404.44
382.409	397.44
382.634	432.44
382.86	413.44
383.085	405.44
383.31	427.44
383.535	408.44
383.761	433.44
383.986	421.44
384.211	410.44
384.436	404.44
384.662	408.44
384.887	434.44
385.112	431.44
385.337	425.44
385.562	444.44
385.787	451.44
386.013	442.44
386.238	460.44
386.463	425.44
386.688	435.44
386.913	426.44
387.138	435.44
387.363	452.44
387.588	438.44
387.813	458.44
388.038	434.44
388.263	440.44
388.488	438.44
388.713	449.44
388.938	456.44
389.163	418.44
389.387	441.44
389.612	448.44
389.837	450.44
390.062	451.44
390.287	438.44
390.512	439.44
390.736	433.44
390.961	449.44
391.186	433.44
391.411	455.44
391.636	451.44
391.86	460.44
392.085	467.44
392.31	480.44
392.534	476.44
392.759	454.44
392.984	451.44
393.208	462.44
393.433	442.44
393.658	464.44
393.882	459.44
394.107	445.44
394.331	455.44
394.556	440.44
394.78	452.44
395.005	451.44
395.229	451.44
395.454	484.44
395.678	465.44
395.903	476.44
396.127	497.44
396.352	485.44
396.576	476.44
396.801	457.44
397.025	467.44
397.249	473.44
397.474	476.44
397.698	464.44
397.922	491.44
398.147	508.44
398.371	513.44
398.595	503.44
398.82	499.44
399.044	554.44
399.268	556.44
399.492	563.44
399.717	571.44
399.941	598.44
400.165	621.44
400.389	643.44
400.613	596.44
400.837	572.44
401.062	562.44
401.286	540.44
401.51	526.44
401.734	523.44
401.958	519.44
402.182	556.44
402.406	546.44
402.63	524.44
402.854	535.44
403.078	539.44
403.302	508.44
403.526	509.44
403.75	532.44
403.974	567.44
404.198	525.44
404.422	542.44
404.645	513.44
404.869	552.44
405.093	587.44
405.317	614.44
405.541	623.44
405.765	571.44
405.988	556.44
406.212	587.44
406.436	593.44
406.66	600.44
406.883	567.44
407.107	600.44
407.331	650.44
407.555	731.44
407.778	714.44
408.002	644.44
408.226	593.44
408.449	605.44
408.673	586.44
408.896	631.44
409.12	653.44
409.344	643.44
409.567	553.44
409.791	561.44
410.014	571.44
410.238	560.44
410.461	552.44
410.685	553.44
410.908	563.44
411.132	595.44
411.355	624.44
411.578	594.44
411.802	551.44
412.025	561.44
412.249	551.44
412.472	554.44
412.695	564.44
412.919	594.44
413.142	538.44
413.365	549.44
413.589	517.44
413.812	518.44
414.035	492.44
414.258	523.44
414.482	525.44
414.705	494.44
414.928	515.44
415.151	505.44
415.374	490.44
415.597	511.44
415.821	482.44
416.044	524.44
416.267	507.44
416.49	517.44
416.713	493.44
416.936	521.44
417.159	492.44
417.382	517.44
417.605	521.44
417.828	515.44
418.051	537.44
418.274	539.44
418.497	523.44
418.72	514.44
418.943	513.44
419.166	561.44
419.389	572.44
419.611	544.44
419.834	537.44
420.057	541.44
420.28	514.44
420.503	524.44
420.726	531.44
420.948	533.44
421.171	572.44
421.394	572.44
421.617	541.44
421.839	524.44
422.062	500.44
422.285	554.44
422.507	596.44
422.73	648.44
422.953	633.44
423.175	570.44
423.398	531.44
423.621	533.44
423.843	567.44
424.066	568.44
424.288	567.44
424.511	561.44
424.733	624.44
424.956	708.44
425.178	663.44
425.401	673.44
425.623	665.44
425.846	612.44
426.068	559.44
426.291	538.44
426.513	539.44
426.735	567.44
426.958	584.44
427.18	667.44
427.402	805.44
427.625	917.44
427.847	756.44
428.069	670.44
428.292	603.44
428.514	559.44
428.736	544.44
428.958	540.44
429.181	511.44
429.403	489.44
429.625	525.44
429.847	537.44
430.069	611.44
430.292	607.44
430.514	514.44
430.736	529.44
430.958	502.44
431.18	487.44
431.402	514.44
431.624	495.44
431.846	499.44
432.068	481.44
432.29	498.44
432.512	505.44
432.734	502.44
432.956	504.44
433.178	511.44
433.4	511.44
433.622	524.44
433.844	486.44
434.066	508.44
434.287	495.44
434.509	514.44
434.731	509.44
434.953	515.44
435.175	544.44
435.397	548.44
435.618	565.44
435.84	588.44
436.062	691.44
436.284	779.44
436.505	642.44
436.727	564.44
436.949	540.44
437.17	526.44
437.392	517.44
437.614	545.44
437.835	543.44
438.057	631.44
438.278	740.44
438.5	746.44
438.721	845.44
438.943	797.44
439.165	636.44
439.386	568.44
439.608	563.44
439.829	543.44
440.05	597.44
440.272	640.44
440.493	590.44
440.715	533.44
440.936	532.44
441.158	522.44
441.379	525.44
441.6	524.44
441.822	557.44
442.043	579.44
442.264	667.44
442.486	737.44
442.707	626.44
442.928	577.44
443.149	563.44
443.371	608.44
443.592	620.44
443.813	717.44
444.034	784.44
444.255	635.44
444.476	594.44
444.698	570.44
444.919	573.44
445.14	666.44
445.361	615.44
445.582	595.44
445.803	634.44
446.024	752.44
446.245	777.44
446.466	688.44
446.687	586.44
446.908	553.44
447.129	526.44
447.35	516.44
447.571	515.44
447.792	541.44
448.013	520.44
448.234	524.44
448.455	562.44
448.675	697.44
448.896	837.44
449.117	671.44
449.338	640.44
449.559	760.44
449.779	855.44
450	661.44
450.221	563.44
450.442	530.44
450.662	521.44
450.883	511.44
451.104	516.44
451.324	515.44
451.545	493.44
451.766	477.44
451.986	471.44
452.207	482.44
452.428	466.44
452.648	452.44
452.869	466.44
453.089	477.44
453.31	473.44
453.53	462.44
453.751	465.44
453.971	486.44
454.192	463.44
454.412	476.44
454.633	475.44
454.853	458.44
455.073	459.44
455.294	473.44
455.514	543.44
455.734	533.44
455.955	470.44
456.175	452.44
456.395	442.44
456.616	437.44
456.836	456.44
457.056	442.44
457.276	443.44
457.497	461.44
457.717	451.44
457.937	470.44
458.157	481.44
458.377	446.44
458.598	491.44
458.818	532.44
459.038	591.44
459.258	607.44
459.478	550.44
459.698	504.44
459.918	512.44
460.138	519.44
460.358	541.44
460.578	523.44
460.798	523.44
461.018	541.44
461.238	546.44
461.458	513.44
461.678	500.44
461.898	522.44
462.118	529.44
462.338	547.44
462.558	532.44
462.777	543.44
462.997	570.44
463.217	553.44
463.437	567.44
463.657	556.44
463.876	547.44
464.096	557.44
464.316	563.44
464.536	572.44
464.755	542.44
464.975	554.44
465.195	588.44
465.414	626.44
465.634	580.44
465.854	548.44
466.073	522.44
466.293	514.44
466.512	499.44
466.732	490.44
466.951	495.44
467.171	474.44
467.391	508.44
467.61	481.44
467.829	500.44
468.049	519.44
468.268	478.44
468.488	493.44
468.707	505.44
468.927	473.44
469.146	456.44
469.365	480.44
469.585	483.44
469.804	468.44
470.023	497.44
470.243	477.44
470.462	507.44
470.681	513.44
470.901	516.44
471.12	499.44
471.339	500.44
471.558	491.44
471.777	497.44
471.997	480.44
472.216	493.44
472.435	499.44
472.654	504.44
472.873	489.44
473.092	479.44
473.311	489.44
473.53	490.44
473.749	502.44
473.968	532.44
474.187	623.44
474.406	637.44
474.625	546.44
474.844	484.44
475.063	516.44
475.282	491.44
475.501	496.44
475.72	491.44
475.939	516.44
476.158	511.44
476.377	505.44
476.596	529.44
476.814	513.44
477.033	538.44
477.252	517.44
477.471	521.44
477.69	544.44
477.908	543.44
478.127	536.44
478.346	541.44
478.564	570.44
478.783	548.44
479.002	564.44
479.22	568.44
479.439	586.44
479.658	585.44
479.876	582.44
480.095	610.44
480.313	635.44
480.532	631.44
480.751	590.44
480.969	613.44
481.188	650.44
481.406	675.44
481.624	625.44
481.843	579.44
482.061	599.44
482.28	579.44
482.498	590.44
482.717	561.44
482.935	578.44
483.153	572.44
483.372	589.44
483.59	584.44
483.808	559.44
484.027	566.44
484.245	575.44
484.463	590.44
484.681	567.44
484.9	576.44
485.118	592.44
485.336	604.44
485.554	585.44
485.772	598.44
485.99	604.44
486.209	625.44
486.427	577.44
486.645	607.44
486.863	644.44
487.081	607.44
487.299	611.44
487.517	627.44
487.735	596.44
487.953	616.44
488.171	605.44
488.389	611.44
488.607	612.44
488.825	606.44
489.043	628.44
489.261	611.44
489.479	621.44
489.696	610.44
489.914	611.44
490.132	610.44
490.35	631.44
490.568	631.44
490.786	656.44
491.003	646.44
491.221	644.44
491.439	668.44
491.657	659.44
491.874	680.44
492.092	664.44
492.31	667.44
492.527	680.44
492.745	690.44
492.963	683.44
493.18	675.44
493.398	663.44
493.615	682.44
493.833	701.44
494.05	679.44
494.268	711.44
494.485	695.44
494.703	715.44
494.92	691.44
495.138	703.44
495.355	697.44
495.573	716.44
495.79	701.44
496.008	719.44
496.225	706.44
496.442	701.44
496.66	727.44
496.877	721.44
497.094	732.44
497.312	729.44
497.529	743.44
497.746	767.44
497.963	761.44
498.181	779.44
498.398	783.44
498.615	817.44
498.832	859.44
499.049	839.44
499.267	872.44
499.484	889.44
499.701	922.44
499.918	944.44
500.135	1012.44
500.352	1039.44
500.569	1079.44
500.786	1068.44
501.003	1078.44
501.22	1032.44
501.437	971.44
501.654	957.44
501.871	950.44
502.088	914.44
