Data from 1978.PennyLincolnUp.Lamp.En5.5.200Scan.071719.P1_HRD10591_16-12-27-865.txt Node
Date: Thu Jul 18 16:12:27 EDT 2019
User: cochatt
Spectrometer: HR+D1059
Trigger mode: 1
Integration Time (sec): 1.000000E-1
Scans to average: 1
Electric dark correction enabled: true
Nonlinearity correction enabled: false
Boxcar width: 0
XAxis mode: Wavelengths
Number of Pixels in Spectrum: 2048
>>>>>Begin Spectral Data<<<<<
223.165	-12.5
223.4	-12.5
223.635	-12.5
223.869	-18.5
224.104	-22.5
224.338	-20.5
224.573	-9.5
224.808	-26.5
225.042	-5.5
225.277	7.5
225.511	-3.5
225.746	-7.5
225.98	13.5
226.215	8.5
226.449	11.5
226.683	14.5
226.918	33.5
227.152	37.5
227.387	49.5
227.621	30.5
227.856	41.5
228.09	44.5
228.324	60.5
228.559	55.5
228.793	71.5
229.027	95.5
229.262	111.5
229.496	105.5
229.73	123.5
229.964	140.5
230.199	134.5
230.433	132.5
230.667	130.5
230.901	105.5
231.136	97.5
231.37	113.5
231.604	116.5
231.838	115.5
232.072	106.5
232.306	101.5
232.541	87.5
232.775	105.5
233.009	109.5
233.243	116.5
233.477	125.5
233.711	112.5
233.945	112.5
234.179	122.5
234.413	121.5
234.647	131.5
234.881	130.5
235.115	117.5
235.349	120.5
235.583	118.5
235.817	124.5
236.051	127.5
236.285	125.5
236.519	149.5
236.753	125.5
236.987	131.5
237.221	172.5
237.455	217.5
237.689	174.5
237.922	149.5
238.156	129.5
238.39	131.5
238.624	125.5
238.858	113.5
239.091	111.5
239.325	103.5
239.559	122.5
239.793	123.5
240.027	131.5
240.26	140.5
240.494	141.5
240.728	149.5
240.961	153.5
241.195	137.5
241.429	132.5
241.662	124.5
241.896	132.5
242.13	138.5
242.363	143.5
242.597	120.5
242.83	136.5
243.064	149.5
243.298	134.5
243.531	125.5
243.765	139.5
243.998	144.5
244.232	142.5
244.465	154.5
244.699	154.5
244.932	130.5
245.166	152.5
245.399	151.5
245.633	136.5
245.866	149.5
246.099	137.5
246.333	135.5
246.566	143.5
246.8	144.5
247.033	151.5
247.266	148.5
247.5	158.5
247.733	159.5
247.966	171.5
248.2	166.5
248.433	150.5
248.666	160.5
248.899	158.5
249.133	183.5
249.366	171.5
249.599	190.5
249.832	171.5
250.066	170.5
250.299	164.5
250.532	184.5
250.765	183.5
250.998	191.5
251.231	194.5
251.465	185.5
251.698	192.5
251.931	200.5
252.164	192.5
252.397	181.5
252.63	174.5
252.863	181.5
253.096	187.5
253.329	209.5
253.562	224.5
253.795	195.5
254.028	205.5
254.261	186.5
254.494	204.5
254.727	223.5
254.96	235.5
255.193	225.5
255.426	228.5
255.659	200.5
255.892	228.5
256.124	214.5
256.357	213.5
256.59	209.5
256.823	203.5
257.056	198.5
257.289	188.5
257.521	183.5
257.754	200.5
257.987	197.5
258.22	187.5
258.452	208.5
258.685	199.5
258.918	183.5
259.151	183.5
259.383	188.5
259.616	199.5
259.849	206.5
260.081	224.5
260.314	227.5
260.547	223.5
260.779	223.5
261.012	209.5
261.244	195.5
261.477	222.5
261.71	203.5
261.942	204.5
262.175	218.5
262.407	217.5
262.64	198.5
262.872	205.5
263.105	208.5
263.337	204.5
263.57	215.5
263.802	197.5
264.035	195.5
264.267	200.5
264.499	202.5
264.732	195.5
264.964	200.5
265.197	208.5
265.429	215.5
265.661	193.5
265.894	221.5
266.126	222.5
266.358	192.5
266.591	207.5
266.823	204.5
267.055	216.5
267.287	216.5
267.52	203.5
267.752	215.5
267.984	204.5
268.216	204.5
268.448	207.5
268.681	214.5
268.913	221.5
269.145	251.5
269.377	255.5
269.609	257.5
269.841	242.5
270.073	266.5
270.306	276.5
270.538	287.5
270.77	273.5
271.002	264.5
271.234	276.5
271.466	257.5
271.698	279.5
271.93	294.5
272.162	273.5
272.394	281.5
272.626	277.5
272.858	252.5
273.09	247.5
273.322	251.5
273.553	250.5
273.785	242.5
274.017	267.5
274.249	246.5
274.481	240.5
274.713	244.5
274.945	257.5
275.176	263.5
275.408	251.5
275.64	233.5
275.872	245.5
276.104	269.5
276.335	249.5
276.567	259.5
276.799	249.5
277.031	278.5
277.262	288.5
277.494	311.5
277.726	279.5
277.957	273.5
278.189	256.5
278.421	262.5
278.652	249.5
278.884	266.5
279.115	272.5
279.347	279.5
279.579	260.5
279.81	259.5
280.042	260.5
280.273	255.5
280.505	266.5
280.736	255.5
280.968	243.5
281.199	248.5
281.431	264.5
281.662	251.5
281.894	258.5
282.125	250.5
282.356	286.5
282.588	288.5
282.819	293.5
283.051	266.5
283.282	259.5
283.513	237.5
283.745	252.5
283.976	255.5
284.207	280.5
284.439	267.5
284.67	259.5
284.901	272.5
285.132	269.5
285.364	285.5
285.595	275.5
285.826	287.5
286.057	262.5
286.288	278.5
286.52	270.5
286.751	277.5
286.982	277.5
287.213	259.5
287.444	290.5
287.675	276.5
287.906	288.5
288.138	282.5
288.369	291.5
288.6	301.5
288.831	272.5
289.062	285.5
289.293	287.5
289.524	271.5
289.755	282.5
289.986	281.5
290.217	283.5
290.448	297.5
290.679	284.5
290.91	294.5
291.141	299.5
291.371	287.5
291.602	270.5
291.833	276.5
292.064	287.5
292.295	271.5
292.526	283.5
292.757	269.5
292.987	273.5
293.218	284.5
293.449	279.5
293.68	271.5
293.91	289.5
294.141	263.5
294.372	271.5
294.603	288.5
294.833	283.5
295.064	292.5
295.295	281.5
295.525	273.5
295.756	298.5
295.987	289.5
296.217	292.5
296.448	316.5
296.679	299.5
296.909	301.5
297.14	310.5
297.37	301.5
297.601	275.5
297.831	288.5
298.062	279.5
298.292	301.5
298.523	310.5
298.753	295.5
298.984	293.5
299.214	312.5
299.445	304.5
299.675	311.5
299.905	314.5
300.136	320.5
300.366	317.5
300.597	297.5
300.827	300.5
301.057	322.5
301.288	324.5
301.518	310.5
301.748	318.5
301.979	303.5
302.209	311.5
302.439	325.5
302.669	310.5
302.9	321.5
303.13	304.5
303.36	325.5
303.59	300.5
303.82	322.5
304.051	325.5
304.281	313.5
304.511	326.5
304.741	322.5
304.971	317.5
305.201	326.5
305.431	334.5
305.661	317.5
305.891	324.5
306.121	307.5
306.352	328.5
306.582	321.5
306.812	337.5
307.042	320.5
307.272	321.5
307.502	345.5
307.731	317.5
307.961	327.5
308.191	310.5
308.421	345.5
308.651	315.5
308.881	315.5
309.111	318.5
309.341	346.5
309.571	348.5
309.8	338.5
310.03	329.5
310.26	350.5
310.49	365.5
310.72	358.5
310.949	356.5
311.179	377.5
311.409	365.5
311.639	343.5
311.868	376.5
312.098	360.5
312.328	379.5
312.557	385.5
312.787	399.5
313.017	400.5
313.246	377.5
313.476	349.5
313.706	375.5
313.935	374.5
314.165	386.5
314.394	382.5
314.624	374.5
314.853	360.5
315.083	371.5
315.312	365.5
315.542	356.5
315.771	330.5
316.001	351.5
316.23	354.5
316.46	371.5
316.689	368.5
316.919	353.5
317.148	363.5
317.377	371.5
317.607	358.5
317.836	355.5
318.065	362.5
318.295	364.5
318.524	350.5
318.753	359.5
318.983	365.5
319.212	376.5
319.441	393.5
319.67	366.5
319.9	371.5
320.129	378.5
320.358	369.5
320.587	371.5
320.816	379.5
321.046	386.5
321.275	377.5
321.504	386.5
321.733	399.5
321.962	391.5
322.191	414.5
322.42	393.5
322.649	408.5
322.878	428.5
323.108	428.5
323.337	445.5
323.566	476.5
323.795	484.5
324.024	524.5
324.253	629.5
324.482	887.5
324.71	1388.5
324.939	2111.5
325.168	1805.5
325.397	910.5
325.626	604.5
325.855	540.5
326.084	460.5
326.313	478.5
326.542	462.5
326.77	510.5
326.999	589.5
327.228	812.5
327.457	1214.5
327.686	1583.5
327.914	1023.5
328.143	658.5
328.372	591.5
328.6	533.5
328.829	515.5
329.058	535.5
329.287	539.5
329.515	481.5
329.744	474.5
329.972	488.5
330.201	487.5
330.43	539.5
330.658	546.5
330.887	552.5
331.115	534.5
331.344	488.5
331.572	467.5
331.801	462.5
332.03	463.5
332.258	442.5
332.486	439.5
332.715	442.5
332.943	450.5
333.172	430.5
333.4	452.5
333.629	465.5
333.857	467.5
334.085	465.5
334.314	493.5
334.542	491.5
334.771	513.5
334.999	480.5
335.227	464.5
335.455	452.5
335.684	452.5
335.912	464.5
336.14	460.5
336.369	440.5
336.597	455.5
336.825	447.5
337.053	449.5
337.281	438.5
337.51	424.5
337.738	428.5
337.966	413.5
338.194	437.5
338.422	446.5
338.65	445.5
338.878	444.5
339.106	432.5
339.334	415.5
339.562	432.5
339.79	439.5
340.018	427.5
340.246	420.5
340.474	444.5
340.702	439.5
340.93	438.5
341.158	411.5
341.386	415.5
341.614	430.5
341.842	429.5
342.07	406.5
342.298	396.5
342.526	413.5
342.754	415.5
342.981	419.5
343.209	413.5
343.437	443.5
343.665	432.5
343.893	425.5
344.12	435.5
344.348	455.5
344.576	447.5
344.804	433.5
345.031	433.5
345.259	461.5
345.487	427.5
345.714	423.5
345.942	427.5
346.17	408.5
346.397	418.5
346.625	415.5
346.853	399.5
347.08	411.5
347.308	407.5
347.535	423.5
347.763	426.5
347.99	420.5
348.218	419.5
348.445	420.5
348.673	439.5
348.9	433.5
349.128	424.5
349.355	399.5
349.583	422.5
349.81	380.5
350.037	388.5
350.265	408.5
350.492	389.5
350.72	393.5
350.947	422.5
351.174	423.5
351.402	425.5
351.629	436.5
351.856	419.5
352.083	415.5
352.311	420.5
352.538	415.5
352.765	422.5
352.992	444.5
353.22	412.5
353.447	416.5
353.674	401.5
353.901	410.5
354.128	406.5
354.355	391.5
354.583	405.5
354.81	378.5
355.037	396.5
355.264	397.5
355.491	395.5
355.718	396.5
355.945	380.5
356.172	403.5
356.399	383.5
356.626	416.5
356.853	390.5
357.08	392.5
357.307	404.5
357.534	397.5
357.761	387.5
357.988	395.5
358.215	403.5
358.441	400.5
358.668	387.5
358.895	392.5
359.122	383.5
359.349	413.5
359.576	439.5
359.802	423.5
360.029	449.5
360.256	451.5
360.483	429.5
360.709	413.5
360.936	409.5
361.163	415.5
361.39	430.5
361.616	432.5
361.843	417.5
362.07	422.5
362.296	428.5
362.523	420.5
362.749	413.5
362.976	387.5
363.203	411.5
363.429	400.5
363.656	407.5
363.882	409.5
364.109	412.5
364.335	397.5
364.562	411.5
364.788	408.5
365.015	426.5
365.241	423.5
365.468	403.5
365.694	406.5
365.92	409.5
366.147	402.5
366.373	414.5
366.599	404.5
366.826	424.5
367.052	413.5
367.278	407.5
367.505	393.5
367.731	410.5
367.957	417.5
368.184	404.5
368.41	407.5
368.636	421.5
368.862	431.5
369.089	430.5
369.315	419.5
369.541	424.5
369.767	429.5
369.993	393.5
370.219	401.5
370.445	406.5
370.672	406.5
370.898	413.5
371.124	406.5
371.35	412.5
371.576	421.5
371.802	401.5
372.028	406.5
372.254	406.5
372.48	445.5
372.706	410.5
372.932	427.5
373.158	404.5
373.384	433.5
373.61	421.5
373.835	404.5
374.061	428.5
374.287	432.5
374.513	436.5
374.739	429.5
374.965	437.5
375.191	423.5
375.416	427.5
375.642	408.5
375.868	420.5
376.094	428.5
376.319	429.5
376.545	413.5
376.771	412.5
376.997	431.5
377.222	409.5
377.448	400.5
377.674	432.5
377.899	417.5
378.125	416.5
378.35	413.5
378.576	411.5
378.802	392.5
379.027	409.5
379.253	400.5
379.478	409.5
379.704	399.5
379.929	428.5
380.155	422.5
380.38	400.5
380.606	412.5
380.831	429.5
381.057	409.5
381.282	389.5
381.507	437.5
381.733	412.5
381.958	432.5
382.184	406.5
382.409	423.5
382.634	442.5
382.86	427.5
383.085	415.5
383.31	439.5
383.535	439.5
383.761	417.5
383.986	436.5
384.211	428.5
384.436	437.5
384.662	453.5
384.887	457.5
385.112	457.5
385.337	456.5
385.562	442.5
385.787	425.5
386.013	482.5
386.238	448.5
386.463	482.5
386.688	456.5
386.913	452.5
387.138	451.5
387.363	460.5
387.588	457.5
387.813	456.5
388.038	460.5
388.263	466.5
388.488	462.5
388.713	454.5
388.938	459.5
389.163	473.5
389.387	491.5
389.612	449.5
389.837	455.5
390.062	451.5
390.287	474.5
390.512	468.5
390.736	455.5
390.961	485.5
391.186	466.5
391.411	479.5
391.636	481.5
391.86	488.5
392.085	470.5
392.31	483.5
392.534	469.5
392.759	476.5
392.984	479.5
393.208	477.5
393.433	492.5
393.658	488.5
393.882	472.5
394.107	488.5
394.331	471.5
394.556	457.5
394.78	472.5
395.005	485.5
395.229	457.5
395.454	505.5
395.678	492.5
395.903	491.5
396.127	521.5
396.352	518.5
396.576	517.5
396.801	486.5
397.025	478.5
397.249	498.5
397.474	501.5
397.698	501.5
397.922	515.5
398.147	529.5
398.371	532.5
398.595	523.5
398.82	542.5
399.044	579.5
399.268	565.5
399.492	610.5
399.717	629.5
399.941	640.5
400.165	670.5
400.389	697.5
400.613	639.5
400.837	573.5
401.062	561.5
401.286	576.5
401.51	540.5
401.734	532.5
401.958	540.5
402.182	559.5
402.406	555.5
402.63	549.5
402.854	549.5
403.078	548.5
403.302	573.5
403.526	568.5
403.75	551.5
403.974	574.5
404.198	567.5
404.422	570.5
404.645	567.5
404.869	565.5
405.093	598.5
405.317	658.5
405.541	677.5
405.765	624.5
405.988	592.5
406.212	580.5
406.436	608.5
406.66	623.5
406.883	609.5
407.107	636.5
407.331	651.5
407.555	720.5
407.778	731.5
408.002	680.5
408.226	644.5
408.449	640.5
408.673	612.5
408.896	658.5
409.12	670.5
409.344	663.5
409.567	611.5
409.791	607.5
410.014	568.5
410.238	585.5
410.461	546.5
410.685	572.5
410.908	567.5
411.132	615.5
411.355	676.5
411.578	607.5
411.802	575.5
412.025	559.5
412.249	571.5
412.472	607.5
412.695	609.5
412.919	610.5
413.142	591.5
413.365	571.5
413.589	571.5
413.812	544.5
414.035	547.5
414.258	539.5
414.482	525.5
414.705	561.5
414.928	542.5
415.151	533.5
415.374	539.5
415.597	539.5
415.821	532.5
416.044	530.5
416.267	537.5
416.49	525.5
416.713	515.5
416.936	539.5
417.159	539.5
417.382	522.5
417.605	528.5
417.828	529.5
418.051	559.5
418.274	537.5
418.497	528.5
418.72	517.5
418.943	523.5
419.166	533.5
419.389	579.5
419.611	563.5
419.834	549.5
420.057	559.5
420.28	549.5
420.503	580.5
420.726	547.5
420.948	564.5
421.171	613.5
421.394	628.5
421.617	582.5
421.839	551.5
422.062	552.5
422.285	574.5
422.507	621.5
422.73	681.5
422.953	659.5
423.175	596.5
423.398	570.5
423.621	563.5
423.843	585.5
424.066	595.5
424.288	590.5
424.511	599.5
424.733	673.5
424.956	737.5
425.178	717.5
425.401	704.5
425.623	750.5
425.846	613.5
426.068	586.5
426.291	568.5
426.513	581.5
426.735	615.5
426.958	618.5
427.18	713.5
427.402	871.5
427.625	950.5
427.847	800.5
428.069	703.5
428.292	633.5
428.514	572.5
428.736	574.5
428.958	565.5
429.181	521.5
429.403	536.5
429.625	564.5
429.847	601.5
430.069	638.5
430.292	631.5
430.514	536.5
430.736	554.5
430.958	535.5
431.18	518.5
431.402	533.5
431.624	525.5
431.846	519.5
432.068	504.5
432.29	522.5
432.512	523.5
432.734	551.5
432.956	522.5
433.178	538.5
433.4	536.5
433.622	519.5
433.844	533.5
434.066	516.5
434.287	517.5
434.509	527.5
434.731	551.5
434.953	564.5
435.175	559.5
435.397	576.5
435.618	599.5
435.84	638.5
436.062	739.5
436.284	807.5
436.505	679.5
436.727	625.5
436.949	552.5
437.17	574.5
437.392	521.5
437.614	550.5
437.835	584.5
438.057	673.5
438.278	794.5
438.5	769.5
438.721	875.5
438.943	836.5
439.165	638.5
439.386	604.5
439.608	584.5
439.829	585.5
440.05	611.5
440.272	680.5
440.493	612.5
440.715	584.5
440.936	561.5
441.158	564.5
441.379	562.5
441.6	581.5
441.822	586.5
442.043	627.5
442.264	709.5
442.486	748.5
442.707	639.5
442.928	601.5
443.149	610.5
443.371	631.5
443.592	670.5
443.813	762.5
444.034	832.5
444.255	679.5
444.476	620.5
444.698	601.5
444.919	612.5
445.14	679.5
445.361	659.5
445.582	640.5
445.803	688.5
446.024	793.5
446.245	808.5
446.466	735.5
446.687	653.5
446.908	571.5
447.129	554.5
447.35	543.5
447.571	539.5
447.792	532.5
448.013	556.5
448.234	549.5
448.455	606.5
448.675	734.5
448.896	856.5
449.117	722.5
449.338	659.5
449.559	784.5
449.779	921.5
450	732.5
450.221	569.5
450.442	556.5
450.662	525.5
450.883	548.5
451.104	539.5
451.324	519.5
451.545	507.5
451.766	484.5
451.986	487.5
452.207	478.5
452.428	494.5
452.648	499.5
452.869	493.5
453.089	509.5
453.31	510.5
453.53	499.5
453.751	477.5
453.971	497.5
454.192	493.5
454.412	511.5
454.633	464.5
454.853	466.5
455.073	481.5
455.294	526.5
455.514	572.5
455.734	548.5
455.955	483.5
456.175	479.5
456.395	458.5
456.616	461.5
456.836	473.5
457.056	472.5
457.276	459.5
457.497	488.5
457.717	489.5
457.937	478.5
458.157	480.5
458.377	496.5
458.598	506.5
458.818	543.5
459.038	613.5
459.258	663.5
459.478	565.5
459.698	537.5
459.918	513.5
460.138	529.5
460.358	535.5
460.578	529.5
460.798	522.5
461.018	558.5
461.238	550.5
461.458	559.5
461.678	552.5
461.898	548.5
462.118	537.5
462.338	563.5
462.558	593.5
462.777	578.5
462.997	575.5
463.217	584.5
463.437	613.5
463.657	602.5
463.876	584.5
464.096	595.5
464.316	584.5
464.536	594.5
464.755	589.5
464.975	616.5
465.195	606.5
465.414	648.5
465.634	578.5
465.854	546.5
466.073	544.5
466.293	548.5
466.512	536.5
466.732	515.5
466.951	521.5
467.171	507.5
467.391	529.5
467.61	501.5
467.829	531.5
468.049	539.5
468.268	512.5
468.488	507.5
468.707	491.5
468.927	483.5
469.146	499.5
469.365	510.5
469.585	498.5
469.804	517.5
470.023	515.5
470.243	497.5
470.462	528.5
470.681	538.5
470.901	539.5
471.12	502.5
471.339	508.5
471.558	540.5
471.777	517.5
471.997	496.5
472.216	510.5
472.435	537.5
472.654	555.5
472.873	528.5
473.092	502.5
473.311	492.5
473.53	507.5
473.749	509.5
473.968	559.5
474.187	657.5
474.406	666.5
474.625	576.5
474.844	519.5
475.063	524.5
475.282	504.5
475.501	518.5
475.72	520.5
475.939	537.5
476.158	547.5
476.377	530.5
476.596	537.5
476.814	573.5
477.033	541.5
477.252	552.5
477.471	556.5
477.69	548.5
477.908	566.5
478.127	561.5
478.346	573.5
478.564	592.5
478.783	573.5
479.002	583.5
479.22	601.5
479.439	614.5
479.658	594.5
479.876	608.5
480.095	627.5
480.313	635.5
480.532	634.5
480.751	617.5
480.969	642.5
481.188	666.5
481.406	700.5
481.624	649.5
481.843	643.5
482.061	633.5
482.28	608.5
482.498	615.5
482.717	591.5
482.935	613.5
483.153	603.5
483.372	614.5
483.59	591.5
483.808	625.5
484.027	600.5
484.245	614.5
484.463	600.5
484.681	584.5
484.9	619.5
485.118	633.5
485.336	591.5
485.554	608.5
485.772	622.5
485.99	640.5
486.209	651.5
486.427	627.5
486.645	638.5
486.863	661.5
487.081	663.5
487.299	638.5
487.517	640.5
487.735	614.5
487.953	624.5
488.171	641.5
488.389	648.5
488.607	664.5
488.825	630.5
489.043	641.5
489.261	628.5
489.479	643.5
489.696	653.5
489.914	655.5
490.132	661.5
490.35	655.5
490.568	661.5
490.786	676.5
491.003	657.5
491.221	686.5
491.439	697.5
491.657	676.5
491.874	701.5
492.092	709.5
492.31	702.5
492.527	702.5
492.745	721.5
492.963	735.5
493.18	703.5
493.398	725.5
493.615	716.5
493.833	722.5
494.05	740.5
494.268	705.5
494.485	719.5
494.703	748.5
494.92	753.5
495.138	716.5
495.355	742.5
495.573	751.5
495.79	726.5
496.008	759.5
496.225	761.5
496.442	776.5
496.66	751.5
496.877	757.5
497.094	739.5
497.312	756.5
497.529	748.5
497.746	789.5
497.963	802.5
498.181	855.5
498.398	839.5
498.615	854.5
498.832	889.5
499.049	898.5
499.267	935.5
499.484	959.5
499.701	982.5
499.918	998.5
500.135	1041.5
500.352	1103.5
500.569	1127.5
500.786	1146.5
501.003	1131.5
501.22	1057.5
501.437	1027.5
501.654	995.5
501.871	983.5
502.088	945.5
502.305	901.5
502.522	892.5
502.739	848.5
502.956	840.5
503.172	820.5
503.389	822.5
503.606	807.5
503.823	800.5
504.04	816.5
504.256	791.5
504.473	763.5
504.69	776.5
504.907	792.5
505.123	744.5
505.34	762.5
505.557	739.5
505.773	731.5
505.99	729.5
506.207	730.5
506.423	743.5
506.64	698.5
506.856	703.5
507.073	704.5
507.289	693.5
507.506	710.5
507.722	702.5
507.939	711.5
508.155	679.5
508.372	687.5
508.588	677.5
508.805	667.5
509.021	665.5
509.238	667.5
509.454	683.5
509.67	678.5
509.887	684.5
510.103	669.5
510.319	692.5
510.536	747.5
510.752	1146.5
510.968	955.5
511.184	688.5
511.401	644.5
511.617	644.5
511.833	635.5
512.049	628.5
512.265	677.5
512.481	639.5
512.698	615.5
512.914	635.5
513.13	639.5
513.346	631.5
513.562	629.5
513.778	630.5
513.994	635.5
514.21	656.5
514.426	669.5
514.642	677.5
514.858	715.5
515.074	734.5
515.29	847.5
515.506	1159.5
515.721	989.5
515.937	755.5
516.153	702.5
516.369	697.5
516.585	677.5
516.801	684.5
517.016	667.5
517.232	674.5
517.448	683.5
517.664	668.5
517.879	677.5
518.095	687.5
518.311	680.5
518.527	675.5
518.742	672.5
518.958	663.5
519.173	647.5
519.389	646.5
519.605	646.5
519.82	650.5
