Data from 1978.PennyLincolnUp.Lamp.En5.5.200Scan.071719.P1_HRD10591_16-13-37-863.txt Node
Date: Thu Jul 18 16:13:37 EDT 2019
User: cochatt
Spectrometer: HR+D1059
Trigger mode: 1
Integration Time (sec): 1.000000E-1
Scans to average: 1
Electric dark correction enabled: true
Nonlinearity correction enabled: false
Boxcar width: 0
XAxis mode: Wavelengths
Number of Pixels in Spectrum: 2048
>>>>>Begin Spectral Data<<<<<
223.165	-19.44
223.4	-19.44
223.635	-19.44
223.869	-16.44
224.104	-0.44
224.338	-4.44
224.573	-12.44
224.808	-4.44
225.042	-8.44
225.277	-2.44
225.511	-15.44
225.746	-6.44
225.98	15.56
226.215	8.56
226.449	-3.44
226.683	9.56
226.918	33.56
227.152	26.56
227.387	45.56
227.621	32.56
227.856	49.56
228.09	51.56
228.324	40.56
228.559	53.56
228.793	77.56
229.027	109.56
229.262	105.56
229.496	115.56
229.73	117.56
229.964	146.56
230.199	124.56
230.433	125.56
230.667	104.56
230.901	95.56
231.136	108.56
231.37	105.56
231.604	125.56
231.838	106.56
232.072	104.56
232.306	123.56
232.541	120.56
232.775	121.56
233.009	110.56
233.243	95.56
233.477	118.56
233.711	115.56
233.945	120.56
234.179	108.56
234.413	109.56
234.647	117.56
234.881	120.56
235.115	119.56
235.349	124.56
235.583	124.56
235.817	123.56
236.051	121.56
236.285	113.56
236.519	131.56
236.753	133.56
236.987	141.56
237.221	174.56
237.455	228.56
237.689	172.56
237.922	138.56
238.156	127.56
238.39	141.56
238.624	124.56
238.858	124.56
239.091	122.56
239.325	127.56
239.559	123.56
239.793	126.56
240.027	127.56
240.26	137.56
240.494	170.56
240.728	170.56
240.961	126.56
241.195	142.56
241.429	136.56
241.662	127.56
241.896	127.56
242.13	135.56
242.363	130.56
242.597	120.56
242.83	135.56
243.064	132.56
243.298	143.56
243.531	134.56
243.765	129.56
243.998	132.56
244.232	131.56
244.465	139.56
244.699	152.56
244.932	151.56
245.166	165.56
245.399	133.56
245.633	129.56
245.866	130.56
246.099	151.56
246.333	141.56
246.566	153.56
246.8	141.56
247.033	137.56
247.266	157.56
247.5	150.56
247.733	176.56
247.966	171.56
248.2	171.56
248.433	159.56
248.666	163.56
248.899	158.56
249.133	202.56
249.366	200.56
249.599	198.56
249.832	178.56
250.066	195.56
250.299	171.56
250.532	201.56
250.765	188.56
250.998	204.56
251.231	213.56
251.465	227.56
251.698	208.56
251.931	186.56
252.164	161.56
252.397	179.56
252.63	180.56
252.863	196.56
253.096	197.56
253.329	202.56
253.562	222.56
253.795	201.56
254.028	205.56
254.261	213.56
254.494	232.56
254.727	235.56
254.96	231.56
255.193	256.56
255.426	213.56
255.659	215.56
255.892	226.56
256.124	206.56
256.357	208.56
256.59	202.56
256.823	212.56
257.056	218.56
257.289	203.56
257.521	207.56
257.754	192.56
257.987	198.56
258.22	194.56
258.452	196.56
258.685	185.56
258.918	192.56
259.151	214.56
259.383	184.56
259.616	215.56
259.849	222.56
260.081	243.56
260.314	247.56
260.547	221.56
260.779	241.56
261.012	232.56
261.244	209.56
261.477	213.56
261.71	213.56
261.942	208.56
262.175	222.56
262.407	225.56
262.64	219.56
262.872	208.56
263.105	206.56
263.337	201.56
263.57	204.56
263.802	203.56
264.035	215.56
264.267	209.56
264.499	202.56
264.732	216.56
264.964	218.56
265.197	212.56
265.429	211.56
265.661	227.56
265.894	199.56
266.126	216.56
266.358	205.56
266.591	187.56
266.823	219.56
267.055	225.56
267.287	221.56
267.52	223.56
267.752	222.56
267.984	225.56
268.216	236.56
268.448	219.56
268.681	236.56
268.913	201.56
269.145	249.56
269.377	265.56
269.609	260.56
269.841	265.56
270.073	266.56
270.306	279.56
270.538	297.56
270.77	276.56
271.002	278.56
271.234	291.56
271.466	283.56
271.698	300.56
271.93	288.56
272.162	305.56
272.394	292.56
272.626	293.56
272.858	269.56
273.09	272.56
273.322	264.56
273.553	263.56
273.785	252.56
274.017	271.56
274.249	250.56
274.481	247.56
274.713	247.56
274.945	268.56
275.176	258.56
275.408	236.56
275.64	236.56
275.872	268.56
276.104	269.56
276.335	276.56
276.567	269.56
276.799	285.56
277.031	285.56
277.262	305.56
277.494	304.56
277.726	272.56
277.957	284.56
278.189	273.56
278.421	258.56
278.652	281.56
278.884	263.56
279.115	244.56
279.347	271.56
279.579	271.56
279.81	271.56
280.042	262.56
280.273	265.56
280.505	271.56
280.736	259.56
280.968	259.56
281.199	261.56
281.431	264.56
281.662	253.56
281.894	261.56
282.125	266.56
282.356	291.56
282.588	281.56
282.819	296.56
283.051	272.56
283.282	294.56
283.513	286.56
283.745	260.56
283.976	278.56
284.207	286.56
284.439	269.56
284.67	277.56
284.901	282.56
285.132	290.56
285.364	276.56
285.595	283.56
285.826	273.56
286.057	299.56
286.288	285.56
286.52	288.56
286.751	268.56
286.982	309.56
287.213	282.56
287.444	275.56
287.675	283.56
287.906	288.56
288.138	287.56
288.369	289.56
288.6	296.56
288.831	299.56
289.062	298.56
289.293	305.56
289.524	285.56
289.755	289.56
289.986	288.56
290.217	280.56
290.448	285.56
290.679	296.56
290.91	275.56
291.141	292.56
291.371	287.56
291.602	287.56
291.833	288.56
292.064	291.56
292.295	297.56
292.526	283.56
292.757	290.56
292.987	271.56
293.218	282.56
293.449	291.56
293.68	302.56
293.91	305.56
294.141	304.56
294.372	286.56
294.603	296.56
294.833	310.56
295.064	282.56
295.295	293.56
295.525	279.56
295.756	288.56
295.987	328.56
296.217	315.56
296.448	332.56
296.679	281.56
296.909	283.56
297.14	300.56
297.37	309.56
297.601	307.56
297.831	292.56
298.062	295.56
298.292	304.56
298.523	301.56
298.753	308.56
298.984	304.56
299.214	311.56
299.445	296.56
299.675	313.56
299.905	315.56
300.136	311.56
300.366	312.56
300.597	303.56
300.827	316.56
301.057	310.56
301.288	344.56
301.518	317.56
301.748	325.56
301.979	330.56
302.209	317.56
302.439	322.56
302.669	332.56
302.9	328.56
303.13	323.56
303.36	332.56
303.59	334.56
303.82	319.56
304.051	320.56
304.281	297.56
304.511	321.56
304.741	340.56
304.971	335.56
305.201	324.56
305.431	327.56
305.661	333.56
305.891	336.56
306.121	345.56
306.352	341.56
306.582	326.56
306.812	339.56
307.042	338.56
307.272	348.56
307.502	320.56
307.731	330.56
307.961	354.56
308.191	336.56
308.421	347.56
308.651	328.56
308.881	328.56
309.111	348.56
309.341	349.56
309.571	338.56
309.8	337.56
310.03	368.56
310.26	357.56
310.49	368.56
310.72	367.56
310.949	377.56
311.179	391.56
311.409	377.56
311.639	361.56
311.868	385.56
312.098	385.56
312.328	377.56
312.557	386.56
312.787	393.56
313.017	385.56
313.246	377.56
313.476	368.56
313.706	393.56
313.935	385.56
314.165	391.56
314.394	393.56
314.624	376.56
314.853	384.56
315.083	381.56
315.312	373.56
315.542	375.56
315.771	391.56
316.001	355.56
316.23	367.56
316.46	361.56
316.689	379.56
316.919	365.56
317.148	391.56
317.377	389.56
317.607	402.56
317.836	379.56
318.065	381.56
318.295	391.56
318.524	368.56
318.753	355.56
318.983	362.56
319.212	384.56
319.441	382.56
319.67	403.56
319.9	363.56
320.129	365.56
320.358	376.56
320.587	371.56
320.816	384.56
321.046	385.56
321.275	393.56
321.504	394.56
321.733	394.56
321.962	405.56
322.191	419.56
322.42	433.56
322.649	442.56
322.878	429.56
323.108	445.56
323.337	480.56
323.566	510.56
323.795	515.56
324.024	551.56
324.253	659.56
324.482	971.56
324.71	1523.56
324.939	2378.56
325.168	2051.56
325.397	994.56
325.626	653.56
325.855	547.56
326.084	539.56
326.313	496.56
326.542	484.56
326.77	538.56
326.999	629.56
327.228	907.56
327.457	1405.56
327.686	1727.56
327.914	1140.56
328.143	683.56
328.372	591.56
328.6	574.56
328.829	553.56
329.058	555.56
329.287	595.56
329.515	529.56
329.744	493.56
329.972	515.56
330.201	501.56
330.43	524.56
330.658	557.56
330.887	603.56
331.115	582.56
331.344	505.56
331.572	461.56
331.801	465.56
332.03	499.56
332.258	482.56
332.486	462.56
332.715	443.56
332.943	452.56
333.172	441.56
333.4	475.56
333.629	471.56
333.857	483.56
334.085	503.56
334.314	517.56
334.542	511.56
334.771	521.56
334.999	501.56
335.227	481.56
335.455	470.56
335.684	479.56
335.912	457.56
336.14	449.56
336.369	480.56
336.597	472.56
336.825	460.56
337.053	432.56
337.281	444.56
337.51	450.56
337.738	451.56
337.966	443.56
338.194	451.56
338.422	452.56
338.65	451.56
338.878	431.56
339.106	449.56
339.334	429.56
339.562	453.56
339.79	444.56
340.018	436.56
340.246	438.56
340.474	437.56
340.702	440.56
340.93	443.56
341.158	453.56
341.386	456.56
341.614	442.56
341.842	451.56
342.07	445.56
342.298	446.56
342.526	425.56
342.754	426.56
342.981	425.56
343.209	431.56
343.437	448.56
343.665	455.56
343.893	456.56
344.12	447.56
344.348	465.56
344.576	455.56
344.804	471.56
345.031	451.56
345.259	456.56
345.487	463.56
345.714	460.56
345.942	433.56
346.17	426.56
346.397	422.56
346.625	431.56
346.853	426.56
347.08	421.56
347.308	441.56
347.535	435.56
347.763	431.56
347.99	458.56
348.218	443.56
348.445	421.56
348.673	440.56
348.9	439.56
349.128	421.56
349.355	423.56
349.583	406.56
349.81	421.56
350.037	421.56
350.265	419.56
350.492	405.56
350.72	415.56
350.947	414.56
351.174	447.56
351.402	421.56
351.629	428.56
351.856	435.56
352.083	433.56
352.311	445.56
352.538	445.56
352.765	445.56
352.992	456.56
353.22	435.56
353.447	419.56
353.674	414.56
353.901	413.56
354.128	403.56
354.355	428.56
354.583	399.56
354.81	407.56
355.037	392.56
355.264	399.56
355.491	418.56
355.718	410.56
355.945	408.56
356.172	407.56
356.399	413.56
356.626	398.56
356.853	412.56
357.08	420.56
357.307	379.56
357.534	391.56
357.761	421.56
357.988	414.56
358.215	431.56
358.441	429.56
358.668	411.56
358.895	397.56
359.122	427.56
359.349	404.56
359.576	411.56
359.802	452.56
360.029	475.56
360.256	476.56
360.483	469.56
360.709	435.56
360.936	425.56
361.163	421.56
361.39	400.56
361.616	444.56
361.843	445.56
362.07	412.56
362.296	415.56
362.523	440.56
362.749	415.56
362.976	417.56
363.203	427.56
363.429	419.56
363.656	414.56
363.882	418.56
364.109	389.56
364.335	417.56
364.562	412.56
364.788	411.56
365.015	439.56
365.241	429.56
365.468	403.56
365.694	429.56
365.92	430.56
366.147	425.56
366.373	406.56
366.599	416.56
366.826	423.56
367.052	418.56
367.278	421.56
367.505	415.56
367.731	423.56
367.957	412.56
368.184	432.56
368.41	420.56
368.636	422.56
368.862	445.56
369.089	434.56
369.315	410.56
369.541	411.56
369.767	423.56
369.993	416.56
370.219	438.56
370.445	425.56
370.672	400.56
370.898	401.56
371.124	432.56
371.35	425.56
371.576	428.56
371.802	412.56
372.028	444.56
372.254	445.56
372.48	419.56
372.706	423.56
372.932	422.56
373.158	430.56
373.384	426.56
373.61	424.56
373.835	416.56
374.061	412.56
374.287	429.56
374.513	425.56
374.739	432.56
374.965	413.56
375.191	428.56
375.416	440.56
375.642	443.56
375.868	430.56
376.094	411.56
376.319	441.56
376.545	427.56
376.771	439.56
376.997	434.56
377.222	435.56
377.448	424.56
377.674	419.56
377.899	423.56
378.125	418.56
378.35	412.56
378.576	425.56
378.802	413.56
379.027	417.56
379.253	439.56
379.478	405.56
379.704	393.56
379.929	436.56
380.155	445.56
380.38	427.56
380.606	421.56
380.831	425.56
381.057	432.56
381.282	439.56
381.507	424.56
381.733	432.56
381.958	429.56
382.184	440.56
382.409	443.56
382.634	448.56
382.86	437.56
383.085	437.56
383.31	454.56
383.535	459.56
383.761	444.56
383.986	437.56
384.211	433.56
384.436	465.56
384.662	436.56
384.887	451.56
385.112	453.56
385.337	449.56
385.562	471.56
385.787	460.56
386.013	463.56
386.238	456.56
386.463	460.56
386.688	475.56
386.913	486.56
387.138	453.56
387.363	457.56
387.588	457.56
387.813	481.56
388.038	488.56
388.263	467.56
388.488	478.56
388.713	474.56
388.938	477.56
389.163	469.56
389.387	466.56
389.612	467.56
389.837	471.56
390.062	481.56
390.287	471.56
390.512	469.56
390.736	464.56
390.961	476.56
391.186	466.56
391.411	485.56
391.636	500.56
391.86	501.56
392.085	471.56
392.31	489.56
392.534	494.56
392.759	466.56
392.984	493.56
393.208	476.56
393.433	485.56
393.658	478.56
393.882	486.56
394.107	479.56
394.331	482.56
394.556	475.56
394.78	492.56
395.005	495.56
395.229	470.56
395.454	485.56
395.678	496.56
395.903	516.56
396.127	541.56
396.352	518.56
396.576	521.56
396.801	501.56
397.025	504.56
397.249	519.56
397.474	515.56
397.698	515.56
397.922	531.56
398.147	527.56
398.371	537.56
398.595	539.56
398.82	539.56
399.044	568.56
399.268	571.56
399.492	601.56
399.717	625.56
399.941	632.56
400.165	684.56
400.389	684.56
400.613	620.56
400.837	604.56
401.062	580.56
401.286	578.56
401.51	553.56
401.734	552.56
401.958	545.56
402.182	551.56
402.406	572.56
402.63	566.56
402.854	551.56
403.078	537.56
403.302	552.56
403.526	590.56
403.75	560.56
403.974	569.56
404.198	576.56
404.422	567.56
404.645	585.56
404.869	564.56
405.093	607.56
405.317	659.56
405.541	707.56
405.765	634.56
405.988	590.56
406.212	599.56
406.436	618.56
406.66	643.56
406.883	629.56
407.107	649.56
407.331	705.56
407.555	766.56
407.778	751.56
408.002	673.56
408.226	648.56
408.449	650.56
408.673	615.56
408.896	657.56
409.12	717.56
409.344	658.56
409.567	608.56
409.791	595.56
410.014	597.56
410.238	576.56
410.461	586.56
410.685	575.56
410.908	573.56
411.132	647.56
411.355	648.56
411.578	653.56
411.802	589.56
412.025	582.56
412.249	594.56
412.472	622.56
412.695	620.56
412.919	612.56
413.142	605.56
413.365	574.56
413.589	571.56
413.812	568.56
414.035	554.56
414.258	553.56
414.482	568.56
414.705	533.56
414.928	566.56
415.151	547.56
415.374	546.56
415.597	541.56
415.821	548.56
416.044	535.56
416.267	546.56
416.49	549.56
416.713	540.56
416.936	533.56
417.159	547.56
417.382	552.56
417.605	559.56
417.828	559.56
418.051	575.56
418.274	551.56
418.497	548.56
418.72	530.56
418.943	541.56
419.166	567.56
419.389	603.56
419.611	591.56
419.834	592.56
420.057	559.56
420.28	587.56
420.503	568.56
420.726	565.56
420.948	569.56
421.171	619.56
421.394	656.56
421.617	591.56
421.839	576.56
422.062	574.56
422.285	582.56
422.507	645.56
422.73	728.56
422.953	687.56
423.175	611.56
423.398	619.56
423.621	581.56
423.843	597.56
424.066	607.56
424.288	585.56
424.511	614.56
424.733	687.56
424.956	777.56
425.178	725.56
425.401	720.56
425.623	747.56
425.846	645.56
426.068	618.56
426.291	590.56
426.513	587.56
426.735	625.56
426.958	665.56
427.18	727.56
427.402	907.56
427.625	999.56
427.847	841.56
428.069	745.56
428.292	648.56
428.514	579.56
428.736	579.56
428.958	570.56
429.181	552.56
429.403	557.56
429.625	578.56
429.847	611.56
430.069	718.56
430.292	670.56
430.514	583.56
430.736	567.56
430.958	522.56
431.18	534.56
431.402	535.56
431.624	534.56
431.846	513.56
432.068	538.56
432.29	529.56
432.512	531.56
432.734	517.56
432.956	556.56
433.178	527.56
433.4	551.56
433.622	544.56
433.844	533.56
434.066	532.56
434.287	568.56
434.509	543.56
434.731	565.56
434.953	592.56
435.175	564.56
435.397	596.56
435.618	593.56
435.84	651.56
436.062	771.56
436.284	872.56
436.505	717.56
436.727	635.56
436.949	593.56
437.17	574.56
437.392	577.56
437.614	564.56
437.835	596.56
438.057	680.56
438.278	825.56
438.5	833.56
438.721	931.56
438.943	878.56
439.165	691.56
439.386	636.56
439.608	637.56
439.829	605.56
440.05	665.56
440.272	683.56
440.493	647.56
440.715	607.56
440.936	563.56
441.158	598.56
441.379	575.56
441.6	603.56
441.822	592.56
442.043	627.56
442.264	742.56
442.486	773.56
442.707	665.56
442.928	636.56
443.149	647.56
443.371	639.56
443.592	681.56
443.813	803.56
444.034	853.56
444.255	727.56
444.476	623.56
444.698	631.56
444.919	633.56
445.14	682.56
445.361	665.56
445.582	659.56
445.803	720.56
446.024	834.56
446.245	853.56
446.466	772.56
446.687	680.56
446.908	630.56
447.129	569.56
447.35	544.56
447.571	574.56
447.792	547.56
448.013	567.56
448.234	565.56
448.455	643.56
448.675	748.56
448.896	905.56
449.117	765.56
449.338	715.56
449.559	831.56
449.779	962.56
450	721.56
450.221	610.56
450.442	551.56
450.662	546.56
450.883	559.56
451.104	555.56
451.324	549.56
451.545	535.56
451.766	531.56
451.986	501.56
452.207	500.56
452.428	496.56
452.648	476.56
452.869	509.56
453.089	507.56
453.31	516.56
453.53	503.56
453.751	509.56
453.971	522.56
454.192	513.56
454.412	519.56
454.633	506.56
454.853	502.56
455.073	522.56
455.294	529.56
455.514	594.56
455.734	568.56
455.955	502.56
456.175	478.56
456.395	466.56
456.616	470.56
456.836	482.56
457.056	464.56
457.276	460.56
457.497	472.56
457.717	486.56
457.937	478.56
458.157	470.56
458.377	504.56
458.598	529.56
458.818	596.56
459.038	652.56
459.258	671.56
459.478	581.56
459.698	569.56
459.918	558.56
460.138	561.56
460.358	552.56
460.578	551.56
460.798	569.56
461.018	575.56
461.238	573.56
461.458	537.56
461.678	555.56
461.898	566.56
462.118	547.56
462.338	557.56
462.558	569.56
462.777	573.56
462.997	598.56
463.217	596.56
463.437	601.56
463.657	581.56
463.876	599.56
464.096	582.56
464.316	593.56
464.536	636.56
464.755	603.56
464.975	571.56
465.195	628.56
465.414	686.56
465.634	627.56
465.854	571.56
466.073	544.56
466.293	553.56
466.512	534.56
466.732	522.56
466.951	504.56
467.171	512.56
467.391	526.56
467.61	519.56
467.829	541.56
468.049	530.56
468.268	528.56
468.488	529.56
468.707	527.56
468.927	526.56
469.146	502.56
469.365	485.56
469.585	523.56
469.804	507.56
470.023	536.56
470.243	550.56
470.462	551.56
470.681	526.56
470.901	548.56
471.12	545.56
471.339	533.56
471.558	543.56
471.777	534.56
471.997	504.56
472.216	532.56
472.435	565.56
472.654	529.56
472.873	528.56
473.092	541.56
473.311	548.56
473.53	525.56
473.749	540.56
473.968	541.56
474.187	679.56
474.406	707.56
474.625	604.56
474.844	533.56
475.063	521.56
475.282	564.56
475.501	533.56
475.72	532.56
475.939	534.56
476.158	530.56
476.377	536.56
476.596	547.56
476.814	556.56
477.033	539.56
477.252	537.56
477.471	566.56
477.69	578.56
477.908	561.56
478.127	573.56
478.346	569.56
478.564	596.56
478.783	579.56
479.002	602.56
479.22	593.56
479.439	613.56
479.658	631.56
479.876	634.56
480.095	652.56
480.313	680.56
480.532	644.56
480.751	631.56
480.969	651.56
481.188	705.56
481.406	736.56
481.624	659.56
481.843	631.56
482.061	648.56
482.28	631.56
482.498	631.56
482.717	629.56
482.935	589.56
483.153	599.56
483.372	614.56
483.59	604.56
483.808	621.56
484.027	604.56
484.245	624.56
484.463	629.56
484.681	621.56
484.9	652.56
485.118	646.56
485.336	637.56
485.554	634.56
485.772	634.56
485.99	625.56
486.209	637.56
486.427	663.56
486.645	654.56
486.863	666.56
487.081	685.56
487.299	656.56
487.517	648.56
487.735	645.56
487.953	650.56
488.171	642.56
488.389	670.56
488.607	643.56
488.825	667.56
489.043	661.56
489.261	653.56
489.479	671.56
489.696	647.56
489.914	656.56
490.132	695.56
490.35	695.56
490.568	684.56
490.786	681.56
491.003	712.56
491.221	730.56
491.439	724.56
491.657	733.56
491.874	733.56
492.092	721.56
492.31	739.56
492.527	723.56
492.745	733.56
492.963	758.56
493.18	749.56
493.398	749.56
493.615	757.56
493.833	750.56
494.05	769.56
494.268	757.56
494.485	773.56
494.703	745.56
494.92	767.56
495.138	765.56
495.355	792.56
495.573	756.56
495.79	785.56
496.008	760.56
496.225	776.56
496.442	796.56
496.66	775.56
496.877	791.56
497.094	771.56
497.312	808.56
497.529	839.56
497.746	822.56
497.963	815.56
498.181	851.56
498.398	861.56
498.615	868.56
498.832	885.56
499.049	911.56
499.267	925.56
499.484	976.56
499.701	992.56
499.918	1036.56
500.135	1084.56
500.352	1119.56
500.569	1127.56
500.786	1131.56
501.003	1089.56
501.22	1063.56
501.437	1031.56
501.654	1026.56
501.871	1025.56
