Data from 1978.PennyLincolnUp.Lamp.En5.5.200Scan.071719.P1_HRD10591_16-13-25-864.txt Node
Date: Thu Jul 18 16:13:25 EDT 2019
User: cochatt
Spectrometer: HR+D1059
Trigger mode: 1
Integration Time (sec): 1.000000E-1
Scans to average: 1
Electric dark correction enabled: true
Nonlinearity correction enabled: false
Boxcar width: 0
XAxis mode: Wavelengths
Number of Pixels in Spectrum: 2048
>>>>>Begin Spectral Data<<<<<
223.165	-4.88
223.4	-4.88
223.635	-4.88
223.869	-12.88
224.104	-7.88
224.338	-15.88
224.573	-18.88
224.808	-11.88
225.042	-14.88
225.277	-16.88
225.511	9.12
225.746	5.12
225.98	-5.88
226.215	9.12
226.449	11.12
226.683	29.12
226.918	22.12
227.152	24.12
227.387	32.12
227.621	40.12
227.856	42.12
228.09	35.12
228.324	55.12
228.559	46.12
228.793	74.12
229.027	90.12
229.262	102.12
229.496	105.12
229.73	142.12
229.964	158.12
230.199	128.12
230.433	122.12
230.667	109.12
230.901	92.12
231.136	108.12
231.37	121.12
231.604	122.12
231.838	115.12
232.072	127.12
232.306	113.12
232.541	109.12
232.775	125.12
233.009	121.12
233.243	102.12
233.477	118.12
233.711	119.12
233.945	116.12
234.179	112.12
234.413	111.12
234.647	114.12
234.881	112.12
235.115	107.12
235.349	102.12
235.583	124.12
235.817	123.12
236.051	122.12
236.285	131.12
236.519	125.12
236.753	127.12
236.987	133.12
237.221	197.12
237.455	231.12
237.689	208.12
237.922	146.12
238.156	131.12
238.39	118.12
238.624	131.12
238.858	130.12
239.091	116.12
239.325	121.12
239.559	129.12
239.793	120.12
240.027	140.12
240.26	149.12
240.494	150.12
240.728	158.12
240.961	164.12
241.195	145.12
241.429	131.12
241.662	137.12
241.896	129.12
242.13	115.12
242.363	135.12
242.597	144.12
242.83	147.12
243.064	137.12
243.298	132.12
243.531	136.12
243.765	140.12
243.998	145.12
244.232	149.12
244.465	150.12
244.699	138.12
244.932	151.12
245.166	145.12
245.399	149.12
245.633	154.12
245.866	123.12
246.099	120.12
246.333	142.12
246.566	152.12
246.8	154.12
247.033	160.12
247.266	152.12
247.5	168.12
247.733	165.12
247.966	172.12
248.2	175.12
248.433	169.12
248.666	164.12
248.899	173.12
249.133	172.12
249.366	195.12
249.599	207.12
249.832	189.12
250.066	173.12
250.299	164.12
250.532	186.12
250.765	191.12
250.998	200.12
251.231	208.12
251.465	199.12
251.698	200.12
251.931	188.12
252.164	194.12
252.397	183.12
252.63	175.12
252.863	192.12
253.096	201.12
253.329	216.12
253.562	217.12
253.795	201.12
254.028	204.12
254.261	203.12
254.494	214.12
254.727	249.12
254.96	270.12
255.193	268.12
255.426	245.12
255.659	212.12
255.892	224.12
256.124	226.12
256.357	215.12
256.59	219.12
256.823	213.12
257.056	216.12
257.289	194.12
257.521	219.12
257.754	200.12
257.987	190.12
258.22	223.12
258.452	204.12
258.685	201.12
258.918	208.12
259.151	217.12
259.383	209.12
259.616	212.12
259.849	219.12
260.081	236.12
260.314	244.12
260.547	252.12
260.779	224.12
261.012	231.12
261.244	229.12
261.477	220.12
261.71	223.12
261.942	210.12
262.175	239.12
262.407	209.12
262.64	214.12
262.872	205.12
263.105	200.12
263.337	205.12
263.57	194.12
263.802	229.12
264.035	217.12
264.267	227.12
264.499	205.12
264.732	194.12
264.964	214.12
265.197	201.12
265.429	220.12
265.661	205.12
265.894	216.12
266.126	229.12
266.358	197.12
266.591	213.12
266.823	228.12
267.055	225.12
267.287	219.12
267.52	227.12
267.752	237.12
267.984	218.12
268.216	215.12
268.448	238.12
268.681	244.12
268.913	249.12
269.145	252.12
269.377	273.12
269.609	270.12
269.841	272.12
270.073	270.12
270.306	279.12
270.538	297.12
270.77	295.12
271.002	273.12
271.234	280.12
271.466	275.12
271.698	293.12
271.93	301.12
272.162	319.12
272.394	303.12
272.626	298.12
272.858	257.12
273.09	272.12
273.322	266.12
273.553	264.12
273.785	251.12
274.017	247.12
274.249	265.12
274.481	267.12
274.713	283.12
274.945	259.12
275.176	251.12
275.408	271.12
275.64	254.12
275.872	278.12
276.104	255.12
276.335	272.12
276.567	283.12
276.799	298.12
277.031	278.12
277.262	320.12
277.494	313.12
277.726	295.12
277.957	283.12
278.189	283.12
278.421	256.12
278.652	272.12
278.884	273.12
279.115	264.12
279.347	263.12
279.579	267.12
279.81	266.12
280.042	252.12
280.273	276.12
280.505	268.12
280.736	262.12
280.968	258.12
281.199	262.12
281.431	260.12
281.662	248.12
281.894	272.12
282.125	277.12
282.356	292.12
282.588	304.12
282.819	301.12
283.051	287.12
283.282	277.12
283.513	274.12
283.745	288.12
283.976	277.12
284.207	297.12
284.439	277.12
284.67	271.12
284.901	279.12
285.132	289.12
285.364	280.12
285.595	269.12
285.826	273.12
286.057	276.12
286.288	273.12
286.52	287.12
286.751	292.12
286.982	277.12
287.213	288.12
287.444	277.12
287.675	296.12
287.906	294.12
288.138	310.12
288.369	297.12
288.6	293.12
288.831	291.12
289.062	296.12
289.293	277.12
289.524	297.12
289.755	291.12
289.986	284.12
290.217	298.12
290.448	296.12
290.679	292.12
290.91	282.12
291.141	286.12
291.371	304.12
291.602	296.12
291.833	284.12
292.064	302.12
292.295	295.12
292.526	290.12
292.757	292.12
292.987	285.12
293.218	271.12
293.449	293.12
293.68	314.12
293.91	282.12
294.141	292.12
294.372	286.12
294.603	281.12
294.833	296.12
295.064	300.12
295.295	300.12
295.525	316.12
295.756	286.12
295.987	311.12
296.217	308.12
296.448	316.12
296.679	304.12
296.909	305.12
297.14	320.12
297.37	315.12
297.601	317.12
297.831	308.12
298.062	309.12
298.292	326.12
298.523	323.12
298.753	295.12
298.984	308.12
299.214	312.12
299.445	315.12
299.675	302.12
299.905	320.12
300.136	317.12
300.366	299.12
300.597	331.12
300.827	326.12
301.057	330.12
301.288	332.12
301.518	316.12
301.748	316.12
301.979	347.12
302.209	342.12
302.439	337.12
302.669	330.12
302.9	318.12
303.13	292.12
303.36	321.12
303.59	340.12
303.82	324.12
304.051	354.12
304.281	327.12
304.511	328.12
304.741	326.12
304.971	327.12
305.201	338.12
305.431	336.12
305.661	327.12
305.891	328.12
306.121	323.12
306.352	326.12
306.582	341.12
306.812	341.12
307.042	336.12
307.272	332.12
307.502	330.12
307.731	321.12
307.961	348.12
308.191	340.12
308.421	319.12
308.651	336.12
308.881	324.12
309.111	348.12
309.341	355.12
309.571	351.12
309.8	351.12
310.03	386.12
310.26	366.12
310.49	349.12
310.72	371.12
310.949	377.12
311.179	392.12
311.409	373.12
311.639	377.12
311.868	363.12
312.098	371.12
312.328	409.12
312.557	405.12
312.787	419.12
313.017	419.12
313.246	401.12
313.476	386.12
313.706	389.12
313.935	401.12
314.165	388.12
314.394	404.12
314.624	410.12
314.853	395.12
315.083	398.12
315.312	378.12
315.542	379.12
315.771	377.12
316.001	383.12
316.23	379.12
316.46	371.12
316.689	385.12
316.919	387.12
317.148	403.12
317.377	391.12
317.607	380.12
317.836	400.12
318.065	382.12
318.295	390.12
318.524	382.12
318.753	361.12
318.983	361.12
319.212	367.12
319.441	379.12
319.67	390.12
319.9	381.12
320.129	379.12
320.358	397.12
320.587	380.12
320.816	401.12
321.046	391.12
321.275	398.12
321.504	407.12
321.733	409.12
321.962	391.12
322.191	424.12
322.42	429.12
322.649	453.12
322.878	469.12
323.108	437.12
323.337	482.12
323.566	473.12
323.795	529.12
324.024	547.12
324.253	681.12
324.482	1000.12
324.71	1541.12
324.939	2364.12
325.168	1981.12
325.397	985.12
325.626	675.12
325.855	559.12
326.084	526.12
326.313	493.12
326.542	504.12
326.77	527.12
326.999	657.12
327.228	890.12
327.457	1376.12
327.686	1723.12
327.914	1148.12
328.143	713.12
328.372	627.12
328.6	588.12
328.829	553.12
329.058	591.12
329.287	592.12
329.515	544.12
329.744	520.12
329.972	527.12
330.201	526.12
330.43	565.12
330.658	580.12
330.887	610.12
331.115	603.12
331.344	527.12
331.572	486.12
331.801	503.12
332.03	486.12
332.258	493.12
332.486	475.12
332.715	472.12
332.943	444.12
333.172	446.12
333.4	461.12
333.629	466.12
333.857	502.12
334.085	475.12
334.314	497.12
334.542	523.12
334.771	543.12
334.999	522.12
335.227	474.12
335.455	473.12
335.684	480.12
335.912	469.12
336.14	445.12
336.369	460.12
336.597	462.12
336.825	470.12
337.053	445.12
337.281	469.12
337.51	451.12
337.738	456.12
337.966	451.12
338.194	452.12
338.422	452.12
338.65	440.12
338.878	455.12
339.106	438.12
339.334	460.12
339.562	437.12
339.79	415.12
340.018	451.12
340.246	433.12
340.474	435.12
340.702	445.12
340.93	443.12
341.158	452.12
341.386	448.12
341.614	432.12
341.842	443.12
342.07	455.12
342.298	462.12
342.526	417.12
342.754	421.12
342.981	443.12
343.209	422.12
343.437	439.12
343.665	450.12
343.893	463.12
344.12	445.12
344.348	442.12
344.576	468.12
344.804	483.12
345.031	468.12
345.259	462.12
345.487	470.12
345.714	445.12
345.942	447.12
346.17	457.12
346.397	428.12
346.625	419.12
346.853	407.12
347.08	431.12
347.308	430.12
347.535	435.12
347.763	455.12
347.99	454.12
348.218	450.12
348.445	433.12
348.673	457.12
348.9	412.12
349.128	423.12
349.355	408.12
349.583	416.12
349.81	396.12
350.037	409.12
350.265	429.12
350.492	418.12
350.72	425.12
350.947	424.12
351.174	440.12
351.402	451.12
351.629	431.12
351.856	451.12
352.083	432.12
352.311	439.12
352.538	438.12
352.765	447.12
352.992	441.12
353.22	441.12
353.447	413.12
353.674	424.12
353.901	411.12
354.128	411.12
354.355	413.12
354.583	408.12
354.81	397.12
355.037	419.12
355.264	411.12
355.491	413.12
355.718	406.12
355.945	424.12
356.172	417.12
356.399	394.12
356.626	393.12
356.853	397.12
357.08	410.12
357.307	413.12
357.534	392.12
357.761	401.12
357.988	424.12
358.215	401.12
358.441	397.12
358.668	384.12
358.895	428.12
359.122	429.12
359.349	415.12
359.576	429.12
359.802	456.12
360.029	465.12
360.256	492.12
360.483	467.12
360.709	441.12
360.936	436.12
361.163	432.12
361.39	432.12
361.616	427.12
361.843	449.12
362.07	419.12
362.296	431.12
362.523	452.12
362.749	435.12
362.976	440.12
363.203	420.12
363.429	414.12
363.656	423.12
363.882	435.12
364.109	415.12
364.335	427.12
364.562	404.12
364.788	410.12
365.015	417.12
365.241	415.12
365.468	425.12
365.694	420.12
365.92	421.12
366.147	419.12
366.373	421.12
366.599	408.12
366.826	408.12
367.052	412.12
367.278	418.12
367.505	401.12
367.731	424.12
367.957	408.12
368.184	423.12
368.41	428.12
368.636	435.12
368.862	445.12
369.089	429.12
369.315	421.12
369.541	424.12
369.767	438.12
369.993	428.12
370.219	412.12
370.445	429.12
370.672	421.12
370.898	420.12
371.124	406.12
371.35	422.12
371.576	424.12
371.802	422.12
372.028	400.12
372.254	418.12
372.48	423.12
372.706	447.12
372.932	435.12
373.158	437.12
373.384	431.12
373.61	409.12
373.835	422.12
374.061	424.12
374.287	439.12
374.513	441.12
374.739	447.12
374.965	420.12
375.191	428.12
375.416	441.12
375.642	430.12
375.868	439.12
376.094	428.12
376.319	433.12
376.545	424.12
376.771	419.12
376.997	415.12
377.222	436.12
377.448	415.12
377.674	419.12
377.899	429.12
378.125	401.12
378.35	429.12
378.576	422.12
378.802	416.12
379.027	409.12
379.253	421.12
379.478	413.12
379.704	423.12
379.929	411.12
380.155	407.12
380.38	421.12
380.606	429.12
380.831	417.12
381.057	418.12
381.282	415.12
381.507	425.12
381.733	422.12
381.958	423.12
382.184	439.12
382.409	426.12
382.634	437.12
382.86	452.12
383.085	436.12
383.31	423.12
383.535	427.12
383.761	444.12
383.986	444.12
384.211	446.12
384.436	445.12
384.662	462.12
384.887	448.12
385.112	462.12
385.337	477.12
385.562	449.12
385.787	455.12
386.013	469.12
386.238	483.12
386.463	467.12
386.688	457.12
386.913	483.12
387.138	472.12
387.363	469.12
387.588	445.12
387.813	459.12
388.038	460.12
388.263	494.12
388.488	478.12
388.713	445.12
388.938	479.12
389.163	469.12
389.387	478.12
389.612	471.12
389.837	477.12
390.062	477.12
390.287	461.12
390.512	478.12
390.736	468.12
390.961	477.12
391.186	480.12
391.411	477.12
391.636	499.12
391.86	481.12
392.085	491.12
392.31	480.12
392.534	476.12
392.759	478.12
392.984	474.12
393.208	479.12
393.433	478.12
393.658	481.12
393.882	487.12
394.107	488.12
394.331	486.12
394.556	485.12
394.78	490.12
395.005	479.12
395.229	486.12
395.454	495.12
395.678	496.12
395.903	527.12
396.127	529.12
396.352	521.12
396.576	507.12
396.801	509.12
397.025	490.12
397.249	525.12
397.474	525.12
397.698	502.12
397.922	528.12
398.147	537.12
398.371	565.12
398.595	547.12
398.82	548.12
399.044	555.12
399.268	576.12
399.492	585.12
399.717	634.12
399.941	651.12
400.165	675.12
400.389	702.12
400.613	623.12
400.837	586.12
401.062	576.12
401.286	558.12
401.51	574.12
401.734	575.12
401.958	542.12
402.182	567.12
402.406	567.12
402.63	569.12
402.854	578.12
403.078	588.12
403.302	570.12
403.526	557.12
403.75	580.12
403.974	567.12
404.198	575.12
404.422	561.12
404.645	573.12
404.869	563.12
405.093	616.12
405.317	682.12
405.541	703.12
405.765	625.12
405.988	592.12
406.212	610.12
406.436	615.12
406.66	636.12
406.883	621.12
407.107	663.12
407.331	683.12
407.555	783.12
407.778	768.12
408.002	693.12
408.226	668.12
408.449	650.12
408.673	612.12
408.896	665.12
409.12	745.12
409.344	683.12
409.567	627.12
409.791	580.12
410.014	585.12
410.238	568.12
410.461	561.12
410.685	616.12
410.908	584.12
411.132	616.12
411.355	692.12
411.578	650.12
411.802	590.12
412.025	586.12
412.249	589.12
412.472	597.12
412.695	663.12
412.919	656.12
413.142	590.12
413.365	574.12
413.589	582.12
413.812	552.12
414.035	545.12
414.258	545.12
414.482	566.12
414.705	547.12
414.928	534.12
415.151	548.12
415.374	552.12
415.597	548.12
415.821	541.12
416.044	536.12
416.267	548.12
416.49	532.12
416.713	562.12
416.936	521.12
417.159	535.12
417.382	555.12
417.605	549.12
417.828	553.12
418.051	583.12
418.274	569.12
418.497	565.12
418.72	531.12
418.943	534.12
419.166	565.12
419.389	573.12
419.611	583.12
419.834	602.12
420.057	544.12
420.28	579.12
420.503	549.12
420.726	568.12
420.948	561.12
421.171	631.12
421.394	663.12
421.617	585.12
421.839	568.12
422.062	571.12
422.285	555.12
422.507	652.12
422.73	718.12
422.953	694.12
423.175	636.12
423.398	592.12
423.621	585.12
423.843	599.12
424.066	619.12
424.288	611.12
424.511	613.12
424.733	678.12
424.956	791.12
425.178	750.12
425.401	718.12
425.623	757.12
425.846	655.12
426.068	614.12
426.291	584.12
426.513	601.12
426.735	622.12
426.958	642.12
427.18	743.12
427.402	880.12
427.625	990.12
427.847	829.12
428.069	709.12
428.292	676.12
428.514	630.12
428.736	587.12
428.958	581.12
429.181	570.12
429.403	550.12
429.625	563.12
429.847	613.12
430.069	713.12
430.292	656.12
430.514	598.12
430.736	574.12
430.958	567.12
431.18	537.12
431.402	533.12
431.624	540.12
431.846	549.12
432.068	560.12
432.29	550.12
432.512	541.12
432.734	547.12
432.956	540.12
433.178	579.12
433.4	543.12
433.622	558.12
433.844	557.12
434.066	532.12
434.287	555.12
434.509	541.12
434.731	544.12
434.953	563.12
435.175	579.12
435.397	593.12
435.618	608.12
435.84	663.12
436.062	777.12
436.284	840.12
436.505	704.12
436.727	615.12
436.949	577.12
437.17	563.12
437.392	560.12
437.614	565.12
437.835	592.12
438.057	686.12
438.278	822.12
438.5	828.12
438.721	911.12
438.943	883.12
439.165	683.12
439.386	643.12
439.608	622.12
439.829	606.12
440.05	642.12
440.272	703.12
440.493	672.12
440.715	593.12
440.936	592.12
441.158	572.12
441.379	592.12
441.6	566.12
441.822	602.12
442.043	629.12
442.264	733.12
442.486	801.12
442.707	672.12
442.928	615.12
443.149	632.12
443.371	633.12
443.592	693.12
443.813	815.12
444.034	879.12
444.255	725.12
444.476	639.12
444.698	615.12
444.919	628.12
445.14	708.12
445.361	673.12
445.582	681.12
445.803	720.12
446.024	851.12
446.245	844.12
446.466	783.12
446.687	655.12
446.908	613.12
447.129	583.12
447.35	573.12
447.571	574.12
447.792	549.12
448.013	537.12
448.234	569.12
448.455	637.12
448.675	742.12
448.896	877.12
449.117	744.12
449.338	722.12
449.559	831.12
449.779	937.12
450	748.12
450.221	620.12
450.442	571.12
450.662	543.12
450.883	556.12
451.104	567.12
451.324	556.12
451.545	549.12
451.766	531.12
451.986	512.12
452.207	528.12
452.428	500.12
452.648	494.12
452.869	517.12
453.089	527.12
453.31	519.12
453.53	508.12
453.751	517.12
453.971	517.12
454.192	529.12
454.412	518.12
454.633	514.12
454.853	508.12
455.073	492.12
455.294	535.12
455.514	610.12
455.734	558.12
455.955	506.12
456.175	474.12
456.395	473.12
456.616	472.12
456.836	483.12
457.056	471.12
457.276	472.12
457.497	472.12
457.717	483.12
457.937	480.12
458.157	496.12
458.377	492.12
458.598	515.12
458.818	569.12
459.038	661.12
459.258	671.12
459.478	598.12
459.698	576.12
459.918	532.12
460.138	555.12
460.358	563.12
460.578	543.12
460.798	560.12
461.018	558.12
461.238	559.12
461.458	548.12
461.678	549.12
461.898	564.12
462.118	565.12
462.338	571.12
462.558	564.12
462.777	584.12
462.997	600.12
463.217	595.12
463.437	639.12
463.657	568.12
463.876	604.12
464.096	635.12
464.316	609.12
464.536	576.12
464.755	611.12
464.975	592.12
465.195	609.12
465.414	675.12
465.634	612.12
465.854	567.12
466.073	587.12
466.293	545.12
466.512	529.12
466.732	515.12
466.951	533.12
467.171	521.12
467.391	531.12
467.61	521.12
467.829	548.12
468.049	550.12
468.268	535.12
468.488	504.12
468.707	505.12
468.927	499.12
469.146	490.12
469.365	525.12
469.585	513.12
469.804	521.12
470.023	527.12
470.243	537.12
470.462	540.12
470.681	512.12
470.901	540.12
471.12	513.12
471.339	542.12
471.558	520.12
471.777	516.12
471.997	524.12
472.216	539.12
472.435	572.12
472.654	549.12
472.873	534.12
473.092	518.12
473.311	513.12
473.53	496.12
473.749	543.12
473.968	575.12
474.187	675.12
474.406	692.12
474.625	583.12
474.844	547.12
475.063	516.12
475.282	538.12
475.501	542.12
475.72	546.12
475.939	563.12
476.158	541.12
476.377	540.12
476.596	548.12
476.814	578.12
477.033	554.12
477.252	572.12
477.471	557.12
477.69	555.12
477.908	591.12
478.127	574.12
478.346	575.12
478.564	612.12
478.783	600.12
479.002	594.12
479.22	625.12
479.439	632.12
479.658	624.12
479.876	653.12
480.095	643.12
480.313	658.12
480.532	635.12
480.751	653.12
480.969	657.12
481.188	699.12
481.406	729.12
481.624	667.12
481.843	644.12
482.061	612.12
482.28	623.12
482.498	642.12
482.717	622.12
482.935	632.12
483.153	611.12
483.372	608.12
483.59	598.12
483.808	627.12
484.027	626.12
484.245	649.12
484.463	618.12
484.681	628.12
484.9	639.12
485.118	635.12
485.336	649.12
485.554	641.12
485.772	623.12
485.99	665.12
486.209	625.12
486.427	643.12
486.645	652.12
486.863	644.12
487.081	669.12
487.299	657.12
487.517	667.12
487.735	646.12
487.953	658.12
488.171	652.12
488.389	644.12
488.607	663.12
488.825	653.12
489.043	676.12
489.261	677.12
489.479	686.12
489.696	679.12
489.914	694.12
490.132	651.12
490.35	693.12
490.568	671.12
490.786	674.12
491.003	695.12
491.221	723.12
491.439	728.12
491.657	728.12
491.874	723.12
492.092	744.12
492.31	728.12
492.527	728.12
492.745	749.12
492.963	757.12
493.18	743.12
493.398	771.12
493.615	785.12
493.833	764.12
494.05	775.12
494.268	766.12
494.485	751.12
494.703	773.12
494.92	771.12
495.138	771.12
495.355	757.12
495.573	782.12
495.79	797.12
496.008	783.12
496.225	771.12
496.442	774.12
496.66	795.12
496.877	780.12
497.094	793.12
497.312	803.12
497.529	815.12
497.746	828.12
497.963	830.12
498.181	874.12
498.398	870.12
498.615	870.12
498.832	908.12
499.049	912.12
499.267	932.12
499.484	982.12
499.701	1033.12
499.918	1018.12
500.135	1087.12
500.352	1136.12
500.569	1128.12
500.786	1123.12
501.003	1099.12
501.22	1072.12
501.437	1045.12
501.654	1032.12
501.871	989.12
