Data from 1978.PennyLincolnUp.Lamp.En5.5.200Scan.071719.P1_HRD10591_16-14-08-863.txt Node
Date: Thu Jul 18 16:14:08 EDT 2019
User: cochatt
Spectrometer: HR+D1059
Trigger mode: 1
Integration Time (sec): 1.000000E-1
Scans to average: 1
Electric dark correction enabled: true
Nonlinearity correction enabled: false
Boxcar width: 0
XAxis mode: Wavelengths
Number of Pixels in Spectrum: 2048
>>>>>Begin Spectral Data<<<<<
223.165	-18.44
223.4	-18.44
223.635	-18.44
223.869	-17.44
224.104	-11.44
224.338	-13.44
224.573	-17.44
224.808	-23.44
225.042	-10.44
225.277	0.56
225.511	-5.44
225.746	3.56
225.98	2.56
226.215	9.56
226.449	7.56
226.683	20.56
226.918	30.56
227.152	42.56
227.387	35.56
227.621	41.56
227.856	50.56
228.09	39.56
228.324	45.56
228.559	38.56
228.793	58.56
229.027	96.56
229.262	121.56
229.496	114.56
229.73	127.56
229.964	152.56
230.199	142.56
230.433	117.56
230.667	109.56
230.901	125.56
231.136	114.56
231.37	100.56
231.604	102.56
231.838	122.56
232.072	112.56
232.306	119.56
232.541	114.56
232.775	117.56
233.009	123.56
233.243	125.56
233.477	105.56
233.711	111.56
233.945	126.56
234.179	107.56
234.413	119.56
234.647	107.56
234.881	115.56
235.115	122.56
235.349	127.56
235.583	123.56
235.817	125.56
236.051	116.56
236.285	109.56
236.519	126.56
236.753	135.56
236.987	139.56
237.221	179.56
237.455	229.56
237.689	189.56
237.922	152.56
238.156	138.56
238.39	123.56
238.624	137.56
238.858	119.56
239.091	117.56
239.325	119.56
239.559	136.56
239.793	129.56
240.027	131.56
240.26	135.56
240.494	151.56
240.728	144.56
240.961	136.56
241.195	137.56
241.429	140.56
241.662	128.56
241.896	134.56
242.13	136.56
242.363	134.56
242.597	141.56
242.83	135.56
243.064	132.56
243.298	148.56
243.531	155.56
243.765	147.56
243.998	134.56
244.232	128.56
244.465	147.56
244.699	128.56
244.932	141.56
245.166	148.56
245.399	140.56
245.633	134.56
245.866	141.56
246.099	140.56
246.333	147.56
246.566	145.56
246.8	143.56
247.033	144.56
247.266	151.56
247.5	150.56
247.733	160.56
247.966	157.56
248.2	178.56
248.433	170.56
248.666	149.56
248.899	177.56
249.133	208.56
249.366	190.56
249.599	194.56
249.832	164.56
250.066	172.56
250.299	171.56
250.532	195.56
250.765	182.56
250.998	221.56
251.231	221.56
251.465	199.56
251.698	174.56
251.931	189.56
252.164	187.56
252.397	188.56
252.63	180.56
252.863	189.56
253.096	179.56
253.329	203.56
253.562	209.56
253.795	220.56
254.028	203.56
254.261	223.56
254.494	226.56
254.727	236.56
254.96	241.56
255.193	239.56
255.426	230.56
255.659	223.56
255.892	223.56
256.124	215.56
256.357	214.56
256.59	233.56
256.823	221.56
257.056	222.56
257.289	213.56
257.521	213.56
257.754	202.56
257.987	194.56
258.22	203.56
258.452	197.56
258.685	198.56
258.918	205.56
259.151	200.56
259.383	212.56
259.616	207.56
259.849	204.56
260.081	221.56
260.314	224.56
260.547	227.56
260.779	238.56
261.012	215.56
261.244	215.56
261.477	224.56
261.71	212.56
261.942	207.56
262.175	243.56
262.407	231.56
262.64	210.56
262.872	212.56
263.105	205.56
263.337	219.56
263.57	187.56
263.802	207.56
264.035	208.56
264.267	197.56
264.499	213.56
264.732	213.56
264.964	221.56
265.197	211.56
265.429	202.56
265.661	197.56
265.894	209.56
266.126	204.56
266.358	215.56
266.591	222.56
266.823	219.56
267.055	230.56
267.287	216.56
267.52	213.56
267.752	243.56
267.984	236.56
268.216	227.56
268.448	224.56
268.681	228.56
268.913	245.56
269.145	244.56
269.377	262.56
269.609	248.56
269.841	262.56
270.073	259.56
270.306	264.56
270.538	314.56
270.77	292.56
271.002	274.56
271.234	279.56
271.466	291.56
271.698	292.56
271.93	303.56
272.162	296.56
272.394	308.56
272.626	311.56
272.858	263.56
273.09	266.56
273.322	256.56
273.553	274.56
273.785	248.56
274.017	243.56
274.249	258.56
274.481	249.56
274.713	270.56
274.945	248.56
275.176	249.56
275.408	248.56
275.64	263.56
275.872	253.56
276.104	245.56
276.335	265.56
276.567	270.56
276.799	273.56
277.031	273.56
277.262	297.56
277.494	291.56
277.726	285.56
277.957	281.56
278.189	262.56
278.421	247.56
278.652	253.56
278.884	263.56
279.115	254.56
279.347	276.56
279.579	250.56
279.81	274.56
280.042	265.56
280.273	247.56
280.505	247.56
280.736	249.56
280.968	258.56
281.199	246.56
281.431	252.56
281.662	255.56
281.894	242.56
282.125	257.56
282.356	272.56
282.588	318.56
282.819	302.56
283.051	261.56
283.282	275.56
283.513	262.56
283.745	277.56
283.976	271.56
284.207	287.56
284.439	269.56
284.67	255.56
284.901	260.56
285.132	275.56
285.364	270.56
285.595	282.56
285.826	273.56
286.057	268.56
286.288	290.56
286.52	277.56
286.751	269.56
286.982	288.56
287.213	256.56
287.444	293.56
287.675	262.56
287.906	293.56
288.138	285.56
288.369	294.56
288.6	297.56
288.831	295.56
289.062	301.56
289.293	300.56
289.524	295.56
289.755	302.56
289.986	284.56
290.217	279.56
290.448	268.56
290.679	283.56
290.91	277.56
291.141	286.56
291.371	291.56
291.602	280.56
291.833	289.56
292.064	294.56
292.295	286.56
292.526	294.56
292.757	283.56
292.987	262.56
293.218	286.56
293.449	276.56
293.68	288.56
293.91	286.56
294.141	292.56
294.372	293.56
294.603	300.56
294.833	286.56
295.064	291.56
295.295	300.56
295.525	279.56
295.756	301.56
295.987	301.56
296.217	310.56
296.448	330.56
296.679	289.56
296.909	298.56
297.14	307.56
297.37	317.56
297.601	278.56
297.831	314.56
298.062	288.56
298.292	286.56
298.523	301.56
298.753	309.56
298.984	299.56
299.214	302.56
299.445	307.56
299.675	306.56
299.905	305.56
300.136	302.56
300.366	286.56
300.597	301.56
300.827	311.56
301.057	308.56
301.288	327.56
301.518	325.56
301.748	307.56
301.979	329.56
302.209	310.56
302.439	323.56
302.669	319.56
302.9	338.56
303.13	330.56
303.36	309.56
303.59	343.56
303.82	330.56
304.051	340.56
304.281	318.56
304.511	332.56
304.741	316.56
304.971	325.56
305.201	314.56
305.431	307.56
305.661	323.56
305.891	319.56
306.121	303.56
306.352	332.56
306.582	331.56
306.812	323.56
307.042	315.56
307.272	326.56
307.502	325.56
307.731	334.56
307.961	325.56
308.191	314.56
308.421	328.56
308.651	348.56
308.881	319.56
309.111	335.56
309.341	327.56
309.571	335.56
309.8	345.56
310.03	363.56
310.26	357.56
310.49	368.56
310.72	367.56
310.949	376.56
311.179	397.56
311.409	389.56
311.639	376.56
311.868	374.56
312.098	358.56
312.328	361.56
312.557	378.56
312.787	410.56
313.017	403.56
313.246	375.56
313.476	373.56
313.706	364.56
313.935	374.56
314.165	394.56
314.394	381.56
314.624	385.56
314.853	386.56
315.083	375.56
315.312	356.56
315.542	363.56
315.771	357.56
316.001	359.56
316.23	366.56
316.46	377.56
316.689	357.56
316.919	367.56
317.148	385.56
317.377	388.56
317.607	378.56
317.836	382.56
318.065	388.56
318.295	368.56
318.524	366.56
318.753	367.56
318.983	363.56
319.212	370.56
319.441	381.56
319.67	398.56
319.9	372.56
320.129	379.56
320.358	385.56
320.587	388.56
320.816	391.56
321.046	405.56
321.275	384.56
321.504	406.56
321.733	393.56
321.962	408.56
322.191	435.56
322.42	425.56
322.649	451.56
322.878	435.56
323.108	447.56
323.337	428.56
323.566	488.56
323.795	528.56
324.024	558.56
324.253	666.56
324.482	965.56
324.71	1566.56
324.939	2394.56
325.168	2063.56
325.397	1012.56
325.626	669.56
325.855	558.56
326.084	499.56
326.313	520.56
326.542	484.56
326.77	549.56
326.999	648.56
327.228	888.56
327.457	1434.56
327.686	1844.56
327.914	1131.56
328.143	700.56
328.372	629.56
328.6	590.56
328.829	554.56
329.058	563.56
329.287	590.56
329.515	553.56
329.744	501.56
329.972	520.56
330.201	501.56
330.43	550.56
330.658	575.56
330.887	578.56
331.115	586.56
331.344	532.56
331.572	483.56
331.801	490.56
332.03	501.56
332.258	474.56
332.486	460.56
332.715	459.56
332.943	467.56
333.172	449.56
333.4	440.56
333.629	463.56
333.857	476.56
334.085	504.56
334.314	510.56
334.542	529.56
334.771	530.56
334.999	525.56
335.227	488.56
335.455	471.56
335.684	455.56
335.912	462.56
336.14	442.56
336.369	438.56
336.597	461.56
336.825	461.56
337.053	459.56
337.281	445.56
337.51	428.56
337.738	444.56
337.966	447.56
338.194	470.56
338.422	440.56
338.65	441.56
338.878	456.56
339.106	438.56
339.334	452.56
339.562	406.56
339.79	421.56
340.018	414.56
340.246	432.56
340.474	443.56
340.702	434.56
340.93	416.56
341.158	420.56
341.386	425.56
341.614	435.56
341.842	440.56
342.07	437.56
342.298	448.56
342.526	430.56
342.754	412.56
342.981	419.56
343.209	404.56
343.437	423.56
343.665	424.56
343.893	445.56
344.12	460.56
344.348	435.56
344.576	442.56
344.804	440.56
345.031	443.56
345.259	464.56
345.487	454.56
345.714	446.56
345.942	440.56
346.17	413.56
346.397	426.56
346.625	429.56
346.853	423.56
347.08	407.56
347.308	442.56
347.535	422.56
347.763	438.56
347.99	426.56
348.218	435.56
348.445	422.56
348.673	448.56
348.9	429.56
349.128	427.56
349.355	427.56
349.583	409.56
349.81	407.56
350.037	411.56
350.265	408.56
350.492	397.56
350.72	410.56
350.947	422.56
351.174	416.56
351.402	440.56
351.629	434.56
351.856	423.56
352.083	422.56
352.311	441.56
352.538	450.56
352.765	449.56
352.992	447.56
353.22	435.56
353.447	429.56
353.674	398.56
353.901	403.56
354.128	394.56
354.355	403.56
354.583	414.56
354.81	402.56
355.037	402.56
355.264	396.56
355.491	390.56
355.718	390.56
355.945	399.56
356.172	398.56
356.399	393.56
356.626	385.56
356.853	386.56
357.08	405.56
357.307	404.56
357.534	398.56
357.761	390.56
357.988	396.56
358.215	397.56
358.441	389.56
358.668	396.56
358.895	415.56
359.122	398.56
359.349	412.56
359.576	442.56
359.802	452.56
360.029	475.56
360.256	479.56
360.483	467.56
360.709	412.56
360.936	422.56
361.163	429.56
361.39	432.56
361.616	432.56
361.843	423.56
362.07	403.56
362.296	427.56
362.523	425.56
362.749	413.56
362.976	430.56
363.203	419.56
363.429	413.56
363.656	413.56
363.882	422.56
364.109	411.56
364.335	389.56
364.562	390.56
364.788	399.56
365.015	424.56
365.241	406.56
365.468	426.56
365.694	410.56
365.92	413.56
366.147	403.56
366.373	407.56
366.599	400.56
366.826	433.56
367.052	401.56
367.278	412.56
367.505	412.56
367.731	428.56
367.957	407.56
368.184	393.56
368.41	410.56
368.636	428.56
368.862	433.56
369.089	424.56
369.315	408.56
369.541	405.56
369.767	422.56
369.993	425.56
370.219	434.56
370.445	402.56
370.672	421.56
370.898	411.56
371.124	399.56
371.35	396.56
371.576	413.56
371.802	416.56
372.028	412.56
372.254	409.56
372.48	423.56
372.706	408.56
372.932	407.56
373.158	419.56
373.384	422.56
373.61	407.56
373.835	397.56
374.061	422.56
374.287	417.56
374.513	411.56
374.739	434.56
374.965	430.56
375.191	448.56
375.416	427.56
375.642	422.56
375.868	445.56
376.094	431.56
376.319	400.56
376.545	420.56
376.771	424.56
376.997	431.56
377.222	418.56
377.448	414.56
377.674	425.56
377.899	412.56
378.125	418.56
378.35	410.56
378.576	398.56
378.802	408.56
379.027	391.56
379.253	407.56
379.478	430.56
379.704	426.56
379.929	415.56
380.155	418.56
380.38	438.56
380.606	426.56
380.831	400.56
381.057	422.56
381.282	399.56
381.507	410.56
381.733	447.56
381.958	411.56
382.184	432.56
382.409	440.56
382.634	421.56
382.86	430.56
383.085	443.56
383.31	454.56
383.535	436.56
383.761	444.56
383.986	444.56
384.211	443.56
384.436	428.56
384.662	448.56
384.887	450.56
385.112	428.56
385.337	461.56
385.562	482.56
385.787	467.56
386.013	465.56
386.238	474.56
386.463	469.56
386.688	465.56
386.913	467.56
387.138	451.56
387.363	460.56
387.588	485.56
387.813	475.56
388.038	457.56
388.263	451.56
388.488	463.56
388.713	460.56
388.938	474.56
389.163	472.56
389.387	454.56
389.612	469.56
389.837	459.56
390.062	474.56
390.287	470.56
390.512	460.56
390.736	448.56
390.961	498.56
391.186	477.56
391.411	482.56
391.636	464.56
391.86	482.56
392.085	475.56
392.31	495.56
392.534	460.56
392.759	495.56
392.984	455.56
393.208	473.56
393.433	461.56
393.658	474.56
393.882	476.56
394.107	477.56
394.331	465.56
394.556	484.56
394.78	454.56
395.005	472.56
395.229	486.56
395.454	473.56
395.678	473.56
395.903	509.56
396.127	524.56
396.352	523.56
396.576	512.56
396.801	484.56
397.025	490.56
397.249	496.56
397.474	500.56
397.698	487.56
397.922	523.56
398.147	532.56
398.371	540.56
398.595	536.56
398.82	522.56
399.044	557.56
399.268	567.56
399.492	589.56
399.717	611.56
399.941	614.56
400.165	683.56
400.389	684.56
400.613	628.56
400.837	568.56
401.062	549.56
401.286	559.56
401.51	549.56
401.734	535.56
401.958	540.56
402.182	559.56
402.406	574.56
402.63	552.56
402.854	544.56
403.078	546.56
403.302	573.56
403.526	592.56
403.75	562.56
403.974	535.56
404.198	563.56
404.422	569.56
404.645	544.56
404.869	575.56
405.093	608.56
405.317	666.56
405.541	671.56
405.765	612.56
405.988	603.56
406.212	583.56
406.436	610.56
406.66	637.56
406.883	598.56
407.107	634.56
407.331	682.56
407.555	740.56
407.778	764.56
408.002	684.56
408.226	645.56
408.449	614.56
408.673	632.56
408.896	660.56
409.12	696.56
409.344	662.56
409.567	596.56
409.791	585.56
410.014	572.56
410.238	574.56
410.461	589.56
410.685	588.56
410.908	603.56
411.132	620.56
411.355	663.56
411.578	626.56
411.802	564.56
412.025	558.56
412.249	586.56
412.472	597.56
412.695	645.56
412.919	629.56
413.142	580.56
413.365	534.56
413.589	575.56
413.812	550.56
414.035	559.56
414.258	550.56
414.482	565.56
414.705	531.56
414.928	563.56
415.151	548.56
415.374	556.56
415.597	548.56
415.821	539.56
416.044	534.56
416.267	536.56
416.49	552.56
416.713	533.56
416.936	524.56
417.159	556.56
417.382	534.56
417.605	547.56
417.828	548.56
418.051	553.56
418.274	574.56
418.497	534.56
418.72	540.56
418.943	531.56
419.166	557.56
419.389	594.56
419.611	590.56
419.834	563.56
420.057	554.56
420.28	570.56
420.503	559.56
420.726	555.56
420.948	568.56
421.171	624.56
421.394	649.56
421.617	578.56
421.839	555.56
422.062	574.56
422.285	552.56
422.507	594.56
422.73	710.56
422.953	678.56
423.175	608.56
423.398	586.56
423.621	595.56
423.843	596.56
424.066	600.56
424.288	598.56
424.511	633.56
424.733	676.56
424.956	742.56
425.178	748.56
425.401	725.56
425.623	762.56
425.846	637.56
426.068	598.56
426.291	592.56
426.513	561.56
426.735	608.56
426.958	645.56
427.18	728.56
427.402	912.56
427.625	974.56
427.847	879.56
428.069	738.56
428.292	648.56
428.514	595.56
428.736	566.56
428.958	563.56
429.181	562.56
429.403	556.56
429.625	545.56
429.847	580.56
430.069	662.56
430.292	670.56
430.514	589.56
430.736	550.56
430.958	550.56
431.18	549.56
431.402	538.56
431.624	550.56
431.846	533.56
432.068	520.56
432.29	537.56
432.512	535.56
432.734	541.56
432.956	540.56
433.178	538.56
433.4	557.56
433.622	536.56
433.844	522.56
434.066	539.56
434.287	546.56
434.509	537.56
434.731	547.56
434.953	560.56
435.175	560.56
435.397	590.56
435.618	589.56
435.84	635.56
436.062	755.56
436.284	855.56
436.505	679.56
436.727	616.56
436.949	591.56
437.17	549.56
437.392	551.56
437.614	567.56
437.835	580.56
438.057	669.56
438.278	842.56
438.5	810.56
438.721	898.56
438.943	871.56
439.165	672.56
439.386	629.56
439.608	600.56
439.829	604.56
440.05	662.56
440.272	700.56
440.493	663.56
440.715	580.56
440.936	592.56
441.158	578.56
441.379	574.56
441.6	578.56
441.822	614.56
442.043	636.56
442.264	727.56
442.486	812.56
442.707	676.56
442.928	629.56
443.149	607.56
443.371	656.56
443.592	679.56
443.813	798.56
444.034	889.56
444.255	708.56
444.476	626.56
444.698	635.56
444.919	631.56
445.14	700.56
445.361	655.56
445.582	664.56
445.803	707.56
446.024	863.56
446.245	869.56
446.466	801.56
446.687	663.56
446.908	603.56
447.129	569.56
447.35	561.56
447.571	548.56
447.792	566.56
448.013	544.56
448.234	572.56
448.455	635.56
448.675	766.56
448.896	895.56
449.117	745.56
449.338	700.56
449.559	847.56
449.779	957.56
450	744.56
450.221	619.56
450.442	572.56
450.662	559.56
450.883	557.56
451.104	548.56
451.324	542.56
451.545	524.56
451.766	510.56
451.986	496.56
452.207	498.56
452.428	493.56
452.648	505.56
452.869	483.56
453.089	479.56
453.31	507.56
453.53	503.56
453.751	490.56
453.971	487.56
454.192	515.56
454.412	519.56
454.633	516.56
454.853	515.56
455.073	492.56
455.294	525.56
455.514	592.56
455.734	590.56
455.955	475.56
456.175	500.56
456.395	460.56
456.616	471.56
456.836	462.56
457.056	462.56
457.276	472.56
457.497	454.56
457.717	479.56
457.937	458.56
458.157	470.56
458.377	478.56
458.598	524.56
458.818	551.56
459.038	670.56
459.258	682.56
459.478	592.56
459.698	542.56
459.918	538.56
460.138	551.56
460.358	534.56
460.578	535.56
460.798	536.56
461.018	533.56
461.238	544.56
461.458	579.56
461.678	543.56
461.898	536.56
462.118	565.56
462.338	547.56
462.558	570.56
462.777	584.56
462.997	588.56
463.217	610.56
463.437	603.56
463.657	585.56
463.876	573.56
464.096	576.56
464.316	576.56
464.536	566.56
464.755	595.56
464.975	590.56
465.195	615.56
465.414	665.56
465.634	594.56
465.854	586.56
466.073	557.56
466.293	551.56
466.512	538.56
466.732	532.56
466.951	525.56
467.171	519.56
467.391	524.56
467.61	537.56
467.829	538.56
468.049	535.56
468.268	525.56
468.488	474.56
468.707	496.56
468.927	523.56
469.146	503.56
469.365	501.56
469.585	511.56
469.804	519.56
470.023	521.56
470.243	527.56
470.462	531.56
470.681	548.56
470.901	532.56
471.12	531.56
471.339	528.56
471.558	525.56
471.777	518.56
471.997	517.56
472.216	523.56
472.435	540.56
472.654	524.56
472.873	550.56
473.092	544.56
473.311	500.56
473.53	518.56
473.749	525.56
473.968	551.56
474.187	657.56
474.406	692.56
474.625	571.56
474.844	560.56
475.063	526.56
475.282	515.56
475.501	527.56
475.72	538.56
475.939	534.56
476.158	528.56
476.377	518.56
476.596	547.56
476.814	550.56
477.033	534.56
477.252	552.56
477.471	553.56
477.69	544.56
477.908	594.56
478.127	562.56
478.346	564.56
478.564	575.56
478.783	569.56
479.002	611.56
479.22	600.56
479.439	627.56
479.658	634.56
479.876	634.56
480.095	620.56
480.313	685.56
480.532	633.56
480.751	648.56
480.969	647.56
481.188	676.56
481.406	736.56
481.624	679.56
481.843	628.56
482.061	630.56
482.28	604.56
482.498	624.56
482.717	629.56
482.935	613.56
483.153	603.56
483.372	606.56
483.59	628.56
483.808	598.56
484.027	607.56
484.245	615.56
484.463	609.56
484.681	635.56
484.9	645.56
485.118	635.56
485.336	623.56
485.554	612.56
485.772	632.56
485.99	634.56
486.209	612.56
486.427	628.56
486.645	665.56
486.863	656.56
487.081	661.56
487.299	648.56
487.517	644.56
487.735	645.56
487.953	632.56
488.171	645.56
488.389	636.56
488.607	656.56
488.825	666.56
489.043	661.56
489.261	656.56
489.479	676.56
489.696	655.56
489.914	656.56
490.132	665.56
490.35	692.56
490.568	694.56
490.786	689.56
491.003	702.56
491.221	706.56
491.439	711.56
491.657	696.56
491.874	713.56
492.092	715.56
492.31	724.56
492.527	732.56
492.745	755.56
492.963	735.56
493.18	752.56
493.398	733.56
493.615	760.56
493.833	789.56
494.05	744.56
494.268	795.56
494.485	724.56
494.703	742.56
494.92	750.56
495.138	772.56
495.355	758.56
495.573	747.56
495.79	758.56
496.008	764.56
496.225	754.56
496.442	776.56
496.66	775.56
496.877	751.56
497.094	763.56
497.312	788.56
497.529	805.56
497.746	792.56
497.963	829.56
498.181	825.56
498.398	847.56
498.615	864.56
498.832	868.56
499.049	896.56
499.267	912.56
499.484	952.56
499.701	966.56
499.918	1007.56
500.135	1036.56
500.352	1084.56
500.569	1094.56
500.786	1102.56
501.003	1113.56
501.22	1037.56
501.437	1007.56
501.654	997.56
501.871	1019.56
