Data from 1978.PennyLincolnUp.Lamp.En5.5.200Scan.071719.P1_HRD10591_16-14-26-863.txt Node
Date: Thu Jul 18 16:14:26 EDT 2019
User: cochatt
Spectrometer: HR+D1059
Trigger mode: 1
Integration Time (sec): 1.000000E-1
Scans to average: 1
Electric dark correction enabled: true
Nonlinearity correction enabled: false
Boxcar width: 0
XAxis mode: Wavelengths
Number of Pixels in Spectrum: 2048
>>>>>Begin Spectral Data<<<<<
223.165	-12.81
223.4	-12.81
223.635	-12.81
223.869	-16.81
224.104	-12.81
224.338	-5.81
224.573	-9.81
224.808	-7.81
225.042	-1.81
225.277	-3.81
225.511	-18.81
225.746	3.19
225.98	-6.81
226.215	13.19
226.449	10.19
226.683	26.19
226.918	21.19
227.152	23.19
227.387	51.19
227.621	32.19
227.856	45.19
228.09	39.19
228.324	30.19
228.559	56.19
228.793	70.19
229.027	95.19
229.262	119.19
229.496	127.19
229.73	146.19
229.964	156.19
230.199	149.19
230.433	126.19
230.667	135.19
230.901	116.19
231.136	117.19
231.37	107.19
231.604	104.19
231.838	104.19
232.072	125.19
232.306	121.19
232.541	120.19
232.775	108.19
233.009	107.19
233.243	120.19
233.477	102.19
233.711	106.19
233.945	116.19
234.179	117.19
234.413	121.19
234.647	102.19
234.881	129.19
235.115	131.19
235.349	113.19
235.583	133.19
235.817	122.19
236.051	112.19
236.285	129.19
236.519	127.19
236.753	128.19
236.987	151.19
237.221	189.19
237.455	248.19
237.689	193.19
237.922	140.19
238.156	142.19
238.39	144.19
238.624	123.19
238.858	125.19
239.091	112.19
239.325	135.19
239.559	123.19
239.793	135.19
240.027	157.19
240.26	143.19
240.494	155.19
240.728	161.19
240.961	155.19
241.195	158.19
241.429	141.19
241.662	133.19
241.896	134.19
242.13	131.19
242.363	127.19
242.597	154.19
242.83	145.19
243.064	141.19
243.298	137.19
243.531	131.19
243.765	138.19
243.998	153.19
244.232	153.19
244.465	132.19
244.699	149.19
244.932	150.19
245.166	155.19
245.399	156.19
245.633	148.19
245.866	154.19
246.099	139.19
246.333	153.19
246.566	152.19
246.8	134.19
247.033	147.19
247.266	156.19
247.5	172.19
247.733	179.19
247.966	157.19
248.2	168.19
248.433	172.19
248.666	161.19
248.899	182.19
249.133	176.19
249.366	211.19
249.599	215.19
249.832	196.19
250.066	183.19
250.299	184.19
250.532	195.19
250.765	200.19
250.998	215.19
251.231	206.19
251.465	228.19
251.698	197.19
251.931	212.19
252.164	210.19
252.397	193.19
252.63	209.19
252.863	196.19
253.096	215.19
253.329	218.19
253.562	216.19
253.795	201.19
254.028	197.19
254.261	204.19
254.494	228.19
254.727	247.19
254.96	260.19
255.193	258.19
255.426	243.19
255.659	235.19
255.892	228.19
256.124	213.19
256.357	218.19
256.59	216.19
256.823	223.19
257.056	207.19
257.289	208.19
257.521	215.19
257.754	204.19
257.987	202.19
258.22	207.19
258.452	205.19
258.685	197.19
258.918	204.19
259.151	189.19
259.383	214.19
259.616	218.19
259.849	234.19
260.081	233.19
260.314	259.19
260.547	255.19
260.779	232.19
261.012	234.19
261.244	233.19
261.477	223.19
261.71	201.19
261.942	221.19
262.175	222.19
262.407	234.19
262.64	196.19
262.872	205.19
263.105	209.19
263.337	218.19
263.57	216.19
263.802	214.19
264.035	211.19
264.267	207.19
264.499	217.19
264.732	226.19
264.964	211.19
265.197	213.19
265.429	212.19
265.661	234.19
265.894	228.19
266.126	220.19
266.358	217.19
266.591	208.19
266.823	237.19
267.055	218.19
267.287	224.19
267.52	231.19
267.752	234.19
267.984	231.19
268.216	229.19
268.448	237.19
268.681	241.19
268.913	255.19
269.145	252.19
269.377	288.19
269.609	269.19
269.841	245.19
270.073	247.19
270.306	298.19
270.538	306.19
270.77	303.19
271.002	293.19
271.234	299.19
271.466	291.19
271.698	305.19
271.93	311.19
272.162	301.19
272.394	318.19
272.626	291.19
272.858	273.19
273.09	279.19
273.322	289.19
273.553	269.19
273.785	268.19
274.017	250.19
274.249	240.19
274.481	266.19
274.713	257.19
274.945	265.19
275.176	257.19
275.408	273.19
275.64	254.19
275.872	265.19
276.104	285.19
276.335	279.19
276.567	278.19
276.799	286.19
277.031	329.19
277.262	323.19
277.494	330.19
277.726	305.19
277.957	301.19
278.189	294.19
278.421	278.19
278.652	268.19
278.884	268.19
279.115	259.19
279.347	286.19
279.579	260.19
279.81	263.19
280.042	250.19
280.273	255.19
280.505	269.19
280.736	273.19
280.968	256.19
281.199	276.19
281.431	269.19
281.662	257.19
281.894	264.19
282.125	274.19
282.356	302.19
282.588	315.19
282.819	321.19
283.051	298.19
283.282	283.19
283.513	284.19
283.745	270.19
283.976	293.19
284.207	288.19
284.439	289.19
284.67	292.19
284.901	273.19
285.132	293.19
285.364	293.19
285.595	290.19
285.826	286.19
286.057	281.19
286.288	275.19
286.52	279.19
286.751	281.19
286.982	278.19
287.213	296.19
287.444	288.19
287.675	298.19
287.906	298.19
288.138	302.19
288.369	318.19
288.6	301.19
288.831	302.19
289.062	304.19
289.293	301.19
289.524	288.19
289.755	293.19
289.986	299.19
290.217	290.19
290.448	283.19
290.679	278.19
290.91	301.19
291.141	284.19
291.371	311.19
291.602	307.19
291.833	298.19
292.064	297.19
292.295	280.19
292.526	309.19
292.757	295.19
292.987	270.19
293.218	296.19
293.449	306.19
293.68	307.19
293.91	295.19
294.141	317.19
294.372	289.19
294.603	293.19
294.833	293.19
295.064	299.19
295.295	311.19
295.525	314.19
295.756	309.19
295.987	310.19
296.217	333.19
296.448	343.19
296.679	311.19
296.909	302.19
297.14	311.19
297.37	298.19
297.601	296.19
297.831	300.19
298.062	295.19
298.292	319.19
298.523	311.19
298.753	304.19
298.984	288.19
299.214	313.19
299.445	331.19
299.675	323.19
299.905	337.19
300.136	330.19
300.366	332.19
300.597	328.19
300.827	315.19
301.057	323.19
301.288	343.19
301.518	317.19
301.748	307.19
301.979	342.19
302.209	346.19
302.439	356.19
302.669	325.19
302.9	316.19
303.13	347.19
303.36	349.19
303.59	337.19
303.82	344.19
304.051	337.19
304.281	326.19
304.511	311.19
304.741	324.19
304.971	346.19
305.201	367.19
305.431	335.19
305.661	345.19
305.891	310.19
306.121	332.19
306.352	337.19
306.582	362.19
306.812	344.19
307.042	344.19
307.272	338.19
307.502	348.19
307.731	347.19
307.961	359.19
308.191	342.19
308.421	348.19
308.651	360.19
308.881	343.19
309.111	345.19
309.341	361.19
309.571	356.19
309.8	343.19
310.03	378.19
310.26	391.19
310.49	399.19
310.72	390.19
310.949	397.19
311.179	400.19
311.409	377.19
311.639	391.19
311.868	376.19
312.098	373.19
312.328	381.19
312.557	404.19
312.787	425.19
313.017	409.19
313.246	424.19
313.476	376.19
313.706	381.19
313.935	385.19
314.165	404.19
314.394	412.19
314.624	404.19
314.853	406.19
315.083	405.19
315.312	402.19
315.542	374.19
315.771	374.19
316.001	385.19
316.23	396.19
316.46	376.19
316.689	397.19
316.919	384.19
317.148	390.19
317.377	396.19
317.607	389.19
317.836	387.19
318.065	394.19
318.295	388.19
318.524	388.19
318.753	375.19
318.983	390.19
319.212	391.19
319.441	401.19
319.67	407.19
319.9	395.19
320.129	394.19
320.358	406.19
320.587	397.19
320.816	379.19
321.046	390.19
321.275	418.19
321.504	435.19
321.733	399.19
321.962	431.19
322.191	437.19
322.42	441.19
322.649	448.19
322.878	454.19
323.108	446.19
323.337	482.19
323.566	517.19
323.795	532.19
324.024	596.19
324.253	724.19
324.482	1036.19
324.71	1683.19
324.939	2577.19
325.168	2163.19
325.397	1051.19
325.626	719.19
325.855	584.19
326.084	526.19
326.313	527.19
326.542	516.19
326.77	549.19
326.999	662.19
327.228	947.19
327.457	1507.19
327.686	1923.19
327.914	1216.19
328.143	749.19
328.372	645.19
328.6	598.19
328.829	583.19
329.058	613.19
329.287	588.19
329.515	569.19
329.744	519.19
329.972	543.19
330.201	541.19
330.43	590.19
330.658	586.19
330.887	614.19
331.115	624.19
331.344	544.19
331.572	527.19
331.801	504.19
332.03	499.19
332.258	485.19
332.486	467.19
332.715	499.19
332.943	486.19
333.172	487.19
333.4	479.19
333.629	496.19
333.857	503.19
334.085	511.19
334.314	513.19
334.542	553.19
334.771	575.19
334.999	517.19
335.227	510.19
335.455	485.19
335.684	469.19
335.912	495.19
336.14	445.19
336.369	469.19
336.597	467.19
336.825	470.19
337.053	460.19
337.281	480.19
337.51	462.19
337.738	459.19
337.966	453.19
338.194	480.19
338.422	467.19
338.65	458.19
338.878	468.19
339.106	442.19
339.334	451.19
339.562	435.19
339.79	444.19
340.018	441.19
340.246	459.19
340.474	464.19
340.702	469.19
340.93	464.19
341.158	432.19
341.386	446.19
341.614	466.19
341.842	450.19
342.07	446.19
342.298	429.19
342.526	442.19
342.754	443.19
342.981	444.19
343.209	444.19
343.437	444.19
343.665	445.19
343.893	455.19
344.12	461.19
344.348	462.19
344.576	474.19
344.804	447.19
345.031	450.19
345.259	475.19
345.487	485.19
345.714	441.19
345.942	437.19
346.17	432.19
346.397	436.19
346.625	452.19
346.853	452.19
347.08	433.19
347.308	454.19
347.535	433.19
347.763	447.19
347.99	447.19
348.218	464.19
348.445	458.19
348.673	462.19
348.9	441.19
349.128	440.19
349.355	433.19
349.583	441.19
349.81	428.19
350.037	425.19
350.265	427.19
350.492	431.19
350.72	429.19
350.947	435.19
351.174	451.19
351.402	458.19
351.629	440.19
351.856	413.19
352.083	430.19
352.311	444.19
352.538	476.19
352.765	464.19
352.992	432.19
353.22	444.19
353.447	430.19
353.674	437.19
353.901	428.19
354.128	411.19
354.355	410.19
354.583	405.19
354.81	415.19
355.037	429.19
355.264	427.19
355.491	417.19
355.718	417.19
355.945	417.19
356.172	400.19
356.399	413.19
356.626	401.19
356.853	417.19
357.08	428.19
357.307	413.19
357.534	425.19
357.761	414.19
357.988	406.19
358.215	412.19
358.441	422.19
358.668	407.19
358.895	399.19
359.122	422.19
359.349	435.19
359.576	438.19
359.802	461.19
360.029	490.19
360.256	487.19
360.483	496.19
360.709	472.19
360.936	439.19
361.163	444.19
361.39	423.19
361.616	429.19
361.843	435.19
362.07	450.19
362.296	447.19
362.523	437.19
362.749	439.19
362.976	444.19
363.203	443.19
363.429	422.19
363.656	439.19
363.882	431.19
364.109	415.19
364.335	420.19
364.562	430.19
364.788	421.19
365.015	436.19
365.241	413.19
365.468	432.19
365.694	427.19
365.92	441.19
366.147	449.19
366.373	421.19
366.599	429.19
366.826	421.19
367.052	403.19
367.278	432.19
367.505	413.19
367.731	439.19
367.957	408.19
368.184	423.19
368.41	422.19
368.636	445.19
368.862	445.19
369.089	458.19
369.315	443.19
369.541	430.19
369.767	433.19
369.993	430.19
370.219	420.19
370.445	414.19
370.672	414.19
370.898	434.19
371.124	428.19
371.35	440.19
371.576	433.19
371.802	421.19
372.028	439.19
372.254	433.19
372.48	431.19
372.706	444.19
372.932	447.19
373.158	435.19
373.384	444.19
373.61	448.19
373.835	448.19
374.061	446.19
374.287	440.19
374.513	449.19
374.739	436.19
374.965	442.19
375.191	450.19
375.416	443.19
375.642	458.19
375.868	456.19
376.094	448.19
376.319	432.19
376.545	450.19
376.771	423.19
376.997	424.19
377.222	431.19
377.448	419.19
377.674	425.19
377.899	415.19
378.125	426.19
378.35	428.19
378.576	416.19
378.802	424.19
379.027	440.19
379.253	425.19
379.478	413.19
379.704	449.19
379.929	440.19
380.155	433.19
380.38	425.19
380.606	441.19
380.831	425.19
381.057	444.19
381.282	441.19
381.507	445.19
381.733	447.19
381.958	430.19
382.184	437.19
382.409	449.19
382.634	449.19
382.86	450.19
383.085	464.19
383.31	448.19
383.535	455.19
383.761	455.19
383.986	464.19
384.211	474.19
384.436	461.19
384.662	486.19
384.887	469.19
385.112	464.19
385.337	460.19
385.562	481.19
385.787	476.19
386.013	496.19
386.238	465.19
386.463	469.19
386.688	487.19
386.913	500.19
387.138	476.19
387.363	484.19
387.588	482.19
387.813	471.19
388.038	473.19
388.263	473.19
388.488	496.19
388.713	491.19
388.938	491.19
389.163	485.19
389.387	493.19
389.612	483.19
389.837	475.19
390.062	474.19
390.287	491.19
390.512	479.19
390.736	474.19
390.961	482.19
391.186	486.19
391.411	497.19
391.636	480.19
391.86	490.19
392.085	494.19
392.31	497.19
392.534	497.19
392.759	485.19
392.984	504.19
393.208	500.19
393.433	508.19
393.658	501.19
393.882	499.19
394.107	497.19
394.331	506.19
394.556	474.19
394.78	496.19
395.005	487.19
395.229	505.19
395.454	496.19
395.678	548.19
395.903	537.19
396.127	544.19
396.352	548.19
396.576	527.19
396.801	512.19
397.025	501.19
397.249	518.19
397.474	539.19
397.698	505.19
397.922	547.19
398.147	546.19
398.371	548.19
398.595	536.19
398.82	573.19
399.044	580.19
399.268	599.19
399.492	611.19
399.717	650.19
399.941	689.19
400.165	695.19
400.389	724.19
400.613	665.19
400.837	592.19
401.062	593.19
401.286	575.19
401.51	576.19
401.734	575.19
401.958	568.19
402.182	560.19
402.406	584.19
402.63	592.19
402.854	575.19
403.078	591.19
403.302	558.19
403.526	592.19
403.75	577.19
403.974	595.19
404.198	570.19
404.422	589.19
404.645	583.19
404.869	617.19
405.093	644.19
405.317	687.19
405.541	711.19
405.765	640.19
405.988	625.19
406.212	605.19
406.436	634.19
406.66	659.19
406.883	643.19
407.107	672.19
407.331	705.19
407.555	773.19
407.778	790.19
408.002	719.19
408.226	671.19
408.449	631.19
408.673	646.19
408.896	685.19
409.12	737.19
409.344	695.19
409.567	636.19
409.791	633.19
410.014	611.19
410.238	581.19
410.461	614.19
410.685	601.19
410.908	612.19
411.132	672.19
411.355	721.19
411.578	672.19
411.802	598.19
412.025	593.19
412.249	591.19
412.472	618.19
412.695	688.19
412.919	659.19
413.142	601.19
413.365	595.19
413.589	569.19
413.812	565.19
414.035	539.19
414.258	566.19
414.482	566.19
414.705	560.19
414.928	573.19
415.151	552.19
415.374	574.19
415.597	558.19
415.821	583.19
416.044	551.19
416.267	572.19
416.49	550.19
416.713	555.19
416.936	575.19
417.159	552.19
417.382	565.19
417.605	545.19
417.828	588.19
418.051	570.19
418.274	587.19
418.497	552.19
418.72	548.19
418.943	558.19
419.166	564.19
419.389	599.19
419.611	579.19
419.834	579.19
420.057	594.19
420.28	600.19
420.503	572.19
420.726	574.19
420.948	567.19
421.171	645.19
421.394	671.19
421.617	608.19
421.839	589.19
422.062	582.19
422.285	581.19
422.507	679.19
422.73	780.19
422.953	724.19
423.175	643.19
423.398	601.19
423.621	605.19
423.843	607.19
424.066	637.19
424.288	611.19
424.511	611.19
424.733	709.19
424.956	798.19
425.178	797.19
425.401	757.19
425.623	790.19
425.846	671.19
426.068	629.19
426.291	616.19
426.513	623.19
426.735	624.19
426.958	664.19
427.18	788.19
427.402	923.19
427.625	1036.19
427.847	872.19
428.069	767.19
428.292	676.19
428.514	610.19
428.736	603.19
428.958	584.19
429.181	578.19
429.403	595.19
429.625	585.19
429.847	628.19
430.069	700.19
430.292	711.19
430.514	593.19
430.736	581.19
430.958	582.19
431.18	566.19
431.402	567.19
431.624	540.19
431.846	547.19
432.068	525.19
432.29	540.19
432.512	542.19
432.734	574.19
432.956	573.19
433.178	563.19
433.4	573.19
433.622	559.19
433.844	557.19
434.066	584.19
434.287	556.19
434.509	549.19
434.731	570.19
434.953	597.19
435.175	601.19
435.397	608.19
435.618	630.19
435.84	665.19
436.062	785.19
436.284	879.19
436.505	695.19
436.727	662.19
436.949	603.19
437.17	600.19
437.392	561.19
437.614	598.19
437.835	628.19
438.057	725.19
438.278	876.19
438.5	852.19
438.721	958.19
438.943	900.19
439.165	712.19
439.386	665.19
439.608	643.19
439.829	639.19
440.05	671.19
440.272	724.19
440.493	664.19
440.715	624.19
440.936	601.19
441.158	594.19
441.379	574.19
441.6	600.19
441.822	604.19
442.043	665.19
442.264	781.19
442.486	822.19
442.707	713.19
442.928	641.19
443.149	674.19
443.371	687.19
443.592	687.19
443.813	821.19
444.034	941.19
444.255	757.19
444.476	676.19
444.698	647.19
444.919	620.19
445.14	740.19
445.361	670.19
445.582	675.19
445.803	773.19
446.024	882.19
446.245	876.19
446.466	829.19
446.687	704.19
446.908	615.19
447.129	589.19
447.35	586.19
447.571	593.19
447.792	565.19
448.013	561.19
448.234	596.19
448.455	637.19
448.675	775.19
448.896	933.19
449.117	803.19
449.338	744.19
449.559	857.19
449.779	999.19
450	740.19
450.221	639.19
450.442	585.19
450.662	573.19
450.883	568.19
451.104	579.19
451.324	589.19
451.545	553.19
451.766	512.19
451.986	542.19
452.207	503.19
452.428	503.19
452.648	523.19
452.869	523.19
453.089	511.19
453.31	548.19
453.53	503.19
453.751	509.19
453.971	522.19
454.192	556.19
454.412	526.19
454.633	519.19
454.853	511.19
455.073	517.19
455.294	560.19
455.514	619.19
455.734	625.19
455.955	527.19
456.175	501.19
456.395	496.19
456.616	473.19
456.836	493.19
457.056	468.19
457.276	491.19
457.497	483.19
457.717	494.19
457.937	469.19
458.157	493.19
458.377	511.19
458.598	530.19
458.818	569.19
459.038	673.19
459.258	684.19
459.478	632.19
459.698	573.19
459.918	555.19
460.138	565.19
460.358	556.19
460.578	563.19
460.798	574.19
461.018	579.19
461.238	586.19
461.458	572.19
461.678	543.19
461.898	571.19
462.118	553.19
462.338	572.19
462.558	607.19
462.777	605.19
462.997	627.19
463.217	618.19
463.437	631.19
463.657	614.19
463.876	590.19
464.096	606.19
464.316	601.19
464.536	613.19
464.755	634.19
464.975	608.19
465.195	643.19
465.414	692.19
465.634	631.19
465.854	594.19
466.073	596.19
466.293	545.19
466.512	539.19
466.732	533.19
466.951	552.19
467.171	549.19
467.391	540.19
467.61	541.19
467.829	539.19
468.049	532.19
468.268	550.19
468.488	522.19
468.707	551.19
468.927	542.19
469.146	520.19
469.365	505.19
469.585	529.19
469.804	555.19
470.023	541.19
470.243	533.19
470.462	508.19
470.681	539.19
470.901	579.19
471.12	553.19
471.339	551.19
471.558	541.19
471.777	530.19
471.997	551.19
472.216	555.19
472.435	592.19
472.654	581.19
472.873	538.19
473.092	515.19
473.311	539.19
473.53	551.19
473.749	556.19
473.968	587.19
474.187	685.19
474.406	719.19
474.625	604.19
474.844	551.19
475.063	559.19
475.282	544.19
475.501	526.19
475.72	520.19
475.939	545.19
476.158	535.19
476.377	553.19
476.596	543.19
476.814	567.19
477.033	576.19
477.252	587.19
477.471	566.19
477.69	596.19
477.908	589.19
478.127	605.19
478.346	592.19
478.564	621.19
478.783	593.19
479.002	605.19
479.22	631.19
479.439	635.19
479.658	632.19
479.876	663.19
480.095	665.19
480.313	686.19
480.532	693.19
480.751	658.19
480.969	661.19
481.188	731.19
481.406	760.19
481.624	701.19
481.843	654.19
482.061	653.19
482.28	653.19
482.498	621.19
482.717	647.19
482.935	651.19
483.153	622.19
483.372	636.19
483.59	639.19
483.808	636.19
484.027	631.19
484.245	639.19
484.463	625.19
484.681	632.19
484.9	648.19
485.118	643.19
485.336	643.19
485.554	644.19
485.772	648.19
485.99	657.19
486.209	652.19
486.427	656.19
486.645	686.19
486.863	699.19
487.081	666.19
487.299	693.19
487.517	683.19
487.735	659.19
487.953	661.19
488.171	680.19
488.389	666.19
488.607	670.19
488.825	667.19
489.043	681.19
489.261	708.19
489.479	691.19
489.696	691.19
489.914	671.19
490.132	701.19
490.35	699.19
490.568	708.19
490.786	739.19
491.003	710.19
491.221	736.19
491.439	736.19
491.657	748.19
491.874	756.19
492.092	758.19
492.31	758.19
492.527	734.19
492.745	752.19
492.963	779.19
493.18	771.19
493.398	785.19
493.615	790.19
493.833	776.19
494.05	778.19
494.268	798.19
494.485	789.19
494.703	801.19
494.92	790.19
495.138	800.19
495.355	815.19
495.573	787.19
495.79	805.19
496.008	797.19
496.225	795.19
496.442	817.19
496.66	781.19
496.877	790.19
497.094	814.19
497.312	842.19
497.529	823.19
497.746	847.19
497.963	885.19
498.181	879.19
498.398	905.19
498.615	928.19
498.832	917.19
499.049	943.19
499.267	975.19
499.484	979.19
499.701	1023.19
499.918	1030.19
500.135	1095.19
500.352	1132.19
500.569	1143.19
500.786	1163.19
501.003	1150.19
501.22	1133.19
501.437	1121.19
501.654	1047.19
