Data from 1978.PennyLincolnUp.Lamp.En5.5.200Scan.071719.P1_HRD10591_16-11-33-865.txt Node
Date: Thu Jul 18 16:11:33 EDT 2019
User: cochatt
Spectrometer: HR+D1059
Trigger mode: 1
Integration Time (sec): 1.000000E-1
Scans to average: 1
Electric dark correction enabled: true
Nonlinearity correction enabled: false
Boxcar width: 0
XAxis mode: Wavelengths
Number of Pixels in Spectrum: 2048
>>>>>Begin Spectral Data<<<<<
223.165	-9.69
223.4	-9.69
223.635	-9.69
223.869	-30.69
224.104	-27.69
224.338	-11.69
224.573	-28.69
224.808	-13.69
225.042	-12.69
225.277	9.31
225.511	3.31
225.746	6.31
225.98	17.31
226.215	11.31
226.449	11.31
226.683	25.31
226.918	28.31
227.152	22.31
227.387	33.31
227.621	43.31
227.856	39.31
228.09	47.31
228.324	54.31
228.559	55.31
228.793	71.31
229.027	73.31
229.262	92.31
229.496	104.31
229.73	102.31
229.964	119.31
230.199	129.31
230.433	115.31
230.667	116.31
230.901	109.31
231.136	97.31
231.37	97.31
231.604	99.31
231.838	122.31
232.072	119.31
232.306	104.31
232.541	108.31
232.775	89.31
233.009	97.31
233.243	110.31
233.477	106.31
233.711	112.31
233.945	101.31
234.179	119.31
234.413	108.31
234.647	110.31
234.881	108.31
235.115	123.31
235.349	114.31
235.583	117.31
235.817	109.31
236.051	120.31
236.285	109.31
236.519	103.31
236.753	114.31
236.987	125.31
237.221	141.31
237.455	184.31
237.689	155.31
237.922	127.31
238.156	116.31
238.39	109.31
238.624	103.31
238.858	121.31
239.091	110.31
239.325	117.31
239.559	105.31
239.793	120.31
240.027	110.31
240.26	123.31
240.494	132.31
240.728	120.31
240.961	127.31
241.195	125.31
241.429	121.31
241.662	113.31
241.896	104.31
242.13	122.31
242.363	117.31
242.597	133.31
242.83	138.31
243.064	136.31
243.298	127.31
243.531	123.31
243.765	129.31
243.998	128.31
244.232	126.31
244.465	128.31
244.699	133.31
244.932	121.31
245.166	132.31
245.399	125.31
245.633	136.31
245.866	136.31
246.099	127.31
246.333	148.31
246.566	141.31
246.8	139.31
247.033	145.31
247.266	129.31
247.5	137.31
247.733	142.31
247.966	143.31
248.2	141.31
248.433	150.31
248.666	139.31
248.899	131.31
249.133	163.31
249.366	162.31
249.599	148.31
249.832	155.31
250.066	149.31
250.299	152.31
250.532	150.31
250.765	151.31
250.998	164.31
251.231	165.31
251.465	156.31
251.698	162.31
251.931	169.31
252.164	148.31
252.397	157.31
252.63	156.31
252.863	155.31
253.096	160.31
253.329	174.31
253.562	176.31
253.795	187.31
254.028	169.31
254.261	157.31
254.494	177.31
254.727	186.31
254.96	187.31
255.193	207.31
255.426	171.31
255.659	184.31
255.892	185.31
256.124	181.31
256.357	197.31
256.59	195.31
256.823	176.31
257.056	172.31
257.289	169.31
257.521	168.31
257.754	165.31
257.987	164.31
258.22	174.31
258.452	170.31
258.685	163.31
258.918	158.31
259.151	177.31
259.383	190.31
259.616	181.31
259.849	188.31
260.081	173.31
260.314	186.31
260.547	201.31
260.779	190.31
261.012	176.31
261.244	184.31
261.477	177.31
261.71	181.31
261.942	186.31
262.175	201.31
262.407	183.31
262.64	189.31
262.872	183.31
263.105	177.31
263.337	170.31
263.57	188.31
263.802	188.31
264.035	176.31
264.267	175.31
264.499	179.31
264.732	183.31
264.964	177.31
265.197	187.31
265.429	194.31
265.661	185.31
265.894	176.31
266.126	181.31
266.358	191.31
266.591	187.31
266.823	209.31
267.055	197.31
267.287	184.31
267.52	186.31
267.752	200.31
267.984	183.31
268.216	184.31
268.448	200.31
268.681	174.31
268.913	205.31
269.145	200.31
269.377	228.31
269.609	205.31
269.841	209.31
270.073	215.31
270.306	220.31
270.538	248.31
270.77	226.31
271.002	228.31
271.234	234.31
271.466	212.31
271.698	238.31
271.93	241.31
272.162	257.31
272.394	240.31
272.626	228.31
272.858	224.31
273.09	213.31
273.322	205.31
273.553	216.31
273.785	220.31
274.017	222.31
274.249	219.31
274.481	215.31
274.713	221.31
274.945	231.31
275.176	223.31
275.408	218.31
275.64	216.31
275.872	221.31
276.104	213.31
276.335	216.31
276.567	225.31
276.799	241.31
277.031	251.31
277.262	238.31
277.494	238.31
277.726	223.31
277.957	219.31
278.189	220.31
278.421	236.31
278.652	232.31
278.884	259.31
279.115	238.31
279.347	236.31
279.579	254.31
279.81	282.31
280.042	270.31
280.273	260.31
280.505	271.31
280.736	259.31
280.968	248.31
281.199	223.31
281.431	249.31
281.662	231.31
281.894	236.31
282.125	234.31
282.356	241.31
282.588	255.31
282.819	245.31
283.051	224.31
283.282	222.31
283.513	240.31
283.745	228.31
283.976	238.31
284.207	238.31
284.439	260.31
284.67	222.31
284.901	236.31
285.132	259.31
285.364	248.31
285.595	262.31
285.826	237.31
286.057	250.31
286.288	241.31
286.52	237.31
286.751	249.31
286.982	239.31
287.213	239.31
287.444	230.31
287.675	266.31
287.906	264.31
288.138	248.31
288.369	261.31
288.6	252.31
288.831	247.31
289.062	251.31
289.293	231.31
289.524	257.31
289.755	263.31
289.986	270.31
290.217	253.31
290.448	249.31
290.679	253.31
290.91	252.31
291.141	256.31
291.371	244.31
291.602	255.31
291.833	250.31
292.064	251.31
292.295	252.31
292.526	262.31
292.757	252.31
292.987	259.31
293.218	268.31
293.449	263.31
293.68	278.31
293.91	269.31
294.141	259.31
294.372	256.31
294.603	248.31
294.833	255.31
295.064	263.31
295.295	268.31
295.525	261.31
295.756	277.31
295.987	272.31
296.217	289.31
296.448	282.31
296.679	265.31
296.909	269.31
297.14	263.31
297.37	268.31
297.601	259.31
297.831	264.31
298.062	265.31
298.292	267.31
298.523	273.31
298.753	267.31
298.984	259.31
299.214	269.31
299.445	264.31
299.675	277.31
299.905	263.31
300.136	269.31
300.366	275.31
300.597	266.31
300.827	287.31
301.057	275.31
301.288	295.31
301.518	274.31
301.748	274.31
301.979	287.31
302.209	288.31
302.439	277.31
302.669	298.31
302.9	291.31
303.13	277.31
303.36	289.31
303.59	293.31
303.82	291.31
304.051	295.31
304.281	303.31
304.511	291.31
304.741	272.31
304.971	292.31
305.201	270.31
305.431	284.31
305.661	286.31
305.891	280.31
306.121	295.31
306.352	293.31
306.582	286.31
306.812	303.31
307.042	291.31
307.272	297.31
307.502	286.31
307.731	279.31
307.961	292.31
308.191	296.31
308.421	288.31
308.651	295.31
308.881	292.31
309.111	287.31
309.341	303.31
309.571	289.31
309.8	303.31
310.03	317.31
310.26	310.31
310.49	298.31
310.72	312.31
310.949	316.31
311.179	307.31
311.409	331.31
311.639	321.31
311.868	309.31
312.098	316.31
312.328	318.31
312.557	328.31
312.787	337.31
313.017	335.31
313.246	321.31
313.476	328.31
313.706	322.31
313.935	325.31
314.165	337.31
314.394	349.31
314.624	337.31
314.853	331.31
315.083	319.31
315.312	329.31
315.542	331.31
315.771	312.31
316.001	303.31
316.23	313.31
316.46	307.31
316.689	332.31
316.919	323.31
317.148	322.31
317.377	336.31
317.607	327.31
317.836	333.31
318.065	358.31
318.295	325.31
318.524	327.31
318.753	336.31
318.983	319.31
319.212	312.31
319.441	318.31
319.67	335.31
319.9	320.31
320.129	327.31
320.358	325.31
320.587	337.31
320.816	353.31
321.046	326.31
321.275	347.31
321.504	332.31
321.733	349.31
321.962	348.31
322.191	342.31
322.42	359.31
322.649	365.31
322.878	379.31
323.108	375.31
323.337	372.31
323.566	393.31
323.795	418.31
324.024	441.31
324.253	518.31
324.482	696.31
324.71	1071.31
324.939	1577.31
325.168	1368.31
325.397	715.31
325.626	495.31
325.855	430.31
326.084	409.31
326.313	406.31
326.542	417.31
326.77	427.31
326.999	500.31
327.228	655.31
327.457	1000.31
327.686	1199.31
327.914	815.31
328.143	518.31
328.372	472.31
328.6	448.31
328.829	435.31
329.058	439.31
329.287	441.31
329.515	414.31
329.744	408.31
329.972	412.31
330.201	380.31
330.43	390.31
330.658	446.31
330.887	470.31
331.115	439.31
331.344	429.31
331.572	389.31
331.801	419.31
332.03	386.31
332.258	366.31
332.486	379.31
332.715	377.31
332.943	390.31
333.172	405.31
333.4	398.31
333.629	401.31
333.857	414.31
334.085	403.31
334.314	400.31
334.542	405.31
334.771	419.31
334.999	412.31
335.227	403.31
335.455	417.31
335.684	399.31
335.912	405.31
336.14	383.31
336.369	389.31
336.597	385.31
336.825	393.31
337.053	383.31
337.281	383.31
337.51	366.31
337.738	385.31
337.966	387.31
338.194	369.31
338.422	418.31
338.65	377.31
338.878	381.31
339.106	388.31
339.334	371.31
339.562	371.31
339.79	383.31
340.018	371.31
340.246	373.31
340.474	376.31
340.702	383.31
340.93	391.31
341.158	383.31
341.386	384.31
341.614	366.31
341.842	374.31
342.07	361.31
342.298	367.31
342.526	365.31
342.754	373.31
342.981	353.31
343.209	358.31
343.437	382.31
343.665	399.31
343.893	382.31
344.12	396.31
344.348	392.31
344.576	400.31
344.804	385.31
345.031	403.31
345.259	397.31
345.487	386.31
345.714	373.31
345.942	389.31
346.17	357.31
346.397	377.31
346.625	355.31
346.853	355.31
347.08	368.31
347.308	362.31
347.535	361.31
347.763	366.31
347.99	352.31
348.218	381.31
348.445	381.31
348.673	394.31
348.9	378.31
349.128	377.31
349.355	371.31
349.583	345.31
349.81	369.31
350.037	368.31
350.265	346.31
350.492	364.31
350.72	349.31
350.947	355.31
351.174	366.31
351.402	376.31
351.629	363.31
351.856	381.31
352.083	379.31
352.311	352.31
352.538	391.31
352.765	367.31
352.992	374.31
353.22	365.31
353.447	366.31
353.674	397.31
353.901	349.31
354.128	338.31
354.355	363.31
354.583	358.31
354.81	354.31
355.037	353.31
355.264	335.31
355.491	362.31
355.718	346.31
355.945	359.31
356.172	339.31
356.399	348.31
356.626	362.31
356.853	347.31
357.08	344.31
357.307	354.31
357.534	347.31
357.761	342.31
357.988	360.31
358.215	366.31
358.441	373.31
358.668	348.31
358.895	351.31
359.122	371.31
359.349	365.31
359.576	372.31
359.802	373.31
360.029	390.31
360.256	410.31
360.483	390.31
360.709	376.31
360.936	373.31
361.163	363.31
361.39	369.31
361.616	393.31
361.843	401.31
362.07	375.31
362.296	397.31
362.523	381.31
362.749	368.31
362.976	366.31
363.203	363.31
363.429	377.31
363.656	383.31
363.882	362.31
364.109	381.31
364.335	363.31
364.562	374.31
364.788	382.31
365.015	355.31
365.241	379.31
365.468	359.31
365.694	365.31
365.92	369.31
366.147	366.31
366.373	368.31
366.599	373.31
366.826	371.31
367.052	353.31
367.278	362.31
367.505	363.31
367.731	359.31
367.957	363.31
368.184	372.31
368.41	377.31
368.636	389.31
368.862	368.31
369.089	363.31
369.315	379.31
369.541	380.31
369.767	351.31
369.993	382.31
370.219	375.31
370.445	372.31
370.672	367.31
370.898	371.31
371.124	367.31
371.35	376.31
371.576	379.31
371.802	369.31
372.028	383.31
372.254	377.31
372.48	373.31
372.706	362.31
372.932	374.31
373.158	376.31
373.384	395.31
373.61	365.31
373.835	391.31
374.061	379.31
374.287	376.31
374.513	382.31
374.739	393.31
374.965	383.31
375.191	377.31
375.416	413.31
375.642	382.31
375.868	386.31
376.094	393.31
376.319	376.31
376.545	379.31
376.771	372.31
376.997	379.31
377.222	385.31
377.448	377.31
377.674	375.31
377.899	392.31
378.125	369.31
378.35	385.31
378.576	387.31
378.802	381.31
379.027	367.31
379.253	381.31
379.478	385.31
379.704	366.31
379.929	392.31
380.155	379.31
380.38	395.31
380.606	378.31
380.831	383.31
381.057	395.31
381.282	379.31
381.507	368.31
381.733	385.31
381.958	391.31
382.184	392.31
382.409	396.31
382.634	411.31
382.86	407.31
383.085	399.31
383.31	390.31
383.535	411.31
383.761	431.31
383.986	419.31
384.211	410.31
384.436	426.31
384.662	438.31
384.887	433.31
385.112	419.31
385.337	413.31
385.562	427.31
385.787	438.31
386.013	451.31
386.238	447.31
386.463	443.31
386.688	460.31
386.913	428.31
387.138	436.31
387.363	462.31
387.588	416.31
387.813	446.31
388.038	437.31
388.263	441.31
388.488	453.31
388.713	441.31
388.938	435.31
389.163	419.31
389.387	426.31
389.612	424.31
389.837	415.31
390.062	429.31
390.287	419.31
390.512	430.31
390.736	421.31
390.961	448.31
391.186	430.31
391.411	439.31
391.636	436.31
391.86	449.31
392.085	444.31
392.31	444.31
392.534	441.31
392.759	451.31
392.984	452.31
393.208	467.31
393.433	551.31
393.658	585.31
393.882	465.31
394.107	446.31
394.331	470.31
394.556	447.31
394.78	458.31
395.005	464.31
395.229	442.31
395.454	445.31
395.678	463.31
395.903	452.31
396.127	484.31
396.352	480.31
396.576	462.31
396.801	487.31
397.025	542.31
397.249	495.31
397.474	441.31
397.698	468.31
397.922	483.31
398.147	485.31
398.371	510.31
398.595	492.31
398.82	510.31
399.044	525.31
399.268	509.31
399.492	545.31
399.717	551.31
399.941	565.31
400.165	597.31
400.389	608.31
400.613	568.31
400.837	525.31
401.062	535.31
401.286	506.31
401.51	511.31
401.734	506.31
401.958	521.31
402.182	487.31
402.406	486.31
402.63	504.31
402.854	504.31
403.078	480.31
403.302	526.31
403.526	500.31
403.75	492.31
403.974	500.31
404.198	492.31
404.422	506.31
404.645	530.31
404.869	532.31
405.093	525.31
405.317	567.31
405.541	605.31
405.765	562.31
405.988	556.31
406.212	538.31
406.436	557.31
406.66	540.31
406.883	540.31
407.107	579.31
407.331	605.31
407.555	685.31
407.778	647.31
408.002	596.31
408.226	565.31
408.449	569.31
408.673	557.31
408.896	578.31
409.12	604.31
409.344	585.31
409.567	522.31
409.791	532.31
410.014	518.31
410.238	526.31
410.461	521.31
410.685	524.31
410.908	527.31
411.132	550.31
411.355	575.31
411.578	535.31
411.802	508.31
412.025	500.31
412.249	534.31
412.472	545.31
412.695	551.31
412.919	556.31
413.142	522.31
413.365	497.31
413.589	509.31
413.812	517.31
414.035	516.31
414.258	509.31
414.482	502.31
414.705	500.31
414.928	519.31
415.151	511.31
415.374	512.31
415.597	504.31
415.821	465.31
416.044	505.31
416.267	496.31
416.49	453.31
416.713	489.31
416.936	503.31
417.159	490.31
417.382	494.31
417.605	496.31
417.828	495.31
418.051	505.31
418.274	519.31
418.497	487.31
418.72	478.31
418.943	459.31
419.166	496.31
419.389	527.31
419.611	502.31
419.834	526.31
420.057	513.31
420.28	490.31
420.503	501.31
420.726	478.31
420.948	487.31
421.171	525.31
421.394	541.31
421.617	523.31
421.839	504.31
422.062	502.31
422.285	502.31
422.507	550.31
422.73	614.31
422.953	622.31
423.175	542.31
423.398	518.31
423.621	495.31
423.843	519.31
424.066	520.31
424.288	540.31
424.511	514.31
424.733	560.31
424.956	634.31
425.178	641.31
425.401	620.31
425.623	629.31
425.846	522.31
426.068	523.31
426.291	538.31
426.513	533.31
426.735	517.31
426.958	553.31
427.18	625.31
427.402	734.31
427.625	792.31
427.847	645.31
428.069	589.31
428.292	545.31
428.514	519.31
428.736	515.31
428.958	505.31
429.181	496.31
429.403	517.31
429.625	484.31
429.847	528.31
430.069	567.31
430.292	557.31
430.514	499.31
430.736	494.31
430.958	501.31
431.18	479.31
431.402	477.31
431.624	471.31
431.846	477.31
432.068	481.31
432.29	490.31
432.512	477.31
432.734	461.31
432.956	480.31
433.178	496.31
433.4	485.31
433.622	487.31
433.844	501.31
434.066	479.31
434.287	471.31
434.509	489.31
434.731	507.31
434.953	494.31
435.175	494.31
435.397	526.31
435.618	525.31
435.84	550.31
436.062	605.31
436.284	693.31
436.505	555.31
436.727	493.31
436.949	503.31
437.17	476.31
437.392	504.31
437.614	497.31
437.835	508.31
438.057	566.31
438.278	662.31
438.5	661.31
438.721	723.31
438.943	701.31
439.165	553.31
439.386	506.31
439.608	531.31
439.829	526.31
440.05	576.31
440.272	563.31
440.493	535.31
440.715	508.31
440.936	507.31
441.158	485.31
441.379	505.31
441.6	524.31
441.822	521.31
442.043	568.31
442.264	627.31
442.486	633.31
442.707	569.31
442.928	551.31
443.149	522.31
443.371	551.31
443.592	575.31
443.813	646.31
444.034	709.31
444.255	571.31
444.476	551.31
444.698	538.31
444.919	547.31
445.14	687.31
445.361	593.31
445.582	573.31
445.803	603.31
446.024	680.31
446.245	675.31
446.466	619.31
446.687	559.31
446.908	500.31
447.129	484.31
447.35	493.31
447.571	481.31
447.792	485.31
448.013	496.31
448.234	479.31
448.455	533.31
448.675	604.31
448.896	702.31
449.117	612.31
449.338	584.31
449.559	660.31
449.779	751.31
450	606.31
450.221	537.31
450.442	475.31
450.662	470.31
450.883	464.31
451.104	462.31
451.324	464.31
451.545	465.31
451.766	465.31
451.986	474.31
452.207	462.31
452.428	444.31
452.648	461.31
452.869	441.31
453.089	421.31
453.31	445.31
453.53	439.31
453.751	446.31
453.971	448.31
454.192	463.31
454.412	441.31
454.633	447.31
454.853	400.31
455.073	447.31
455.294	463.31
455.514	497.31
455.734	494.31
455.955	437.31
456.175	412.31
456.395	437.31
456.616	430.31
456.836	452.31
457.056	436.31
457.276	419.31
457.497	418.31
457.717	437.31
457.937	441.31
458.157	449.31
458.377	441.31
458.598	464.31
458.818	484.31
459.038	555.31
459.258	567.31
459.478	525.31
459.698	484.31
459.918	482.31
460.138	505.31
460.358	477.31
460.578	490.31
460.798	489.31
461.018	521.31
461.238	479.31
461.458	497.31
461.678	496.31
461.898	523.31
462.118	507.31
462.338	525.31
462.558	543.31
462.777	520.31
462.997	531.31
463.217	547.31
463.437	582.31
463.657	560.31
463.876	534.31
464.096	564.31
464.316	536.31
464.536	546.31
464.755	535.31
464.975	551.31
465.195	540.31
465.414	597.31
465.634	550.31
465.854	502.31
466.073	501.31
466.293	500.31
466.512	477.31
466.732	445.31
466.951	454.31
467.171	463.31
467.391	465.31
467.61	468.31
467.829	460.31
468.049	465.31
468.268	472.31
468.488	455.31
468.707	452.31
468.927	469.31
469.146	455.31
469.365	454.31
469.585	449.31
469.804	465.31
470.023	454.31
470.243	454.31
470.462	483.31
470.681	475.31
470.901	493.31
471.12	482.31
471.339	471.31
471.558	469.31
471.777	468.31
471.997	462.31
472.216	462.31
472.435	474.31
472.654	477.31
472.873	466.31
473.092	491.31
473.311	472.31
473.53	455.31
473.749	472.31
473.968	508.31
474.187	560.31
474.406	567.31
474.625	490.31
474.844	488.31
475.063	502.31
475.282	475.31
475.501	468.31
475.72	479.31
475.939	491.31
476.158	475.31
476.377	482.31
476.596	494.31
476.814	487.31
477.033	490.31
477.252	525.31
477.471	505.31
477.69	525.31
477.908	513.31
478.127	508.31
478.346	525.31
478.564	555.31
478.783	532.31
479.002	541.31
479.22	547.31
479.439	549.31
479.658	553.31
479.876	589.31
480.095	560.31
480.313	586.31
480.532	584.31
480.751	582.31
480.969	569.31
481.188	585.31
481.406	617.31
481.624	575.31
481.843	550.31
482.061	547.31
482.28	546.31
482.498	566.31
482.717	563.31
482.935	541.31
483.153	558.31
483.372	576.31
483.59	552.31
483.808	549.31
484.027	549.31
484.245	558.31
484.463	564.31
484.681	546.31
484.9	579.31
485.118	569.31
485.336	583.31
485.554	578.31
485.772	609.31
485.99	572.31
486.209	598.31
486.427	576.31
486.645	596.31
486.863	584.31
487.081	581.31
487.299	604.31
487.517	594.31
487.735	604.31
487.953	588.31
488.171	612.31
488.389	589.31
488.607	595.31
488.825	615.31
489.043	605.31
489.261	581.31
489.479	585.31
489.696	578.31
489.914	600.31
490.132	599.31
490.35	591.31
490.568	601.31
490.786	631.31
491.003	621.31
491.221	608.31
491.439	620.31
491.657	625.31
491.874	634.31
492.092	651.31
492.31	641.31
492.527	640.31
492.745	664.31
492.963	623.31
493.18	644.31
493.398	629.31
493.615	661.31
493.833	660.31
494.05	654.31
494.268	643.31
494.485	649.31
494.703	648.31
494.92	664.31
495.138	685.31
495.355	665.31
495.573	656.31
495.79	675.31
496.008	650.31
496.225	686.31
496.442	671.31
496.66	678.31
496.877	692.31
497.094	685.31
497.312	725.31
497.529	705.31
497.746	716.31
497.963	751.31
498.181	756.31
498.398	775.31
498.615	776.31
498.832	797.31
499.049	838.31
499.267	831.31
499.484	886.31
499.701	883.31
499.918	933.31
500.135	989.31
500.352	1041.31
500.569	1031.31
500.786	1062.31
501.003	1021.31
501.22	982.31
501.437	941.31
501.654	900.31
501.871	893.31
502.088	891.31
