Data from 1978.PennyLincolnUp.Lamp.En5.5.200Scan.071719.P1_HRD10591_16-12-40-864.txt Node
Date: Thu Jul 18 16:12:40 EDT 2019
User: cochatt
Spectrometer: HR+D1059
Trigger mode: 1
Integration Time (sec): 1.000000E-1
Scans to average: 1
Electric dark correction enabled: true
Nonlinearity correction enabled: false
Boxcar width: 0
XAxis mode: Wavelengths
Number of Pixels in Spectrum: 2048
>>>>>Begin Spectral Data<<<<<
223.165	-20.44
223.4	-20.44
223.635	-20.44
223.869	-27.44
224.104	-14.44
224.338	-17.44
224.573	-22.44
224.808	-3.44
225.042	-2.44
225.277	-5.44
225.511	4.56
225.746	3.56
225.98	11.56
226.215	7.56
226.449	21.56
226.683	11.56
226.918	22.56
227.152	30.56
227.387	33.56
227.621	36.56
227.856	50.56
228.09	47.56
228.324	40.56
228.559	56.56
228.793	54.56
229.027	92.56
229.262	106.56
229.496	109.56
229.73	115.56
229.964	135.56
230.199	110.56
230.433	124.56
230.667	112.56
230.901	108.56
231.136	100.56
231.37	104.56
231.604	117.56
231.838	115.56
232.072	120.56
232.306	116.56
232.541	97.56
232.775	102.56
233.009	115.56
233.243	108.56
233.477	109.56
233.711	113.56
233.945	108.56
234.179	117.56
234.413	114.56
234.647	104.56
234.881	119.56
235.115	116.56
235.349	115.56
235.583	122.56
235.817	105.56
236.051	130.56
236.285	129.56
236.519	118.56
236.753	130.56
236.987	130.56
237.221	177.56
237.455	225.56
237.689	177.56
237.922	130.56
238.156	126.56
238.39	129.56
238.624	127.56
238.858	131.56
239.091	122.56
239.325	111.56
239.559	127.56
239.793	116.56
240.027	135.56
240.26	113.56
240.494	153.56
240.728	153.56
240.961	134.56
241.195	139.56
241.429	124.56
241.662	125.56
241.896	123.56
242.13	128.56
242.363	124.56
242.597	127.56
242.83	132.56
243.064	138.56
243.298	144.56
243.531	139.56
243.765	151.56
243.998	115.56
244.232	144.56
244.465	131.56
244.699	140.56
244.932	146.56
245.166	128.56
245.399	151.56
245.633	131.56
245.866	132.56
246.099	138.56
246.333	150.56
246.566	139.56
246.8	135.56
247.033	157.56
247.266	141.56
247.5	158.56
247.733	153.56
247.966	159.56
248.2	162.56
248.433	163.56
248.666	136.56
248.899	154.56
249.133	183.56
249.366	208.56
249.599	192.56
249.832	181.56
250.066	156.56
250.299	157.56
250.532	171.56
250.765	175.56
250.998	204.56
251.231	208.56
251.465	205.56
251.698	195.56
251.931	185.56
252.164	189.56
252.397	191.56
252.63	190.56
252.863	188.56
253.096	191.56
253.329	199.56
253.562	196.56
253.795	199.56
254.028	207.56
254.261	197.56
254.494	199.56
254.727	219.56
254.96	258.56
255.193	210.56
255.426	217.56
255.659	229.56
255.892	202.56
256.124	197.56
256.357	195.56
256.59	209.56
256.823	197.56
257.056	185.56
257.289	194.56
257.521	193.56
257.754	206.56
257.987	193.56
258.22	183.56
258.452	187.56
258.685	191.56
258.918	190.56
259.151	181.56
259.383	213.56
259.616	196.56
259.849	213.56
260.081	207.56
260.314	204.56
260.547	230.56
260.779	208.56
261.012	211.56
261.244	211.56
261.477	207.56
261.71	202.56
261.942	201.56
262.175	213.56
262.407	227.56
262.64	200.56
262.872	197.56
263.105	205.56
263.337	198.56
263.57	213.56
263.802	209.56
264.035	200.56
264.267	203.56
264.499	196.56
264.732	185.56
264.964	190.56
265.197	201.56
265.429	205.56
265.661	203.56
265.894	213.56
266.126	210.56
266.358	223.56
266.591	202.56
266.823	218.56
267.055	212.56
267.287	208.56
267.52	222.56
267.752	214.56
267.984	206.56
268.216	214.56
268.448	219.56
268.681	220.56
268.913	234.56
269.145	236.56
269.377	268.56
269.609	246.56
269.841	256.56
270.073	240.56
270.306	240.56
270.538	269.56
270.77	277.56
271.002	273.56
271.234	264.56
271.466	261.56
271.698	264.56
271.93	270.56
272.162	264.56
272.394	289.56
272.626	265.56
272.858	283.56
273.09	279.56
273.322	257.56
273.553	244.56
273.785	248.56
274.017	236.56
274.249	229.56
274.481	229.56
274.713	236.56
274.945	267.56
275.176	238.56
275.408	231.56
275.64	250.56
275.872	249.56
276.104	236.56
276.335	243.56
276.567	245.56
276.799	263.56
277.031	264.56
277.262	299.56
277.494	275.56
277.726	267.56
277.957	262.56
278.189	261.56
278.421	255.56
278.652	262.56
278.884	245.56
279.115	263.56
279.347	261.56
279.579	253.56
279.81	261.56
280.042	243.56
280.273	261.56
280.505	259.56
280.736	257.56
280.968	248.56
281.199	245.56
281.431	268.56
281.662	226.56
281.894	241.56
282.125	243.56
282.356	268.56
282.588	297.56
282.819	295.56
283.051	256.56
283.282	278.56
283.513	283.56
283.745	257.56
283.976	270.56
284.207	269.56
284.439	275.56
284.67	281.56
284.901	289.56
285.132	263.56
285.364	242.56
285.595	261.56
285.826	247.56
286.057	252.56
286.288	265.56
286.52	267.56
286.751	256.56
286.982	259.56
287.213	260.56
287.444	282.56
287.675	275.56
287.906	273.56
288.138	289.56
288.369	289.56
288.6	273.56
288.831	298.56
289.062	287.56
289.293	295.56
289.524	282.56
289.755	272.56
289.986	278.56
290.217	262.56
290.448	294.56
290.679	275.56
290.91	278.56
291.141	284.56
291.371	289.56
291.602	275.56
291.833	269.56
292.064	267.56
292.295	278.56
292.526	263.56
292.757	273.56
292.987	291.56
293.218	272.56
293.449	290.56
293.68	284.56
293.91	287.56
294.141	282.56
294.372	283.56
294.603	301.56
294.833	279.56
295.064	287.56
295.295	267.56
295.525	285.56
295.756	284.56
295.987	299.56
296.217	314.56
296.448	311.56
296.679	301.56
296.909	294.56
297.14	273.56
297.37	292.56
297.601	299.56
297.831	269.56
298.062	288.56
298.292	304.56
298.523	299.56
298.753	315.56
298.984	294.56
299.214	281.56
299.445	308.56
299.675	321.56
299.905	314.56
300.136	300.56
300.366	306.56
300.597	295.56
300.827	287.56
301.057	316.56
301.288	315.56
301.518	300.56
301.748	323.56
301.979	292.56
302.209	309.56
302.439	317.56
302.669	328.56
302.9	326.56
303.13	326.56
303.36	320.56
303.59	305.56
303.82	342.56
304.051	323.56
304.281	322.56
304.511	317.56
304.741	305.56
304.971	309.56
305.201	296.56
305.431	295.56
305.661	299.56
305.891	310.56
306.121	305.56
306.352	309.56
306.582	328.56
306.812	319.56
307.042	309.56
307.272	323.56
307.502	309.56
307.731	328.56
307.961	323.56
308.191	325.56
308.421	324.56
308.651	332.56
308.881	324.56
309.111	337.56
309.341	321.56
309.571	331.56
309.8	345.56
310.03	341.56
310.26	347.56
310.49	348.56
310.72	354.56
310.949	363.56
311.179	373.56
311.409	362.56
311.639	362.56
311.868	360.56
312.098	371.56
312.328	345.56
312.557	375.56
312.787	389.56
313.017	374.56
313.246	370.56
313.476	343.56
313.706	360.56
313.935	368.56
314.165	379.56
314.394	375.56
314.624	376.56
314.853	364.56
315.083	373.56
315.312	362.56
315.542	349.56
315.771	357.56
316.001	369.56
316.23	367.56
316.46	354.56
316.689	337.56
316.919	367.56
317.148	376.56
317.377	387.56
317.607	364.56
317.836	363.56
318.065	354.56
318.295	364.56
318.524	377.56
318.753	356.56
318.983	360.56
319.212	358.56
319.441	368.56
319.67	373.56
319.9	370.56
320.129	353.56
320.358	363.56
320.587	367.56
320.816	387.56
321.046	377.56
321.275	364.56
321.504	382.56
321.733	387.56
321.962	384.56
322.191	395.56
322.42	426.56
322.649	418.56
322.878	437.56
323.108	447.56
323.337	448.56
323.566	451.56
323.795	490.56
324.024	530.56
324.253	603.56
324.482	871.56
324.71	1369.56
324.939	2072.56
325.168	1806.56
325.397	865.56
325.626	611.56
325.855	539.56
326.084	490.56
326.313	461.56
326.542	455.56
326.77	484.56
326.999	615.56
327.228	817.56
327.457	1245.56
327.686	1573.56
327.914	1023.56
328.143	672.56
328.372	559.56
328.6	551.56
328.829	503.56
329.058	534.56
329.287	515.56
329.515	517.56
329.744	460.56
329.972	476.56
330.201	476.56
330.43	512.56
330.658	539.56
330.887	569.56
331.115	523.56
331.344	484.56
331.572	454.56
331.801	463.56
332.03	440.56
332.258	436.56
332.486	448.56
332.715	432.56
332.943	432.56
333.172	427.56
333.4	452.56
333.629	428.56
333.857	468.56
334.085	465.56
334.314	479.56
334.542	475.56
334.771	521.56
334.999	491.56
335.227	465.56
335.455	454.56
335.684	437.56
335.912	448.56
336.14	423.56
336.369	440.56
336.597	457.56
336.825	447.56
337.053	418.56
337.281	446.56
337.51	437.56
337.738	444.56
337.966	450.56
338.194	438.56
338.422	452.56
338.65	433.56
338.878	417.56
339.106	403.56
339.334	419.56
339.562	424.56
339.79	423.56
340.018	416.56
340.246	408.56
340.474	406.56
340.702	411.56
340.93	419.56
341.158	413.56
341.386	415.56
341.614	431.56
341.842	408.56
342.07	389.56
342.298	431.56
342.526	401.56
342.754	403.56
342.981	396.56
343.209	408.56
343.437	415.56
343.665	424.56
343.893	435.56
344.12	422.56
344.348	415.56
344.576	435.56
344.804	425.56
345.031	449.56
345.259	441.56
345.487	413.56
345.714	419.56
345.942	411.56
346.17	425.56
346.397	426.56
346.625	404.56
346.853	415.56
347.08	405.56
347.308	395.56
347.535	426.56
347.763	447.56
347.99	443.56
348.218	424.56
348.445	425.56
348.673	418.56
348.9	417.56
349.128	421.56
349.355	401.56
349.583	405.56
349.81	406.56
350.037	410.56
350.265	401.56
350.492	418.56
350.72	416.56
350.947	413.56
351.174	406.56
351.402	432.56
351.629	409.56
351.856	421.56
352.083	417.56
352.311	416.56
352.538	439.56
352.765	425.56
352.992	415.56
353.22	396.56
353.447	414.56
353.674	386.56
353.901	400.56
354.128	387.56
354.355	403.56
354.583	405.56
354.81	405.56
355.037	394.56
355.264	379.56
355.491	391.56
355.718	373.56
355.945	391.56
356.172	371.56
356.399	373.56
356.626	382.56
356.853	411.56
357.08	399.56
357.307	387.56
357.534	378.56
357.761	393.56
357.988	381.56
358.215	371.56
358.441	393.56
358.668	376.56
358.895	405.56
359.122	411.56
359.349	390.56
359.576	412.56
359.802	440.56
360.029	452.56
360.256	450.56
360.483	440.56
360.709	434.56
360.936	433.56
361.163	420.56
361.39	414.56
361.616	395.56
361.843	387.56
362.07	408.56
362.296	411.56
362.523	402.56
362.749	417.56
362.976	411.56
363.203	403.56
363.429	390.56
363.656	410.56
363.882	413.56
364.109	395.56
364.335	392.56
364.562	386.56
364.788	395.56
365.015	405.56
365.241	399.56
365.468	410.56
365.694	409.56
365.92	419.56
366.147	405.56
366.373	405.56
366.599	392.56
366.826	387.56
367.052	405.56
367.278	397.56
367.505	401.56
367.731	402.56
367.957	394.56
368.184	400.56
368.41	397.56
368.636	427.56
368.862	419.56
369.089	424.56
369.315	408.56
369.541	405.56
369.767	404.56
369.993	398.56
370.219	423.56
370.445	414.56
370.672	406.56
370.898	417.56
371.124	421.56
371.35	410.56
371.576	405.56
371.802	389.56
372.028	423.56
372.254	415.56
372.48	399.56
372.706	401.56
372.932	426.56
373.158	409.56
373.384	400.56
373.61	407.56
373.835	418.56
374.061	405.56
374.287	409.56
374.513	428.56
374.739	416.56
374.965	406.56
375.191	414.56
375.416	442.56
375.642	416.56
375.868	407.56
376.094	397.56
376.319	408.56
376.545	407.56
376.771	405.56
376.997	409.56
377.222	391.56
377.448	405.56
377.674	401.56
377.899	400.56
378.125	381.56
378.35	402.56
378.576	389.56
378.802	415.56
379.027	395.56
379.253	414.56
379.478	433.56
379.704	412.56
379.929	433.56
380.155	383.56
380.38	425.56
380.606	437.56
380.831	403.56
381.057	417.56
381.282	423.56
381.507	418.56
381.733	410.56
381.958	422.56
382.184	417.56
382.409	415.56
382.634	413.56
382.86	409.56
383.085	421.56
383.31	428.56
383.535	433.56
383.761	409.56
383.986	425.56
384.211	440.56
384.436	443.56
384.662	429.56
384.887	455.56
385.112	444.56
385.337	448.56
385.562	455.56
385.787	444.56
386.013	464.56
386.238	461.56
386.463	446.56
386.688	449.56
386.913	451.56
387.138	466.56
387.363	450.56
387.588	466.56
387.813	464.56
388.038	451.56
388.263	477.56
388.488	463.56
388.713	487.56
388.938	473.56
389.163	478.56
389.387	469.56
389.612	457.56
389.837	450.56
390.062	440.56
390.287	476.56
390.512	469.56
390.736	465.56
390.961	451.56
391.186	455.56
391.411	451.56
391.636	463.56
391.86	481.56
392.085	471.56
392.31	496.56
392.534	474.56
392.759	479.56
392.984	480.56
393.208	466.56
393.433	472.56
393.658	472.56
393.882	464.56
394.107	481.56
394.331	466.56
394.556	451.56
394.78	463.56
395.005	492.56
395.229	467.56
395.454	490.56
395.678	493.56
395.903	509.56
396.127	499.56
396.352	522.56
396.576	478.56
396.801	474.56
397.025	478.56
397.249	485.56
397.474	512.56
397.698	505.56
397.922	512.56
398.147	537.56
398.371	539.56
398.595	524.56
398.82	520.56
399.044	540.56
399.268	563.56
399.492	602.56
399.717	617.56
399.941	659.56
400.165	652.56
400.389	688.56
400.613	627.56
400.837	585.56
401.062	549.56
401.286	545.56
401.51	551.56
401.734	545.56
401.958	535.56
402.182	548.56
402.406	554.56
402.63	533.56
402.854	524.56
403.078	543.56
403.302	547.56
403.526	547.56
403.75	571.56
403.974	548.56
404.198	560.56
404.422	553.56
404.645	559.56
404.869	574.56
405.093	580.56
405.317	644.56
405.541	659.56
405.765	616.56
405.988	604.56
406.212	593.56
406.436	584.56
406.66	630.56
406.883	634.56
407.107	630.56
407.331	661.56
407.555	753.56
407.778	729.56
408.002	662.56
408.226	647.56
408.449	611.56
408.673	587.56
408.896	654.56
409.12	701.56
409.344	641.56
409.567	595.56
409.791	575.56
410.014	577.56
410.238	576.56
410.461	585.56
410.685	584.56
410.908	573.56
411.132	617.56
411.355	647.56
411.578	632.56
411.802	577.56
412.025	561.56
412.249	563.56
412.472	602.56
412.695	620.56
412.919	636.56
413.142	588.56
413.365	551.56
413.589	544.56
413.812	515.56
414.035	559.56
414.258	538.56
414.482	537.56
414.705	552.56
414.928	563.56
415.151	549.56
415.374	540.56
415.597	523.56
415.821	524.56
416.044	530.56
416.267	519.56
416.49	543.56
416.713	533.56
416.936	520.56
417.159	541.56
417.382	535.56
417.605	535.56
417.828	539.56
418.051	570.56
418.274	550.56
418.497	508.56
418.72	526.56
418.943	506.56
419.166	534.56
419.389	568.56
419.611	577.56
419.834	586.56
420.057	572.56
420.28	555.56
420.503	525.56
420.726	533.56
420.948	561.56
421.171	584.56
421.394	600.56
421.617	555.56
421.839	567.56
422.062	577.56
422.285	556.56
422.507	613.56
422.73	705.56
422.953	671.56
423.175	613.56
423.398	593.56
423.621	565.56
423.843	592.56
424.066	601.56
424.288	593.56
424.511	597.56
424.733	634.56
424.956	724.56
425.178	705.56
425.401	699.56
425.623	713.56
425.846	634.56
426.068	594.56
426.291	559.56
426.513	588.56
426.735	613.56
426.958	610.56
427.18	730.56
427.402	852.56
427.625	928.56
427.847	800.56
428.069	692.56
428.292	644.56
428.514	584.56
428.736	533.56
428.958	540.56
429.181	537.56
429.403	505.56
429.625	549.56
429.847	593.56
430.069	645.56
430.292	651.56
430.514	564.56
430.736	553.56
430.958	543.56
431.18	520.56
431.402	508.56
431.624	522.56
431.846	543.56
432.068	521.56
432.29	521.56
432.512	522.56
432.734	536.56
432.956	529.56
433.178	531.56
433.4	539.56
433.622	522.56
433.844	526.56
434.066	517.56
434.287	504.56
434.509	529.56
434.731	531.56
434.953	542.56
435.175	572.56
435.397	567.56
435.618	571.56
435.84	607.56
436.062	730.56
436.284	807.56
436.505	671.56
436.727	605.56
436.949	572.56
437.17	543.56
437.392	529.56
437.614	563.56
437.835	582.56
438.057	657.56
438.278	790.56
438.5	771.56
438.721	851.56
438.943	847.56
439.165	632.56
439.386	593.56
439.608	595.56
439.829	590.56
440.05	621.56
440.272	657.56
440.493	605.56
440.715	571.56
440.936	566.56
441.158	544.56
441.379	522.56
441.6	584.56
441.822	592.56
442.043	631.56
442.264	689.56
442.486	732.56
442.707	637.56
442.928	589.56
443.149	618.56
443.371	632.56
443.592	651.56
443.813	774.56
444.034	815.56
444.255	677.56
444.476	605.56
444.698	602.56
444.919	600.56
445.14	684.56
445.361	653.56
445.582	654.56
445.803	682.56
446.024	795.56
446.245	842.56
446.466	733.56
446.687	612.56
446.908	583.56
447.129	555.56
447.35	549.56
447.571	532.56
447.792	550.56
448.013	533.56
448.234	578.56
448.455	613.56
448.675	744.56
448.896	857.56
449.117	712.56
449.338	672.56
449.559	810.56
449.779	924.56
450	696.56
450.221	581.56
450.442	563.56
450.662	530.56
450.883	544.56
451.104	563.56
451.324	540.56
451.545	506.56
451.766	505.56
451.986	489.56
452.207	491.56
452.428	497.56
452.648	482.56
452.869	475.56
453.089	483.56
453.31	524.56
453.53	482.56
453.751	479.56
453.971	479.56
454.192	523.56
454.412	498.56
454.633	478.56
454.853	481.56
455.073	475.56
455.294	503.56
455.514	596.56
455.734	569.56
455.955	492.56
456.175	471.56
456.395	464.56
456.616	476.56
456.836	466.56
457.056	470.56
457.276	439.56
457.497	476.56
457.717	461.56
457.937	463.56
458.157	478.56
458.377	474.56
458.598	497.56
458.818	533.56
459.038	621.56
459.258	654.56
459.478	570.56
459.698	542.56
459.918	520.56
460.138	516.56
460.358	511.56
460.578	565.56
460.798	522.56
461.018	544.56
461.238	543.56
461.458	539.56
461.678	560.56
461.898	537.56
462.118	538.56
462.338	554.56
462.558	554.56
462.777	585.56
462.997	588.56
463.217	576.56
463.437	613.56
463.657	597.56
463.876	584.56
464.096	599.56
464.316	580.56
464.536	569.56
464.755	579.56
464.975	577.56
465.195	588.56
465.414	651.56
465.634	591.56
465.854	579.56
466.073	553.56
466.293	533.56
466.512	498.56
466.732	514.56
466.951	509.56
467.171	485.56
467.391	508.56
467.61	517.56
467.829	541.56
468.049	515.56
468.268	521.56
468.488	511.56
468.707	508.56
468.927	493.56
469.146	492.56
469.365	472.56
469.585	517.56
469.804	477.56
470.023	501.56
470.243	520.56
470.462	501.56
470.681	529.56
470.901	530.56
471.12	503.56
471.339	504.56
471.558	525.56
471.777	530.56
471.997	513.56
472.216	510.56
472.435	551.56
472.654	534.56
472.873	493.56
473.092	501.56
473.311	511.56
473.53	508.56
473.749	516.56
473.968	554.56
474.187	642.56
474.406	654.56
474.625	544.56
474.844	513.56
475.063	506.56
475.282	496.56
475.501	511.56
475.72	500.56
475.939	497.56
476.158	535.56
476.377	534.56
476.596	541.56
476.814	560.56
477.033	541.56
477.252	547.56
477.471	542.56
477.69	549.56
477.908	547.56
478.127	551.56
478.346	551.56
478.564	578.56
478.783	561.56
479.002	580.56
479.22	597.56
479.439	593.56
479.658	602.56
479.876	603.56
480.095	616.56
480.313	647.56
480.532	637.56
480.751	619.56
480.969	618.56
481.188	653.56
481.406	671.56
481.624	619.56
481.843	611.56
482.061	599.56
482.28	606.56
482.498	596.56
482.717	613.56
482.935	604.56
483.153	597.56
483.372	613.56
483.59	592.56
483.808	595.56
484.027	605.56
484.245	611.56
484.463	560.56
484.681	602.56
484.9	614.56
485.118	620.56
485.336	618.56
485.554	628.56
485.772	609.56
485.99	607.56
486.209	616.56
486.427	645.56
486.645	631.56
486.863	648.56
487.081	632.56
487.299	644.56
487.517	665.56
487.735	658.56
487.953	615.56
488.171	651.56
488.389	621.56
488.607	635.56
488.825	641.56
489.043	633.56
489.261	654.56
489.479	640.56
489.696	647.56
489.914	640.56
490.132	651.56
490.35	697.56
490.568	695.56
490.786	650.56
491.003	670.56
491.221	702.56
491.439	691.56
491.657	707.56
491.874	696.56
492.092	699.56
492.31	721.56
492.527	724.56
492.745	725.56
492.963	726.56
493.18	712.56
493.398	705.56
493.615	721.56
493.833	726.56
494.05	719.56
494.268	726.56
494.485	711.56
494.703	739.56
494.92	725.56
495.138	753.56
495.355	742.56
495.573	738.56
495.79	714.56
496.008	753.56
496.225	766.56
496.442	748.56
496.66	761.56
496.877	737.56
497.094	758.56
497.312	775.56
497.529	779.56
497.746	787.56
497.963	790.56
498.181	833.56
498.398	840.56
498.615	852.56
498.832	850.56
499.049	879.56
499.267	905.56
499.484	914.56
499.701	945.56
499.918	1015.56
500.135	1034.56
500.352	1094.56
500.569	1111.56
500.786	1108.56
501.003	1113.56
501.22	1077.56
501.437	1038.56
501.654	1019.56
501.871	983.56
