Data from 1978.PennyLincolnUp.Lamp.En5.5.200Scan.071719.P1_HRD10591_16-12-10-864.txt Node
Date: Thu Jul 18 16:12:10 EDT 2019
User: cochatt
Spectrometer: HR+D1059
Trigger mode: 1
Integration Time (sec): 1.000000E-1
Scans to average: 1
Electric dark correction enabled: true
Nonlinearity correction enabled: false
Boxcar width: 0
XAxis mode: Wavelengths
Number of Pixels in Spectrum: 2048
>>>>>Begin Spectral Data<<<<<
223.165	-18.5
223.4	-18.5
223.635	-18.5
223.869	-8.5
224.104	-22.5
224.338	-15.5
224.573	-23.5
224.808	-6.5
225.042	2.5
225.277	-2.5
225.511	-11.5
225.746	0.5
225.98	11.5
226.215	18.5
226.449	5.5
226.683	14.5
226.918	28.5
227.152	27.5
227.387	35.5
227.621	43.5
227.856	34.5
228.09	54.5
228.324	55.5
228.559	61.5
228.793	63.5
229.027	81.5
229.262	78.5
229.496	104.5
229.73	102.5
229.964	137.5
230.199	129.5
230.433	104.5
230.667	97.5
230.901	106.5
231.136	96.5
231.37	91.5
231.604	107.5
231.838	88.5
232.072	122.5
232.306	114.5
232.541	103.5
232.775	109.5
233.009	118.5
233.243	107.5
233.477	103.5
233.711	104.5
233.945	90.5
234.179	116.5
234.413	113.5
234.647	121.5
234.881	117.5
235.115	103.5
235.349	116.5
235.583	114.5
235.817	125.5
236.051	113.5
236.285	123.5
236.519	125.5
236.753	110.5
236.987	133.5
237.221	164.5
237.455	195.5
237.689	174.5
237.922	135.5
238.156	146.5
238.39	119.5
238.624	104.5
238.858	112.5
239.091	128.5
239.325	129.5
239.559	125.5
239.793	128.5
240.027	129.5
240.26	131.5
240.494	137.5
240.728	143.5
240.961	131.5
241.195	124.5
241.429	127.5
241.662	133.5
241.896	137.5
242.13	123.5
242.363	123.5
242.597	119.5
242.83	122.5
243.064	127.5
243.298	130.5
243.531	123.5
243.765	121.5
243.998	133.5
244.232	143.5
244.465	124.5
244.699	129.5
244.932	135.5
245.166	137.5
245.399	137.5
245.633	146.5
245.866	131.5
246.099	134.5
246.333	163.5
246.566	135.5
246.8	140.5
247.033	139.5
247.266	151.5
247.5	135.5
247.733	145.5
247.966	148.5
248.2	141.5
248.433	153.5
248.666	158.5
248.899	174.5
249.133	172.5
249.366	163.5
249.599	158.5
249.832	171.5
250.066	155.5
250.299	155.5
250.532	167.5
250.765	165.5
250.998	187.5
251.231	180.5
251.465	189.5
251.698	183.5
251.931	170.5
252.164	168.5
252.397	177.5
252.63	191.5
252.863	176.5
253.096	177.5
253.329	179.5
253.562	208.5
253.795	182.5
254.028	163.5
254.261	187.5
254.494	183.5
254.727	214.5
254.96	216.5
255.193	212.5
255.426	201.5
255.659	190.5
255.892	201.5
256.124	195.5
256.357	188.5
256.59	196.5
256.823	193.5
257.056	182.5
257.289	190.5
257.521	184.5
257.754	185.5
257.987	191.5
258.22	185.5
258.452	169.5
258.685	178.5
258.918	171.5
259.151	195.5
259.383	191.5
259.616	188.5
259.849	206.5
260.081	205.5
260.314	228.5
260.547	198.5
260.779	211.5
261.012	201.5
261.244	202.5
261.477	202.5
261.71	197.5
261.942	209.5
262.175	197.5
262.407	202.5
262.64	191.5
262.872	205.5
263.105	212.5
263.337	196.5
263.57	205.5
263.802	189.5
264.035	188.5
264.267	193.5
264.499	186.5
264.732	199.5
264.964	199.5
265.197	191.5
265.429	193.5
265.661	203.5
265.894	197.5
266.126	207.5
266.358	198.5
266.591	194.5
266.823	213.5
267.055	202.5
267.287	199.5
267.52	210.5
267.752	195.5
267.984	204.5
268.216	204.5
268.448	203.5
268.681	223.5
268.913	218.5
269.145	224.5
269.377	234.5
269.609	238.5
269.841	235.5
270.073	220.5
270.306	237.5
270.538	255.5
270.77	231.5
271.002	230.5
271.234	256.5
271.466	243.5
271.698	257.5
271.93	250.5
272.162	267.5
272.394	262.5
272.626	256.5
272.858	247.5
273.09	224.5
273.322	232.5
273.553	227.5
273.785	238.5
274.017	233.5
274.249	235.5
274.481	238.5
274.713	235.5
274.945	225.5
275.176	222.5
275.408	222.5
275.64	237.5
275.872	244.5
276.104	232.5
276.335	237.5
276.567	252.5
276.799	248.5
277.031	265.5
277.262	264.5
277.494	266.5
277.726	263.5
277.957	250.5
278.189	248.5
278.421	256.5
278.652	231.5
278.884	238.5
279.115	243.5
279.347	232.5
279.579	226.5
279.81	244.5
280.042	234.5
280.273	241.5
280.505	243.5
280.736	234.5
280.968	244.5
281.199	225.5
281.431	253.5
281.662	242.5
281.894	239.5
282.125	263.5
282.356	269.5
282.588	265.5
282.819	262.5
283.051	261.5
283.282	259.5
283.513	245.5
283.745	266.5
283.976	247.5
284.207	260.5
284.439	268.5
284.67	264.5
284.901	249.5
285.132	261.5
285.364	257.5
285.595	267.5
285.826	251.5
286.057	244.5
286.288	253.5
286.52	261.5
286.751	253.5
286.982	245.5
287.213	267.5
287.444	259.5
287.675	268.5
287.906	249.5
288.138	281.5
288.369	279.5
288.6	273.5
288.831	256.5
289.062	282.5
289.293	261.5
289.524	281.5
289.755	268.5
289.986	257.5
290.217	261.5
290.448	269.5
290.679	274.5
290.91	273.5
291.141	270.5
291.371	273.5
291.602	277.5
291.833	268.5
292.064	254.5
292.295	271.5
292.526	268.5
292.757	253.5
292.987	256.5
293.218	247.5
293.449	267.5
293.68	292.5
293.91	277.5
294.141	266.5
294.372	275.5
294.603	272.5
294.833	264.5
295.064	285.5
295.295	285.5
295.525	268.5
295.756	298.5
295.987	279.5
296.217	280.5
296.448	287.5
296.679	260.5
296.909	275.5
297.14	279.5
297.37	278.5
297.601	285.5
297.831	278.5
298.062	261.5
298.292	281.5
298.523	289.5
298.753	280.5
298.984	281.5
299.214	295.5
299.445	286.5
299.675	277.5
299.905	295.5
300.136	322.5
300.366	290.5
300.597	270.5
300.827	295.5
301.057	299.5
301.288	302.5
301.518	287.5
301.748	287.5
301.979	287.5
302.209	311.5
302.439	300.5
302.669	298.5
302.9	315.5
303.13	291.5
303.36	296.5
303.59	300.5
303.82	311.5
304.051	299.5
304.281	313.5
304.511	295.5
304.741	302.5
304.971	297.5
305.201	306.5
305.431	311.5
305.661	317.5
305.891	311.5
306.121	315.5
306.352	301.5
306.582	312.5
306.812	313.5
307.042	286.5
307.272	296.5
307.502	302.5
307.731	309.5
307.961	313.5
308.191	318.5
308.421	301.5
308.651	309.5
308.881	313.5
309.111	310.5
309.341	302.5
309.571	329.5
309.8	327.5
310.03	316.5
310.26	317.5
310.49	332.5
310.72	330.5
310.949	358.5
311.179	353.5
311.409	330.5
311.639	334.5
311.868	339.5
312.098	341.5
312.328	363.5
312.557	355.5
312.787	337.5
313.017	349.5
313.246	362.5
313.476	335.5
313.706	317.5
313.935	342.5
314.165	354.5
314.394	349.5
314.624	342.5
314.853	341.5
315.083	341.5
315.312	361.5
315.542	338.5
315.771	326.5
316.001	337.5
316.23	324.5
316.46	340.5
316.689	336.5
316.919	343.5
317.148	370.5
317.377	379.5
317.607	348.5
317.836	358.5
318.065	345.5
318.295	360.5
318.524	358.5
318.753	353.5
318.983	351.5
319.212	353.5
319.441	358.5
319.67	364.5
319.9	347.5
320.129	338.5
320.358	334.5
320.587	345.5
320.816	353.5
321.046	355.5
321.275	379.5
321.504	372.5
321.733	370.5
321.962	358.5
322.191	356.5
322.42	375.5
322.649	397.5
322.878	390.5
323.108	395.5
323.337	424.5
323.566	446.5
323.795	449.5
324.024	461.5
324.253	549.5
324.482	777.5
324.71	1177.5
324.939	1773.5
325.168	1563.5
325.397	775.5
325.626	545.5
325.855	456.5
326.084	431.5
326.313	425.5
326.542	438.5
326.77	475.5
326.999	536.5
327.228	716.5
327.457	1074.5
327.686	1370.5
327.914	897.5
328.143	584.5
328.372	497.5
328.6	485.5
328.829	447.5
329.058	477.5
329.287	480.5
329.515	463.5
329.744	440.5
329.972	439.5
330.201	461.5
330.43	473.5
330.658	481.5
330.887	475.5
331.115	495.5
331.344	454.5
331.572	457.5
331.801	422.5
332.03	431.5
332.258	427.5
332.486	412.5
332.715	417.5
332.943	416.5
333.172	440.5
333.4	424.5
333.629	441.5
333.857	450.5
334.085	427.5
334.314	446.5
334.542	473.5
334.771	472.5
334.999	457.5
335.227	455.5
335.455	415.5
335.684	413.5
335.912	412.5
336.14	417.5
336.369	422.5
336.597	443.5
336.825	411.5
337.053	422.5
337.281	413.5
337.51	405.5
337.738	422.5
337.966	411.5
338.194	414.5
338.422	435.5
338.65	421.5
338.878	434.5
339.106	414.5
339.334	385.5
339.562	389.5
339.79	381.5
340.018	413.5
340.246	401.5
340.474	419.5
340.702	396.5
340.93	385.5
341.158	415.5
341.386	392.5
341.614	395.5
341.842	410.5
342.07	397.5
342.298	382.5
342.526	408.5
342.754	389.5
342.981	379.5
343.209	380.5
343.437	377.5
343.665	398.5
343.893	422.5
344.12	413.5
344.348	409.5
344.576	436.5
344.804	421.5
345.031	419.5
345.259	419.5
345.487	425.5
345.714	425.5
345.942	410.5
346.17	403.5
346.397	398.5
346.625	411.5
346.853	407.5
347.08	395.5
347.308	390.5
347.535	384.5
347.763	393.5
347.99	399.5
348.218	388.5
348.445	391.5
348.673	371.5
348.9	385.5
349.128	381.5
349.355	383.5
349.583	371.5
349.81	372.5
350.037	363.5
350.265	378.5
350.492	373.5
350.72	379.5
350.947	381.5
351.174	376.5
351.402	393.5
351.629	397.5
351.856	381.5
352.083	383.5
352.311	412.5
352.538	393.5
352.765	393.5
352.992	403.5
353.22	408.5
353.447	396.5
353.674	370.5
353.901	391.5
354.128	377.5
354.355	377.5
354.583	377.5
354.81	371.5
355.037	360.5
355.264	389.5
355.491	366.5
355.718	381.5
355.945	364.5
356.172	357.5
356.399	385.5
356.626	381.5
356.853	376.5
357.08	364.5
357.307	377.5
357.534	376.5
357.761	361.5
357.988	392.5
358.215	379.5
358.441	355.5
358.668	350.5
358.895	352.5
359.122	387.5
359.349	404.5
359.576	387.5
359.802	397.5
360.029	407.5
360.256	445.5
360.483	422.5
360.709	388.5
360.936	403.5
361.163	385.5
361.39	396.5
361.616	395.5
361.843	401.5
362.07	393.5
362.296	398.5
362.523	409.5
362.749	398.5
362.976	403.5
363.203	386.5
363.429	385.5
363.656	372.5
363.882	393.5
364.109	371.5
364.335	411.5
364.562	403.5
364.788	396.5
365.015	412.5
365.241	393.5
365.468	381.5
365.694	405.5
365.92	377.5
366.147	378.5
366.373	370.5
366.599	389.5
366.826	372.5
367.052	385.5
367.278	381.5
367.505	379.5
367.731	385.5
367.957	381.5
368.184	374.5
368.41	397.5
368.636	397.5
368.862	399.5
369.089	392.5
369.315	371.5
369.541	401.5
369.767	399.5
369.993	381.5
370.219	394.5
370.445	383.5
370.672	399.5
370.898	392.5
371.124	382.5
371.35	401.5
371.576	398.5
371.802	390.5
372.028	390.5
372.254	407.5
372.48	407.5
372.706	397.5
372.932	417.5
373.158	398.5
373.384	397.5
373.61	386.5
373.835	383.5
374.061	383.5
374.287	392.5
374.513	378.5
374.739	412.5
374.965	401.5
375.191	425.5
375.416	422.5
375.642	379.5
375.868	402.5
376.094	409.5
376.319	411.5
376.545	400.5
376.771	385.5
376.997	381.5
377.222	417.5
377.448	388.5
377.674	397.5
377.899	383.5
378.125	395.5
378.35	400.5
378.576	391.5
378.802	386.5
379.027	385.5
379.253	403.5
379.478	386.5
379.704	385.5
379.929	395.5
380.155	396.5
380.38	381.5
380.606	407.5
380.831	410.5
381.057	411.5
381.282	412.5
381.507	389.5
381.733	409.5
381.958	399.5
382.184	401.5
382.409	401.5
382.634	417.5
382.86	411.5
383.085	402.5
383.31	394.5
383.535	411.5
383.761	408.5
383.986	407.5
384.211	417.5
384.436	417.5
384.662	427.5
384.887	429.5
385.112	434.5
385.337	433.5
385.562	419.5
385.787	425.5
386.013	435.5
386.238	455.5
386.463	462.5
386.688	435.5
386.913	459.5
387.138	429.5
387.363	436.5
387.588	439.5
387.813	446.5
388.038	441.5
388.263	443.5
388.488	436.5
388.713	429.5
388.938	445.5
389.163	442.5
389.387	450.5
389.612	430.5
389.837	436.5
390.062	418.5
390.287	417.5
390.512	447.5
390.736	445.5
390.961	465.5
391.186	443.5
391.411	455.5
391.636	460.5
391.86	460.5
392.085	462.5
392.31	443.5
392.534	461.5
392.759	466.5
392.984	462.5
393.208	439.5
393.433	453.5
393.658	458.5
393.882	463.5
394.107	465.5
394.331	448.5
394.556	456.5
394.78	450.5
395.005	442.5
395.229	459.5
395.454	486.5
395.678	472.5
395.903	489.5
396.127	511.5
396.352	478.5
396.576	459.5
396.801	483.5
397.025	483.5
397.249	477.5
397.474	470.5
397.698	468.5
397.922	477.5
398.147	510.5
398.371	531.5
398.595	499.5
398.82	494.5
399.044	522.5
399.268	545.5
399.492	568.5
399.717	592.5
399.941	614.5
400.165	633.5
400.389	622.5
400.613	568.5
400.837	551.5
401.062	533.5
401.286	515.5
401.51	534.5
401.734	519.5
401.958	532.5
402.182	539.5
402.406	521.5
402.63	527.5
402.854	528.5
403.078	519.5
403.302	551.5
403.526	529.5
403.75	533.5
403.974	551.5
404.198	519.5
404.422	546.5
404.645	561.5
404.869	545.5
405.093	572.5
405.317	590.5
405.541	637.5
405.765	572.5
405.988	549.5
406.212	565.5
406.436	582.5
406.66	595.5
406.883	596.5
407.107	577.5
407.331	604.5
407.555	701.5
407.778	679.5
408.002	611.5
408.226	617.5
408.449	569.5
408.673	594.5
408.896	626.5
409.12	631.5
409.344	599.5
409.567	553.5
409.791	571.5
410.014	553.5
410.238	550.5
410.461	534.5
410.685	548.5
410.908	542.5
411.132	573.5
411.355	618.5
411.578	602.5
411.802	547.5
412.025	537.5
412.249	540.5
412.472	581.5
412.695	595.5
412.919	574.5
413.142	535.5
413.365	543.5
413.589	526.5
413.812	520.5
414.035	534.5
414.258	501.5
414.482	513.5
414.705	502.5
414.928	537.5
415.151	504.5
415.374	503.5
415.597	501.5
415.821	518.5
416.044	514.5
416.267	505.5
416.49	507.5
416.713	483.5
416.936	506.5
417.159	489.5
417.382	495.5
417.605	535.5
417.828	513.5
418.051	531.5
418.274	520.5
418.497	500.5
418.72	501.5
418.943	494.5
419.166	494.5
419.389	570.5
419.611	539.5
419.834	559.5
420.057	549.5
420.28	533.5
420.503	525.5
420.726	518.5
420.948	523.5
421.171	570.5
421.394	580.5
421.617	527.5
421.839	534.5
422.062	531.5
422.285	535.5
422.507	576.5
422.73	671.5
422.953	647.5
423.175	578.5
423.398	536.5
423.621	554.5
423.843	570.5
424.066	542.5
424.288	540.5
424.511	562.5
424.733	603.5
424.956	702.5
425.178	639.5
425.401	670.5
425.623	679.5
425.846	577.5
426.068	559.5
426.291	532.5
426.513	555.5
426.735	565.5
426.958	586.5
427.18	663.5
427.402	808.5
427.625	899.5
427.847	732.5
428.069	652.5
428.292	597.5
428.514	567.5
428.736	520.5
428.958	554.5
429.181	533.5
429.403	510.5
429.625	517.5
429.847	559.5
430.069	609.5
430.292	599.5
430.514	515.5
430.736	533.5
430.958	499.5
431.18	489.5
431.402	507.5
431.624	503.5
431.846	491.5
432.068	484.5
432.29	491.5
432.512	488.5
432.734	492.5
432.956	494.5
433.178	507.5
433.4	503.5
433.622	488.5
433.844	503.5
434.066	497.5
434.287	490.5
434.509	493.5
434.731	499.5
434.953	528.5
435.175	527.5
435.397	562.5
435.618	547.5
435.84	588.5
436.062	683.5
436.284	766.5
436.505	617.5
436.727	562.5
436.949	517.5
437.17	499.5
437.392	524.5
437.614	524.5
437.835	553.5
438.057	617.5
438.278	721.5
438.5	706.5
438.721	804.5
438.943	777.5
439.165	628.5
439.386	567.5
439.608	562.5
439.829	559.5
440.05	575.5
440.272	636.5
440.493	587.5
440.715	556.5
440.936	529.5
441.158	527.5
441.379	495.5
441.6	509.5
441.822	541.5
442.043	575.5
442.264	661.5
442.486	719.5
442.707	618.5
442.928	566.5
443.149	581.5
443.371	567.5
443.592	623.5
443.813	685.5
444.034	799.5
444.255	659.5
444.476	598.5
444.698	579.5
444.919	567.5
445.14	655.5
445.361	607.5
445.582	563.5
445.803	655.5
446.024	750.5
446.245	735.5
446.466	701.5
446.687	578.5
446.908	549.5
447.129	520.5
447.35	509.5
447.571	519.5
447.792	491.5
448.013	513.5
448.234	527.5
448.455	559.5
448.675	680.5
448.896	795.5
449.117	646.5
449.338	660.5
449.559	722.5
449.779	837.5
450	670.5
450.221	558.5
450.442	502.5
450.662	483.5
450.883	473.5
451.104	509.5
451.324	511.5
451.545	481.5
451.766	486.5
451.986	469.5
452.207	462.5
452.428	451.5
452.648	459.5
452.869	454.5
453.089	470.5
453.31	488.5
453.53	471.5
453.751	463.5
453.971	469.5
454.192	485.5
454.412	479.5
454.633	450.5
454.853	442.5
455.073	456.5
455.294	468.5
455.514	518.5
455.734	527.5
455.955	459.5
456.175	434.5
456.395	441.5
456.616	424.5
456.836	429.5
457.056	437.5
457.276	422.5
457.497	433.5
457.717	443.5
457.937	463.5
458.157	463.5
458.377	464.5
458.598	496.5
458.818	516.5
459.038	565.5
459.258	596.5
459.478	526.5
459.698	511.5
459.918	502.5
460.138	505.5
460.358	537.5
460.578	519.5
460.798	516.5
461.018	551.5
461.238	519.5
461.458	533.5
461.678	529.5
461.898	512.5
462.118	517.5
462.338	535.5
462.558	543.5
462.777	542.5
462.997	568.5
463.217	589.5
463.437	577.5
463.657	565.5
463.876	555.5
464.096	565.5
464.316	557.5
464.536	571.5
464.755	576.5
464.975	574.5
465.195	577.5
465.414	597.5
465.634	554.5
465.854	535.5
466.073	522.5
466.293	492.5
466.512	513.5
466.732	501.5
466.951	522.5
467.171	494.5
467.391	497.5
467.61	481.5
467.829	489.5
468.049	489.5
468.268	486.5
468.488	494.5
468.707	505.5
468.927	458.5
469.146	492.5
469.365	476.5
469.585	494.5
469.804	492.5
470.023	483.5
470.243	480.5
470.462	509.5
470.681	503.5
470.901	507.5
471.12	498.5
471.339	491.5
471.558	485.5
471.777	494.5
471.997	482.5
472.216	503.5
472.435	514.5
472.654	480.5
472.873	467.5
473.092	491.5
473.311	483.5
473.53	488.5
473.749	490.5
473.968	524.5
474.187	604.5
474.406	630.5
474.625	507.5
474.844	518.5
475.063	503.5
475.282	483.5
475.501	497.5
475.72	502.5
475.939	501.5
476.158	508.5
476.377	504.5
476.596	519.5
476.814	501.5
477.033	547.5
477.252	515.5
477.471	541.5
477.69	526.5
477.908	545.5
478.127	566.5
478.346	527.5
478.564	568.5
478.783	529.5
479.002	533.5
479.22	570.5
479.439	580.5
479.658	572.5
479.876	582.5
480.095	605.5
480.313	611.5
480.532	620.5
480.751	583.5
480.969	602.5
481.188	618.5
481.406	646.5
481.624	615.5
481.843	573.5
482.061	591.5
482.28	582.5
482.498	573.5
482.717	570.5
482.935	589.5
483.153	597.5
483.372	558.5
483.59	565.5
483.808	558.5
484.027	574.5
484.245	580.5
484.463	574.5
484.681	574.5
484.9	588.5
485.118	598.5
485.336	564.5
485.554	575.5
485.772	586.5
485.99	598.5
486.209	591.5
486.427	594.5
486.645	619.5
486.863	620.5
487.081	613.5
487.299	597.5
487.517	589.5
487.735	602.5
487.953	627.5
488.171	613.5
488.389	595.5
488.607	613.5
488.825	600.5
489.043	574.5
489.261	621.5
489.479	608.5
489.696	619.5
489.914	628.5
490.132	635.5
490.35	639.5
490.568	621.5
490.786	651.5
491.003	614.5
491.221	656.5
491.439	686.5
491.657	678.5
491.874	673.5
492.092	659.5
492.31	677.5
492.527	658.5
492.745	673.5
492.963	681.5
493.18	696.5
493.398	663.5
493.615	682.5
493.833	711.5
494.05	687.5
494.268	689.5
494.485	679.5
494.703	687.5
494.92	700.5
495.138	695.5
495.355	721.5
495.573	693.5
495.79	718.5
496.008	697.5
496.225	721.5
496.442	722.5
496.66	724.5
496.877	695.5
497.094	722.5
497.312	745.5
497.529	727.5
497.746	755.5
497.963	754.5
498.181	778.5
498.398	781.5
498.615	806.5
498.832	815.5
499.049	838.5
499.267	866.5
499.484	856.5
499.701	912.5
499.918	938.5
500.135	1031.5
500.352	1047.5
500.569	1071.5
500.786	1041.5
501.003	1025.5
501.22	994.5
501.437	967.5
501.654	952.5
501.871	945.5
502.088	885.5
502.305	885.5
502.522	835.5
502.739	812.5
502.956	811.5
503.172	800.5
503.389	778.5
503.606	773.5
503.823	743.5
504.04	742.5
504.256	763.5
504.473	740.5
504.69	726.5
504.907	716.5
505.123	714.5
505.34	697.5
505.557	692.5
505.773	675.5
505.99	687.5
506.207	700.5
506.423	668.5
506.64	663.5
506.856	694.5
507.073	667.5
507.289	666.5
507.506	635.5
507.722	636.5
507.939	663.5
508.155	646.5
508.372	638.5
508.588	635.5
508.805	632.5
509.021	636.5
509.238	644.5
509.454	653.5
509.67	647.5
509.887	632.5
510.103	633.5
510.319	625.5
510.536	700.5
510.752	1037.5
510.968	874.5
511.184	634.5
511.401	619.5
511.617	614.5
511.833	619.5
512.049	629.5
512.265	601.5
512.481	590.5
512.698	583.5
512.914	587.5
513.13	583.5
513.346	594.5
513.562	587.5
513.778	590.5
513.994	617.5
514.21	618.5
514.426	654.5
514.642	659.5
514.858	663.5
515.074	693.5
515.29	758.5
515.506	1012.5
515.721	923.5
515.937	682.5
516.153	635.5
516.369	645.5
516.585	629.5
516.801	657.5
517.016	636.5
517.232	643.5
517.448	646.5
517.664	653.5
517.879	651.5
518.095	646.5
518.311	656.5
518.527	644.5
518.742	595.5
518.958	637.5
519.173	617.5
519.389	616.5
519.605	627.5
519.82	634.5
