Data from 1978.PennyLincolnUp.Lamp.En5.5.200Scan.071719.P1_HRD10591_16-13-30-864.txt Node
Date: Thu Jul 18 16:13:30 EDT 2019
User: cochatt
Spectrometer: HR+D1059
Trigger mode: 1
Integration Time (sec): 1.000000E-1
Scans to average: 1
Electric dark correction enabled: true
Nonlinearity correction enabled: false
Boxcar width: 0
XAxis mode: Wavelengths
Number of Pixels in Spectrum: 2048
>>>>>Begin Spectral Data<<<<<
223.165	-3.62
223.4	-3.62
223.635	-3.62
223.869	-22.62
224.104	-27.62
224.338	-22.62
224.573	-14.62
224.808	-7.62
225.042	-3.62
225.277	4.38
225.511	4.38
225.746	0.38
225.98	13.38
226.215	11.38
226.449	1.38
226.683	25.38
226.918	21.38
227.152	20.38
227.387	26.38
227.621	22.38
227.856	30.38
228.09	45.38
228.324	52.38
228.559	51.38
228.793	54.38
229.027	91.38
229.262	77.38
229.496	117.38
229.73	134.38
229.964	148.38
230.199	128.38
230.433	122.38
230.667	104.38
230.901	106.38
231.136	106.38
231.37	120.38
231.604	99.38
231.838	97.38
232.072	106.38
232.306	127.38
232.541	110.38
232.775	111.38
233.009	96.38
233.243	123.38
233.477	119.38
233.711	108.38
233.945	124.38
234.179	108.38
234.413	121.38
234.647	104.38
234.881	113.38
235.115	116.38
235.349	122.38
235.583	117.38
235.817	112.38
236.051	120.38
236.285	122.38
236.519	129.38
236.753	132.38
236.987	147.38
237.221	178.38
237.455	220.38
237.689	192.38
237.922	144.38
238.156	133.38
238.39	133.38
238.624	133.38
238.858	135.38
239.091	113.38
239.325	126.38
239.559	132.38
239.793	131.38
240.027	122.38
240.26	136.38
240.494	146.38
240.728	145.38
240.961	152.38
241.195	139.38
241.429	125.38
241.662	132.38
241.896	134.38
242.13	141.38
242.363	124.38
242.597	128.38
242.83	124.38
243.064	125.38
243.298	146.38
243.531	129.38
243.765	135.38
243.998	133.38
244.232	140.38
244.465	143.38
244.699	142.38
244.932	132.38
245.166	137.38
245.399	132.38
245.633	134.38
245.866	140.38
246.099	136.38
246.333	136.38
246.566	141.38
246.8	155.38
247.033	155.38
247.266	160.38
247.5	162.38
247.733	171.38
247.966	154.38
248.2	159.38
248.433	152.38
248.666	153.38
248.899	163.38
249.133	196.38
249.366	188.38
249.599	200.38
249.832	170.38
250.066	165.38
250.299	166.38
250.532	181.38
250.765	188.38
250.998	207.38
251.231	202.38
251.465	197.38
251.698	189.38
251.931	165.38
252.164	169.38
252.397	196.38
252.63	192.38
252.863	187.38
253.096	192.38
253.329	210.38
253.562	197.38
253.795	189.38
254.028	214.38
254.261	203.38
254.494	201.38
254.727	218.38
254.96	254.38
255.193	234.38
255.426	216.38
255.659	209.38
255.892	212.38
256.124	205.38
256.357	218.38
256.59	212.38
256.823	188.38
257.056	218.38
257.289	185.38
257.521	193.38
257.754	191.38
257.987	185.38
258.22	200.38
258.452	208.38
258.685	204.38
258.918	204.38
259.151	191.38
259.383	210.38
259.616	206.38
259.849	200.38
260.081	216.38
260.314	232.38
260.547	225.38
260.779	213.38
261.012	198.38
261.244	228.38
261.477	213.38
261.71	203.38
261.942	217.38
262.175	217.38
262.407	200.38
262.64	205.38
262.872	204.38
263.105	201.38
263.337	203.38
263.57	211.38
263.802	207.38
264.035	199.38
264.267	201.38
264.499	208.38
264.732	193.38
264.964	224.38
265.197	206.38
265.429	213.38
265.661	206.38
265.894	217.38
266.126	207.38
266.358	212.38
266.591	219.38
266.823	225.38
267.055	212.38
267.287	223.38
267.52	207.38
267.752	223.38
267.984	217.38
268.216	223.38
268.448	221.38
268.681	220.38
268.913	228.38
269.145	240.38
269.377	260.38
269.609	259.38
269.841	252.38
270.073	254.38
270.306	268.38
270.538	284.38
270.77	285.38
271.002	270.38
271.234	261.38
271.466	270.38
271.698	297.38
271.93	279.38
272.162	286.38
272.394	298.38
272.626	281.38
272.858	259.38
273.09	264.38
273.322	252.38
273.553	256.38
273.785	243.38
274.017	257.38
274.249	271.38
274.481	252.38
274.713	258.38
274.945	273.38
275.176	252.38
275.408	254.38
275.64	265.38
275.872	260.38
276.104	257.38
276.335	253.38
276.567	274.38
276.799	270.38
277.031	285.38
277.262	289.38
277.494	304.38
277.726	286.38
277.957	268.38
278.189	262.38
278.421	265.38
278.652	236.38
278.884	252.38
279.115	261.38
279.347	261.38
279.579	245.38
279.81	241.38
280.042	247.38
280.273	253.38
280.505	263.38
280.736	256.38
280.968	264.38
281.199	253.38
281.431	256.38
281.662	259.38
281.894	245.38
282.125	262.38
282.356	276.38
282.588	307.38
282.819	301.38
283.051	272.38
283.282	262.38
283.513	269.38
283.745	268.38
283.976	272.38
284.207	270.38
284.439	276.38
284.67	274.38
284.901	277.38
285.132	287.38
285.364	270.38
285.595	276.38
285.826	268.38
286.057	271.38
286.288	280.38
286.52	278.38
286.751	260.38
286.982	266.38
287.213	267.38
287.444	267.38
287.675	269.38
287.906	277.38
288.138	301.38
288.369	288.38
288.6	308.38
288.831	292.38
289.062	282.38
289.293	282.38
289.524	284.38
289.755	275.38
289.986	289.38
290.217	271.38
290.448	264.38
290.679	277.38
290.91	285.38
291.141	289.38
291.371	282.38
291.602	276.38
291.833	281.38
292.064	293.38
292.295	287.38
292.526	273.38
292.757	272.38
292.987	275.38
293.218	278.38
293.449	285.38
293.68	286.38
293.91	283.38
294.141	280.38
294.372	276.38
294.603	281.38
294.833	286.38
295.064	271.38
295.295	284.38
295.525	303.38
295.756	290.38
295.987	301.38
296.217	314.38
296.448	342.38
296.679	312.38
296.909	281.38
297.14	275.38
297.37	297.38
297.601	308.38
297.831	313.38
298.062	277.38
298.292	285.38
298.523	298.38
298.753	290.38
298.984	309.38
299.214	308.38
299.445	279.38
299.675	308.38
299.905	319.38
300.136	310.38
300.366	289.38
300.597	301.38
300.827	307.38
301.057	305.38
301.288	311.38
301.518	317.38
301.748	300.38
301.979	320.38
302.209	320.38
302.439	326.38
302.669	337.38
302.9	310.38
303.13	300.38
303.36	313.38
303.59	333.38
303.82	334.38
304.051	311.38
304.281	325.38
304.511	319.38
304.741	329.38
304.971	310.38
305.201	298.38
305.431	323.38
305.661	308.38
305.891	312.38
306.121	333.38
306.352	325.38
306.582	332.38
306.812	327.38
307.042	337.38
307.272	322.38
307.502	332.38
307.731	327.38
307.961	305.38
308.191	314.38
308.421	312.38
308.651	338.38
308.881	331.38
309.111	348.38
309.341	326.38
309.571	355.38
309.8	348.38
310.03	359.38
310.26	360.38
310.49	354.38
310.72	370.38
310.949	385.38
311.179	378.38
311.409	366.38
311.639	345.38
311.868	350.38
312.098	350.38
312.328	383.38
312.557	394.38
312.787	394.38
313.017	385.38
313.246	389.38
313.476	360.38
313.706	360.38
313.935	375.38
314.165	362.38
314.394	382.38
314.624	393.38
314.853	364.38
315.083	373.38
315.312	366.38
315.542	368.38
315.771	344.38
316.001	377.38
316.23	354.38
316.46	359.38
316.689	383.38
316.919	377.38
317.148	378.38
317.377	381.38
317.607	366.38
317.836	390.38
318.065	395.38
318.295	364.38
318.524	376.38
318.753	360.38
318.983	370.38
319.212	365.38
319.441	378.38
319.67	378.38
319.9	387.38
320.129	369.38
320.358	374.38
320.587	378.38
320.816	388.38
321.046	372.38
321.275	394.38
321.504	393.38
321.733	389.38
321.962	419.38
322.191	405.38
322.42	427.38
322.649	435.38
322.878	435.38
323.108	461.38
323.337	463.38
323.566	478.38
323.795	493.38
324.024	563.38
324.253	668.38
324.482	916.38
324.71	1498.38
324.939	2345.38
325.168	2001.38
325.397	953.38
325.626	632.38
325.855	560.38
326.084	522.38
326.313	504.38
326.542	500.38
326.77	538.38
326.999	619.38
327.228	854.38
327.457	1330.38
327.686	1719.38
327.914	1107.38
328.143	696.38
328.372	614.38
328.6	571.38
328.829	541.38
329.058	573.38
329.287	575.38
329.515	519.38
329.744	491.38
329.972	498.38
330.201	500.38
330.43	535.38
330.658	570.38
330.887	563.38
331.115	592.38
331.344	517.38
331.572	463.38
331.801	468.38
332.03	481.38
332.258	446.38
332.486	446.38
332.715	467.38
332.943	451.38
333.172	473.38
333.4	452.38
333.629	461.38
333.857	465.38
334.085	473.38
334.314	486.38
334.542	516.38
334.771	523.38
334.999	494.38
335.227	472.38
335.455	466.38
335.684	450.38
335.912	472.38
336.14	452.38
336.369	452.38
336.597	462.38
336.825	465.38
337.053	466.38
337.281	439.38
337.51	422.38
337.738	444.38
337.966	439.38
338.194	458.38
338.422	449.38
338.65	445.38
338.878	452.38
339.106	415.38
339.334	409.38
339.562	436.38
339.79	415.38
340.018	429.38
340.246	425.38
340.474	434.38
340.702	427.38
340.93	432.38
341.158	414.38
341.386	438.38
341.614	438.38
341.842	421.38
342.07	407.38
342.298	424.38
342.526	427.38
342.754	439.38
342.981	409.38
343.209	414.38
343.437	440.38
343.665	437.38
343.893	428.38
344.12	444.38
344.348	440.38
344.576	448.38
344.804	446.38
345.031	452.38
345.259	462.38
345.487	448.38
345.714	438.38
345.942	437.38
346.17	403.38
346.397	450.38
346.625	412.38
346.853	399.38
347.08	403.38
347.308	435.38
347.535	434.38
347.763	443.38
347.99	415.38
348.218	418.38
348.445	427.38
348.673	421.38
348.9	416.38
349.128	411.38
349.355	416.38
349.583	400.38
349.81	427.38
350.037	407.38
350.265	384.38
350.492	410.38
350.72	391.38
350.947	420.38
351.174	424.38
351.402	432.38
351.629	428.38
351.856	436.38
352.083	426.38
352.311	420.38
352.538	442.38
352.765	452.38
352.992	429.38
353.22	418.38
353.447	431.38
353.674	426.38
353.901	394.38
354.128	405.38
354.355	380.38
354.583	417.38
354.81	411.38
355.037	397.38
355.264	409.38
355.491	386.38
355.718	398.38
355.945	394.38
356.172	420.38
356.399	396.38
356.626	398.38
356.853	379.38
357.08	393.38
357.307	383.38
357.534	382.38
357.761	378.38
357.988	410.38
358.215	396.38
358.441	402.38
358.668	398.38
358.895	397.38
359.122	410.38
359.349	418.38
359.576	410.38
359.802	461.38
360.029	479.38
360.256	465.38
360.483	468.38
360.709	447.38
360.936	421.38
361.163	404.38
361.39	412.38
361.616	422.38
361.843	439.38
362.07	392.38
362.296	434.38
362.523	421.38
362.749	425.38
362.976	428.38
363.203	419.38
363.429	415.38
363.656	421.38
363.882	405.38
364.109	400.38
364.335	414.38
364.562	411.38
364.788	404.38
365.015	412.38
365.241	418.38
365.468	397.38
365.694	426.38
365.92	429.38
366.147	424.38
366.373	380.38
366.599	394.38
366.826	400.38
367.052	419.38
367.278	407.38
367.505	407.38
367.731	423.38
367.957	402.38
368.184	411.38
368.41	395.38
368.636	422.38
368.862	432.38
369.089	410.38
369.315	429.38
369.541	407.38
369.767	419.38
369.993	408.38
370.219	413.38
370.445	411.38
370.672	404.38
370.898	409.38
371.124	429.38
371.35	412.38
371.576	403.38
371.802	402.38
372.028	421.38
372.254	426.38
372.48	411.38
372.706	422.38
372.932	418.38
373.158	404.38
373.384	425.38
373.61	406.38
373.835	433.38
374.061	411.38
374.287	422.38
374.513	426.38
374.739	408.38
374.965	425.38
375.191	412.38
375.416	427.38
375.642	425.38
375.868	420.38
376.094	422.38
376.319	424.38
376.545	417.38
376.771	424.38
376.997	419.38
377.222	400.38
377.448	408.38
377.674	406.38
377.899	402.38
378.125	425.38
378.35	426.38
378.576	416.38
378.802	429.38
379.027	429.38
379.253	409.38
379.478	408.38
379.704	405.38
379.929	412.38
380.155	392.38
380.38	413.38
380.606	417.38
380.831	414.38
381.057	412.38
381.282	426.38
381.507	401.38
381.733	407.38
381.958	430.38
382.184	434.38
382.409	435.38
382.634	420.38
382.86	427.38
383.085	429.38
383.31	430.38
383.535	422.38
383.761	437.38
383.986	427.38
384.211	445.38
384.436	446.38
384.662	443.38
384.887	457.38
385.112	449.38
385.337	465.38
385.562	467.38
385.787	464.38
386.013	479.38
386.238	472.38
386.463	461.38
386.688	440.38
386.913	440.38
387.138	444.38
387.363	454.38
387.588	464.38
387.813	438.38
388.038	455.38
388.263	481.38
388.488	454.38
388.713	480.38
388.938	472.38
389.163	461.38
389.387	485.38
389.612	476.38
389.837	476.38
390.062	458.38
390.287	464.38
390.512	443.38
390.736	454.38
390.961	453.38
391.186	469.38
391.411	472.38
391.636	467.38
391.86	479.38
392.085	464.38
392.31	501.38
392.534	452.38
392.759	465.38
392.984	494.38
393.208	493.38
393.433	477.38
393.658	487.38
393.882	467.38
394.107	485.38
394.331	474.38
394.556	480.38
394.78	471.38
395.005	463.38
395.229	488.38
395.454	490.38
395.678	482.38
395.903	501.38
396.127	526.38
396.352	537.38
396.576	488.38
396.801	488.38
397.025	483.38
397.249	493.38
397.474	498.38
397.698	501.38
397.922	538.38
398.147	521.38
398.371	536.38
398.595	505.38
398.82	515.38
399.044	558.38
399.268	540.38
399.492	609.38
399.717	627.38
399.941	636.38
400.165	668.38
400.389	666.38
400.613	635.38
400.837	581.38
401.062	570.38
401.286	563.38
401.51	546.38
401.734	561.38
401.958	547.38
402.182	530.38
402.406	582.38
402.63	555.38
402.854	566.38
403.078	573.38
403.302	557.38
403.526	561.38
403.75	565.38
403.974	568.38
404.198	565.38
404.422	570.38
404.645	587.38
404.869	553.38
405.093	595.38
405.317	638.38
405.541	686.38
405.765	627.38
405.988	584.38
406.212	590.38
406.436	620.38
406.66	642.38
406.883	593.38
407.107	639.38
407.331	696.38
407.555	744.38
407.778	724.38
408.002	677.38
408.226	636.38
408.449	651.38
408.673	609.38
408.896	667.38
409.12	698.38
409.344	660.38
409.567	598.38
409.791	602.38
410.014	579.38
410.238	563.38
410.461	585.38
410.685	608.38
410.908	592.38
411.132	630.38
411.355	680.38
411.578	629.38
411.802	580.38
412.025	571.38
412.249	580.38
412.472	599.38
412.695	621.38
412.919	614.38
413.142	563.38
413.365	546.38
413.589	563.38
413.812	556.38
414.035	544.38
414.258	528.38
414.482	539.38
414.705	561.38
414.928	540.38
415.151	526.38
415.374	542.38
415.597	531.38
415.821	558.38
416.044	556.38
416.267	538.38
416.49	543.38
416.713	518.38
416.936	536.38
417.159	523.38
417.382	530.38
417.605	521.38
417.828	550.38
418.051	572.38
418.274	547.38
418.497	530.38
418.72	534.38
418.943	523.38
419.166	554.38
419.389	579.38
419.611	587.38
419.834	574.38
420.057	567.38
420.28	542.38
420.503	543.38
420.726	552.38
420.948	572.38
421.171	618.38
421.394	641.38
421.617	569.38
421.839	565.38
422.062	559.38
422.285	536.38
422.507	619.38
422.73	714.38
422.953	689.38
423.175	616.38
423.398	595.38
423.621	571.38
423.843	596.38
424.066	603.38
424.288	599.38
424.511	624.38
424.733	666.38
424.956	745.38
425.178	746.38
425.401	708.38
425.623	719.38
425.846	633.38
426.068	584.38
426.291	572.38
426.513	603.38
426.735	614.38
426.958	644.38
427.18	714.38
427.402	885.38
427.625	980.38
427.847	841.38
428.069	713.38
428.292	643.38
428.514	600.38
428.736	579.38
428.958	569.38
429.181	560.38
429.403	554.38
429.625	541.38
429.847	601.38
430.069	661.38
430.292	664.38
430.514	587.38
430.736	567.38
430.958	539.38
431.18	550.38
431.402	523.38
431.624	523.38
431.846	518.38
432.068	525.38
432.29	540.38
432.512	534.38
432.734	546.38
432.956	524.38
433.178	530.38
433.4	551.38
433.622	530.38
433.844	534.38
434.066	529.38
434.287	535.38
434.509	540.38
434.731	543.38
434.953	541.38
435.175	550.38
435.397	582.38
435.618	603.38
435.84	646.38
436.062	750.38
436.284	854.38
436.505	697.38
436.727	622.38
436.949	580.38
437.17	552.38
437.392	548.38
437.614	569.38
437.835	603.38
438.057	656.38
438.278	816.38
438.5	806.38
438.721	906.38
438.943	863.38
439.165	661.38
439.386	600.38
439.608	600.38
439.829	602.38
440.05	625.38
440.272	709.38
440.493	640.38
440.715	593.38
440.936	601.38
441.158	552.38
441.379	548.38
441.6	572.38
441.822	585.38
442.043	630.38
442.264	706.38
442.486	802.38
442.707	656.38
442.928	600.38
443.149	622.38
443.371	640.38
443.592	702.38
443.813	785.38
444.034	862.38
444.255	707.38
444.476	662.38
444.698	626.38
444.919	590.38
445.14	716.38
445.361	676.38
445.582	636.38
445.803	713.38
446.024	810.38
446.245	838.38
446.466	762.38
446.687	654.38
446.908	595.38
447.129	594.38
447.35	554.38
447.571	541.38
447.792	557.38
448.013	549.38
448.234	566.38
448.455	601.38
448.675	768.38
448.896	885.38
449.117	703.38
449.338	705.38
449.559	799.38
449.779	952.38
450	749.38
450.221	606.38
450.442	556.38
450.662	534.38
450.883	574.38
451.104	558.38
451.324	523.38
451.545	541.38
451.766	532.38
451.986	505.38
452.207	483.38
452.428	476.38
452.648	498.38
452.869	511.38
453.089	505.38
453.31	517.38
453.53	487.38
453.751	492.38
453.971	490.38
454.192	536.38
454.412	493.38
454.633	500.38
454.853	483.38
455.073	483.38
455.294	524.38
455.514	595.38
455.734	570.38
455.955	477.38
456.175	492.38
456.395	484.38
456.616	474.38
456.836	472.38
457.056	466.38
457.276	468.38
457.497	453.38
457.717	475.38
457.937	466.38
458.157	487.38
458.377	499.38
458.598	518.38
458.818	558.38
459.038	650.38
459.258	660.38
459.478	585.38
459.698	538.38
459.918	550.38
460.138	528.38
460.358	538.38
460.578	540.38
460.798	548.38
461.018	555.38
461.238	552.38
461.458	561.38
461.678	547.38
461.898	565.38
462.118	549.38
462.338	565.38
462.558	552.38
462.777	564.38
462.997	586.38
463.217	598.38
463.437	613.38
463.657	596.38
463.876	583.38
464.096	594.38
464.316	583.38
464.536	612.38
464.755	585.38
464.975	567.38
465.195	620.38
465.414	652.38
465.634	617.38
465.854	567.38
466.073	559.38
466.293	549.38
466.512	555.38
466.732	519.38
466.951	507.38
467.171	512.38
467.391	500.38
467.61	532.38
467.829	528.38
468.049	501.38
468.268	508.38
468.488	514.38
468.707	474.38
468.927	509.38
469.146	474.38
469.365	494.38
469.585	491.38
469.804	480.38
470.023	525.38
470.243	510.38
470.462	521.38
470.681	539.38
470.901	542.38
471.12	516.38
471.339	537.38
471.558	556.38
471.777	550.38
471.997	509.38
472.216	517.38
472.435	562.38
472.654	525.38
472.873	520.38
473.092	530.38
473.311	520.38
473.53	533.38
473.749	509.38
473.968	537.38
474.187	672.38
474.406	695.38
474.625	558.38
474.844	538.38
475.063	537.38
475.282	496.38
475.501	545.38
475.72	540.38
475.939	537.38
476.158	521.38
476.377	518.38
476.596	530.38
476.814	541.38
477.033	554.38
477.252	529.38
477.471	551.38
477.69	554.38
477.908	562.38
478.127	548.38
478.346	575.38
478.564	577.38
478.783	599.38
479.002	587.38
479.22	606.38
479.439	592.38
479.658	626.38
479.876	624.38
480.095	614.38
480.313	625.38
480.532	640.38
480.751	620.38
480.969	646.38
481.188	681.38
481.406	716.38
481.624	667.38
481.843	616.38
482.061	640.38
482.28	642.38
482.498	614.38
482.717	619.38
482.935	602.38
483.153	622.38
483.372	599.38
483.59	618.38
483.808	610.38
484.027	609.38
484.245	625.38
484.463	603.38
484.681	618.38
484.9	611.38
485.118	606.38
485.336	630.38
485.554	640.38
485.772	624.38
485.99	602.38
486.209	614.38
486.427	621.38
486.645	644.38
486.863	656.38
487.081	657.38
487.299	657.38
487.517	650.38
487.735	650.38
487.953	648.38
488.171	646.38
488.389	646.38
488.607	643.38
488.825	645.38
489.043	653.38
489.261	636.38
489.479	670.38
489.696	655.38
489.914	651.38
490.132	658.38
490.35	660.38
490.568	680.38
490.786	672.38
491.003	686.38
491.221	710.38
491.439	701.38
491.657	693.38
491.874	709.38
492.092	709.38
492.31	723.38
492.527	724.38
492.745	741.38
492.963	715.38
493.18	728.38
493.398	720.38
493.615	727.38
493.833	757.38
494.05	761.38
494.268	746.38
494.485	737.38
494.703	738.38
494.92	763.38
495.138	748.38
495.355	777.38
495.573	731.38
495.79	770.38
496.008	763.38
496.225	741.38
496.442	768.38
496.66	760.38
496.877	759.38
497.094	795.38
497.312	760.38
497.529	793.38
497.746	820.38
497.963	816.38
498.181	829.38
498.398	844.38
498.615	852.38
498.832	908.38
499.049	890.38
499.267	921.38
499.484	962.38
499.701	966.38
499.918	974.38
500.135	1037.38
500.352	1065.38
500.569	1148.38
500.786	1152.38
501.003	1080.38
501.22	1097.38
501.437	1054.38
501.654	994.38
501.871	1001.38
