Data from 1978.PennyLincolnUp.Lamp.En5.5.200Scan.071719.P1_HRD10591_16-14-24-864.txt Node
Date: Thu Jul 18 16:14:24 EDT 2019
User: cochatt
Spectrometer: HR+D1059
Trigger mode: 1
Integration Time (sec): 1.000000E-1
Scans to average: 1
Electric dark correction enabled: true
Nonlinearity correction enabled: false
Boxcar width: 0
XAxis mode: Wavelengths
Number of Pixels in Spectrum: 2048
>>>>>Begin Spectral Data<<<<<
223.165	-23.94
223.4	-23.94
223.635	-23.94
223.869	-10.94
224.104	-18.94
224.338	-25.94
224.573	-21.94
224.808	-12.94
225.042	-13.94
225.277	-5.94
225.511	4.06
225.746	13.06
225.98	10.06
226.215	12.06
226.449	12.06
226.683	17.06
226.918	21.06
227.152	45.06
227.387	28.06
227.621	53.06
227.856	45.06
228.09	38.06
228.324	45.06
228.559	41.06
228.793	63.06
229.027	93.06
229.262	87.06
229.496	108.06
229.73	140.06
229.964	160.06
230.199	134.06
230.433	123.06
230.667	112.06
230.901	120.06
231.136	117.06
231.37	115.06
231.604	97.06
231.838	106.06
232.072	114.06
232.306	126.06
232.541	117.06
232.775	110.06
233.009	101.06
233.243	112.06
233.477	98.06
233.711	120.06
233.945	108.06
234.179	126.06
234.413	106.06
234.647	123.06
234.881	125.06
235.115	122.06
235.349	114.06
235.583	112.06
235.817	128.06
236.051	127.06
236.285	112.06
236.519	129.06
236.753	145.06
236.987	137.06
237.221	184.06
237.455	245.06
237.689	196.06
237.922	143.06
238.156	138.06
238.39	128.06
238.624	112.06
238.858	124.06
239.091	120.06
239.325	118.06
239.559	132.06
239.793	118.06
240.027	151.06
240.26	148.06
240.494	154.06
240.728	148.06
240.961	144.06
241.195	142.06
241.429	126.06
241.662	121.06
241.896	118.06
242.13	125.06
242.363	134.06
242.597	136.06
242.83	138.06
243.064	139.06
243.298	144.06
243.531	135.06
243.765	128.06
243.998	140.06
244.232	143.06
244.465	132.06
244.699	144.06
244.932	148.06
245.166	133.06
245.399	132.06
245.633	147.06
245.866	140.06
246.099	152.06
246.333	134.06
246.566	145.06
246.8	157.06
247.033	139.06
247.266	165.06
247.5	150.06
247.733	167.06
247.966	156.06
248.2	167.06
248.433	169.06
248.666	174.06
248.899	181.06
249.133	174.06
249.366	193.06
249.599	190.06
249.832	169.06
250.066	171.06
250.299	171.06
250.532	190.06
250.765	194.06
250.998	216.06
251.231	209.06
251.465	216.06
251.698	173.06
251.931	193.06
252.164	177.06
252.397	182.06
252.63	196.06
252.863	198.06
253.096	205.06
253.329	214.06
253.562	216.06
253.795	205.06
254.028	199.06
254.261	208.06
254.494	210.06
254.727	240.06
254.96	249.06
255.193	266.06
255.426	243.06
255.659	231.06
255.892	215.06
256.124	218.06
256.357	228.06
256.59	215.06
256.823	227.06
257.056	187.06
257.289	185.06
257.521	190.06
257.754	200.06
257.987	211.06
258.22	213.06
258.452	208.06
258.685	206.06
258.918	211.06
259.151	211.06
259.383	217.06
259.616	208.06
259.849	192.06
260.081	206.06
260.314	252.06
260.547	242.06
260.779	250.06
261.012	217.06
261.244	209.06
261.477	224.06
261.71	220.06
261.942	225.06
262.175	241.06
262.407	207.06
262.64	197.06
262.872	209.06
263.105	207.06
263.337	220.06
263.57	205.06
263.802	215.06
264.035	203.06
264.267	228.06
264.499	214.06
264.732	218.06
264.964	213.06
265.197	211.06
265.429	195.06
265.661	196.06
265.894	214.06
266.126	202.06
266.358	226.06
266.591	218.06
266.823	209.06
267.055	231.06
267.287	223.06
267.52	234.06
267.752	210.06
267.984	224.06
268.216	240.06
268.448	218.06
268.681	233.06
268.913	242.06
269.145	246.06
269.377	276.06
269.609	269.06
269.841	257.06
270.073	253.06
270.306	283.06
270.538	294.06
270.77	304.06
271.002	295.06
271.234	275.06
271.466	295.06
271.698	304.06
271.93	298.06
272.162	300.06
272.394	296.06
272.626	289.06
272.858	293.06
273.09	269.06
273.322	269.06
273.553	244.06
273.785	272.06
274.017	263.06
274.249	254.06
274.481	273.06
274.713	266.06
274.945	267.06
275.176	267.06
275.408	270.06
275.64	252.06
275.872	248.06
276.104	256.06
276.335	268.06
276.567	261.06
276.799	274.06
277.031	288.06
277.262	311.06
277.494	319.06
277.726	295.06
277.957	289.06
278.189	268.06
278.421	275.06
278.652	261.06
278.884	275.06
279.115	238.06
279.347	258.06
279.579	257.06
279.81	263.06
280.042	240.06
280.273	275.06
280.505	283.06
280.736	252.06
280.968	282.06
281.199	279.06
281.431	259.06
281.662	264.06
281.894	270.06
282.125	284.06
282.356	296.06
282.588	305.06
282.819	300.06
283.051	293.06
283.282	281.06
283.513	277.06
283.745	265.06
283.976	268.06
284.207	290.06
284.439	270.06
284.67	278.06
284.901	285.06
285.132	257.06
285.364	278.06
285.595	298.06
285.826	274.06
286.057	288.06
286.288	271.06
286.52	266.06
286.751	295.06
286.982	284.06
287.213	275.06
287.444	285.06
287.675	287.06
287.906	312.06
288.138	291.06
288.369	300.06
288.6	289.06
288.831	296.06
289.062	292.06
289.293	284.06
289.524	291.06
289.755	292.06
289.986	276.06
290.217	294.06
290.448	282.06
290.679	282.06
290.91	291.06
291.141	289.06
291.371	292.06
291.602	267.06
291.833	295.06
292.064	280.06
292.295	289.06
292.526	292.06
292.757	270.06
292.987	281.06
293.218	284.06
293.449	286.06
293.68	314.06
293.91	300.06
294.141	310.06
294.372	277.06
294.603	281.06
294.833	288.06
295.064	292.06
295.295	293.06
295.525	304.06
295.756	280.06
295.987	297.06
296.217	322.06
296.448	346.06
296.679	308.06
296.909	299.06
297.14	312.06
297.37	313.06
297.601	293.06
297.831	294.06
298.062	313.06
298.292	310.06
298.523	291.06
298.753	308.06
298.984	330.06
299.214	312.06
299.445	310.06
299.675	298.06
299.905	306.06
300.136	306.06
300.366	315.06
300.597	308.06
300.827	290.06
301.057	307.06
301.288	323.06
301.518	343.06
301.748	336.06
301.979	328.06
302.209	346.06
302.439	320.06
302.669	328.06
302.9	329.06
303.13	328.06
303.36	328.06
303.59	334.06
303.82	330.06
304.051	342.06
304.281	344.06
304.511	322.06
304.741	329.06
304.971	331.06
305.201	327.06
305.431	344.06
305.661	336.06
305.891	356.06
306.121	329.06
306.352	332.06
306.582	331.06
306.812	330.06
307.042	317.06
307.272	326.06
307.502	331.06
307.731	331.06
307.961	339.06
308.191	316.06
308.421	314.06
308.651	337.06
308.881	329.06
309.111	325.06
309.341	332.06
309.571	376.06
309.8	365.06
310.03	372.06
310.26	384.06
310.49	357.06
310.72	372.06
310.949	379.06
311.179	386.06
311.409	382.06
311.639	379.06
311.868	388.06
312.098	363.06
312.328	386.06
312.557	395.06
312.787	395.06
313.017	408.06
313.246	386.06
313.476	383.06
313.706	390.06
313.935	390.06
314.165	395.06
314.394	393.06
314.624	420.06
314.853	400.06
315.083	386.06
315.312	378.06
315.542	369.06
315.771	384.06
316.001	363.06
316.23	384.06
316.46	394.06
316.689	383.06
316.919	365.06
317.148	396.06
317.377	402.06
317.607	381.06
317.836	377.06
318.065	392.06
318.295	386.06
318.524	372.06
318.753	377.06
318.983	365.06
319.212	383.06
319.441	375.06
319.67	384.06
319.9	375.06
320.129	378.06
320.358	382.06
320.587	396.06
320.816	379.06
321.046	401.06
321.275	416.06
321.504	390.06
321.733	390.06
321.962	427.06
322.191	444.06
322.42	452.06
322.649	445.06
322.878	440.06
323.108	480.06
323.337	502.06
323.566	514.06
323.795	537.06
324.024	573.06
324.253	706.06
324.482	1028.06
324.71	1633.06
324.939	2518.06
325.168	2141.06
325.397	1045.06
325.626	669.06
325.855	578.06
326.084	542.06
326.313	496.06
326.542	527.06
326.77	550.06
326.999	649.06
327.228	920.06
327.457	1497.06
327.686	1824.06
327.914	1192.06
328.143	722.06
328.372	644.06
328.6	582.06
328.829	570.06
329.058	575.06
329.287	598.06
329.515	581.06
329.744	520.06
329.972	516.06
330.201	534.06
330.43	576.06
330.658	596.06
330.887	611.06
331.115	612.06
331.344	528.06
331.572	464.06
331.801	501.06
332.03	504.06
332.258	498.06
332.486	469.06
332.715	454.06
332.943	428.06
333.172	480.06
333.4	466.06
333.629	480.06
333.857	485.06
334.085	512.06
334.314	513.06
334.542	526.06
334.771	565.06
334.999	546.06
335.227	476.06
335.455	483.06
335.684	479.06
335.912	449.06
336.14	464.06
336.369	460.06
336.597	477.06
336.825	470.06
337.053	461.06
337.281	456.06
337.51	449.06
337.738	440.06
337.966	462.06
338.194	442.06
338.422	473.06
338.65	458.06
338.878	453.06
339.106	458.06
339.334	452.06
339.562	442.06
339.79	441.06
340.018	448.06
340.246	446.06
340.474	457.06
340.702	458.06
340.93	436.06
341.158	426.06
341.386	445.06
341.614	452.06
341.842	459.06
342.07	421.06
342.298	434.06
342.526	429.06
342.754	454.06
342.981	410.06
343.209	424.06
343.437	427.06
343.665	446.06
343.893	438.06
344.12	455.06
344.348	450.06
344.576	457.06
344.804	469.06
345.031	469.06
345.259	475.06
345.487	458.06
345.714	446.06
345.942	452.06
346.17	441.06
346.397	433.06
346.625	438.06
346.853	447.06
347.08	442.06
347.308	429.06
347.535	444.06
347.763	455.06
347.99	461.06
348.218	420.06
348.445	448.06
348.673	451.06
348.9	449.06
349.128	434.06
349.355	437.06
349.583	425.06
349.81	408.06
350.037	434.06
350.265	427.06
350.492	432.06
350.72	420.06
350.947	440.06
351.174	440.06
351.402	447.06
351.629	434.06
351.856	436.06
352.083	452.06
352.311	447.06
352.538	452.06
352.765	453.06
352.992	431.06
353.22	428.06
353.447	429.06
353.674	445.06
353.901	412.06
354.128	419.06
354.355	440.06
354.583	386.06
354.81	405.06
355.037	405.06
355.264	401.06
355.491	401.06
355.718	408.06
355.945	425.06
356.172	390.06
356.399	388.06
356.626	388.06
356.853	410.06
357.08	410.06
357.307	408.06
357.534	421.06
357.761	435.06
357.988	424.06
358.215	391.06
358.441	410.06
358.668	402.06
358.895	424.06
359.122	412.06
359.349	416.06
359.576	426.06
359.802	454.06
360.029	457.06
360.256	476.06
360.483	458.06
360.709	424.06
360.936	438.06
361.163	451.06
361.39	473.06
361.616	466.06
361.843	437.06
362.07	434.06
362.296	422.06
362.523	450.06
362.749	438.06
362.976	417.06
363.203	417.06
363.429	412.06
363.656	411.06
363.882	438.06
364.109	435.06
364.335	414.06
364.562	399.06
364.788	423.06
365.015	410.06
365.241	400.06
365.468	434.06
365.694	415.06
365.92	448.06
366.147	407.06
366.373	424.06
366.599	436.06
366.826	433.06
367.052	425.06
367.278	418.06
367.505	414.06
367.731	405.06
367.957	406.06
368.184	411.06
368.41	421.06
368.636	461.06
368.862	448.06
369.089	425.06
369.315	436.06
369.541	434.06
369.767	432.06
369.993	420.06
370.219	422.06
370.445	416.06
370.672	433.06
370.898	432.06
371.124	418.06
371.35	427.06
371.576	439.06
371.802	412.06
372.028	427.06
372.254	424.06
372.48	423.06
372.706	410.06
372.932	452.06
373.158	434.06
373.384	434.06
373.61	419.06
373.835	436.06
374.061	408.06
374.287	445.06
374.513	406.06
374.739	440.06
374.965	418.06
375.191	426.06
375.416	426.06
375.642	422.06
375.868	429.06
376.094	432.06
376.319	432.06
376.545	419.06
376.771	443.06
376.997	424.06
377.222	404.06
377.448	422.06
377.674	425.06
377.899	425.06
378.125	402.06
378.35	419.06
378.576	440.06
378.802	410.06
379.027	416.06
379.253	431.06
379.478	429.06
379.704	422.06
379.929	459.06
380.155	428.06
380.38	419.06
380.606	425.06
380.831	434.06
381.057	448.06
381.282	457.06
381.507	432.06
381.733	420.06
381.958	429.06
382.184	441.06
382.409	452.06
382.634	454.06
382.86	439.06
383.085	438.06
383.31	439.06
383.535	445.06
383.761	444.06
383.986	437.06
384.211	464.06
384.436	436.06
384.662	444.06
384.887	460.06
385.112	465.06
385.337	445.06
385.562	445.06
385.787	463.06
386.013	468.06
386.238	466.06
386.463	483.06
386.688	461.06
386.913	471.06
387.138	481.06
387.363	480.06
387.588	485.06
387.813	492.06
388.038	452.06
388.263	498.06
388.488	482.06
388.713	457.06
388.938	483.06
389.163	499.06
389.387	480.06
389.612	461.06
389.837	482.06
390.062	485.06
390.287	480.06
390.512	494.06
390.736	485.06
390.961	474.06
391.186	492.06
391.411	501.06
391.636	477.06
391.86	497.06
392.085	499.06
392.31	498.06
392.534	493.06
392.759	482.06
392.984	491.06
393.208	484.06
393.433	491.06
393.658	485.06
393.882	492.06
394.107	478.06
394.331	496.06
394.556	490.06
394.78	486.06
395.005	484.06
395.229	493.06
395.454	510.06
395.678	488.06
395.903	516.06
396.127	536.06
396.352	552.06
396.576	521.06
396.801	497.06
397.025	524.06
397.249	532.06
397.474	512.06
397.698	543.06
397.922	530.06
398.147	544.06
398.371	542.06
398.595	540.06
398.82	530.06
399.044	580.06
399.268	574.06
399.492	620.06
399.717	617.06
399.941	659.06
400.165	681.06
400.389	697.06
400.613	626.06
400.837	586.06
401.062	588.06
401.286	561.06
401.51	565.06
401.734	553.06
401.958	572.06
402.182	571.06
402.406	548.06
402.63	588.06
402.854	569.06
403.078	552.06
403.302	566.06
403.526	610.06
403.75	585.06
403.974	575.06
404.198	595.06
404.422	596.06
404.645	602.06
404.869	568.06
405.093	624.06
405.317	653.06
405.541	716.06
405.765	642.06
405.988	596.06
406.212	617.06
406.436	612.06
406.66	633.06
406.883	619.06
407.107	671.06
407.331	704.06
407.555	763.06
407.778	774.06
408.002	699.06
408.226	676.06
408.449	659.06
408.673	643.06
408.896	658.06
409.12	727.06
409.344	698.06
409.567	601.06
409.791	596.06
410.014	584.06
410.238	578.06
410.461	591.06
410.685	587.06
410.908	596.06
411.132	638.06
411.355	670.06
411.578	667.06
411.802	594.06
412.025	576.06
412.249	610.06
412.472	630.06
412.695	658.06
412.919	652.06
413.142	608.06
413.365	584.06
413.589	554.06
413.812	572.06
414.035	548.06
414.258	551.06
414.482	562.06
414.705	557.06
414.928	561.06
415.151	564.06
415.374	531.06
415.597	541.06
415.821	548.06
416.044	558.06
416.267	547.06
416.49	516.06
416.713	532.06
416.936	574.06
417.159	554.06
417.382	541.06
417.605	556.06
417.828	573.06
418.051	590.06
418.274	547.06
418.497	540.06
418.72	542.06
418.943	558.06
419.166	552.06
419.389	610.06
419.611	600.06
419.834	580.06
420.057	606.06
420.28	564.06
420.503	567.06
420.726	565.06
420.948	594.06
421.171	653.06
421.394	652.06
421.617	591.06
421.839	583.06
422.062	557.06
422.285	596.06
422.507	638.06
422.73	749.06
422.953	675.06
423.175	608.06
423.398	592.06
423.621	586.06
423.843	611.06
424.066	630.06
424.288	624.06
424.511	630.06
424.733	693.06
424.956	793.06
425.178	734.06
425.401	756.06
425.623	779.06
425.846	650.06
426.068	625.06
426.291	607.06
426.513	614.06
426.735	630.06
426.958	668.06
427.18	783.06
427.402	908.06
427.625	1026.06
427.847	867.06
428.069	750.06
428.292	685.06
428.514	615.06
428.736	591.06
428.958	579.06
429.181	573.06
429.403	557.06
429.625	562.06
429.847	599.06
430.069	678.06
430.292	690.06
430.514	581.06
430.736	558.06
430.958	545.06
431.18	546.06
431.402	545.06
431.624	555.06
431.846	545.06
432.068	524.06
432.29	546.06
432.512	532.06
432.734	544.06
432.956	556.06
433.178	548.06
433.4	563.06
433.622	574.06
433.844	567.06
434.066	556.06
434.287	530.06
434.509	561.06
434.731	560.06
434.953	579.06
435.175	596.06
435.397	617.06
435.618	612.06
435.84	668.06
436.062	780.06
436.284	873.06
436.505	717.06
436.727	638.06
436.949	615.06
437.17	573.06
437.392	560.06
437.614	580.06
437.835	626.06
438.057	724.06
438.278	838.06
438.5	843.06
438.721	952.06
438.943	891.06
439.165	733.06
439.386	632.06
439.608	638.06
439.829	603.06
440.05	626.06
440.272	714.06
440.493	661.06
440.715	616.06
440.936	581.06
441.158	568.06
441.379	555.06
441.6	581.06
441.822	603.06
442.043	661.06
442.264	747.06
442.486	812.06
442.707	667.06
442.928	628.06
443.149	635.06
443.371	664.06
443.592	724.06
443.813	822.06
444.034	878.06
444.255	728.06
444.476	672.06
444.698	620.06
444.919	605.06
445.14	757.06
445.361	692.06
445.582	659.06
445.803	725.06
446.024	849.06
446.245	893.06
446.466	818.06
446.687	682.06
446.908	600.06
447.129	576.06
447.35	565.06
447.571	577.06
447.792	558.06
448.013	595.06
448.234	605.06
448.455	633.06
448.675	779.06
448.896	932.06
449.117	784.06
449.338	706.06
449.559	830.06
449.779	997.06
450	735.06
450.221	613.06
450.442	582.06
450.662	556.06
450.883	564.06
451.104	578.06
451.324	562.06
451.545	548.06
451.766	537.06
451.986	521.06
452.207	512.06
452.428	517.06
452.648	517.06
452.869	521.06
453.089	501.06
453.31	522.06
453.53	510.06
453.751	508.06
453.971	528.06
454.192	523.06
454.412	535.06
454.633	496.06
454.853	497.06
455.073	493.06
455.294	548.06
455.514	605.06
455.734	587.06
455.955	514.06
456.175	503.06
456.395	504.06
456.616	470.06
456.836	482.06
457.056	492.06
457.276	470.06
457.497	481.06
457.717	473.06
457.937	481.06
458.157	502.06
458.377	507.06
458.598	513.06
458.818	560.06
459.038	636.06
459.258	703.06
459.478	614.06
459.698	560.06
459.918	564.06
460.138	577.06
460.358	543.06
460.578	540.06
460.798	550.06
461.018	576.06
461.238	560.06
461.458	563.06
461.678	535.06
461.898	557.06
462.118	558.06
462.338	593.06
462.558	569.06
462.777	568.06
462.997	571.06
463.217	597.06
463.437	605.06
463.657	593.06
463.876	600.06
464.096	618.06
464.316	594.06
464.536	608.06
464.755	631.06
464.975	606.06
465.195	613.06
465.414	698.06
465.634	628.06
465.854	600.06
466.073	582.06
466.293	530.06
466.512	541.06
466.732	525.06
466.951	535.06
467.171	525.06
467.391	536.06
467.61	538.06
467.829	558.06
468.049	561.06
468.268	552.06
468.488	531.06
468.707	512.06
468.927	520.06
469.146	523.06
469.365	495.06
469.585	517.06
469.804	533.06
470.023	534.06
470.243	562.06
470.462	539.06
470.681	549.06
470.901	548.06
471.12	536.06
471.339	526.06
471.558	552.06
471.777	537.06
471.997	517.06
472.216	521.06
472.435	556.06
472.654	540.06
472.873	542.06
473.092	545.06
473.311	538.06
473.53	532.06
473.749	534.06
473.968	594.06
474.187	702.06
474.406	740.06
474.625	592.06
474.844	549.06
475.063	517.06
475.282	535.06
475.501	525.06
475.72	549.06
475.939	553.06
476.158	562.06
476.377	546.06
476.596	540.06
476.814	572.06
477.033	576.06
477.252	583.06
477.471	557.06
477.69	580.06
477.908	583.06
478.127	573.06
478.346	602.06
478.564	572.06
478.783	587.06
479.002	594.06
479.22	602.06
479.439	626.06
479.658	645.06
479.876	620.06
480.095	630.06
480.313	678.06
480.532	657.06
480.751	654.06
480.969	662.06
481.188	700.06
481.406	745.06
481.624	690.06
481.843	637.06
482.061	646.06
482.28	653.06
482.498	646.06
482.717	623.06
482.935	633.06
483.153	628.06
483.372	619.06
483.59	628.06
483.808	635.06
484.027	614.06
484.245	640.06
484.463	615.06
484.681	650.06
484.9	622.06
485.118	625.06
485.336	637.06
485.554	645.06
485.772	652.06
485.99	628.06
486.209	650.06
486.427	637.06
486.645	657.06
486.863	668.06
487.081	665.06
487.299	668.06
487.517	643.06
487.735	664.06
487.953	658.06
488.171	656.06
488.389	676.06
488.607	661.06
488.825	678.06
489.043	654.06
489.261	671.06
489.479	669.06
489.696	673.06
489.914	660.06
490.132	698.06
490.35	703.06
490.568	680.06
490.786	700.06
491.003	704.06
491.221	754.06
491.439	747.06
491.657	721.06
491.874	745.06
492.092	758.06
492.31	756.06
492.527	738.06
492.745	776.06
492.963	770.06
493.18	740.06
493.398	753.06
493.615	763.06
493.833	764.06
494.05	774.06
494.268	782.06
494.485	765.06
494.703	761.06
494.92	784.06
495.138	772.06
495.355	779.06
495.573	790.06
495.79	768.06
496.008	787.06
496.225	779.06
496.442	774.06
496.66	780.06
496.877	787.06
497.094	783.06
497.312	823.06
497.529	797.06
497.746	846.06
497.963	846.06
498.181	889.06
498.398	891.06
498.615	887.06
498.832	929.06
499.049	933.06
499.267	953.06
499.484	958.06
499.701	994.06
499.918	1031.06
500.135	1051.06
500.352	1128.06
500.569	1140.06
500.786	1138.06
501.003	1116.06
501.22	1072.06
501.437	1058.06
501.654	1026.06
501.871	1030.06
