Data from 1978.PennyLincolnUp.Lamp.En5.5.200Scan.071719.P1_HRD10591_16-12-38-865.txt Node
Date: Thu Jul 18 16:12:38 EDT 2019
User: cochatt
Spectrometer: HR+D1059
Trigger mode: 1
Integration Time (sec): 1.000000E-1
Scans to average: 1
Electric dark correction enabled: true
Nonlinearity correction enabled: false
Boxcar width: 0
XAxis mode: Wavelengths
Number of Pixels in Spectrum: 2048
>>>>>Begin Spectral Data<<<<<
223.165	-14.38
223.4	-14.38
223.635	-14.38
223.869	-29.38
224.104	-29.38
224.338	-6.38
224.573	-14.38
224.808	-19.38
225.042	-0.38
225.277	17.62
225.511	-1.38
225.746	-5.38
225.98	13.62
226.215	10.62
226.449	9.62
226.683	19.62
226.918	11.62
227.152	37.62
227.387	30.62
227.621	36.62
227.856	41.62
228.09	45.62
228.324	45.62
228.559	56.62
228.793	75.62
229.027	83.62
229.262	96.62
229.496	103.62
229.73	123.62
229.964	134.62
230.199	121.62
230.433	106.62
230.667	108.62
230.901	107.62
231.136	103.62
231.37	110.62
231.604	103.62
231.838	122.62
232.072	104.62
232.306	105.62
232.541	120.62
232.775	106.62
233.009	124.62
233.243	119.62
233.477	107.62
233.711	116.62
233.945	117.62
234.179	123.62
234.413	98.62
234.647	105.62
234.881	122.62
235.115	128.62
235.349	107.62
235.583	110.62
235.817	113.62
236.051	119.62
236.285	119.62
236.519	119.62
236.753	110.62
236.987	130.62
237.221	163.62
237.455	207.62
237.689	188.62
237.922	137.62
238.156	125.62
238.39	127.62
238.624	124.62
238.858	126.62
239.091	116.62
239.325	127.62
239.559	124.62
239.793	132.62
240.027	105.62
240.26	128.62
240.494	150.62
240.728	137.62
240.961	147.62
241.195	140.62
241.429	126.62
241.662	131.62
241.896	140.62
242.13	120.62
242.363	135.62
242.597	123.62
242.83	143.62
243.064	140.62
243.298	151.62
243.531	122.62
243.765	134.62
243.998	125.62
244.232	142.62
244.465	143.62
244.699	137.62
244.932	153.62
245.166	151.62
245.399	127.62
245.633	137.62
245.866	124.62
246.099	125.62
246.333	126.62
246.566	138.62
246.8	145.62
247.033	148.62
247.266	159.62
247.5	142.62
247.733	141.62
247.966	178.62
248.2	178.62
248.433	159.62
248.666	149.62
248.899	181.62
249.133	170.62
249.366	186.62
249.599	174.62
249.832	161.62
250.066	172.62
250.299	178.62
250.532	181.62
250.765	181.62
250.998	200.62
251.231	202.62
251.465	194.62
251.698	182.62
251.931	181.62
252.164	192.62
252.397	187.62
252.63	188.62
252.863	181.62
253.096	202.62
253.329	199.62
253.562	201.62
253.795	205.62
254.028	200.62
254.261	199.62
254.494	208.62
254.727	228.62
254.96	254.62
255.193	241.62
255.426	215.62
255.659	191.62
255.892	211.62
256.124	187.62
256.357	217.62
256.59	188.62
256.823	199.62
257.056	193.62
257.289	190.62
257.521	184.62
257.754	199.62
257.987	193.62
258.22	192.62
258.452	179.62
258.685	166.62
258.918	189.62
259.151	202.62
259.383	179.62
259.616	208.62
259.849	200.62
260.081	214.62
260.314	233.62
260.547	225.62
260.779	209.62
261.012	215.62
261.244	209.62
261.477	210.62
261.71	218.62
261.942	210.62
262.175	216.62
262.407	227.62
262.64	233.62
262.872	196.62
263.105	207.62
263.337	208.62
263.57	198.62
263.802	210.62
264.035	196.62
264.267	202.62
264.499	203.62
264.732	205.62
264.964	203.62
265.197	212.62
265.429	181.62
265.661	203.62
265.894	224.62
266.126	212.62
266.358	200.62
266.591	224.62
266.823	223.62
267.055	201.62
267.287	213.62
267.52	217.62
267.752	219.62
267.984	208.62
268.216	221.62
268.448	222.62
268.681	225.62
268.913	247.62
269.145	240.62
269.377	232.62
269.609	240.62
269.841	241.62
270.073	233.62
270.306	258.62
270.538	266.62
270.77	269.62
271.002	262.62
271.234	261.62
271.466	281.62
271.698	266.62
271.93	298.62
272.162	305.62
272.394	281.62
272.626	286.62
272.858	277.62
273.09	260.62
273.322	268.62
273.553	255.62
273.785	244.62
274.017	252.62
274.249	252.62
274.481	239.62
274.713	240.62
274.945	240.62
275.176	245.62
275.408	250.62
275.64	263.62
275.872	260.62
276.104	250.62
276.335	246.62
276.567	263.62
276.799	273.62
277.031	294.62
277.262	302.62
277.494	291.62
277.726	286.62
277.957	266.62
278.189	271.62
278.421	274.62
278.652	235.62
278.884	258.62
279.115	244.62
279.347	260.62
279.579	256.62
279.81	262.62
280.042	251.62
280.273	266.62
280.505	256.62
280.736	264.62
280.968	237.62
281.199	249.62
281.431	264.62
281.662	273.62
281.894	268.62
282.125	248.62
282.356	286.62
282.588	289.62
282.819	297.62
283.051	290.62
283.282	260.62
283.513	256.62
283.745	275.62
283.976	262.62
284.207	280.62
284.439	274.62
284.67	273.62
284.901	248.62
285.132	267.62
285.364	258.62
285.595	272.62
285.826	283.62
286.057	269.62
286.288	278.62
286.52	271.62
286.751	247.62
286.982	279.62
287.213	272.62
287.444	263.62
287.675	277.62
287.906	294.62
288.138	292.62
288.369	305.62
288.6	297.62
288.831	286.62
289.062	285.62
289.293	286.62
289.524	276.62
289.755	273.62
289.986	266.62
290.217	258.62
290.448	265.62
290.679	288.62
290.91	275.62
291.141	275.62
291.371	273.62
291.602	275.62
291.833	294.62
292.064	279.62
292.295	279.62
292.526	278.62
292.757	291.62
292.987	272.62
293.218	275.62
293.449	295.62
293.68	277.62
293.91	281.62
294.141	300.62
294.372	290.62
294.603	294.62
294.833	272.62
295.064	281.62
295.295	279.62
295.525	273.62
295.756	294.62
295.987	303.62
296.217	310.62
296.448	345.62
296.679	287.62
296.909	285.62
297.14	281.62
297.37	273.62
297.601	307.62
297.831	310.62
298.062	287.62
298.292	274.62
298.523	299.62
298.753	291.62
298.984	286.62
299.214	310.62
299.445	290.62
299.675	291.62
299.905	309.62
300.136	312.62
300.366	308.62
300.597	298.62
300.827	306.62
301.057	323.62
301.288	327.62
301.518	329.62
301.748	319.62
301.979	314.62
302.209	312.62
302.439	334.62
302.669	321.62
302.9	316.62
303.13	304.62
303.36	312.62
303.59	312.62
303.82	328.62
304.051	331.62
304.281	318.62
304.511	315.62
304.741	314.62
304.971	319.62
305.201	328.62
305.431	324.62
305.661	325.62
305.891	312.62
306.121	327.62
306.352	332.62
306.582	345.62
306.812	334.62
307.042	340.62
307.272	314.62
307.502	325.62
307.731	332.62
307.961	304.62
308.191	326.62
308.421	331.62
308.651	300.62
308.881	312.62
309.111	342.62
309.341	326.62
309.571	344.62
309.8	359.62
310.03	349.62
310.26	353.62
310.49	341.62
310.72	365.62
310.949	402.62
311.179	390.62
311.409	374.62
311.639	356.62
311.868	361.62
312.098	345.62
312.328	359.62
312.557	378.62
312.787	382.62
313.017	387.62
313.246	390.62
313.476	346.62
313.706	367.62
313.935	362.62
314.165	389.62
314.394	392.62
314.624	378.62
314.853	375.62
315.083	386.62
315.312	366.62
315.542	368.62
315.771	363.62
316.001	362.62
316.23	353.62
316.46	359.62
316.689	359.62
316.919	362.62
317.148	376.62
317.377	378.62
317.607	374.62
317.836	377.62
318.065	383.62
318.295	358.62
318.524	372.62
318.753	373.62
318.983	356.62
319.212	370.62
319.441	371.62
319.67	368.62
319.9	382.62
320.129	374.62
320.358	346.62
320.587	377.62
320.816	374.62
321.046	380.62
321.275	400.62
321.504	380.62
321.733	387.62
321.962	406.62
322.191	411.62
322.42	420.62
322.649	428.62
322.878	440.62
323.108	462.62
323.337	465.62
323.566	490.62
323.795	483.62
324.024	540.62
324.253	664.62
324.482	915.62
324.71	1459.62
324.939	2143.62
325.168	1924.62
325.397	929.62
325.626	649.62
325.855	515.62
326.084	484.62
326.313	478.62
326.542	479.62
326.77	513.62
326.999	596.62
327.228	845.62
327.457	1306.62
327.686	1626.62
327.914	1072.62
328.143	675.62
328.372	599.62
328.6	572.62
328.829	530.62
329.058	535.62
329.287	545.62
329.515	527.62
329.744	498.62
329.972	479.62
330.201	505.62
330.43	535.62
330.658	560.62
330.887	584.62
331.115	556.62
331.344	523.62
331.572	464.62
331.801	472.62
332.03	459.62
332.258	464.62
332.486	454.62
332.715	430.62
332.943	448.62
333.172	451.62
333.4	466.62
333.629	466.62
333.857	461.62
334.085	474.62
334.314	512.62
334.542	497.62
334.771	531.62
334.999	465.62
335.227	458.62
335.455	467.62
335.684	460.62
335.912	462.62
336.14	450.62
336.369	430.62
336.597	459.62
336.825	471.62
337.053	452.62
337.281	443.62
337.51	431.62
337.738	446.62
337.966	460.62
338.194	440.62
338.422	446.62
338.65	442.62
338.878	444.62
339.106	432.62
339.334	449.62
339.562	434.62
339.79	436.62
340.018	434.62
340.246	451.62
340.474	427.62
340.702	436.62
340.93	417.62
341.158	416.62
341.386	448.62
341.614	434.62
341.842	404.62
342.07	426.62
342.298	439.62
342.526	454.62
342.754	422.62
342.981	426.62
343.209	398.62
343.437	417.62
343.665	438.62
343.893	427.62
344.12	454.62
344.348	443.62
344.576	454.62
344.804	430.62
345.031	449.62
345.259	443.62
345.487	448.62
345.714	433.62
345.942	446.62
346.17	404.62
346.397	441.62
346.625	415.62
346.853	416.62
347.08	426.62
347.308	405.62
347.535	433.62
347.763	439.62
347.99	440.62
348.218	443.62
348.445	438.62
348.673	434.62
348.9	420.62
349.128	421.62
349.355	407.62
349.583	413.62
349.81	401.62
350.037	411.62
350.265	407.62
350.492	406.62
350.72	420.62
350.947	400.62
351.174	420.62
351.402	425.62
351.629	430.62
351.856	416.62
352.083	426.62
352.311	447.62
352.538	424.62
352.765	420.62
352.992	427.62
353.22	417.62
353.447	410.62
353.674	424.62
353.901	405.62
354.128	400.62
354.355	399.62
354.583	378.62
354.81	398.62
355.037	406.62
355.264	390.62
355.491	407.62
355.718	383.62
355.945	374.62
356.172	388.62
356.399	386.62
356.626	381.62
356.853	383.62
357.08	380.62
357.307	393.62
357.534	390.62
357.761	405.62
357.988	396.62
358.215	391.62
358.441	402.62
358.668	425.62
358.895	386.62
359.122	400.62
359.349	427.62
359.576	391.62
359.802	427.62
360.029	470.62
360.256	460.62
360.483	454.62
360.709	438.62
360.936	425.62
361.163	436.62
361.39	428.62
361.616	420.62
361.843	433.62
362.07	422.62
362.296	432.62
362.523	404.62
362.749	415.62
362.976	402.62
363.203	417.62
363.429	390.62
363.656	400.62
363.882	409.62
364.109	414.62
364.335	381.62
364.562	396.62
364.788	408.62
365.015	375.62
365.241	394.62
365.468	413.62
365.694	411.62
365.92	400.62
366.147	428.62
366.373	414.62
366.599	408.62
366.826	418.62
367.052	412.62
367.278	402.62
367.505	424.62
367.731	409.62
367.957	397.62
368.184	409.62
368.41	405.62
368.636	430.62
368.862	432.62
369.089	435.62
369.315	404.62
369.541	405.62
369.767	414.62
369.993	422.62
370.219	428.62
370.445	406.62
370.672	407.62
370.898	401.62
371.124	417.62
371.35	404.62
371.576	408.62
371.802	398.62
372.028	400.62
372.254	415.62
372.48	418.62
372.706	402.62
372.932	414.62
373.158	424.62
373.384	410.62
373.61	416.62
373.835	408.62
374.061	440.62
374.287	420.62
374.513	436.62
374.739	422.62
374.965	423.62
375.191	415.62
375.416	410.62
375.642	416.62
375.868	428.62
376.094	426.62
376.319	412.62
376.545	403.62
376.771	401.62
376.997	404.62
377.222	432.62
377.448	420.62
377.674	406.62
377.899	397.62
378.125	414.62
378.35	390.62
378.576	423.62
378.802	414.62
379.027	410.62
379.253	410.62
379.478	427.62
379.704	402.62
379.929	416.62
380.155	394.62
380.38	415.62
380.606	414.62
380.831	400.62
381.057	411.62
381.282	444.62
381.507	412.62
381.733	428.62
381.958	432.62
382.184	438.62
382.409	423.62
382.634	418.62
382.86	425.62
383.085	414.62
383.31	443.62
383.535	423.62
383.761	432.62
383.986	466.62
384.211	450.62
384.436	444.62
384.662	450.62
384.887	433.62
385.112	427.62
385.337	458.62
385.562	446.62
385.787	449.62
386.013	460.62
386.238	461.62
386.463	460.62
386.688	467.62
386.913	449.62
387.138	453.62
387.363	486.62
387.588	464.62
387.813	461.62
388.038	454.62
388.263	460.62
388.488	440.62
388.713	494.62
388.938	463.62
389.163	466.62
389.387	467.62
389.612	467.62
389.837	460.62
390.062	457.62
390.287	480.62
390.512	486.62
390.736	464.62
390.961	471.62
391.186	464.62
391.411	467.62
391.636	471.62
391.86	466.62
392.085	503.62
392.31	489.62
392.534	484.62
392.759	483.62
392.984	490.62
393.208	481.62
393.433	470.62
393.658	457.62
393.882	454.62
394.107	475.62
394.331	472.62
394.556	458.62
394.78	489.62
395.005	495.62
395.229	479.62
395.454	492.62
395.678	511.62
395.903	484.62
396.127	540.62
396.352	519.62
396.576	479.62
396.801	490.62
397.025	520.62
397.249	502.62
397.474	508.62
397.698	518.62
397.922	530.62
398.147	520.62
398.371	561.62
398.595	518.62
398.82	519.62
399.044	549.62
399.268	533.62
399.492	588.62
399.717	602.62
399.941	628.62
400.165	689.62
400.389	664.62
400.613	609.62
400.837	569.62
401.062	557.62
401.286	575.62
401.51	560.62
401.734	545.62
401.958	564.62
402.182	570.62
402.406	551.62
402.63	566.62
402.854	530.62
403.078	566.62
403.302	582.62
403.526	556.62
403.75	556.62
403.974	550.62
404.198	598.62
404.422	571.62
404.645	576.62
404.869	576.62
405.093	598.62
405.317	636.62
405.541	681.62
405.765	632.62
405.988	589.62
406.212	590.62
406.436	614.62
406.66	628.62
406.883	586.62
407.107	632.62
407.331	674.62
407.555	749.62
407.778	758.62
408.002	671.62
408.226	613.62
408.449	621.62
408.673	630.62
408.896	640.62
409.12	682.62
409.344	649.62
409.567	596.62
409.791	588.62
410.014	579.62
410.238	587.62
410.461	568.62
410.685	574.62
410.908	599.62
411.132	611.62
411.355	630.62
411.578	624.62
411.802	574.62
412.025	545.62
412.249	576.62
412.472	609.62
412.695	637.62
412.919	646.62
413.142	591.62
413.365	560.62
413.589	541.62
413.812	542.62
414.035	516.62
414.258	540.62
414.482	548.62
414.705	545.62
414.928	528.62
415.151	539.62
415.374	540.62
415.597	535.62
415.821	534.62
416.044	544.62
416.267	547.62
416.49	525.62
416.713	536.62
416.936	561.62
417.159	537.62
417.382	528.62
417.605	514.62
417.828	535.62
418.051	562.62
418.274	559.62
418.497	530.62
418.72	540.62
418.943	540.62
419.166	572.62
419.389	571.62
419.611	571.62
419.834	564.62
420.057	558.62
420.28	564.62
420.503	536.62
420.726	538.62
420.948	575.62
421.171	594.62
421.394	644.62
421.617	564.62
421.839	539.62
422.062	529.62
422.285	562.62
422.507	608.62
422.73	694.62
422.953	660.62
423.175	574.62
423.398	572.62
423.621	570.62
423.843	580.62
424.066	575.62
424.288	603.62
424.511	608.62
424.733	654.62
424.956	753.62
425.178	720.62
425.401	702.62
425.623	718.62
425.846	648.62
426.068	590.62
426.291	606.62
426.513	586.62
426.735	607.62
426.958	650.62
427.18	718.62
427.402	862.62
427.625	977.62
427.847	802.62
428.069	694.62
428.292	644.62
428.514	595.62
428.736	555.62
428.958	563.62
429.181	574.62
429.403	546.62
429.625	558.62
429.847	588.62
430.069	638.62
430.292	661.62
430.514	537.62
430.736	526.62
430.958	540.62
431.18	535.62
431.402	523.62
431.624	516.62
431.846	511.62
432.068	529.62
432.29	528.62
432.512	540.62
432.734	557.62
432.956	522.62
433.178	536.62
433.4	550.62
433.622	529.62
433.844	529.62
434.066	514.62
434.287	525.62
434.509	523.62
434.731	548.62
434.953	538.62
435.175	567.62
435.397	559.62
435.618	566.62
435.84	644.62
436.062	734.62
436.284	806.62
436.505	680.62
436.727	608.62
436.949	565.62
437.17	554.62
437.392	537.62
437.614	555.62
437.835	579.62
438.057	684.62
438.278	754.62
438.5	762.62
438.721	879.62
438.943	863.62
439.165	681.62
439.386	602.62
439.608	594.62
439.829	611.62
440.05	621.62
440.272	670.62
440.493	650.62
440.715	564.62
440.936	566.62
441.158	564.62
441.379	568.62
441.6	577.62
441.822	598.62
442.043	634.62
442.264	715.62
442.486	752.62
442.707	638.62
442.928	613.62
443.149	622.62
443.371	626.62
443.592	678.62
443.813	756.62
444.034	846.62
444.255	698.62
444.476	624.62
444.698	594.62
444.919	606.62
445.14	698.62
445.361	640.62
445.582	640.62
445.803	702.62
446.024	800.62
446.245	814.62
446.466	747.62
446.687	619.62
446.908	608.62
447.129	568.62
447.35	553.62
447.571	542.62
447.792	512.62
448.013	560.62
448.234	575.62
448.455	609.62
448.675	721.62
448.896	833.62
449.117	724.62
449.338	694.62
449.559	805.62
449.779	924.62
450	713.62
450.221	594.62
450.442	555.62
450.662	547.62
450.883	534.62
451.104	536.62
451.324	538.62
451.545	523.62
451.766	530.62
451.986	496.62
452.207	484.62
452.428	512.62
452.648	461.62
452.869	480.62
453.089	502.62
453.31	500.62
453.53	489.62
453.751	484.62
453.971	505.62
454.192	505.62
454.412	468.62
454.633	485.62
454.853	484.62
455.073	491.62
455.294	527.62
455.514	576.62
455.734	564.62
455.955	480.62
456.175	482.62
456.395	459.62
456.616	459.62
456.836	477.62
457.056	462.62
457.276	448.62
457.497	441.62
457.717	471.62
457.937	474.62
458.157	490.62
458.377	475.62
458.598	519.62
458.818	543.62
459.038	606.62
459.258	668.62
459.478	571.62
459.698	547.62
459.918	527.62
460.138	537.62
460.358	559.62
460.578	553.62
460.798	562.62
461.018	562.62
461.238	550.62
461.458	564.62
461.678	547.62
461.898	560.62
462.118	568.62
462.338	568.62
462.558	573.62
462.777	576.62
462.997	592.62
463.217	585.62
463.437	631.62
463.657	616.62
463.876	584.62
464.096	580.62
464.316	584.62
464.536	583.62
464.755	596.62
464.975	616.62
465.195	617.62
465.414	675.62
465.634	626.62
465.854	553.62
466.073	542.62
466.293	545.62
466.512	534.62
466.732	515.62
466.951	515.62
467.171	524.62
467.391	534.62
467.61	540.62
467.829	527.62
468.049	502.62
468.268	510.62
468.488	498.62
468.707	489.62
468.927	503.62
469.146	478.62
469.365	503.62
469.585	489.62
469.804	506.62
470.023	510.62
470.243	525.62
470.462	528.62
470.681	545.62
470.901	535.62
471.12	498.62
471.339	514.62
471.558	513.62
471.777	505.62
471.997	513.62
472.216	522.62
472.435	521.62
472.654	528.62
472.873	500.62
473.092	505.62
473.311	511.62
473.53	504.62
473.749	533.62
473.968	552.62
474.187	642.62
474.406	695.62
474.625	587.62
474.844	521.62
475.063	528.62
475.282	516.62
475.501	530.62
475.72	538.62
475.939	515.62
476.158	525.62
476.377	525.62
476.596	538.62
476.814	553.62
477.033	567.62
477.252	534.62
477.471	526.62
477.69	554.62
477.908	576.62
478.127	558.62
478.346	589.62
478.564	566.62
478.783	575.62
479.002	604.62
479.22	590.62
479.439	569.62
479.658	611.62
479.876	611.62
480.095	615.62
480.313	658.62
480.532	658.62
480.751	625.62
480.969	632.62
481.188	692.62
481.406	724.62
481.624	658.62
481.843	642.62
482.061	613.62
482.28	609.62
482.498	595.62
482.717	597.62
482.935	603.62
483.153	599.62
483.372	612.62
483.59	579.62
483.808	586.62
484.027	627.62
484.245	595.62
484.463	632.62
484.681	625.62
484.9	630.62
485.118	584.62
485.336	630.62
485.554	644.62
485.772	624.62
485.99	625.62
486.209	623.62
486.427	624.62
486.645	650.62
486.863	648.62
487.081	656.62
487.299	654.62
487.517	652.62
487.735	662.62
487.953	669.62
488.171	636.62
488.389	638.62
488.607	634.62
488.825	654.62
489.043	678.62
489.261	647.62
489.479	651.62
489.696	635.62
489.914	628.62
490.132	664.62
490.35	676.62
490.568	662.62
490.786	662.62
491.003	662.62
491.221	692.62
491.439	711.62
491.657	700.62
491.874	699.62
492.092	725.62
492.31	718.62
492.527	726.62
492.745	725.62
492.963	728.62
493.18	726.62
493.398	737.62
493.615	748.62
493.833	740.62
494.05	745.62
494.268	758.62
494.485	722.62
494.703	711.62
494.92	739.62
495.138	745.62
495.355	752.62
495.573	752.62
495.79	736.62
496.008	762.62
496.225	734.62
496.442	747.62
496.66	760.62
496.877	760.62
497.094	769.62
497.312	788.62
497.529	783.62
497.746	800.62
497.963	834.62
498.181	829.62
498.398	846.62
498.615	865.62
498.832	852.62
499.049	888.62
499.267	926.62
499.484	967.62
499.701	1002.62
499.918	990.62
500.135	1073.62
500.352	1081.62
500.569	1113.62
500.786	1136.62
501.003	1088.62
501.22	1086.62
501.437	1017.62
501.654	1022.62
501.871	1003.62
