Data from 1978.PennyLincolnUp.Lamp.En5.5.200Scan.071719.P1_HRD10591_16-12-37-865.txt Node
Date: Thu Jul 18 16:12:37 EDT 2019
User: cochatt
Spectrometer: HR+D1059
Trigger mode: 1
Integration Time (sec): 1.000000E-1
Scans to average: 1
Electric dark correction enabled: true
Nonlinearity correction enabled: false
Boxcar width: 0
XAxis mode: Wavelengths
Number of Pixels in Spectrum: 2048
>>>>>Begin Spectral Data<<<<<
223.165	-20.94
223.4	-20.94
223.635	-20.94
223.869	-12.94
224.104	-30.94
224.338	-19.94
224.573	-1.94
224.808	-22.94
225.042	-8.94
225.277	-2.94
225.511	-0.94
225.746	4.06
225.98	1.06
226.215	11.06
226.449	19.06
226.683	25.06
226.918	30.06
227.152	32.06
227.387	27.06
227.621	26.06
227.856	44.06
228.09	52.06
228.324	53.06
228.559	40.06
228.793	59.06
229.027	98.06
229.262	100.06
229.496	116.06
229.73	120.06
229.964	131.06
230.199	129.06
230.433	115.06
230.667	117.06
230.901	102.06
231.136	115.06
231.37	97.06
231.604	109.06
231.838	115.06
232.072	119.06
232.306	110.06
232.541	119.06
232.775	109.06
233.009	115.06
233.243	109.06
233.477	123.06
233.711	106.06
233.945	126.06
234.179	117.06
234.413	125.06
234.647	117.06
234.881	116.06
235.115	115.06
235.349	102.06
235.583	105.06
235.817	101.06
236.051	117.06
236.285	123.06
236.519	118.06
236.753	125.06
236.987	137.06
237.221	185.06
237.455	208.06
237.689	174.06
237.922	129.06
238.156	124.06
238.39	129.06
238.624	117.06
238.858	138.06
239.091	117.06
239.325	125.06
239.559	109.06
239.793	117.06
240.027	131.06
240.26	147.06
240.494	151.06
240.728	146.06
240.961	124.06
241.195	120.06
241.429	138.06
241.662	128.06
241.896	134.06
242.13	132.06
242.363	131.06
242.597	135.06
242.83	132.06
243.064	125.06
243.298	126.06
243.531	123.06
243.765	121.06
243.998	139.06
244.232	139.06
244.465	152.06
244.699	133.06
244.932	140.06
245.166	138.06
245.399	138.06
245.633	130.06
245.866	135.06
246.099	135.06
246.333	153.06
246.566	134.06
246.8	154.06
247.033	151.06
247.266	135.06
247.5	147.06
247.733	157.06
247.966	152.06
248.2	156.06
248.433	154.06
248.666	153.06
248.899	153.06
249.133	165.06
249.366	207.06
249.599	175.06
249.832	164.06
250.066	165.06
250.299	174.06
250.532	174.06
250.765	192.06
250.998	211.06
251.231	199.06
251.465	195.06
251.698	185.06
251.931	173.06
252.164	201.06
252.397	173.06
252.63	186.06
252.863	187.06
253.096	188.06
253.329	219.06
253.562	201.06
253.795	203.06
254.028	186.06
254.261	191.06
254.494	203.06
254.727	204.06
254.96	244.06
255.193	226.06
255.426	215.06
255.659	211.06
255.892	211.06
256.124	200.06
256.357	204.06
256.59	203.06
256.823	217.06
257.056	201.06
257.289	190.06
257.521	189.06
257.754	198.06
257.987	210.06
258.22	213.06
258.452	181.06
258.685	198.06
258.918	177.06
259.151	197.06
259.383	199.06
259.616	199.06
259.849	197.06
260.081	198.06
260.314	238.06
260.547	225.06
260.779	218.06
261.012	207.06
261.244	213.06
261.477	209.06
261.71	206.06
261.942	203.06
262.175	216.06
262.407	212.06
262.64	201.06
262.872	198.06
263.105	192.06
263.337	205.06
263.57	203.06
263.802	193.06
264.035	197.06
264.267	206.06
264.499	195.06
264.732	197.06
264.964	196.06
265.197	209.06
265.429	213.06
265.661	193.06
265.894	209.06
266.126	197.06
266.358	203.06
266.591	207.06
266.823	219.06
267.055	207.06
267.287	203.06
267.52	210.06
267.752	205.06
267.984	231.06
268.216	201.06
268.448	216.06
268.681	222.06
268.913	219.06
269.145	232.06
269.377	248.06
269.609	235.06
269.841	277.06
270.073	233.06
270.306	275.06
270.538	295.06
270.77	264.06
271.002	270.06
271.234	254.06
271.466	277.06
271.698	280.06
271.93	281.06
272.162	280.06
272.394	281.06
272.626	264.06
272.858	242.06
273.09	234.06
273.322	250.06
273.553	236.06
273.785	248.06
274.017	248.06
274.249	232.06
274.481	241.06
274.713	268.06
274.945	242.06
275.176	253.06
275.408	243.06
275.64	247.06
275.872	239.06
276.104	262.06
276.335	246.06
276.567	260.06
276.799	249.06
277.031	266.06
277.262	286.06
277.494	301.06
277.726	276.06
277.957	261.06
278.189	256.06
278.421	231.06
278.652	245.06
278.884	246.06
279.115	259.06
279.347	255.06
279.579	262.06
279.81	246.06
280.042	242.06
280.273	259.06
280.505	277.06
280.736	267.06
280.968	252.06
281.199	246.06
281.431	261.06
281.662	275.06
281.894	279.06
282.125	261.06
282.356	266.06
282.588	277.06
282.819	299.06
283.051	261.06
283.282	264.06
283.513	258.06
283.745	271.06
283.976	263.06
284.207	271.06
284.439	268.06
284.67	267.06
284.901	274.06
285.132	268.06
285.364	277.06
285.595	269.06
285.826	260.06
286.057	248.06
286.288	270.06
286.52	277.06
286.751	269.06
286.982	252.06
287.213	261.06
287.444	274.06
287.675	268.06
287.906	293.06
288.138	281.06
288.369	281.06
288.6	276.06
288.831	281.06
289.062	287.06
289.293	296.06
289.524	292.06
289.755	283.06
289.986	279.06
290.217	286.06
290.448	281.06
290.679	286.06
290.91	286.06
291.141	281.06
291.371	297.06
291.602	274.06
291.833	262.06
292.064	284.06
292.295	271.06
292.526	276.06
292.757	283.06
292.987	277.06
293.218	285.06
293.449	295.06
293.68	283.06
293.91	279.06
294.141	269.06
294.372	284.06
294.603	279.06
294.833	277.06
295.064	269.06
295.295	284.06
295.525	274.06
295.756	289.06
295.987	299.06
296.217	291.06
296.448	297.06
296.679	289.06
296.909	310.06
297.14	303.06
297.37	312.06
297.601	301.06
297.831	293.06
298.062	294.06
298.292	291.06
298.523	294.06
298.753	308.06
298.984	295.06
299.214	310.06
299.445	300.06
299.675	289.06
299.905	307.06
300.136	324.06
300.366	317.06
300.597	308.06
300.827	311.06
301.057	301.06
301.288	323.06
301.518	326.06
301.748	303.06
301.979	317.06
302.209	317.06
302.439	324.06
302.669	333.06
302.9	317.06
303.13	314.06
303.36	325.06
303.59	319.06
303.82	333.06
304.051	336.06
304.281	332.06
304.511	321.06
304.741	311.06
304.971	318.06
305.201	328.06
305.431	339.06
305.661	325.06
305.891	311.06
306.121	309.06
306.352	319.06
306.582	322.06
306.812	327.06
307.042	320.06
307.272	318.06
307.502	329.06
307.731	321.06
307.961	335.06
308.191	322.06
308.421	312.06
308.651	321.06
308.881	323.06
309.111	318.06
309.341	323.06
309.571	334.06
309.8	336.06
310.03	345.06
310.26	374.06
310.49	345.06
310.72	369.06
310.949	362.06
311.179	371.06
311.409	355.06
311.639	340.06
311.868	374.06
312.098	366.06
312.328	382.06
312.557	364.06
312.787	402.06
313.017	389.06
313.246	372.06
313.476	361.06
313.706	369.06
313.935	366.06
314.165	382.06
314.394	383.06
314.624	381.06
314.853	356.06
315.083	363.06
315.312	363.06
315.542	365.06
315.771	363.06
316.001	347.06
316.23	352.06
316.46	364.06
316.689	364.06
316.919	380.06
317.148	367.06
317.377	374.06
317.607	358.06
317.836	375.06
318.065	356.06
318.295	352.06
318.524	382.06
318.753	359.06
318.983	385.06
319.212	359.06
319.441	384.06
319.67	376.06
319.9	357.06
320.129	349.06
320.358	373.06
320.587	364.06
320.816	375.06
321.046	380.06
321.275	390.06
321.504	383.06
321.733	377.06
321.962	406.06
322.191	381.06
322.42	404.06
322.649	409.06
322.878	421.06
323.108	428.06
323.337	447.06
323.566	453.06
323.795	486.06
324.024	528.06
324.253	634.06
324.482	865.06
324.71	1363.06
324.939	2056.06
325.168	1813.06
325.397	871.06
325.626	595.06
325.855	503.06
326.084	498.06
326.313	474.06
326.542	467.06
326.77	534.06
326.999	597.06
327.228	820.06
327.457	1246.06
327.686	1543.06
327.914	1061.06
328.143	668.06
328.372	574.06
328.6	531.06
328.829	521.06
329.058	546.06
329.287	547.06
329.515	519.06
329.744	479.06
329.972	475.06
330.201	486.06
330.43	522.06
330.658	530.06
330.887	546.06
331.115	551.06
331.344	489.06
331.572	455.06
331.801	473.06
332.03	460.06
332.258	457.06
332.486	439.06
332.715	440.06
332.943	461.06
333.172	443.06
333.4	440.06
333.629	450.06
333.857	458.06
334.085	483.06
334.314	470.06
334.542	504.06
334.771	509.06
334.999	474.06
335.227	449.06
335.455	427.06
335.684	447.06
335.912	452.06
336.14	417.06
336.369	425.06
336.597	438.06
336.825	459.06
337.053	445.06
337.281	451.06
337.51	429.06
337.738	446.06
337.966	460.06
338.194	455.06
338.422	456.06
338.65	419.06
338.878	427.06
339.106	430.06
339.334	428.06
339.562	428.06
339.79	414.06
340.018	415.06
340.246	418.06
340.474	465.06
340.702	433.06
340.93	426.06
341.158	415.06
341.386	425.06
341.614	425.06
341.842	420.06
342.07	425.06
342.298	447.06
342.526	417.06
342.754	401.06
342.981	399.06
343.209	419.06
343.437	419.06
343.665	440.06
343.893	443.06
344.12	428.06
344.348	418.06
344.576	444.06
344.804	454.06
345.031	455.06
345.259	458.06
345.487	444.06
345.714	421.06
345.942	436.06
346.17	435.06
346.397	421.06
346.625	409.06
346.853	419.06
347.08	385.06
347.308	417.06
347.535	432.06
347.763	422.06
347.99	407.06
348.218	426.06
348.445	410.06
348.673	414.06
348.9	429.06
349.128	410.06
349.355	403.06
349.583	430.06
349.81	416.06
350.037	418.06
350.265	399.06
350.492	400.06
350.72	411.06
350.947	417.06
351.174	414.06
351.402	405.06
351.629	431.06
351.856	417.06
352.083	423.06
352.311	437.06
352.538	427.06
352.765	411.06
352.992	412.06
353.22	411.06
353.447	414.06
353.674	400.06
353.901	386.06
354.128	401.06
354.355	400.06
354.583	397.06
354.81	393.06
355.037	405.06
355.264	387.06
355.491	401.06
355.718	411.06
355.945	400.06
356.172	380.06
356.399	398.06
356.626	395.06
356.853	389.06
357.08	398.06
357.307	420.06
357.534	388.06
357.761	384.06
357.988	396.06
358.215	398.06
358.441	395.06
358.668	398.06
358.895	417.06
359.122	390.06
359.349	397.06
359.576	422.06
359.802	441.06
360.029	439.06
360.256	453.06
360.483	451.06
360.709	419.06
360.936	421.06
361.163	423.06
361.39	418.06
361.616	423.06
361.843	420.06
362.07	397.06
362.296	420.06
362.523	405.06
362.749	434.06
362.976	418.06
363.203	431.06
363.429	415.06
363.656	396.06
363.882	411.06
364.109	392.06
364.335	405.06
364.562	389.06
364.788	407.06
365.015	404.06
365.241	410.06
365.468	406.06
365.694	413.06
365.92	409.06
366.147	412.06
366.373	398.06
366.599	418.06
366.826	389.06
367.052	403.06
367.278	409.06
367.505	387.06
367.731	419.06
367.957	406.06
368.184	390.06
368.41	423.06
368.636	439.06
368.862	412.06
369.089	429.06
369.315	412.06
369.541	434.06
369.767	410.06
369.993	406.06
370.219	416.06
370.445	423.06
370.672	389.06
370.898	417.06
371.124	423.06
371.35	425.06
371.576	431.06
371.802	414.06
372.028	415.06
372.254	405.06
372.48	396.06
372.706	412.06
372.932	416.06
373.158	427.06
373.384	435.06
373.61	418.06
373.835	419.06
374.061	426.06
374.287	407.06
374.513	426.06
374.739	434.06
374.965	441.06
375.191	427.06
375.416	398.06
375.642	418.06
375.868	422.06
376.094	423.06
376.319	404.06
376.545	394.06
376.771	443.06
376.997	396.06
377.222	413.06
377.448	405.06
377.674	399.06
377.899	424.06
378.125	408.06
378.35	410.06
378.576	412.06
378.802	421.06
379.027	426.06
379.253	433.06
379.478	412.06
379.704	415.06
379.929	414.06
380.155	418.06
380.38	427.06
380.606	417.06
380.831	429.06
381.057	412.06
381.282	417.06
381.507	418.06
381.733	426.06
381.958	410.06
382.184	427.06
382.409	427.06
382.634	426.06
382.86	425.06
383.085	416.06
383.31	430.06
383.535	425.06
383.761	418.06
383.986	449.06
384.211	432.06
384.436	442.06
384.662	448.06
384.887	474.06
385.112	435.06
385.337	452.06
385.562	471.06
385.787	429.06
386.013	461.06
386.238	490.06
386.463	455.06
386.688	478.06
386.913	458.06
387.138	451.06
387.363	462.06
387.588	457.06
387.813	452.06
388.038	448.06
388.263	482.06
388.488	468.06
388.713	473.06
388.938	463.06
389.163	451.06
389.387	488.06
389.612	461.06
389.837	461.06
390.062	442.06
390.287	475.06
390.512	451.06
390.736	478.06
390.961	459.06
391.186	456.06
391.411	481.06
391.636	481.06
391.86	493.06
392.085	483.06
392.31	508.06
392.534	489.06
392.759	486.06
392.984	447.06
393.208	456.06
393.433	485.06
393.658	476.06
393.882	475.06
394.107	490.06
394.331	484.06
394.556	471.06
394.78	488.06
395.005	470.06
395.229	463.06
395.454	487.06
395.678	490.06
395.903	487.06
396.127	499.06
396.352	533.06
396.576	515.06
396.801	463.06
397.025	502.06
397.249	488.06
397.474	490.06
397.698	512.06
397.922	517.06
398.147	547.06
398.371	573.06
398.595	534.06
398.82	527.06
399.044	528.06
399.268	571.06
399.492	601.06
399.717	603.06
399.941	641.06
400.165	655.06
400.389	675.06
400.613	603.06
400.837	590.06
401.062	565.06
401.286	555.06
401.51	534.06
401.734	556.06
401.958	559.06
402.182	537.06
402.406	547.06
402.63	551.06
402.854	528.06
403.078	559.06
403.302	565.06
403.526	561.06
403.75	590.06
403.974	568.06
404.198	525.06
404.422	565.06
404.645	580.06
404.869	583.06
405.093	604.06
405.317	628.06
405.541	679.06
405.765	636.06
405.988	608.06
406.212	593.06
406.436	599.06
406.66	595.06
406.883	606.06
407.107	625.06
407.331	677.06
407.555	723.06
407.778	758.06
408.002	665.06
408.226	629.06
408.449	632.06
408.673	628.06
408.896	650.06
409.12	685.06
409.344	656.06
409.567	597.06
409.791	555.06
410.014	570.06
410.238	565.06
410.461	576.06
410.685	568.06
410.908	602.06
411.132	605.06
411.355	659.06
411.578	620.06
411.802	590.06
412.025	572.06
412.249	586.06
412.472	592.06
412.695	629.06
412.919	601.06
413.142	585.06
413.365	574.06
413.589	556.06
413.812	548.06
414.035	550.06
414.258	540.06
414.482	552.06
414.705	550.06
414.928	538.06
415.151	515.06
415.374	548.06
415.597	538.06
415.821	537.06
416.044	530.06
416.267	552.06
416.49	515.06
416.713	529.06
416.936	522.06
417.159	519.06
417.382	527.06
417.605	507.06
417.828	539.06
418.051	539.06
418.274	524.06
418.497	540.06
418.72	540.06
418.943	527.06
419.166	563.06
419.389	590.06
419.611	582.06
419.834	566.06
420.057	557.06
420.28	563.06
420.503	529.06
420.726	554.06
420.948	545.06
421.171	597.06
421.394	628.06
421.617	566.06
421.839	547.06
422.062	557.06
422.285	557.06
422.507	639.06
422.73	703.06
422.953	667.06
423.175	621.06
423.398	590.06
423.621	576.06
423.843	588.06
424.066	597.06
424.288	565.06
424.511	609.06
424.733	641.06
424.956	750.06
425.178	714.06
425.401	695.06
425.623	732.06
425.846	630.06
426.068	583.06
426.291	581.06
426.513	564.06
426.735	582.06
426.958	622.06
427.18	709.06
427.402	860.06
427.625	963.06
427.847	814.06
428.069	711.06
428.292	640.06
428.514	567.06
428.736	571.06
428.958	547.06
429.181	565.06
429.403	549.06
429.625	549.06
429.847	591.06
430.069	645.06
430.292	627.06
430.514	542.06
430.736	565.06
430.958	552.06
431.18	525.06
431.402	502.06
431.624	499.06
431.846	517.06
432.068	527.06
432.29	491.06
432.512	534.06
432.734	544.06
432.956	547.06
433.178	545.06
433.4	547.06
433.622	520.06
433.844	531.06
434.066	526.06
434.287	541.06
434.509	533.06
434.731	549.06
434.953	547.06
435.175	574.06
435.397	576.06
435.618	582.06
435.84	630.06
436.062	713.06
436.284	813.06
436.505	672.06
436.727	597.06
436.949	555.06
437.17	559.06
437.392	540.06
437.614	573.06
437.835	590.06
438.057	685.06
438.278	783.06
438.5	772.06
438.721	885.06
438.943	826.06
439.165	676.06
439.386	599.06
439.608	585.06
439.829	603.06
440.05	604.06
440.272	682.06
440.493	633.06
440.715	566.06
440.936	562.06
441.158	540.06
441.379	539.06
441.6	564.06
441.822	569.06
442.043	607.06
442.264	689.06
442.486	764.06
442.707	634.06
442.928	583.06
443.149	604.06
443.371	622.06
443.592	648.06
443.813	776.06
444.034	854.06
444.255	661.06
444.476	618.06
444.698	603.06
444.919	602.06
445.14	695.06
445.361	655.06
445.582	649.06
445.803	682.06
446.024	810.06
446.245	833.06
446.466	720.06
446.687	629.06
446.908	591.06
447.129	556.06
447.35	557.06
447.571	535.06
447.792	558.06
448.013	535.06
448.234	553.06
448.455	622.06
448.675	749.06
448.896	881.06
449.117	731.06
449.338	653.06
449.559	788.06
449.779	900.06
450	673.06
450.221	610.06
450.442	553.06
450.662	519.06
450.883	530.06
451.104	537.06
451.324	548.06
451.545	503.06
451.766	538.06
451.986	499.06
452.207	491.06
452.428	486.06
452.648	497.06
452.869	490.06
453.089	499.06
453.31	499.06
453.53	494.06
453.751	496.06
453.971	503.06
454.192	540.06
454.412	504.06
454.633	491.06
454.853	475.06
455.073	483.06
455.294	530.06
455.514	543.06
455.734	550.06
455.955	472.06
456.175	479.06
456.395	465.06
456.616	468.06
456.836	438.06
457.056	485.06
457.276	453.06
457.497	457.06
457.717	485.06
457.937	464.06
458.157	474.06
458.377	472.06
458.598	513.06
458.818	552.06
459.038	618.06
459.258	653.06
459.478	569.06
459.698	531.06
459.918	531.06
460.138	526.06
460.358	575.06
460.578	535.06
460.798	549.06
461.018	541.06
461.238	553.06
461.458	553.06
461.678	556.06
461.898	543.06
462.118	559.06
462.338	579.06
462.558	570.06
462.777	594.06
462.997	588.06
463.217	590.06
463.437	609.06
463.657	601.06
463.876	601.06
464.096	603.06
464.316	556.06
464.536	605.06
464.755	586.06
464.975	590.06
465.195	631.06
465.414	662.06
465.634	590.06
465.854	555.06
466.073	540.06
466.293	558.06
466.512	514.06
466.732	527.06
466.951	514.06
467.171	492.06
467.391	523.06
467.61	517.06
467.829	511.06
468.049	515.06
468.268	523.06
468.488	497.06
468.707	501.06
468.927	485.06
469.146	499.06
469.365	492.06
469.585	518.06
469.804	508.06
470.023	498.06
470.243	505.06
470.462	503.06
470.681	504.06
470.901	538.06
471.12	513.06
471.339	506.06
471.558	539.06
471.777	523.06
471.997	514.06
472.216	528.06
472.435	533.06
472.654	517.06
472.873	523.06
473.092	539.06
473.311	523.06
473.53	517.06
473.749	519.06
473.968	551.06
474.187	649.06
474.406	679.06
474.625	553.06
474.844	528.06
475.063	526.06
475.282	524.06
475.501	518.06
475.72	511.06
475.939	533.06
476.158	530.06
476.377	537.06
476.596	524.06
476.814	563.06
477.033	553.06
477.252	542.06
477.471	540.06
477.69	554.06
477.908	563.06
478.127	579.06
478.346	571.06
478.564	576.06
478.783	589.06
479.002	568.06
479.22	580.06
479.439	603.06
479.658	604.06
479.876	620.06
480.095	629.06
480.313	664.06
480.532	630.06
480.751	629.06
480.969	638.06
481.188	682.06
481.406	717.06
481.624	631.06
481.843	619.06
482.061	655.06
482.28	595.06
482.498	615.06
482.717	619.06
482.935	631.06
483.153	597.06
483.372	580.06
483.59	586.06
483.808	606.06
484.027	602.06
484.245	620.06
484.463	607.06
484.681	605.06
484.9	615.06
485.118	611.06
485.336	628.06
485.554	637.06
485.772	625.06
485.99	635.06
486.209	611.06
486.427	655.06
486.645	623.06
486.863	643.06
487.081	649.06
487.299	643.06
487.517	649.06
487.735	629.06
487.953	639.06
488.171	616.06
488.389	641.06
488.607	649.06
488.825	644.06
489.043	641.06
489.261	641.06
489.479	636.06
489.696	632.06
489.914	645.06
490.132	641.06
490.35	660.06
490.568	659.06
490.786	666.06
491.003	664.06
491.221	698.06
491.439	709.06
491.657	700.06
491.874	691.06
492.092	708.06
492.31	725.06
492.527	696.06
492.745	727.06
492.963	712.06
493.18	715.06
493.398	722.06
493.615	718.06
493.833	724.06
494.05	731.06
494.268	748.06
494.485	727.06
494.703	733.06
494.92	741.06
495.138	727.06
495.355	739.06
495.573	749.06
495.79	735.06
496.008	746.06
496.225	718.06
496.442	731.06
496.66	762.06
496.877	764.06
497.094	789.06
497.312	756.06
497.529	766.06
497.746	790.06
497.963	825.06
498.181	798.06
498.398	835.06
498.615	848.06
498.832	877.06
499.049	894.06
499.267	927.06
499.484	954.06
499.701	941.06
499.918	995.06
500.135	1022.06
500.352	1099.06
500.569	1087.06
500.786	1129.06
501.003	1125.06
501.22	1097.06
501.437	1050.06
501.654	1036.06
501.871	970.06
