Data from 1978.PennyLincolnUp.Lamp.En5.5.200Scan.071719.P1_HRD10591_16-11-56-866.txt Node
Date: Thu Jul 18 16:11:56 EDT 2019
User: cochatt
Spectrometer: HR+D1059
Trigger mode: 1
Integration Time (sec): 1.000000E-1
Scans to average: 1
Electric dark correction enabled: true
Nonlinearity correction enabled: false
Boxcar width: 0
XAxis mode: Wavelengths
Number of Pixels in Spectrum: 2048
>>>>>Begin Spectral Data<<<<<
223.165	-8.69
223.4	-8.69
223.635	-8.69
223.869	-17.69
224.104	-11.69
224.338	-19.69
224.573	-21.69
224.808	-23.69
225.042	7.31
225.277	-4.69
225.511	3.31
225.746	5.31
225.98	9.31
226.215	9.31
226.449	12.31
226.683	10.31
226.918	25.31
227.152	25.31
227.387	25.31
227.621	28.31
227.856	48.31
228.09	57.31
228.324	55.31
228.559	64.31
228.793	68.31
229.027	81.31
229.262	91.31
229.496	98.31
229.73	109.31
229.964	128.31
230.199	115.31
230.433	98.31
230.667	97.31
230.901	113.31
231.136	100.31
231.37	96.31
231.604	121.31
231.838	105.31
232.072	96.31
232.306	111.31
232.541	99.31
232.775	108.31
233.009	104.31
233.243	110.31
233.477	109.31
233.711	103.31
233.945	103.31
234.179	117.31
234.413	112.31
234.647	115.31
234.881	118.31
235.115	105.31
235.349	109.31
235.583	103.31
235.817	110.31
236.051	104.31
236.285	110.31
236.519	103.31
236.753	123.31
236.987	121.31
237.221	145.31
237.455	198.31
237.689	159.31
237.922	131.31
238.156	122.31
238.39	117.31
238.624	110.31
238.858	115.31
239.091	112.31
239.325	111.31
239.559	119.31
239.793	111.31
240.027	127.31
240.26	132.31
240.494	142.31
240.728	138.31
240.961	125.31
241.195	129.31
241.429	129.31
241.662	117.31
241.896	126.31
242.13	119.31
242.363	118.31
242.597	124.31
242.83	123.31
243.064	123.31
243.298	138.31
243.531	128.31
243.765	126.31
243.998	117.31
244.232	139.31
244.465	129.31
244.699	143.31
244.932	156.31
245.166	142.31
245.399	121.31
245.633	135.31
245.866	126.31
246.099	132.31
246.333	142.31
246.566	142.31
246.8	144.31
247.033	132.31
247.266	135.31
247.5	141.31
247.733	152.31
247.966	152.31
248.2	143.31
248.433	141.31
248.666	152.31
248.899	160.31
249.133	160.31
249.366	175.31
249.599	181.31
249.832	163.31
250.066	168.31
250.299	150.31
250.532	158.31
250.765	173.31
250.998	187.31
251.231	189.31
251.465	179.31
251.698	179.31
251.931	172.31
252.164	161.31
252.397	156.31
252.63	172.31
252.863	185.31
253.096	189.31
253.329	175.31
253.562	160.31
253.795	170.31
254.028	184.31
254.261	177.31
254.494	191.31
254.727	206.31
254.96	228.31
255.193	216.31
255.426	201.31
255.659	197.31
255.892	195.31
256.124	200.31
256.357	186.31
256.59	198.31
256.823	186.31
257.056	177.31
257.289	184.31
257.521	180.31
257.754	182.31
257.987	183.31
258.22	192.31
258.452	165.31
258.685	200.31
258.918	175.31
259.151	197.31
259.383	183.31
259.616	186.31
259.849	190.31
260.081	195.31
260.314	205.31
260.547	203.31
260.779	213.31
261.012	203.31
261.244	182.31
261.477	205.31
261.71	198.31
261.942	192.31
262.175	200.31
262.407	207.31
262.64	183.31
262.872	181.31
263.105	189.31
263.337	207.31
263.57	180.31
263.802	188.31
264.035	180.31
264.267	186.31
264.499	199.31
264.732	196.31
264.964	165.31
265.197	180.31
265.429	200.31
265.661	200.31
265.894	196.31
266.126	189.31
266.358	179.31
266.591	185.31
266.823	200.31
267.055	205.31
267.287	201.31
267.52	196.31
267.752	202.31
267.984	205.31
268.216	220.31
268.448	204.31
268.681	190.31
268.913	225.31
269.145	227.31
269.377	227.31
269.609	222.31
269.841	246.31
270.073	200.31
270.306	240.31
270.538	259.31
270.77	249.31
271.002	242.31
271.234	231.31
271.466	249.31
271.698	266.31
271.93	261.31
272.162	256.31
272.394	257.31
272.626	237.31
272.858	239.31
273.09	243.31
273.322	234.31
273.553	237.31
273.785	231.31
274.017	217.31
274.249	223.31
274.481	243.31
274.713	226.31
274.945	240.31
275.176	212.31
275.408	232.31
275.64	217.31
275.872	236.31
276.104	239.31
276.335	233.31
276.567	223.31
276.799	224.31
277.031	267.31
277.262	274.31
277.494	269.31
277.726	249.31
277.957	253.31
278.189	252.31
278.421	235.31
278.652	232.31
278.884	245.31
279.115	236.31
279.347	244.31
279.579	238.31
279.81	255.31
280.042	239.31
280.273	236.31
280.505	243.31
280.736	221.31
280.968	257.31
281.199	251.31
281.431	220.31
281.662	259.31
281.894	237.31
282.125	231.31
282.356	260.31
282.588	264.31
282.819	281.31
283.051	251.31
283.282	241.31
283.513	246.31
283.745	236.31
283.976	240.31
284.207	245.31
284.439	243.31
284.67	223.31
284.901	256.31
285.132	249.31
285.364	268.31
285.595	240.31
285.826	250.31
286.057	256.31
286.288	265.31
286.52	265.31
286.751	247.31
286.982	247.31
287.213	255.31
287.444	268.31
287.675	257.31
287.906	259.31
288.138	245.31
288.369	272.31
288.6	265.31
288.831	266.31
289.062	264.31
289.293	276.31
289.524	256.31
289.755	246.31
289.986	267.31
290.217	263.31
290.448	270.31
290.679	260.31
290.91	284.31
291.141	267.31
291.371	260.31
291.602	279.31
291.833	253.31
292.064	255.31
292.295	283.31
292.526	263.31
292.757	257.31
292.987	281.31
293.218	260.31
293.449	263.31
293.68	257.31
293.91	266.31
294.141	259.31
294.372	252.31
294.603	243.31
294.833	277.31
295.064	264.31
295.295	272.31
295.525	265.31
295.756	280.31
295.987	273.31
296.217	268.31
296.448	304.31
296.679	260.31
296.909	274.31
297.14	277.31
297.37	266.31
297.601	248.31
297.831	269.31
298.062	275.31
298.292	279.31
298.523	277.31
298.753	275.31
298.984	273.31
299.214	279.31
299.445	293.31
299.675	297.31
299.905	277.31
300.136	287.31
300.366	271.31
300.597	297.31
300.827	296.31
301.057	289.31
301.288	288.31
301.518	303.31
301.748	290.31
301.979	294.31
302.209	289.31
302.439	291.31
302.669	289.31
302.9	300.31
303.13	297.31
303.36	286.31
303.59	300.31
303.82	302.31
304.051	307.31
304.281	302.31
304.511	291.31
304.741	304.31
304.971	283.31
305.201	291.31
305.431	292.31
305.661	298.31
305.891	285.31
306.121	289.31
306.352	296.31
306.582	311.31
306.812	286.31
307.042	292.31
307.272	308.31
307.502	291.31
307.731	281.31
307.961	304.31
308.191	295.31
308.421	270.31
308.651	323.31
308.881	287.31
309.111	303.31
309.341	317.31
309.571	295.31
309.8	311.31
310.03	325.31
310.26	341.31
310.49	331.31
310.72	327.31
310.949	343.31
311.179	339.31
311.409	336.31
311.639	344.31
311.868	332.31
312.098	320.31
312.328	336.31
312.557	343.31
312.787	339.31
313.017	341.31
313.246	347.31
313.476	346.31
313.706	339.31
313.935	349.31
314.165	344.31
314.394	343.31
314.624	343.31
314.853	345.31
315.083	349.31
315.312	333.31
315.542	332.31
315.771	342.31
316.001	313.31
316.23	326.31
316.46	338.31
316.689	339.31
316.919	343.31
317.148	331.31
317.377	341.31
317.607	351.31
317.836	323.31
318.065	354.31
318.295	348.31
318.524	353.31
318.753	331.31
318.983	340.31
319.212	335.31
319.441	338.31
319.67	357.31
319.9	332.31
320.129	334.31
320.358	341.31
320.587	367.31
320.816	346.31
321.046	371.31
321.275	389.31
321.504	357.31
321.733	347.31
321.962	347.31
322.191	382.31
322.42	365.31
322.649	379.31
322.878	380.31
323.108	380.31
323.337	390.31
323.566	387.31
323.795	421.31
324.024	453.31
324.253	536.31
324.482	705.31
324.71	1084.31
324.939	1617.31
325.168	1384.31
325.397	713.31
325.626	485.31
325.855	436.31
326.084	410.31
326.313	422.31
326.542	406.31
326.77	434.31
326.999	491.31
327.228	662.31
327.457	976.31
327.686	1230.31
327.914	811.31
328.143	540.31
328.372	486.31
328.6	476.31
328.829	445.31
329.058	446.31
329.287	455.31
329.515	432.31
329.744	430.31
329.972	414.31
330.201	433.31
330.43	441.31
330.658	473.31
330.887	481.31
331.115	474.31
331.344	453.31
331.572	410.31
331.801	419.31
332.03	424.31
332.258	402.31
332.486	407.31
332.715	401.31
332.943	409.31
333.172	411.31
333.4	400.31
333.629	423.31
333.857	413.31
334.085	415.31
334.314	406.31
334.542	456.31
334.771	463.31
334.999	425.31
335.227	423.31
335.455	411.31
335.684	410.31
335.912	393.31
336.14	403.31
336.369	408.31
336.597	411.31
336.825	405.31
337.053	408.31
337.281	407.31
337.51	399.31
337.738	412.31
337.966	388.31
338.194	407.31
338.422	406.31
338.65	387.31
338.878	375.31
339.106	363.31
339.334	385.31
339.562	399.31
339.79	386.31
340.018	374.31
340.246	397.31
340.474	382.31
340.702	380.31
340.93	390.31
341.158	378.31
341.386	387.31
341.614	402.31
341.842	395.31
342.07	380.31
342.298	366.31
342.526	371.31
342.754	379.31
342.981	363.31
343.209	385.31
343.437	389.31
343.665	421.31
343.893	411.31
344.12	413.31
344.348	396.31
344.576	407.31
344.804	399.31
345.031	400.31
345.259	402.31
345.487	404.31
345.714	382.31
345.942	393.31
346.17	382.31
346.397	384.31
346.625	379.31
346.853	375.31
347.08	379.31
347.308	384.31
347.535	392.31
347.763	381.31
347.99	403.31
348.218	384.31
348.445	396.31
348.673	402.31
348.9	363.31
349.128	383.31
349.355	358.31
349.583	357.31
349.81	369.31
350.037	379.31
350.265	363.31
350.492	383.31
350.72	370.31
350.947	369.31
351.174	361.31
351.402	371.31
351.629	383.31
351.856	372.31
352.083	393.31
352.311	381.31
352.538	363.31
352.765	381.31
352.992	383.31
353.22	379.31
353.447	392.31
353.674	364.31
353.901	381.31
354.128	360.31
354.355	347.31
354.583	377.31
354.81	353.31
355.037	353.31
355.264	365.31
355.491	361.31
355.718	371.31
355.945	358.31
356.172	361.31
356.399	373.31
356.626	359.31
356.853	366.31
357.08	385.31
357.307	373.31
357.534	377.31
357.761	351.31
357.988	376.31
358.215	366.31
358.441	379.31
358.668	363.31
358.895	371.31
359.122	355.31
359.349	374.31
359.576	383.31
359.802	405.31
360.029	408.31
360.256	404.31
360.483	397.31
360.709	375.31
360.936	371.31
361.163	381.31
361.39	381.31
361.616	390.31
361.843	374.31
362.07	368.31
362.296	387.31
362.523	382.31
362.749	378.31
362.976	365.31
363.203	364.31
363.429	357.31
363.656	385.31
363.882	371.31
364.109	369.31
364.335	378.31
364.562	384.31
364.788	378.31
365.015	382.31
365.241	374.31
365.468	380.31
365.694	361.31
365.92	387.31
366.147	366.31
366.373	365.31
366.599	388.31
366.826	373.31
367.052	364.31
367.278	395.31
367.505	381.31
367.731	376.31
367.957	369.31
368.184	373.31
368.41	383.31
368.636	376.31
368.862	385.31
369.089	366.31
369.315	356.31
369.541	377.31
369.767	367.31
369.993	374.31
370.219	378.31
370.445	372.31
370.672	379.31
370.898	390.31
371.124	382.31
371.35	385.31
371.576	380.31
371.802	384.31
372.028	388.31
372.254	385.31
372.48	393.31
372.706	393.31
372.932	374.31
373.158	393.31
373.384	387.31
373.61	419.31
373.835	388.31
374.061	382.31
374.287	401.31
374.513	393.31
374.739	393.31
374.965	397.31
375.191	381.31
375.416	396.31
375.642	376.31
375.868	382.31
376.094	405.31
376.319	383.31
376.545	385.31
376.771	366.31
376.997	371.31
377.222	387.31
377.448	393.31
377.674	375.31
377.899	380.31
378.125	376.31
378.35	391.31
378.576	375.31
378.802	396.31
379.027	395.31
379.253	382.31
379.478	380.31
379.704	381.31
379.929	385.31
380.155	380.31
380.38	397.31
380.606	396.31
380.831	377.31
381.057	392.31
381.282	389.31
381.507	395.31
381.733	399.31
381.958	392.31
382.184	382.31
382.409	385.31
382.634	400.31
382.86	435.31
383.085	418.31
383.31	398.31
383.535	417.31
383.761	415.31
383.986	422.31
384.211	415.31
384.436	396.31
384.662	407.31
384.887	414.31
385.112	409.31
385.337	441.31
385.562	415.31
385.787	428.31
386.013	444.31
386.238	436.31
386.463	432.31
386.688	445.31
386.913	403.31
387.138	425.31
387.363	419.31
387.588	425.31
387.813	423.31
388.038	445.31
388.263	440.31
388.488	443.31
388.713	455.31
388.938	418.31
389.163	432.31
389.387	440.31
389.612	418.31
389.837	428.31
390.062	443.31
390.287	462.31
390.512	432.31
390.736	414.31
390.961	428.31
391.186	446.31
391.411	438.31
391.636	465.31
391.86	456.31
392.085	451.31
392.31	462.31
392.534	451.31
392.759	445.31
392.984	454.31
393.208	432.31
393.433	466.31
393.658	458.31
393.882	438.31
394.107	442.31
394.331	435.31
394.556	437.31
394.78	449.31
395.005	464.31
395.229	445.31
395.454	457.31
395.678	452.31
395.903	485.31
396.127	478.31
396.352	477.31
396.576	465.31
396.801	451.31
397.025	434.31
397.249	468.31
397.474	457.31
397.698	476.31
397.922	475.31
398.147	497.31
398.371	492.31
398.595	499.31
398.82	504.31
399.044	492.31
399.268	516.31
399.492	555.31
399.717	601.31
399.941	601.31
400.165	617.31
400.389	630.31
400.613	559.31
400.837	550.31
401.062	538.31
401.286	536.31
401.51	492.31
401.734	483.31
401.958	497.31
402.182	496.31
402.406	501.31
402.63	523.31
402.854	497.31
403.078	487.31
403.302	496.31
403.526	527.31
403.75	528.31
403.974	524.31
404.198	488.31
404.422	535.31
404.645	526.31
404.869	525.31
405.093	542.31
405.317	595.31
405.541	609.31
405.765	570.31
405.988	560.31
406.212	566.31
406.436	557.31
406.66	560.31
406.883	558.31
407.107	587.31
407.331	606.31
407.555	671.31
407.778	681.31
408.002	631.31
408.226	603.31
408.449	581.31
408.673	566.31
408.896	578.31
409.12	650.31
409.344	601.31
409.567	561.31
409.791	528.31
410.014	517.31
410.238	554.31
410.461	525.31
410.685	539.31
410.908	568.31
411.132	583.31
411.355	601.31
411.578	560.31
411.802	519.31
412.025	527.31
412.249	541.31
412.472	552.31
412.695	569.31
412.919	572.31
413.142	529.31
413.365	527.31
413.589	511.31
413.812	494.31
414.035	499.31
414.258	498.31
414.482	505.31
414.705	520.31
414.928	506.31
415.151	517.31
415.374	493.31
415.597	485.31
415.821	489.31
416.044	505.31
416.267	502.31
416.49	485.31
416.713	493.31
416.936	494.31
417.159	492.31
417.382	502.31
417.605	494.31
417.828	504.31
418.051	520.31
418.274	518.31
418.497	484.31
418.72	521.31
418.943	484.31
419.166	497.31
419.389	548.31
419.611	520.31
419.834	519.31
420.057	541.31
420.28	517.31
420.503	500.31
420.726	492.31
420.948	512.31
421.171	553.31
421.394	577.31
421.617	518.31
421.839	520.31
422.062	501.31
422.285	513.31
422.507	568.31
422.73	642.31
422.953	603.31
423.175	554.31
423.398	512.31
423.621	553.31
423.843	519.31
424.066	546.31
424.288	552.31
424.511	542.31
424.733	593.31
424.956	661.31
425.178	640.31
425.401	651.31
425.623	658.31
425.846	576.31
426.068	550.31
426.291	526.31
426.513	552.31
426.735	532.31
426.958	549.31
427.18	622.31
427.402	739.31
427.625	827.31
427.847	686.31
428.069	607.31
428.292	578.31
428.514	533.31
428.736	509.31
428.958	499.31
429.181	486.31
429.403	479.31
429.625	516.31
429.847	521.31
430.069	572.31
430.292	582.31
430.514	505.31
430.736	479.31
430.958	493.31
431.18	469.31
431.402	476.31
431.624	473.31
431.846	480.31
432.068	478.31
432.29	490.31
432.512	476.31
432.734	476.31
432.956	475.31
433.178	525.31
433.4	491.31
433.622	478.31
433.844	481.31
434.066	491.31
434.287	495.31
434.509	492.31
434.731	494.31
434.953	500.31
435.175	492.31
435.397	519.31
435.618	532.31
435.84	569.31
436.062	641.31
436.284	709.31
436.505	573.31
436.727	546.31
436.949	506.31
437.17	513.31
437.392	488.31
437.614	514.31
437.835	527.31
438.057	609.31
438.278	686.31
438.5	669.31
438.721	759.31
438.943	719.31
439.165	588.31
439.386	560.31
439.608	537.31
439.829	513.31
440.05	563.31
440.272	595.31
440.493	559.31
440.715	533.31
440.936	515.31
441.158	510.31
441.379	506.31
441.6	523.31
441.822	522.31
442.043	555.31
442.264	636.31
442.486	659.31
442.707	589.31
442.928	547.31
443.149	575.31
443.371	582.31
443.592	627.31
443.813	682.31
444.034	726.31
444.255	608.31
444.476	577.31
444.698	573.31
444.919	551.31
445.14	669.31
445.361	601.31
445.582	579.31
445.803	614.31
446.024	712.31
446.245	724.31
446.466	665.31
446.687	538.31
446.908	544.31
447.129	510.31
447.35	531.31
447.571	495.31
447.792	490.31
448.013	480.31
448.234	510.31
448.455	543.31
448.675	630.31
448.896	738.31
449.117	647.31
449.338	606.31
449.559	699.31
449.779	803.31
450	624.31
450.221	523.31
450.442	519.31
450.662	502.31
450.883	478.31
451.104	516.31
451.324	490.31
451.545	460.31
451.766	449.31
451.986	447.31
452.207	432.31
452.428	457.31
452.648	448.31
452.869	442.31
453.089	457.31
453.31	463.31
453.53	456.31
453.751	457.31
453.971	453.31
454.192	461.31
454.412	448.31
454.633	441.31
454.853	464.31
455.073	433.31
455.294	473.31
455.514	504.31
455.734	493.31
455.955	449.31
456.175	442.31
456.395	420.31
456.616	437.31
456.836	424.31
457.056	409.31
457.276	424.31
457.497	437.31
457.717	448.31
457.937	437.31
458.157	453.31
458.377	455.31
458.598	464.31
458.818	512.31
459.038	549.31
459.258	565.31
459.478	513.31
459.698	481.31
459.918	456.31
460.138	488.31
460.358	481.31
460.578	487.31
460.798	515.31
461.018	503.31
461.238	520.31
461.458	492.31
461.678	506.31
461.898	537.31
462.118	514.31
462.338	513.31
462.558	559.31
462.777	532.31
462.997	559.31
463.217	575.31
463.437	571.31
463.657	540.31
463.876	579.31
464.096	553.31
464.316	541.31
464.536	539.31
464.755	546.31
464.975	550.31
465.195	560.31
465.414	603.31
465.634	560.31
465.854	507.31
466.073	517.31
466.293	490.31
466.512	481.31
466.732	470.31
466.951	489.31
467.171	478.31
467.391	483.31
467.61	480.31
467.829	499.31
468.049	475.31
468.268	495.31
468.488	455.31
468.707	461.31
468.927	454.31
469.146	459.31
469.365	483.31
469.585	464.31
469.804	472.31
470.023	460.31
470.243	464.31
470.462	483.31
470.681	503.31
470.901	492.31
471.12	481.31
471.339	485.31
471.558	473.31
471.777	462.31
471.997	451.31
472.216	479.31
472.435	495.31
472.654	484.31
472.873	494.31
473.092	480.31
473.311	461.31
473.53	486.31
473.749	487.31
473.968	519.31
474.187	568.31
474.406	584.31
474.625	522.31
474.844	485.31
475.063	493.31
475.282	461.31
475.501	487.31
475.72	500.31
475.939	491.31
476.158	495.31
476.377	517.31
476.596	494.31
476.814	519.31
477.033	513.31
477.252	500.31
477.471	508.31
477.69	516.31
477.908	536.31
478.127	566.31
478.346	552.31
478.564	537.31
478.783	551.31
479.002	558.31
479.22	565.31
479.439	557.31
479.658	576.31
479.876	575.31
480.095	583.31
480.313	605.31
480.532	588.31
480.751	577.31
480.969	573.31
481.188	606.31
481.406	630.31
481.624	606.31
481.843	598.31
482.061	552.31
482.28	558.31
482.498	550.31
482.717	568.31
482.935	570.31
483.153	561.31
483.372	572.31
483.59	571.31
483.808	566.31
484.027	542.31
484.245	565.31
484.463	577.31
484.681	560.31
484.9	575.31
485.118	548.31
485.336	560.31
485.554	591.31
485.772	563.31
485.99	575.31
486.209	595.31
486.427	591.31
486.645	568.31
486.863	595.31
487.081	610.31
487.299	597.31
487.517	598.31
487.735	595.31
487.953	593.31
488.171	602.31
488.389	604.31
488.607	576.31
488.825	577.31
489.043	598.31
489.261	598.31
489.479	612.31
489.696	616.31
489.914	608.31
490.132	596.31
490.35	595.31
490.568	624.31
490.786	619.31
491.003	635.31
491.221	631.31
491.439	628.31
491.657	648.31
491.874	633.31
492.092	619.31
492.31	634.31
492.527	649.31
492.745	673.31
492.963	657.31
493.18	676.31
493.398	681.31
493.615	680.31
493.833	671.31
494.05	671.31
494.268	681.31
494.485	681.31
494.703	678.31
494.92	695.31
495.138	655.31
495.355	671.31
495.573	665.31
495.79	693.31
496.008	705.31
496.225	698.31
496.442	712.31
496.66	691.31
496.877	694.31
497.094	725.31
497.312	724.31
497.529	695.31
497.746	699.31
497.963	772.31
498.181	778.31
498.398	782.31
498.615	789.31
498.832	821.31
499.049	826.31
499.267	838.31
499.484	854.31
499.701	919.31
499.918	948.31
500.135	977.31
500.352	1019.31
500.569	1045.31
500.786	1043.31
501.003	1032.31
501.22	1004.31
501.437	987.31
501.654	935.31
501.871	919.31
502.088	879.31
