Data from 1978.PennyLincolnUp.Lamp.En5.5.200Scan.071719.P1_HRD10591_16-11-48-865.txt Node
Date: Thu Jul 18 16:11:48 EDT 2019
User: cochatt
Spectrometer: HR+D1059
Trigger mode: 1
Integration Time (sec): 1.000000E-1
Scans to average: 1
Electric dark correction enabled: true
Nonlinearity correction enabled: false
Boxcar width: 0
XAxis mode: Wavelengths
Number of Pixels in Spectrum: 2048
>>>>>Begin Spectral Data<<<<<
223.165	-21.38
223.4	-21.38
223.635	-21.38
223.869	-11.38
224.104	-30.38
224.338	-10.38
224.573	-20.38
224.808	-8.38
225.042	-7.38
225.277	-11.38
225.511	-3.38
225.746	-0.38
225.98	10.62
226.215	4.62
226.449	3.62
226.683	32.62
226.918	32.62
227.152	40.62
227.387	44.62
227.621	36.62
227.856	52.62
228.09	50.62
228.324	41.62
228.559	61.62
228.793	63.62
229.027	103.62
229.262	115.62
229.496	103.62
229.73	112.62
229.964	120.62
230.199	106.62
230.433	105.62
230.667	96.62
230.901	92.62
231.136	103.62
231.37	108.62
231.604	96.62
231.838	103.62
232.072	98.62
232.306	104.62
232.541	112.62
232.775	107.62
233.009	119.62
233.243	107.62
233.477	97.62
233.711	106.62
233.945	106.62
234.179	109.62
234.413	108.62
234.647	109.62
234.881	106.62
235.115	102.62
235.349	112.62
235.583	102.62
235.817	110.62
236.051	112.62
236.285	117.62
236.519	127.62
236.753	114.62
236.987	125.62
237.221	137.62
237.455	194.62
237.689	146.62
237.922	137.62
238.156	114.62
238.39	122.62
238.624	108.62
238.858	111.62
239.091	107.62
239.325	115.62
239.559	120.62
239.793	110.62
240.027	104.62
240.26	120.62
240.494	143.62
240.728	140.62
240.961	122.62
241.195	118.62
241.429	123.62
241.662	125.62
241.896	134.62
242.13	110.62
242.363	126.62
242.597	138.62
242.83	125.62
243.064	131.62
243.298	122.62
243.531	114.62
243.765	124.62
243.998	123.62
244.232	132.62
244.465	130.62
244.699	154.62
244.932	134.62
245.166	122.62
245.399	132.62
245.633	142.62
245.866	140.62
246.099	126.62
246.333	110.62
246.566	134.62
246.8	122.62
247.033	147.62
247.266	145.62
247.5	148.62
247.733	147.62
247.966	164.62
248.2	154.62
248.433	142.62
248.666	136.62
248.899	162.62
249.133	154.62
249.366	155.62
249.599	157.62
249.832	154.62
250.066	160.62
250.299	150.62
250.532	156.62
250.765	151.62
250.998	182.62
251.231	194.62
251.465	159.62
251.698	164.62
251.931	157.62
252.164	152.62
252.397	151.62
252.63	167.62
252.863	162.62
253.096	190.62
253.329	185.62
253.562	162.62
253.795	183.62
254.028	174.62
254.261	166.62
254.494	181.62
254.727	209.62
254.96	203.62
255.193	198.62
255.426	181.62
255.659	191.62
255.892	183.62
256.124	187.62
256.357	197.62
256.59	166.62
256.823	167.62
257.056	194.62
257.289	165.62
257.521	157.62
257.754	171.62
257.987	180.62
258.22	193.62
258.452	190.62
258.685	169.62
258.918	168.62
259.151	182.62
259.383	190.62
259.616	187.62
259.849	170.62
260.081	172.62
260.314	191.62
260.547	194.62
260.779	197.62
261.012	191.62
261.244	189.62
261.477	182.62
261.71	180.62
261.942	188.62
262.175	180.62
262.407	217.62
262.64	195.62
262.872	178.62
263.105	182.62
263.337	190.62
263.57	190.62
263.802	166.62
264.035	186.62
264.267	195.62
264.499	172.62
264.732	200.62
264.964	174.62
265.197	191.62
265.429	179.62
265.661	190.62
265.894	199.62
266.126	194.62
266.358	191.62
266.591	178.62
266.823	219.62
267.055	195.62
267.287	193.62
267.52	188.62
267.752	188.62
267.984	193.62
268.216	187.62
268.448	194.62
268.681	195.62
268.913	195.62
269.145	207.62
269.377	212.62
269.609	209.62
269.841	205.62
270.073	205.62
270.306	213.62
270.538	228.62
270.77	250.62
271.002	228.62
271.234	231.62
271.466	236.62
271.698	218.62
271.93	250.62
272.162	233.62
272.394	219.62
272.626	237.62
272.858	238.62
273.09	236.62
273.322	227.62
273.553	195.62
273.785	222.62
274.017	215.62
274.249	221.62
274.481	224.62
274.713	223.62
274.945	208.62
275.176	236.62
275.408	229.62
275.64	220.62
275.872	215.62
276.104	224.62
276.335	226.62
276.567	239.62
276.799	224.62
277.031	228.62
277.262	247.62
277.494	252.62
277.726	238.62
277.957	228.62
278.189	241.62
278.421	224.62
278.652	244.62
278.884	229.62
279.115	230.62
279.347	236.62
279.579	249.62
279.81	237.62
280.042	227.62
280.273	246.62
280.505	222.62
280.736	227.62
280.968	229.62
281.199	234.62
281.431	238.62
281.662	235.62
281.894	219.62
282.125	255.62
282.356	252.62
282.588	256.62
282.819	266.62
283.051	237.62
283.282	235.62
283.513	238.62
283.745	254.62
283.976	232.62
284.207	236.62
284.439	246.62
284.67	252.62
284.901	243.62
285.132	246.62
285.364	240.62
285.595	246.62
285.826	243.62
286.057	241.62
286.288	241.62
286.52	253.62
286.751	242.62
286.982	230.62
287.213	251.62
287.444	266.62
287.675	236.62
287.906	254.62
288.138	258.62
288.369	247.62
288.6	269.62
288.831	249.62
289.062	252.62
289.293	249.62
289.524	266.62
289.755	238.62
289.986	259.62
290.217	262.62
290.448	254.62
290.679	257.62
290.91	238.62
291.141	251.62
291.371	226.62
291.602	243.62
291.833	247.62
292.064	255.62
292.295	257.62
292.526	252.62
292.757	246.62
292.987	263.62
293.218	250.62
293.449	254.62
293.68	261.62
293.91	272.62
294.141	256.62
294.372	251.62
294.603	246.62
294.833	251.62
295.064	251.62
295.295	249.62
295.525	258.62
295.756	267.62
295.987	258.62
296.217	264.62
296.448	265.62
296.679	267.62
296.909	263.62
297.14	251.62
297.37	266.62
297.601	272.62
297.831	258.62
298.062	272.62
298.292	257.62
298.523	277.62
298.753	270.62
298.984	284.62
299.214	278.62
299.445	283.62
299.675	280.62
299.905	269.62
300.136	286.62
300.366	285.62
300.597	279.62
300.827	284.62
301.057	297.62
301.288	279.62
301.518	271.62
301.748	276.62
301.979	306.62
302.209	290.62
302.439	289.62
302.669	285.62
302.9	294.62
303.13	279.62
303.36	274.62
303.59	291.62
303.82	295.62
304.051	286.62
304.281	302.62
304.511	303.62
304.741	304.62
304.971	295.62
305.201	307.62
305.431	290.62
305.661	276.62
305.891	262.62
306.121	289.62
306.352	295.62
306.582	294.62
306.812	278.62
307.042	283.62
307.272	308.62
307.502	295.62
307.731	291.62
307.961	282.62
308.191	290.62
308.421	290.62
308.651	304.62
308.881	309.62
309.111	298.62
309.341	309.62
309.571	313.62
309.8	306.62
310.03	308.62
310.26	304.62
310.49	322.62
310.72	323.62
310.949	310.62
311.179	315.62
311.409	326.62
311.639	318.62
311.868	311.62
312.098	339.62
312.328	313.62
312.557	319.62
312.787	340.62
313.017	339.62
313.246	307.62
313.476	308.62
313.706	321.62
313.935	322.62
314.165	317.62
314.394	324.62
314.624	342.62
314.853	303.62
315.083	331.62
315.312	310.62
315.542	328.62
315.771	330.62
316.001	308.62
316.23	323.62
316.46	321.62
316.689	325.62
316.919	322.62
317.148	326.62
317.377	336.62
317.607	331.62
317.836	327.62
318.065	292.62
318.295	327.62
318.524	337.62
318.753	335.62
318.983	322.62
319.212	325.62
319.441	329.62
319.67	324.62
319.9	309.62
320.129	306.62
320.358	317.62
320.587	331.62
320.816	323.62
321.046	355.62
321.275	341.62
321.504	334.62
321.733	331.62
321.962	348.62
322.191	354.62
322.42	346.62
322.649	357.62
322.878	344.62
323.108	338.62
323.337	357.62
323.566	389.62
323.795	402.62
324.024	430.62
324.253	471.62
324.482	637.62
324.71	976.62
324.939	1416.62
325.168	1264.62
325.397	634.62
325.626	468.62
325.855	408.62
326.084	383.62
326.313	364.62
326.542	405.62
326.77	423.62
326.999	464.62
327.228	611.62
327.457	876.62
327.686	1088.62
327.914	714.62
328.143	503.62
328.372	454.62
328.6	422.62
328.829	409.62
329.058	404.62
329.287	427.62
329.515	424.62
329.744	407.62
329.972	389.62
330.201	403.62
330.43	425.62
330.658	434.62
330.887	482.62
331.115	448.62
331.344	419.62
331.572	402.62
331.801	386.62
332.03	413.62
332.258	392.62
332.486	392.62
332.715	380.62
332.943	384.62
333.172	382.62
333.4	400.62
333.629	390.62
333.857	389.62
334.085	400.62
334.314	418.62
334.542	445.62
334.771	442.62
334.999	418.62
335.227	422.62
335.455	398.62
335.684	418.62
335.912	431.62
336.14	392.62
336.369	403.62
336.597	402.62
336.825	400.62
337.053	400.62
337.281	380.62
337.51	383.62
337.738	369.62
337.966	370.62
338.194	399.62
338.422	382.62
338.65	388.62
338.878	384.62
339.106	383.62
339.334	393.62
339.562	392.62
339.79	369.62
340.018	397.62
340.246	367.62
340.474	368.62
340.702	379.62
340.93	376.62
341.158	380.62
341.386	392.62
341.614	389.62
341.842	386.62
342.07	386.62
342.298	379.62
342.526	365.62
342.754	379.62
342.981	366.62
343.209	382.62
343.437	387.62
343.665	396.62
343.893	405.62
344.12	411.62
344.348	397.62
344.576	411.62
344.804	388.62
345.031	388.62
345.259	388.62
345.487	402.62
345.714	387.62
345.942	372.62
346.17	389.62
346.397	378.62
346.625	386.62
346.853	363.62
347.08	367.62
347.308	375.62
347.535	365.62
347.763	370.62
347.99	370.62
348.218	370.62
348.445	381.62
348.673	388.62
348.9	381.62
349.128	386.62
349.355	378.62
349.583	371.62
349.81	380.62
350.037	350.62
350.265	366.62
350.492	372.62
350.72	380.62
350.947	363.62
351.174	375.62
351.402	370.62
351.629	378.62
351.856	374.62
352.083	356.62
352.311	364.62
352.538	363.62
352.765	374.62
352.992	386.62
353.22	367.62
353.447	361.62
353.674	365.62
353.901	350.62
354.128	357.62
354.355	351.62
354.583	342.62
354.81	355.62
355.037	366.62
355.264	334.62
355.491	351.62
355.718	341.62
355.945	363.62
356.172	345.62
356.399	360.62
356.626	370.62
356.853	370.62
357.08	379.62
357.307	375.62
357.534	352.62
357.761	359.62
357.988	358.62
358.215	353.62
358.441	362.62
358.668	374.62
358.895	363.62
359.122	366.62
359.349	379.62
359.576	372.62
359.802	392.62
360.029	378.62
360.256	392.62
360.483	394.62
360.709	369.62
360.936	383.62
361.163	360.62
361.39	376.62
361.616	377.62
361.843	379.62
362.07	349.62
362.296	364.62
362.523	357.62
362.749	374.62
362.976	360.62
363.203	370.62
363.429	380.62
363.656	363.62
363.882	358.62
364.109	362.62
364.335	377.62
364.562	366.62
364.788	367.62
365.015	383.62
365.241	363.62
365.468	379.62
365.694	363.62
365.92	369.62
366.147	363.62
366.373	349.62
366.599	364.62
366.826	350.62
367.052	356.62
367.278	358.62
367.505	349.62
367.731	383.62
367.957	360.62
368.184	372.62
368.41	378.62
368.636	385.62
368.862	381.62
369.089	382.62
369.315	383.62
369.541	367.62
369.767	375.62
369.993	357.62
370.219	364.62
370.445	366.62
370.672	378.62
370.898	376.62
371.124	378.62
371.35	382.62
371.576	368.62
371.802	380.62
372.028	380.62
372.254	379.62
372.48	376.62
372.706	382.62
372.932	364.62
373.158	376.62
373.384	391.62
373.61	380.62
373.835	380.62
374.061	377.62
374.287	375.62
374.513	369.62
374.739	390.62
374.965	372.62
375.191	380.62
375.416	389.62
375.642	386.62
375.868	395.62
376.094	389.62
376.319	374.62
376.545	394.62
376.771	382.62
376.997	371.62
377.222	396.62
377.448	376.62
377.674	390.62
377.899	376.62
378.125	383.62
378.35	395.62
378.576	357.62
378.802	372.62
379.027	368.62
379.253	372.62
379.478	363.62
379.704	386.62
379.929	384.62
380.155	380.62
380.38	396.62
380.606	354.62
380.831	379.62
381.057	406.62
381.282	382.62
381.507	403.62
381.733	384.62
381.958	380.62
382.184	387.62
382.409	395.62
382.634	399.62
382.86	399.62
383.085	386.62
383.31	389.62
383.535	406.62
383.761	404.62
383.986	412.62
384.211	409.62
384.436	403.62
384.662	408.62
384.887	421.62
385.112	428.62
385.337	410.62
385.562	424.62
385.787	423.62
386.013	434.62
386.238	436.62
386.463	413.62
386.688	408.62
386.913	439.62
387.138	436.62
387.363	442.62
387.588	422.62
387.813	440.62
388.038	436.62
388.263	462.62
388.488	442.62
388.713	440.62
388.938	428.62
389.163	423.62
389.387	434.62
389.612	419.62
389.837	420.62
390.062	426.62
390.287	422.62
390.512	424.62
390.736	456.62
390.961	429.62
391.186	444.62
391.411	436.62
391.636	458.62
391.86	440.62
392.085	462.62
392.31	439.62
392.534	428.62
392.759	434.62
392.984	438.62
393.208	443.62
393.433	431.62
393.658	431.62
393.882	419.62
394.107	419.62
394.331	444.62
394.556	448.62
394.78	470.62
395.005	441.62
395.229	454.62
395.454	454.62
395.678	457.62
395.903	439.62
396.127	472.62
396.352	475.62
396.576	448.62
396.801	450.62
397.025	469.62
397.249	481.62
397.474	470.62
397.698	461.62
397.922	479.62
398.147	490.62
398.371	480.62
398.595	491.62
398.82	502.62
399.044	500.62
399.268	507.62
399.492	542.62
399.717	569.62
399.941	603.62
400.165	607.62
400.389	613.62
400.613	581.62
400.837	537.62
401.062	539.62
401.286	495.62
401.51	511.62
401.734	502.62
401.958	499.62
402.182	489.62
402.406	505.62
402.63	494.62
402.854	532.62
403.078	517.62
403.302	516.62
403.526	511.62
403.75	538.62
403.974	518.62
404.198	510.62
404.422	504.62
404.645	518.62
404.869	522.62
405.093	542.62
405.317	560.62
405.541	586.62
405.765	524.62
405.988	550.62
406.212	528.62
406.436	534.62
406.66	578.62
406.883	548.62
407.107	576.62
407.331	600.62
407.555	635.62
407.778	669.62
408.002	619.62
408.226	583.62
408.449	570.62
408.673	566.62
408.896	550.62
409.12	619.62
409.344	585.62
409.567	534.62
409.791	548.62
410.014	538.62
410.238	518.62
410.461	543.62
410.685	504.62
410.908	527.62
411.132	560.62
411.355	572.62
411.578	555.62
411.802	528.62
412.025	506.62
412.249	534.62
412.472	559.62
412.695	547.62
412.919	554.62
413.142	540.62
413.365	538.62
413.589	509.62
413.812	506.62
414.035	525.62
414.258	502.62
414.482	483.62
414.705	486.62
414.928	506.62
415.151	506.62
415.374	498.62
415.597	502.62
415.821	495.62
416.044	485.62
416.267	481.62
416.49	491.62
416.713	493.62
416.936	490.62
417.159	501.62
417.382	476.62
417.605	502.62
417.828	488.62
418.051	515.62
418.274	516.62
418.497	488.62
418.72	478.62
418.943	470.62
419.166	523.62
419.389	538.62
419.611	524.62
419.834	514.62
420.057	521.62
420.28	493.62
420.503	505.62
420.726	498.62
420.948	495.62
421.171	511.62
421.394	570.62
421.617	522.62
421.839	482.62
422.062	496.62
422.285	513.62
422.507	546.62
422.73	598.62
422.953	592.62
423.175	541.62
423.398	516.62
423.621	518.62
423.843	537.62
424.066	522.62
424.288	530.62
424.511	555.62
424.733	603.62
424.956	648.62
425.178	623.62
425.401	594.62
425.623	654.62
425.846	538.62
426.068	527.62
426.291	533.62
426.513	519.62
426.735	524.62
426.958	544.62
427.18	602.62
427.402	704.62
427.625	812.62
427.847	687.62
428.069	581.62
428.292	568.62
428.514	525.62
428.736	501.62
428.958	491.62
429.181	494.62
429.403	478.62
429.625	498.62
429.847	522.62
430.069	555.62
430.292	585.62
430.514	501.62
430.736	501.62
430.958	487.62
431.18	470.62
431.402	481.62
431.624	467.62
431.846	457.62
432.068	464.62
432.29	485.62
432.512	483.62
432.734	469.62
432.956	486.62
433.178	488.62
433.4	470.62
433.622	473.62
433.844	485.62
434.066	473.62
434.287	468.62
434.509	470.62
434.731	504.62
434.953	515.62
435.175	512.62
435.397	499.62
435.618	504.62
435.84	541.62
436.062	628.62
436.284	678.62
436.505	599.62
436.727	544.62
436.949	499.62
437.17	491.62
437.392	489.62
437.614	498.62
437.835	498.62
438.057	583.62
438.278	652.62
438.5	660.62
438.721	741.62
438.943	713.62
439.165	563.62
439.386	516.62
439.608	528.62
439.829	487.62
440.05	520.62
440.272	548.62
440.493	558.62
440.715	505.62
440.936	508.62
441.158	493.62
441.379	508.62
441.6	512.62
441.822	523.62
442.043	564.62
442.264	635.62
442.486	644.62
442.707	576.62
442.928	542.62
443.149	542.62
443.371	535.62
443.592	583.62
443.813	632.62
444.034	694.62
444.255	602.62
444.476	559.62
444.698	541.62
444.919	550.62
445.14	666.62
445.361	587.62
445.582	574.62
445.803	603.62
446.024	685.62
446.245	685.62
446.466	631.62
446.687	562.62
446.908	507.62
447.129	475.62
447.35	498.62
447.571	467.62
447.792	471.62
448.013	494.62
448.234	479.62
448.455	544.62
448.675	616.62
448.896	750.62
449.117	610.62
449.338	593.62
449.559	653.62
449.779	782.62
450	624.62
450.221	535.62
450.442	469.62
450.662	466.62
450.883	482.62
451.104	468.62
451.324	472.62
451.545	457.62
451.766	458.62
451.986	442.62
452.207	429.62
452.428	443.62
452.648	437.62
452.869	436.62
453.089	445.62
453.31	476.62
453.53	430.62
453.751	449.62
453.971	449.62
454.192	451.62
454.412	455.62
454.633	449.62
454.853	447.62
455.073	438.62
455.294	465.62
455.514	522.62
455.734	508.62
455.955	445.62
456.175	423.62
456.395	410.62
456.616	420.62
456.836	412.62
457.056	414.62
457.276	414.62
457.497	442.62
457.717	421.62
457.937	430.62
458.157	438.62
458.377	426.62
458.598	424.62
458.818	471.62
459.038	548.62
459.258	576.62
459.478	510.62
459.698	477.62
459.918	483.62
460.138	494.62
460.358	499.62
460.578	518.62
460.798	504.62
461.018	495.62
461.238	512.62
461.458	528.62
461.678	487.62
461.898	514.62
462.118	504.62
462.338	505.62
462.558	525.62
462.777	544.62
462.997	542.62
463.217	556.62
463.437	557.62
463.657	535.62
463.876	527.62
464.096	530.62
464.316	534.62
464.536	537.62
464.755	532.62
464.975	542.62
465.195	563.62
465.414	569.62
465.634	527.62
465.854	501.62
466.073	504.62
466.293	458.62
466.512	494.62
466.732	474.62
466.951	482.62
467.171	464.62
467.391	474.62
467.61	464.62
467.829	488.62
468.049	466.62
468.268	469.62
468.488	458.62
468.707	468.62
468.927	469.62
469.146	458.62
469.365	458.62
469.585	463.62
469.804	443.62
470.023	447.62
470.243	482.62
470.462	459.62
470.681	476.62
470.901	469.62
471.12	459.62
471.339	478.62
471.558	455.62
471.777	441.62
471.997	503.62
472.216	482.62
472.435	491.62
472.654	487.62
472.873	468.62
473.092	455.62
473.311	475.62
473.53	479.62
473.749	471.62
473.968	495.62
474.187	544.62
474.406	587.62
474.625	512.62
474.844	475.62
475.063	473.62
475.282	472.62
475.501	480.62
475.72	486.62
475.939	465.62
476.158	481.62
476.377	469.62
476.596	494.62
476.814	479.62
477.033	499.62
477.252	507.62
477.471	508.62
477.69	514.62
477.908	515.62
478.127	506.62
478.346	511.62
478.564	530.62
478.783	539.62
479.002	542.62
479.22	542.62
479.439	558.62
479.658	549.62
479.876	571.62
480.095	558.62
480.313	602.62
480.532	575.62
480.751	585.62
480.969	590.62
481.188	608.62
481.406	618.62
481.624	572.62
481.843	534.62
482.061	552.62
482.28	548.62
482.498	550.62
482.717	553.62
482.935	560.62
483.153	552.62
483.372	577.62
483.59	555.62
483.808	550.62
484.027	540.62
484.245	549.62
484.463	547.62
484.681	558.62
484.9	566.62
485.118	587.62
485.336	582.62
485.554	578.62
485.772	569.62
485.99	576.62
486.209	576.62
486.427	567.62
486.645	565.62
486.863	587.62
487.081	579.62
487.299	580.62
487.517	568.62
487.735	591.62
487.953	572.62
488.171	590.62
488.389	590.62
488.607	582.62
488.825	598.62
489.043	574.62
489.261	586.62
489.479	596.62
489.696	597.62
489.914	589.62
490.132	606.62
490.35	610.62
490.568	631.62
490.786	619.62
491.003	602.62
491.221	626.62
491.439	638.62
491.657	622.62
491.874	655.62
492.092	645.62
492.31	615.62
492.527	633.62
492.745	644.62
492.963	628.62
493.18	656.62
493.398	651.62
493.615	658.62
493.833	673.62
494.05	665.62
494.268	655.62
494.485	658.62
494.703	684.62
494.92	642.62
495.138	670.62
495.355	663.62
495.573	640.62
495.79	653.62
496.008	685.62
496.225	661.62
496.442	677.62
496.66	695.62
496.877	678.62
497.094	720.62
497.312	699.62
497.529	702.62
497.746	720.62
497.963	728.62
498.181	746.62
498.398	771.62
498.615	782.62
498.832	794.62
499.049	802.62
499.267	821.62
499.484	868.62
499.701	892.62
499.918	934.62
500.135	995.62
500.352	1010.62
500.569	1029.62
500.786	1045.62
501.003	1031.62
501.22	965.62
501.437	965.62
501.654	918.62
501.871	907.62
