Data from 1978.PennyLincolnUp.Lamp.En5.5.200Scan.071719.P1_HRD10591_16-12-15-865.txt Node
Date: Thu Jul 18 16:12:15 EDT 2019
User: cochatt
Spectrometer: HR+D1059
Trigger mode: 1
Integration Time (sec): 1.000000E-1
Scans to average: 1
Electric dark correction enabled: true
Nonlinearity correction enabled: false
Boxcar width: 0
XAxis mode: Wavelengths
Number of Pixels in Spectrum: 2048
>>>>>Begin Spectral Data<<<<<
223.165	-6.69
223.4	-6.69
223.635	-6.69
223.869	-14.69
224.104	-17.69
224.338	-11.69
224.573	-29.69
224.808	-18.69
225.042	-5.69
225.277	-0.69
225.511	-12.69
225.746	4.31
225.98	7.31
226.215	14.31
226.449	14.31
226.683	20.31
226.918	30.31
227.152	27.31
227.387	27.31
227.621	31.31
227.856	56.31
228.09	37.31
228.324	34.31
228.559	50.31
228.793	61.31
229.027	91.31
229.262	109.31
229.496	112.31
229.73	128.31
229.964	137.31
230.199	113.31
230.433	119.31
230.667	101.31
230.901	111.31
231.136	109.31
231.37	116.31
231.604	107.31
231.838	106.31
232.072	115.31
232.306	114.31
232.541	87.31
232.775	101.31
233.009	100.31
233.243	101.31
233.477	115.31
233.711	107.31
233.945	107.31
234.179	122.31
234.413	103.31
234.647	110.31
234.881	120.31
235.115	101.31
235.349	124.31
235.583	109.31
235.817	109.31
236.051	116.31
236.285	120.31
236.519	123.31
236.753	116.31
236.987	139.31
237.221	150.31
237.455	193.31
237.689	164.31
237.922	150.31
238.156	126.31
238.39	119.31
238.624	115.31
238.858	127.31
239.091	115.31
239.325	126.31
239.559	109.31
239.793	130.31
240.027	125.31
240.26	125.31
240.494	148.31
240.728	152.31
240.961	131.31
241.195	138.31
241.429	133.31
241.662	116.31
241.896	123.31
242.13	121.31
242.363	124.31
242.597	125.31
242.83	114.31
243.064	142.31
243.298	128.31
243.531	127.31
243.765	122.31
243.998	131.31
244.232	123.31
244.465	130.31
244.699	135.31
244.932	134.31
245.166	136.31
245.399	135.31
245.633	142.31
245.866	154.31
246.099	145.31
246.333	136.31
246.566	130.31
246.8	145.31
247.033	150.31
247.266	152.31
247.5	145.31
247.733	150.31
247.966	152.31
248.2	166.31
248.433	149.31
248.666	172.31
248.899	168.31
249.133	171.31
249.366	192.31
249.599	198.31
249.832	178.31
250.066	175.31
250.299	159.31
250.532	163.31
250.765	180.31
250.998	186.31
251.231	200.31
251.465	199.31
251.698	158.31
251.931	185.31
252.164	189.31
252.397	182.31
252.63	199.31
252.863	184.31
253.096	187.31
253.329	207.31
253.562	181.31
253.795	188.31
254.028	201.31
254.261	192.31
254.494	200.31
254.727	206.31
254.96	246.31
255.193	229.31
255.426	211.31
255.659	196.31
255.892	212.31
256.124	192.31
256.357	194.31
256.59	204.31
256.823	192.31
257.056	195.31
257.289	185.31
257.521	198.31
257.754	191.31
257.987	171.31
258.22	188.31
258.452	177.31
258.685	184.31
258.918	196.31
259.151	191.31
259.383	188.31
259.616	194.31
259.849	217.31
260.081	193.31
260.314	214.31
260.547	230.31
260.779	215.31
261.012	219.31
261.244	217.31
261.477	208.31
261.71	210.31
261.942	202.31
262.175	195.31
262.407	214.31
262.64	191.31
262.872	192.31
263.105	207.31
263.337	176.31
263.57	186.31
263.802	186.31
264.035	188.31
264.267	197.31
264.499	188.31
264.732	203.31
264.964	218.31
265.197	199.31
265.429	204.31
265.661	192.31
265.894	194.31
266.126	202.31
266.358	187.31
266.591	204.31
266.823	210.31
267.055	204.31
267.287	208.31
267.52	217.31
267.752	213.31
267.984	210.31
268.216	227.31
268.448	211.31
268.681	220.31
268.913	230.31
269.145	229.31
269.377	239.31
269.609	239.31
269.841	223.31
270.073	262.31
270.306	261.31
270.538	270.31
270.77	255.31
271.002	258.31
271.234	266.31
271.466	259.31
271.698	252.31
271.93	239.31
272.162	263.31
272.394	267.31
272.626	248.31
272.858	268.31
273.09	246.31
273.322	244.31
273.553	245.31
273.785	235.31
274.017	232.31
274.249	246.31
274.481	242.31
274.713	258.31
274.945	252.31
275.176	252.31
275.408	250.31
275.64	226.31
275.872	216.31
276.104	233.31
276.335	238.31
276.567	242.31
276.799	292.31
277.031	283.31
277.262	274.31
277.494	276.31
277.726	287.31
277.957	262.31
278.189	276.31
278.421	236.31
278.652	237.31
278.884	265.31
279.115	227.31
279.347	226.31
279.579	246.31
279.81	262.31
280.042	250.31
280.273	271.31
280.505	260.31
280.736	231.31
280.968	258.31
281.199	264.31
281.431	246.31
281.662	236.31
281.894	260.31
282.125	267.31
282.356	273.31
282.588	276.31
282.819	284.31
283.051	247.31
283.282	252.31
283.513	261.31
283.745	260.31
283.976	262.31
284.207	261.31
284.439	255.31
284.67	274.31
284.901	278.31
285.132	266.31
285.364	247.31
285.595	258.31
285.826	247.31
286.057	270.31
286.288	271.31
286.52	268.31
286.751	268.31
286.982	258.31
287.213	272.31
287.444	283.31
287.675	262.31
287.906	270.31
288.138	282.31
288.369	278.31
288.6	298.31
288.831	293.31
289.062	277.31
289.293	270.31
289.524	290.31
289.755	255.31
289.986	258.31
290.217	267.31
290.448	266.31
290.679	279.31
290.91	280.31
291.141	287.31
291.371	282.31
291.602	284.31
291.833	277.31
292.064	273.31
292.295	260.31
292.526	296.31
292.757	268.31
292.987	267.31
293.218	262.31
293.449	282.31
293.68	294.31
293.91	270.31
294.141	264.31
294.372	272.31
294.603	269.31
294.833	271.31
295.064	275.31
295.295	276.31
295.525	285.31
295.756	282.31
295.987	288.31
296.217	310.31
296.448	301.31
296.679	308.31
296.909	303.31
297.14	271.31
297.37	297.31
297.601	290.31
297.831	286.31
298.062	308.31
298.292	289.31
298.523	291.31
298.753	300.31
298.984	285.31
299.214	296.31
299.445	283.31
299.675	302.31
299.905	290.31
300.136	281.31
300.366	295.31
300.597	303.31
300.827	302.31
301.057	304.31
301.288	293.31
301.518	313.31
301.748	301.31
301.979	310.31
302.209	308.31
302.439	302.31
302.669	310.31
302.9	316.31
303.13	298.31
303.36	313.31
303.59	312.31
303.82	315.31
304.051	310.31
304.281	319.31
304.511	316.31
304.741	324.31
304.971	322.31
305.201	311.31
305.431	303.31
305.661	305.31
305.891	309.31
306.121	325.31
306.352	320.31
306.582	320.31
306.812	341.31
307.042	308.31
307.272	320.31
307.502	307.31
307.731	301.31
307.961	311.31
308.191	328.31
308.421	311.31
308.651	315.31
308.881	326.31
309.111	328.31
309.341	327.31
309.571	330.31
309.8	335.31
310.03	314.31
310.26	352.31
310.49	361.31
310.72	348.31
310.949	371.31
311.179	364.31
311.409	347.31
311.639	348.31
311.868	338.31
312.098	346.31
312.328	355.31
312.557	360.31
312.787	372.31
313.017	374.31
313.246	357.31
313.476	364.31
313.706	358.31
313.935	371.31
314.165	378.31
314.394	363.31
314.624	343.31
314.853	348.31
315.083	343.31
315.312	347.31
315.542	354.31
315.771	336.31
316.001	346.31
316.23	348.31
316.46	348.31
316.689	350.31
316.919	359.31
317.148	363.31
317.377	366.31
317.607	370.31
317.836	349.31
318.065	364.31
318.295	381.31
318.524	374.31
318.753	349.31
318.983	369.31
319.212	348.31
319.441	358.31
319.67	367.31
319.9	363.31
320.129	343.31
320.358	343.31
320.587	385.31
320.816	362.31
321.046	382.31
321.275	370.31
321.504	378.31
321.733	391.31
321.962	377.31
322.191	376.31
322.42	392.31
322.649	392.31
322.878	407.31
323.108	397.31
323.337	443.31
323.566	440.31
323.795	488.31
324.024	490.31
324.253	584.31
324.482	812.31
324.71	1286.31
324.939	1928.31
325.168	1669.31
325.397	847.31
325.626	570.31
325.855	516.31
326.084	483.31
326.313	428.31
326.542	448.31
326.77	480.31
326.999	568.31
327.228	734.31
327.457	1165.31
327.686	1455.31
327.914	972.31
328.143	635.31
328.372	558.31
328.6	513.31
328.829	501.31
329.058	491.31
329.287	490.31
329.515	473.31
329.744	446.31
329.972	445.31
330.201	455.31
330.43	508.31
330.658	514.31
330.887	552.31
331.115	516.31
331.344	482.31
331.572	448.31
331.801	449.31
332.03	459.31
332.258	449.31
332.486	408.31
332.715	431.31
332.943	409.31
333.172	428.31
333.4	423.31
333.629	443.31
333.857	442.31
334.085	451.31
334.314	478.31
334.542	480.31
334.771	500.31
334.999	490.31
335.227	436.31
335.455	447.31
335.684	431.31
335.912	422.31
336.14	434.31
336.369	408.31
336.597	444.31
336.825	425.31
337.053	431.31
337.281	425.31
337.51	422.31
337.738	415.31
337.966	416.31
338.194	430.31
338.422	426.31
338.65	419.31
338.878	412.31
339.106	410.31
339.334	415.31
339.562	413.31
339.79	409.31
340.018	393.31
340.246	398.31
340.474	423.31
340.702	431.31
340.93	407.31
341.158	412.31
341.386	431.31
341.614	427.31
341.842	420.31
342.07	432.31
342.298	403.31
342.526	408.31
342.754	399.31
342.981	402.31
343.209	381.31
343.437	406.31
343.665	424.31
343.893	431.31
344.12	431.31
344.348	425.31
344.576	426.31
344.804	437.31
345.031	418.31
345.259	450.31
345.487	448.31
345.714	418.31
345.942	402.31
346.17	404.31
346.397	393.31
346.625	401.31
346.853	400.31
347.08	367.31
347.308	400.31
347.535	422.31
347.763	404.31
347.99	394.31
348.218	411.31
348.445	413.31
348.673	394.31
348.9	406.31
349.128	407.31
349.355	383.31
349.583	393.31
349.81	390.31
350.037	394.31
350.265	388.31
350.492	378.31
350.72	408.31
350.947	408.31
351.174	415.31
351.402	420.31
351.629	404.31
351.856	403.31
352.083	399.31
352.311	395.31
352.538	424.31
352.765	412.31
352.992	436.31
353.22	414.31
353.447	413.31
353.674	391.31
353.901	395.31
354.128	399.31
354.355	374.31
354.583	395.31
354.81	384.31
355.037	392.31
355.264	381.31
355.491	384.31
355.718	369.31
355.945	387.31
356.172	374.31
356.399	390.31
356.626	386.31
356.853	386.31
357.08	398.31
357.307	401.31
357.534	384.31
357.761	387.31
357.988	383.31
358.215	374.31
358.441	379.31
358.668	380.31
358.895	395.31
359.122	393.31
359.349	402.31
359.576	389.31
359.802	431.31
360.029	438.31
360.256	436.31
360.483	411.31
360.709	428.31
360.936	413.31
361.163	421.31
361.39	427.31
361.616	412.31
361.843	410.31
362.07	411.31
362.296	420.31
362.523	390.31
362.749	406.31
362.976	398.31
363.203	389.31
363.429	393.31
363.656	392.31
363.882	396.31
364.109	386.31
364.335	406.31
364.562	392.31
364.788	390.31
365.015	394.31
365.241	389.31
365.468	413.31
365.694	386.31
365.92	405.31
366.147	391.31
366.373	398.31
366.599	403.31
366.826	394.31
367.052	403.31
367.278	420.31
367.505	401.31
367.731	399.31
367.957	404.31
368.184	387.31
368.41	400.31
368.636	414.31
368.862	420.31
369.089	406.31
369.315	405.31
369.541	426.31
369.767	417.31
369.993	397.31
370.219	382.31
370.445	387.31
370.672	404.31
370.898	403.31
371.124	392.31
371.35	382.31
371.576	409.31
371.802	398.31
372.028	406.31
372.254	408.31
372.48	411.31
372.706	420.31
372.932	398.31
373.158	398.31
373.384	407.31
373.61	434.31
373.835	403.31
374.061	412.31
374.287	423.31
374.513	397.31
374.739	427.31
374.965	417.31
375.191	420.31
375.416	419.31
375.642	411.31
375.868	400.31
376.094	411.31
376.319	384.31
376.545	393.31
376.771	412.31
376.997	403.31
377.222	387.31
377.448	404.31
377.674	408.31
377.899	411.31
378.125	385.31
378.35	380.31
378.576	402.31
378.802	401.31
379.027	425.31
379.253	406.31
379.478	419.31
379.704	388.31
379.929	409.31
380.155	412.31
380.38	409.31
380.606	412.31
380.831	391.31
381.057	416.31
381.282	422.31
381.507	401.31
381.733	412.31
381.958	420.31
382.184	414.31
382.409	414.31
382.634	428.31
382.86	432.31
383.085	419.31
383.31	401.31
383.535	418.31
383.761	431.31
383.986	433.31
384.211	444.31
384.436	444.31
384.662	432.31
384.887	427.31
385.112	451.31
385.337	443.31
385.562	455.31
385.787	434.31
386.013	460.31
386.238	453.31
386.463	458.31
386.688	428.31
386.913	467.31
387.138	445.31
387.363	447.31
387.588	453.31
387.813	447.31
388.038	442.31
388.263	469.31
388.488	448.31
388.713	453.31
388.938	456.31
389.163	454.31
389.387	457.31
389.612	429.31
389.837	443.31
390.062	460.31
390.287	444.31
390.512	446.31
390.736	467.31
390.961	456.31
391.186	456.31
391.411	463.31
391.636	473.31
391.86	485.31
392.085	478.31
392.31	459.31
392.534	479.31
392.759	478.31
392.984	456.31
393.208	434.31
393.433	478.31
393.658	479.31
393.882	469.31
394.107	485.31
394.331	454.31
394.556	470.31
394.78	461.31
395.005	479.31
395.229	469.31
395.454	486.31
395.678	490.31
395.903	469.31
396.127	508.31
396.352	524.31
396.576	495.31
396.801	494.31
397.025	484.31
397.249	456.31
397.474	479.31
397.698	471.31
397.922	517.31
398.147	517.31
398.371	513.31
398.595	541.31
398.82	535.31
399.044	536.31
399.268	542.31
399.492	559.31
399.717	603.31
399.941	630.31
400.165	631.31
400.389	677.31
400.613	601.31
400.837	554.31
401.062	565.31
401.286	537.31
401.51	538.31
401.734	501.31
401.958	542.31
402.182	552.31
402.406	574.31
402.63	537.31
402.854	534.31
403.078	532.31
403.302	535.31
403.526	545.31
403.75	572.31
403.974	523.31
404.198	534.31
404.422	549.31
404.645	546.31
404.869	561.31
405.093	559.31
405.317	606.31
405.541	670.31
405.765	590.31
405.988	590.31
406.212	587.31
406.436	601.31
406.66	607.31
406.883	592.31
407.107	602.31
407.331	640.31
407.555	726.31
407.778	729.31
408.002	662.31
408.226	637.31
408.449	618.31
408.673	604.31
408.896	621.31
409.12	669.31
409.344	627.31
409.567	588.31
409.791	559.31
410.014	567.31
410.238	553.31
410.461	564.31
410.685	573.31
410.908	584.31
411.132	620.31
411.355	635.31
411.578	629.31
411.802	582.31
412.025	537.31
412.249	565.31
412.472	591.31
412.695	626.31
412.919	592.31
413.142	529.31
413.365	547.31
413.589	552.31
413.812	541.31
414.035	538.31
414.258	543.31
414.482	509.31
414.705	522.31
414.928	531.31
415.151	532.31
415.374	521.31
415.597	528.31
415.821	523.31
416.044	514.31
416.267	536.31
416.49	516.31
416.713	517.31
416.936	523.31
417.159	534.31
417.382	516.31
417.605	540.31
417.828	511.31
418.051	540.31
418.274	549.31
418.497	514.31
418.72	504.31
418.943	503.31
419.166	517.31
419.389	566.31
419.611	554.31
419.834	573.31
420.057	551.31
420.28	544.31
420.503	519.31
420.726	504.31
420.948	532.31
421.171	595.31
421.394	628.31
421.617	570.31
421.839	538.31
422.062	533.31
422.285	556.31
422.507	605.31
422.73	672.31
422.953	638.31
423.175	597.31
423.398	551.31
423.621	561.31
423.843	583.31
424.066	578.31
424.288	567.31
424.511	564.31
424.733	628.31
424.956	720.31
425.178	664.31
425.401	678.31
425.623	712.31
425.846	607.31
426.068	579.31
426.291	591.31
426.513	581.31
426.735	579.31
426.958	592.31
427.18	670.31
427.402	824.31
427.625	910.31
427.847	774.31
428.069	684.31
428.292	630.31
428.514	569.31
428.736	529.31
428.958	548.31
429.181	520.31
429.403	525.31
429.625	529.31
429.847	567.31
430.069	631.31
430.292	609.31
430.514	540.31
430.736	504.31
430.958	531.31
431.18	529.31
431.402	510.31
431.624	502.31
431.846	504.31
432.068	496.31
432.29	522.31
432.512	514.31
432.734	531.31
432.956	516.31
433.178	512.31
433.4	524.31
433.622	508.31
433.844	526.31
434.066	502.31
434.287	534.31
434.509	513.31
434.731	533.31
434.953	526.31
435.175	539.31
435.397	557.31
435.618	554.31
435.84	597.31
436.062	694.31
436.284	740.31
436.505	653.31
436.727	595.31
436.949	536.31
437.17	536.31
437.392	524.31
437.614	550.31
437.835	561.31
438.057	642.31
438.278	748.31
438.5	766.31
438.721	830.31
438.943	800.31
439.165	652.31
439.386	586.31
439.608	563.31
439.829	584.31
440.05	588.31
440.272	650.31
440.493	603.31
440.715	549.31
440.936	532.31
441.158	538.31
441.379	527.31
441.6	537.31
441.822	550.31
442.043	603.31
442.264	701.31
442.486	724.31
442.707	628.31
442.928	581.31
443.149	561.31
443.371	612.31
443.592	648.31
443.813	751.31
444.034	807.31
444.255	690.31
444.476	594.31
444.698	597.31
444.919	574.31
445.14	670.31
445.361	618.31
445.582	626.31
445.803	636.31
446.024	774.31
446.245	781.31
446.466	709.31
446.687	606.31
446.908	564.31
447.129	545.31
447.35	522.31
447.571	531.31
447.792	518.31
448.013	530.31
448.234	523.31
448.455	573.31
448.675	690.31
448.896	807.31
449.117	682.31
449.338	600.31
449.559	806.31
449.779	891.31
450	660.31
450.221	578.31
450.442	532.31
450.662	503.31
450.883	515.31
451.104	539.31
451.324	496.31
451.545	491.31
451.766	491.31
451.986	478.31
452.207	469.31
452.428	503.31
452.648	478.31
452.869	468.31
453.089	462.31
453.31	492.31
453.53	477.31
453.751	459.31
453.971	454.31
454.192	464.31
454.412	472.31
454.633	466.31
454.853	472.31
455.073	459.31
455.294	512.31
455.514	543.31
455.734	539.31
455.955	468.31
456.175	462.31
456.395	452.31
456.616	464.31
456.836	454.31
457.056	460.31
457.276	449.31
457.497	451.31
457.717	450.31
457.937	455.31
458.157	478.31
458.377	471.31
458.598	477.31
458.818	519.31
459.038	609.31
459.258	631.31
459.478	546.31
459.698	534.31
459.918	517.31
460.138	512.31
460.358	528.31
460.578	508.31
460.798	529.31
461.018	550.31
461.238	539.31
461.458	514.31
461.678	524.31
461.898	524.31
462.118	520.31
462.338	570.31
462.558	568.31
462.777	538.31
462.997	564.31
463.217	601.31
463.437	576.31
463.657	583.31
463.876	596.31
464.096	575.31
464.316	554.31
464.536	576.31
464.755	590.31
464.975	571.31
465.195	582.31
465.414	635.31
465.634	584.31
465.854	555.31
466.073	539.31
466.293	531.31
466.512	518.31
466.732	505.31
466.951	521.31
467.171	482.31
467.391	499.31
467.61	518.31
467.829	498.31
468.049	494.31
468.268	486.31
468.488	487.31
468.707	480.31
468.927	472.31
469.146	465.31
469.365	501.31
469.585	490.31
469.804	494.31
470.023	494.31
470.243	495.31
470.462	488.31
470.681	521.31
470.901	518.31
471.12	520.31
471.339	502.31
471.558	503.31
471.777	500.31
471.997	493.31
472.216	496.31
472.435	516.31
472.654	522.31
472.873	479.31
473.092	488.31
473.311	498.31
473.53	500.31
473.749	499.31
473.968	538.31
474.187	637.31
474.406	667.31
474.625	546.31
474.844	537.31
475.063	525.31
475.282	518.31
475.501	500.31
475.72	518.31
475.939	502.31
476.158	489.31
476.377	514.31
476.596	520.31
476.814	506.31
477.033	534.31
477.252	532.31
477.471	550.31
477.69	543.31
477.908	563.31
478.127	565.31
478.346	558.31
478.564	570.31
478.783	566.31
479.002	560.31
479.22	595.31
479.439	572.31
479.658	601.31
479.876	598.31
480.095	621.31
480.313	651.31
480.532	611.31
480.751	600.31
480.969	626.31
481.188	662.31
481.406	700.31
481.624	637.31
481.843	610.31
482.061	608.31
482.28	608.31
482.498	604.31
482.717	622.31
482.935	578.31
483.153	566.31
483.372	581.31
483.59	596.31
483.808	590.31
484.027	565.31
484.245	587.31
484.463	584.31
484.681	584.31
484.9	588.31
485.118	605.31
485.336	594.31
485.554	604.31
485.772	608.31
485.99	600.31
486.209	599.31
486.427	610.31
486.645	626.31
486.863	637.31
487.081	634.31
487.299	635.31
487.517	632.31
487.735	618.31
487.953	623.31
488.171	629.31
488.389	611.31
488.607	646.31
488.825	616.31
489.043	619.31
489.261	638.31
489.479	636.31
489.696	649.31
489.914	642.31
490.132	620.31
490.35	648.31
490.568	669.31
490.786	692.31
491.003	675.31
491.221	668.31
491.439	669.31
491.657	698.31
491.874	710.31
492.092	703.31
492.31	709.31
492.527	679.31
492.745	706.31
492.963	698.31
493.18	724.31
493.398	691.31
493.615	712.31
493.833	685.31
494.05	712.31
494.268	698.31
494.485	704.31
494.703	712.31
494.92	699.31
495.138	700.31
495.355	708.31
495.573	713.31
495.79	713.31
496.008	727.31
496.225	714.31
496.442	739.31
496.66	746.31
496.877	723.31
497.094	757.31
497.312	748.31
497.529	767.31
497.746	779.31
497.963	800.31
498.181	799.31
498.398	826.31
498.615	845.31
498.832	847.31
499.049	861.31
499.267	907.31
499.484	918.31
499.701	923.31
499.918	992.31
500.135	1007.31
500.352	1104.31
500.569	1063.31
500.786	1075.31
501.003	1057.31
501.22	1052.31
501.437	989.31
501.654	977.31
501.871	934.31
