Data from 1978.PennyLincolnUp.Lamp.En5.5.200Scan.071719.P1_HRD10591_16-13-43-864.txt Node
Date: Thu Jul 18 16:13:43 EDT 2019
User: cochatt
Spectrometer: HR+D1059
Trigger mode: 1
Integration Time (sec): 1.000000E-1
Scans to average: 1
Electric dark correction enabled: true
Nonlinearity correction enabled: false
Boxcar width: 0
XAxis mode: Wavelengths
Number of Pixels in Spectrum: 2048
>>>>>Begin Spectral Data<<<<<
223.165	-5.19
223.4	-5.19
223.635	-5.19
223.869	-16.19
224.104	-31.19
224.338	-6.19
224.573	-26.19
224.808	-13.19
225.042	-1.19
225.277	-4.19
225.511	-1.19
225.746	1.81
225.98	5.81
226.215	14.81
226.449	19.81
226.683	9.81
226.918	22.81
227.152	29.81
227.387	23.81
227.621	17.81
227.856	15.81
228.09	34.81
228.324	60.81
228.559	48.81
228.793	69.81
229.027	90.81
229.262	102.81
229.496	105.81
229.73	119.81
229.964	144.81
230.199	120.81
230.433	104.81
230.667	117.81
230.901	102.81
231.136	116.81
231.37	111.81
231.604	109.81
231.838	109.81
232.072	121.81
232.306	110.81
232.541	120.81
232.775	115.81
233.009	98.81
233.243	99.81
233.477	102.81
233.711	109.81
233.945	111.81
234.179	100.81
234.413	114.81
234.647	105.81
234.881	114.81
235.115	125.81
235.349	117.81
235.583	121.81
235.817	125.81
236.051	118.81
236.285	113.81
236.519	114.81
236.753	134.81
236.987	139.81
237.221	170.81
237.455	229.81
237.689	175.81
237.922	142.81
238.156	134.81
238.39	128.81
238.624	115.81
238.858	119.81
239.091	122.81
239.325	115.81
239.559	121.81
239.793	119.81
240.027	131.81
240.26	129.81
240.494	149.81
240.728	131.81
240.961	136.81
241.195	137.81
241.429	132.81
241.662	130.81
241.896	124.81
242.13	121.81
242.363	116.81
242.597	122.81
242.83	128.81
243.064	127.81
243.298	129.81
243.531	134.81
243.765	160.81
243.998	141.81
244.232	124.81
244.465	142.81
244.699	146.81
244.932	124.81
245.166	125.81
245.399	133.81
245.633	123.81
245.866	123.81
246.099	128.81
246.333	155.81
246.566	155.81
246.8	135.81
247.033	137.81
247.266	127.81
247.5	157.81
247.733	148.81
247.966	143.81
248.2	170.81
248.433	154.81
248.666	163.81
248.899	179.81
249.133	186.81
249.366	193.81
249.599	177.81
249.832	162.81
250.066	169.81
250.299	187.81
250.532	167.81
250.765	181.81
250.998	188.81
251.231	205.81
251.465	189.81
251.698	169.81
251.931	189.81
252.164	155.81
252.397	189.81
252.63	188.81
252.863	195.81
253.096	207.81
253.329	195.81
253.562	201.81
253.795	182.81
254.028	221.81
254.261	209.81
254.494	203.81
254.727	246.81
254.96	241.81
255.193	242.81
255.426	218.81
255.659	213.81
255.892	220.81
256.124	222.81
256.357	207.81
256.59	200.81
256.823	212.81
257.056	189.81
257.289	183.81
257.521	198.81
257.754	201.81
257.987	198.81
258.22	183.81
258.452	203.81
258.685	169.81
258.918	182.81
259.151	179.81
259.383	190.81
259.616	212.81
259.849	202.81
260.081	205.81
260.314	230.81
260.547	240.81
260.779	219.81
261.012	201.81
261.244	212.81
261.477	216.81
261.71	206.81
261.942	193.81
262.175	212.81
262.407	208.81
262.64	215.81
262.872	195.81
263.105	207.81
263.337	193.81
263.57	205.81
263.802	211.81
264.035	207.81
264.267	195.81
264.499	198.81
264.732	198.81
264.964	188.81
265.197	201.81
265.429	209.81
265.661	201.81
265.894	211.81
266.126	206.81
266.358	210.81
266.591	195.81
266.823	194.81
267.055	206.81
267.287	209.81
267.52	211.81
267.752	201.81
267.984	210.81
268.216	209.81
268.448	213.81
268.681	203.81
268.913	227.81
269.145	241.81
269.377	231.81
269.609	245.81
269.841	241.81
270.073	250.81
270.306	251.81
270.538	265.81
270.77	271.81
271.002	271.81
271.234	274.81
271.466	264.81
271.698	290.81
271.93	290.81
272.162	281.81
272.394	279.81
272.626	257.81
272.858	282.81
273.09	243.81
273.322	263.81
273.553	238.81
273.785	249.81
274.017	230.81
274.249	246.81
274.481	254.81
274.713	233.81
274.945	242.81
275.176	223.81
275.408	240.81
275.64	256.81
275.872	242.81
276.104	240.81
276.335	241.81
276.567	258.81
276.799	267.81
277.031	279.81
277.262	298.81
277.494	286.81
277.726	294.81
277.957	262.81
278.189	258.81
278.421	233.81
278.652	260.81
278.884	265.81
279.115	281.81
279.347	259.81
279.579	263.81
279.81	251.81
280.042	243.81
280.273	258.81
280.505	262.81
280.736	257.81
280.968	249.81
281.199	250.81
281.431	258.81
281.662	262.81
281.894	246.81
282.125	258.81
282.356	258.81
282.588	301.81
282.819	294.81
283.051	274.81
283.282	257.81
283.513	264.81
283.745	282.81
283.976	265.81
284.207	243.81
284.439	259.81
284.67	280.81
284.901	269.81
285.132	269.81
285.364	269.81
285.595	265.81
285.826	261.81
286.057	277.81
286.288	274.81
286.52	261.81
286.751	267.81
286.982	258.81
287.213	256.81
287.444	286.81
287.675	278.81
287.906	271.81
288.138	282.81
288.369	285.81
288.6	285.81
288.831	266.81
289.062	279.81
289.293	280.81
289.524	285.81
289.755	260.81
289.986	280.81
290.217	304.81
290.448	276.81
290.679	286.81
290.91	258.81
291.141	275.81
291.371	273.81
291.602	283.81
291.833	283.81
292.064	287.81
292.295	275.81
292.526	276.81
292.757	277.81
292.987	262.81
293.218	275.81
293.449	263.81
293.68	282.81
293.91	283.81
294.141	266.81
294.372	286.81
294.603	273.81
294.833	288.81
295.064	270.81
295.295	281.81
295.525	273.81
295.756	282.81
295.987	292.81
296.217	322.81
296.448	303.81
296.679	291.81
296.909	290.81
297.14	299.81
297.37	302.81
297.601	288.81
297.831	299.81
298.062	287.81
298.292	281.81
298.523	306.81
298.753	294.81
298.984	296.81
299.214	298.81
299.445	292.81
299.675	305.81
299.905	305.81
300.136	314.81
300.366	292.81
300.597	299.81
300.827	313.81
301.057	318.81
301.288	313.81
301.518	302.81
301.748	320.81
301.979	322.81
302.209	311.81
302.439	316.81
302.669	296.81
302.9	301.81
303.13	321.81
303.36	321.81
303.59	308.81
303.82	318.81
304.051	317.81
304.281	312.81
304.511	313.81
304.741	313.81
304.971	330.81
305.201	319.81
305.431	309.81
305.661	322.81
305.891	324.81
306.121	319.81
306.352	319.81
306.582	323.81
306.812	319.81
307.042	321.81
307.272	308.81
307.502	313.81
307.731	313.81
307.961	330.81
308.191	313.81
308.421	331.81
308.651	317.81
308.881	326.81
309.111	329.81
309.341	323.81
309.571	333.81
309.8	343.81
310.03	352.81
310.26	349.81
310.49	353.81
310.72	358.81
310.949	383.81
311.179	389.81
311.409	387.81
311.639	358.81
311.868	360.81
312.098	357.81
312.328	368.81
312.557	381.81
312.787	371.81
313.017	383.81
313.246	378.81
313.476	371.81
313.706	345.81
313.935	381.81
314.165	389.81
314.394	377.81
314.624	361.81
314.853	372.81
315.083	353.81
315.312	337.81
315.542	371.81
315.771	367.81
316.001	351.81
316.23	376.81
316.46	352.81
316.689	371.81
316.919	381.81
317.148	380.81
317.377	376.81
317.607	384.81
317.836	382.81
318.065	370.81
318.295	357.81
318.524	369.81
318.753	373.81
318.983	343.81
319.212	367.81
319.441	373.81
319.67	379.81
319.9	345.81
320.129	366.81
320.358	367.81
320.587	379.81
320.816	384.81
321.046	389.81
321.275	401.81
321.504	389.81
321.733	377.81
321.962	406.81
322.191	403.81
322.42	436.81
322.649	418.81
322.878	449.81
323.108	431.81
323.337	445.81
323.566	477.81
323.795	513.81
324.024	539.81
324.253	643.81
324.482	959.81
324.71	1515.81
324.939	2297.81
325.168	1948.81
325.397	943.81
325.626	636.81
325.855	529.81
326.084	501.81
326.313	482.81
326.542	485.81
326.77	522.81
326.999	612.81
327.228	890.81
327.457	1353.81
327.686	1711.81
327.914	1101.81
328.143	693.81
328.372	587.81
328.6	565.81
328.829	535.81
329.058	541.81
329.287	538.81
329.515	521.81
329.744	468.81
329.972	493.81
330.201	517.81
330.43	516.81
330.658	569.81
330.887	590.81
331.115	567.81
331.344	491.81
331.572	470.81
331.801	493.81
332.03	465.81
332.258	469.81
332.486	466.81
332.715	453.81
332.943	445.81
333.172	442.81
333.4	472.81
333.629	449.81
333.857	468.81
334.085	461.81
334.314	489.81
334.542	527.81
334.771	535.81
334.999	493.81
335.227	465.81
335.455	471.81
335.684	445.81
335.912	456.81
336.14	437.81
336.369	422.81
336.597	427.81
336.825	442.81
337.053	448.81
337.281	421.81
337.51	435.81
337.738	455.81
337.966	447.81
338.194	432.81
338.422	424.81
338.65	444.81
338.878	426.81
339.106	411.81
339.334	436.81
339.562	401.81
339.79	408.81
340.018	448.81
340.246	433.81
340.474	422.81
340.702	426.81
340.93	422.81
341.158	432.81
341.386	437.81
341.614	432.81
341.842	415.81
342.07	442.81
342.298	427.81
342.526	421.81
342.754	411.81
342.981	409.81
343.209	408.81
343.437	408.81
343.665	410.81
343.893	434.81
344.12	450.81
344.348	449.81
344.576	443.81
344.804	434.81
345.031	431.81
345.259	432.81
345.487	444.81
345.714	435.81
345.942	432.81
346.17	415.81
346.397	417.81
346.625	408.81
346.853	427.81
347.08	417.81
347.308	400.81
347.535	413.81
347.763	435.81
347.99	407.81
348.218	433.81
348.445	454.81
348.673	411.81
348.9	433.81
349.128	407.81
349.355	424.81
349.583	422.81
349.81	405.81
350.037	393.81
350.265	401.81
350.492	391.81
350.72	403.81
350.947	392.81
351.174	405.81
351.402	425.81
351.629	440.81
351.856	446.81
352.083	436.81
352.311	423.81
352.538	444.81
352.765	427.81
352.992	427.81
353.22	417.81
353.447	417.81
353.674	425.81
353.901	400.81
354.128	419.81
354.355	391.81
354.583	405.81
354.81	396.81
355.037	386.81
355.264	402.81
355.491	391.81
355.718	394.81
355.945	384.81
356.172	380.81
356.399	395.81
356.626	386.81
356.853	374.81
357.08	396.81
357.307	387.81
357.534	385.81
357.761	375.81
357.988	397.81
358.215	401.81
358.441	386.81
358.668	389.81
358.895	382.81
359.122	361.81
359.349	395.81
359.576	393.81
359.802	438.81
360.029	456.81
360.256	467.81
360.483	437.81
360.709	429.81
360.936	411.81
361.163	393.81
361.39	404.81
361.616	401.81
361.843	412.81
362.07	424.81
362.296	431.81
362.523	417.81
362.749	425.81
362.976	408.81
363.203	413.81
363.429	418.81
363.656	419.81
363.882	392.81
364.109	403.81
364.335	406.81
364.562	397.81
364.788	388.81
365.015	398.81
365.241	410.81
365.468	378.81
365.694	421.81
365.92	416.81
366.147	410.81
366.373	381.81
366.599	387.81
366.826	393.81
367.052	394.81
367.278	403.81
367.505	407.81
367.731	416.81
367.957	399.81
368.184	410.81
368.41	430.81
368.636	417.81
368.862	417.81
369.089	408.81
369.315	423.81
369.541	421.81
369.767	415.81
369.993	400.81
370.219	390.81
370.445	406.81
370.672	410.81
370.898	416.81
371.124	399.81
371.35	397.81
371.576	389.81
371.802	413.81
372.028	408.81
372.254	394.81
372.48	386.81
372.706	408.81
372.932	425.81
373.158	443.81
373.384	429.81
373.61	412.81
373.835	413.81
374.061	408.81
374.287	400.81
374.513	409.81
374.739	419.81
374.965	416.81
375.191	409.81
375.416	417.81
375.642	416.81
375.868	413.81
376.094	415.81
376.319	414.81
376.545	414.81
376.771	415.81
376.997	415.81
377.222	395.81
377.448	393.81
377.674	434.81
377.899	406.81
378.125	407.81
378.35	409.81
378.576	403.81
378.802	418.81
379.027	407.81
379.253	391.81
379.478	407.81
379.704	413.81
379.929	410.81
380.155	396.81
380.38	418.81
380.606	418.81
380.831	395.81
381.057	418.81
381.282	415.81
381.507	423.81
381.733	419.81
381.958	399.81
382.184	437.81
382.409	429.81
382.634	436.81
382.86	431.81
383.085	407.81
383.31	452.81
383.535	419.81
383.761	414.81
383.986	417.81
384.211	463.81
384.436	421.81
384.662	424.81
384.887	429.81
385.112	426.81
385.337	421.81
385.562	464.81
385.787	447.81
386.013	470.81
386.238	457.81
386.463	462.81
386.688	459.81
386.913	460.81
387.138	449.81
387.363	429.81
387.588	452.81
387.813	454.81
388.038	470.81
388.263	478.81
388.488	459.81
388.713	473.81
388.938	464.81
389.163	464.81
389.387	463.81
389.612	461.81
389.837	453.81
390.062	456.81
390.287	448.81
390.512	451.81
390.736	472.81
390.961	476.81
391.186	466.81
391.411	460.81
391.636	479.81
391.86	454.81
392.085	475.81
392.31	476.81
392.534	480.81
392.759	472.81
392.984	469.81
393.208	486.81
393.433	473.81
393.658	488.81
393.882	463.81
394.107	465.81
394.331	473.81
394.556	469.81
394.78	467.81
395.005	468.81
395.229	465.81
395.454	486.81
395.678	497.81
395.903	504.81
396.127	521.81
396.352	511.81
396.576	496.81
396.801	493.81
397.025	514.81
397.249	497.81
397.474	500.81
397.698	502.81
397.922	510.81
398.147	522.81
398.371	534.81
398.595	535.81
398.82	524.81
399.044	537.81
399.268	559.81
399.492	605.81
399.717	615.81
399.941	641.81
400.165	661.81
400.389	657.81
400.613	611.81
400.837	579.81
401.062	558.81
401.286	538.81
401.51	544.81
401.734	553.81
401.958	523.81
402.182	549.81
402.406	559.81
402.63	565.81
402.854	546.81
403.078	566.81
403.302	553.81
403.526	567.81
403.75	561.81
403.974	550.81
404.198	553.81
404.422	551.81
404.645	544.81
404.869	568.81
405.093	591.81
405.317	646.81
405.541	637.81
405.765	632.81
405.988	589.81
406.212	577.81
406.436	627.81
406.66	632.81
406.883	595.81
407.107	614.81
407.331	662.81
407.555	755.81
407.778	738.81
408.002	678.81
408.226	632.81
408.449	623.81
408.673	625.81
408.896	635.81
409.12	681.81
409.344	641.81
409.567	603.81
409.791	574.81
410.014	592.81
410.238	566.81
410.461	569.81
410.685	562.81
410.908	577.81
411.132	617.81
411.355	646.81
411.578	645.81
411.802	593.81
412.025	553.81
412.249	546.81
412.472	612.81
412.695	613.81
412.919	631.81
413.142	582.81
413.365	536.81
413.589	555.81
413.812	532.81
414.035	527.81
414.258	543.81
414.482	523.81
414.705	537.81
414.928	503.81
415.151	505.81
415.374	545.81
415.597	534.81
415.821	521.81
416.044	550.81
416.267	517.81
416.49	553.81
416.713	512.81
416.936	525.81
417.159	498.81
417.382	528.81
417.605	540.81
417.828	552.81
418.051	546.81
418.274	547.81
418.497	503.81
418.72	530.81
418.943	512.81
419.166	540.81
419.389	560.81
419.611	578.81
419.834	537.81
420.057	561.81
420.28	562.81
420.503	541.81
420.726	557.81
420.948	571.81
421.171	596.81
421.394	652.81
421.617	571.81
421.839	577.81
422.062	541.81
422.285	579.81
422.507	634.81
422.73	722.81
422.953	674.81
423.175	602.81
423.398	565.81
423.621	577.81
423.843	591.81
424.066	597.81
424.288	583.81
424.511	606.81
424.733	662.81
424.956	757.81
425.178	727.81
425.401	690.81
425.623	737.81
425.846	642.81
426.068	597.81
426.291	597.81
426.513	575.81
426.735	608.81
426.958	641.81
427.18	721.81
427.402	897.81
427.625	970.81
427.847	820.81
428.069	715.81
428.292	626.81
428.514	591.81
428.736	560.81
428.958	562.81
429.181	547.81
429.403	527.81
429.625	537.81
429.847	579.81
430.069	667.81
430.292	674.81
430.514	571.81
430.736	542.81
430.958	537.81
431.18	506.81
431.402	519.81
431.624	503.81
431.846	518.81
432.068	492.81
432.29	519.81
432.512	517.81
432.734	536.81
432.956	519.81
433.178	539.81
433.4	513.81
433.622	540.81
433.844	508.81
434.066	524.81
434.287	526.81
434.509	534.81
434.731	526.81
434.953	547.81
435.175	544.81
435.397	586.81
435.618	596.81
435.84	637.81
436.062	737.81
436.284	805.81
436.505	673.81
436.727	631.81
436.949	573.81
437.17	544.81
437.392	557.81
437.614	556.81
437.835	593.81
438.057	694.81
438.278	820.81
438.5	817.81
438.721	861.81
438.943	863.81
439.165	659.81
439.386	608.81
439.608	600.81
439.829	579.81
440.05	608.81
440.272	658.81
440.493	660.81
440.715	587.81
440.936	557.81
441.158	545.81
441.379	549.81
441.6	574.81
441.822	561.81
442.043	625.81
442.264	726.81
442.486	769.81
442.707	653.81
442.928	625.81
443.149	628.81
443.371	646.81
443.592	688.81
443.813	791.81
444.034	849.81
444.255	725.81
444.476	637.81
444.698	625.81
444.919	591.81
445.14	695.81
445.361	672.81
445.582	655.81
445.803	728.81
446.024	826.81
446.245	831.81
446.466	754.81
446.687	651.81
446.908	593.81
447.129	571.81
447.35	569.81
447.571	548.81
447.792	542.81
448.013	551.81
448.234	562.81
448.455	634.81
448.675	733.81
448.896	879.81
449.117	743.81
449.338	687.81
449.559	825.81
449.779	935.81
450	729.81
450.221	593.81
450.442	550.81
450.662	547.81
450.883	562.81
451.104	550.81
451.324	535.81
451.545	521.81
451.766	499.81
451.986	514.81
452.207	463.81
452.428	478.81
452.648	496.81
452.869	490.81
453.089	467.81
453.31	505.81
453.53	509.81
453.751	481.81
453.971	473.81
454.192	515.81
454.412	496.81
454.633	465.81
454.853	471.81
455.073	472.81
455.294	523.81
455.514	577.81
455.734	558.81
455.955	485.81
456.175	479.81
456.395	455.81
456.616	458.81
456.836	464.81
457.056	473.81
457.276	461.81
457.497	467.81
457.717	465.81
457.937	464.81
458.157	475.81
458.377	479.81
458.598	517.81
458.818	574.81
459.038	650.81
459.258	659.81
459.478	589.81
459.698	547.81
459.918	534.81
460.138	531.81
460.358	525.81
460.578	523.81
460.798	557.81
461.018	559.81
461.238	543.81
461.458	550.81
461.678	546.81
461.898	545.81
462.118	562.81
462.338	527.81
462.558	542.81
462.777	559.81
462.997	555.81
463.217	569.81
463.437	608.81
463.657	591.81
463.876	587.81
464.096	579.81
464.316	593.81
464.536	581.81
464.755	603.81
464.975	565.81
465.195	619.81
465.414	659.81
465.634	616.81
465.854	575.81
466.073	555.81
466.293	553.81
466.512	511.81
466.732	483.81
466.951	498.81
467.171	513.81
467.391	498.81
467.61	521.81
467.829	524.81
468.049	495.81
468.268	511.81
468.488	516.81
468.707	501.81
468.927	490.81
469.146	480.81
469.365	515.81
469.585	509.81
469.804	496.81
470.023	498.81
470.243	530.81
470.462	514.81
470.681	535.81
470.901	518.81
471.12	512.81
471.339	502.81
471.558	530.81
471.777	530.81
471.997	520.81
472.216	529.81
472.435	540.81
472.654	531.81
472.873	494.81
473.092	497.81
473.311	517.81
473.53	494.81
473.749	503.81
473.968	570.81
474.187	651.81
474.406	711.81
474.625	581.81
474.844	522.81
475.063	514.81
475.282	533.81
475.501	515.81
475.72	537.81
475.939	520.81
476.158	516.81
476.377	544.81
476.596	528.81
476.814	552.81
477.033	542.81
477.252	530.81
477.471	542.81
477.69	528.81
477.908	539.81
478.127	539.81
478.346	551.81
478.564	564.81
478.783	567.81
479.002	578.81
479.22	583.81
479.439	599.81
479.658	621.81
479.876	596.81
480.095	624.81
480.313	629.81
480.532	633.81
480.751	618.81
480.969	637.81
481.188	690.81
481.406	682.81
481.624	656.81
481.843	635.81
482.061	623.81
482.28	605.81
482.498	593.81
482.717	601.81
482.935	599.81
483.153	583.81
483.372	597.81
483.59	594.81
483.808	581.81
484.027	609.81
484.245	603.81
484.463	608.81
484.681	638.81
484.9	588.81
485.118	632.81
485.336	607.81
485.554	608.81
485.772	614.81
485.99	619.81
486.209	605.81
486.427	632.81
486.645	654.81
486.863	657.81
487.081	643.81
487.299	643.81
487.517	633.81
487.735	624.81
487.953	627.81
488.171	633.81
488.389	655.81
488.607	645.81
488.825	643.81
489.043	645.81
489.261	659.81
489.479	628.81
489.696	631.81
489.914	661.81
490.132	667.81
490.35	682.81
490.568	663.81
490.786	669.81
491.003	693.81
491.221	694.81
491.439	701.81
491.657	696.81
491.874	685.81
492.092	703.81
492.31	720.81
492.527	718.81
492.745	749.81
492.963	729.81
493.18	729.81
493.398	714.81
493.615	732.81
493.833	746.81
494.05	710.81
494.268	727.81
494.485	728.81
494.703	752.81
494.92	735.81
495.138	764.81
495.355	757.81
495.573	749.81
495.79	772.81
496.008	735.81
496.225	759.81
496.442	770.81
496.66	745.81
496.877	771.81
497.094	775.81
497.312	779.81
497.529	786.81
497.746	802.81
497.963	830.81
498.181	833.81
498.398	860.81
498.615	892.81
498.832	869.81
499.049	880.81
499.267	886.81
499.484	943.81
499.701	971.81
499.918	1019.81
500.135	1037.81
500.352	1071.81
500.569	1094.81
500.786	1114.81
501.003	1101.81
501.22	1062.81
501.437	1032.81
501.654	989.81
501.871	988.81
