Data from 1978.PennyLincolnUp.Lamp.En5.5.200Scan.071719.P1_HRD10591_16-13-38-864.txt Node
Date: Thu Jul 18 16:13:38 EDT 2019
User: cochatt
Spectrometer: HR+D1059
Trigger mode: 1
Integration Time (sec): 1.000000E-1
Scans to average: 1
Electric dark correction enabled: true
Nonlinearity correction enabled: false
Boxcar width: 0
XAxis mode: Wavelengths
Number of Pixels in Spectrum: 2048
>>>>>Begin Spectral Data<<<<<
223.165	6.94
223.4	6.94
223.635	6.94
223.869	-2.06
224.104	-10.06
224.338	-12.06
224.573	-17.06
224.808	-21.06
225.042	-13.06
225.277	-16.06
225.511	-8.06
225.746	4.94
225.98	11.94
226.215	0.94
226.449	3.94
226.683	22.94
226.918	21.94
227.152	25.94
227.387	35.94
227.621	36.94
227.856	54.94
228.09	57.94
228.324	50.94
228.559	59.94
228.793	69.94
229.027	81.94
229.262	104.94
229.496	123.94
229.73	144.94
229.964	151.94
230.199	127.94
230.433	113.94
230.667	97.94
230.901	105.94
231.136	108.94
231.37	106.94
231.604	118.94
231.838	100.94
232.072	97.94
232.306	105.94
232.541	116.94
232.775	118.94
233.009	125.94
233.243	108.94
233.477	94.94
233.711	121.94
233.945	112.94
234.179	124.94
234.413	122.94
234.647	114.94
234.881	114.94
235.115	120.94
235.349	110.94
235.583	121.94
235.817	123.94
236.051	132.94
236.285	129.94
236.519	131.94
236.753	133.94
236.987	136.94
237.221	186.94
237.455	224.94
237.689	196.94
237.922	136.94
238.156	133.94
238.39	136.94
238.624	131.94
238.858	130.94
239.091	112.94
239.325	119.94
239.559	128.94
239.793	126.94
240.027	124.94
240.26	114.94
240.494	146.94
240.728	144.94
240.961	125.94
241.195	132.94
241.429	127.94
241.662	119.94
241.896	144.94
242.13	129.94
242.363	125.94
242.597	127.94
242.83	122.94
243.064	128.94
243.298	137.94
243.531	136.94
243.765	132.94
243.998	139.94
244.232	127.94
244.465	147.94
244.699	143.94
244.932	141.94
245.166	142.94
245.399	145.94
245.633	150.94
245.866	148.94
246.099	134.94
246.333	145.94
246.566	146.94
246.8	147.94
247.033	134.94
247.266	158.94
247.5	171.94
247.733	162.94
247.966	142.94
248.2	162.94
248.433	158.94
248.666	168.94
248.899	161.94
249.133	166.94
249.366	179.94
249.599	182.94
249.832	168.94
250.066	168.94
250.299	175.94
250.532	173.94
250.765	180.94
250.998	198.94
251.231	218.94
251.465	207.94
251.698	203.94
251.931	193.94
252.164	189.94
252.397	173.94
252.63	182.94
252.863	190.94
253.096	209.94
253.329	200.94
253.562	207.94
253.795	201.94
254.028	196.94
254.261	215.94
254.494	229.94
254.727	236.94
254.96	248.94
255.193	241.94
255.426	243.94
255.659	224.94
255.892	214.94
256.124	205.94
256.357	216.94
256.59	217.94
256.823	208.94
257.056	199.94
257.289	192.94
257.521	201.94
257.754	192.94
257.987	192.94
258.22	189.94
258.452	205.94
258.685	195.94
258.918	205.94
259.151	197.94
259.383	199.94
259.616	206.94
259.849	218.94
260.081	234.94
260.314	227.94
260.547	243.94
260.779	247.94
261.012	215.94
261.244	208.94
261.477	206.94
261.71	218.94
261.942	206.94
262.175	218.94
262.407	219.94
262.64	196.94
262.872	204.94
263.105	214.94
263.337	186.94
263.57	197.94
263.802	211.94
264.035	201.94
264.267	199.94
264.499	197.94
264.732	189.94
264.964	224.94
265.197	197.94
265.429	196.94
265.661	177.94
265.894	194.94
266.126	213.94
266.358	227.94
266.591	212.94
266.823	223.94
267.055	191.94
267.287	217.94
267.52	225.94
267.752	221.94
267.984	224.94
268.216	231.94
268.448	218.94
268.681	234.94
268.913	234.94
269.145	242.94
269.377	260.94
269.609	264.94
269.841	238.94
270.073	243.94
270.306	258.94
270.538	294.94
270.77	296.94
271.002	277.94
271.234	282.94
271.466	256.94
271.698	266.94
271.93	300.94
272.162	287.94
272.394	287.94
272.626	282.94
272.858	281.94
273.09	246.94
273.322	258.94
273.553	257.94
273.785	256.94
274.017	250.94
274.249	250.94
274.481	260.94
274.713	255.94
274.945	239.94
275.176	234.94
275.408	267.94
275.64	258.94
275.872	230.94
276.104	269.94
276.335	252.94
276.567	274.94
276.799	259.94
277.031	274.94
277.262	310.94
277.494	297.94
277.726	276.94
277.957	267.94
278.189	277.94
278.421	264.94
278.652	280.94
278.884	244.94
279.115	263.94
279.347	244.94
279.579	257.94
279.81	256.94
280.042	241.94
280.273	266.94
280.505	258.94
280.736	255.94
280.968	260.94
281.199	247.94
281.431	258.94
281.662	282.94
281.894	281.94
282.125	261.94
282.356	275.94
282.588	276.94
282.819	285.94
283.051	278.94
283.282	273.94
283.513	263.94
283.745	255.94
283.976	269.94
284.207	249.94
284.439	270.94
284.67	272.94
284.901	268.94
285.132	275.94
285.364	266.94
285.595	290.94
285.826	262.94
286.057	272.94
286.288	281.94
286.52	273.94
286.751	272.94
286.982	261.94
287.213	276.94
287.444	263.94
287.675	277.94
287.906	289.94
288.138	296.94
288.369	278.94
288.6	278.94
288.831	282.94
289.062	285.94
289.293	286.94
289.524	267.94
289.755	285.94
289.986	277.94
290.217	281.94
290.448	296.94
290.679	271.94
290.91	280.94
291.141	287.94
291.371	279.94
291.602	278.94
291.833	276.94
292.064	281.94
292.295	280.94
292.526	274.94
292.757	294.94
292.987	275.94
293.218	284.94
293.449	295.94
293.68	284.94
293.91	270.94
294.141	288.94
294.372	289.94
294.603	282.94
294.833	289.94
295.064	282.94
295.295	290.94
295.525	286.94
295.756	308.94
295.987	286.94
296.217	302.94
296.448	323.94
296.679	280.94
296.909	285.94
297.14	293.94
297.37	293.94
297.601	300.94
297.831	263.94
298.062	287.94
298.292	276.94
298.523	276.94
298.753	304.94
298.984	270.94
299.214	288.94
299.445	299.94
299.675	305.94
299.905	296.94
300.136	310.94
300.366	312.94
300.597	314.94
300.827	301.94
301.057	309.94
301.288	312.94
301.518	293.94
301.748	320.94
301.979	324.94
302.209	334.94
302.439	326.94
302.669	308.94
302.9	325.94
303.13	309.94
303.36	302.94
303.59	321.94
303.82	335.94
304.051	315.94
304.281	314.94
304.511	310.94
304.741	320.94
304.971	321.94
305.201	306.94
305.431	310.94
305.661	316.94
305.891	314.94
306.121	312.94
306.352	335.94
306.582	343.94
306.812	321.94
307.042	314.94
307.272	320.94
307.502	331.94
307.731	329.94
307.961	331.94
308.191	310.94
308.421	312.94
308.651	320.94
308.881	330.94
309.111	339.94
309.341	328.94
309.571	335.94
309.8	354.94
310.03	358.94
310.26	356.94
310.49	372.94
310.72	365.94
310.949	379.94
311.179	384.94
311.409	371.94
311.639	361.94
311.868	373.94
312.098	386.94
312.328	373.94
312.557	396.94
312.787	410.94
313.017	405.94
313.246	381.94
313.476	349.94
313.706	354.94
313.935	381.94
314.165	382.94
314.394	397.94
314.624	392.94
314.853	377.94
315.083	370.94
315.312	353.94
315.542	357.94
315.771	342.94
316.001	362.94
316.23	344.94
316.46	347.94
316.689	362.94
316.919	368.94
317.148	356.94
317.377	371.94
317.607	354.94
317.836	370.94
318.065	365.94
318.295	364.94
318.524	354.94
318.753	363.94
318.983	358.94
319.212	367.94
319.441	378.94
319.67	369.94
319.9	360.94
320.129	359.94
320.358	361.94
320.587	374.94
320.816	372.94
321.046	402.94
321.275	401.94
321.504	403.94
321.733	402.94
321.962	392.94
322.191	416.94
322.42	421.94
322.649	435.94
322.878	425.94
323.108	450.94
323.337	480.94
323.566	482.94
323.795	507.94
324.024	558.94
324.253	664.94
324.482	926.94
324.71	1488.94
324.939	2247.94
325.168	1994.94
325.397	963.94
325.626	646.94
325.855	535.94
326.084	490.94
326.313	484.94
326.542	466.94
326.77	548.94
326.999	632.94
327.228	858.94
327.457	1381.94
327.686	1715.94
327.914	1129.94
328.143	704.94
328.372	617.94
328.6	585.94
328.829	512.94
329.058	536.94
329.287	561.94
329.515	527.94
329.744	479.94
329.972	503.94
330.201	509.94
330.43	537.94
330.658	569.94
330.887	573.94
331.115	568.94
331.344	520.94
331.572	472.94
331.801	470.94
332.03	483.94
332.258	451.94
332.486	455.94
332.715	447.94
332.943	447.94
333.172	462.94
333.4	464.94
333.629	461.94
333.857	470.94
334.085	473.94
334.314	495.94
334.542	517.94
334.771	542.94
334.999	500.94
335.227	462.94
335.455	475.94
335.684	457.94
335.912	453.94
336.14	438.94
336.369	443.94
336.597	459.94
336.825	449.94
337.053	450.94
337.281	429.94
337.51	424.94
337.738	435.94
337.966	436.94
338.194	440.94
338.422	435.94
338.65	429.94
338.878	412.94
339.106	422.94
339.334	435.94
339.562	432.94
339.79	433.94
340.018	418.94
340.246	436.94
340.474	426.94
340.702	423.94
340.93	435.94
341.158	416.94
341.386	420.94
341.614	432.94
341.842	420.94
342.07	394.94
342.298	428.94
342.526	427.94
342.754	402.94
342.981	427.94
343.209	414.94
343.437	421.94
343.665	420.94
343.893	456.94
344.12	430.94
344.348	436.94
344.576	436.94
344.804	450.94
345.031	452.94
345.259	443.94
345.487	440.94
345.714	421.94
345.942	432.94
346.17	427.94
346.397	430.94
346.625	426.94
346.853	425.94
347.08	422.94
347.308	439.94
347.535	444.94
347.763	430.94
347.99	436.94
348.218	422.94
348.445	429.94
348.673	421.94
348.9	418.94
349.128	414.94
349.355	408.94
349.583	408.94
349.81	403.94
350.037	378.94
350.265	404.94
350.492	416.94
350.72	385.94
350.947	408.94
351.174	422.94
351.402	418.94
351.629	418.94
351.856	429.94
352.083	444.94
352.311	445.94
352.538	441.94
352.765	441.94
352.992	408.94
353.22	425.94
353.447	396.94
353.674	426.94
353.901	404.94
354.128	385.94
354.355	393.94
354.583	402.94
354.81	379.94
355.037	405.94
355.264	392.94
355.491	397.94
355.718	382.94
355.945	386.94
356.172	405.94
356.399	386.94
356.626	408.94
356.853	397.94
357.08	397.94
357.307	399.94
357.534	393.94
357.761	382.94
357.988	389.94
358.215	395.94
358.441	382.94
358.668	401.94
358.895	384.94
359.122	396.94
359.349	379.94
359.576	418.94
359.802	445.94
360.029	458.94
360.256	469.94
360.483	462.94
360.709	434.94
360.936	434.94
361.163	416.94
361.39	405.94
361.616	427.94
361.843	420.94
362.07	400.94
362.296	423.94
362.523	416.94
362.749	399.94
362.976	428.94
363.203	413.94
363.429	402.94
363.656	396.94
363.882	410.94
364.109	398.94
364.335	388.94
364.562	389.94
364.788	402.94
365.015	428.94
365.241	419.94
365.468	404.94
365.694	402.94
365.92	401.94
366.147	411.94
366.373	385.94
366.599	399.94
366.826	400.94
367.052	404.94
367.278	418.94
367.505	396.94
367.731	410.94
367.957	425.94
368.184	402.94
368.41	421.94
368.636	414.94
368.862	437.94
369.089	413.94
369.315	372.94
369.541	413.94
369.767	407.94
369.993	401.94
370.219	406.94
370.445	418.94
370.672	405.94
370.898	412.94
371.124	412.94
371.35	410.94
371.576	405.94
371.802	417.94
372.028	414.94
372.254	424.94
372.48	385.94
372.706	429.94
372.932	405.94
373.158	393.94
373.384	406.94
373.61	404.94
373.835	406.94
374.061	398.94
374.287	414.94
374.513	405.94
374.739	413.94
374.965	412.94
375.191	403.94
375.416	417.94
375.642	427.94
375.868	413.94
376.094	393.94
376.319	402.94
376.545	422.94
376.771	417.94
376.997	386.94
377.222	401.94
377.448	401.94
377.674	419.94
377.899	410.94
378.125	424.94
378.35	416.94
378.576	412.94
378.802	409.94
379.027	417.94
379.253	417.94
379.478	409.94
379.704	414.94
379.929	402.94
380.155	410.94
380.38	396.94
380.606	412.94
380.831	402.94
381.057	398.94
381.282	422.94
381.507	422.94
381.733	419.94
381.958	432.94
382.184	421.94
382.409	425.94
382.634	414.94
382.86	436.94
383.085	423.94
383.31	432.94
383.535	443.94
383.761	420.94
383.986	421.94
384.211	426.94
384.436	441.94
384.662	424.94
384.887	442.94
385.112	425.94
385.337	436.94
385.562	460.94
385.787	450.94
386.013	453.94
386.238	445.94
386.463	463.94
386.688	471.94
386.913	448.94
387.138	458.94
387.363	454.94
387.588	451.94
387.813	455.94
388.038	454.94
388.263	451.94
388.488	473.94
388.713	456.94
388.938	464.94
389.163	451.94
389.387	485.94
389.612	462.94
389.837	472.94
390.062	466.94
390.287	463.94
390.512	449.94
390.736	442.94
390.961	463.94
391.186	461.94
391.411	456.94
391.636	450.94
391.86	493.94
392.085	466.94
392.31	475.94
392.534	470.94
392.759	460.94
392.984	487.94
393.208	466.94
393.433	465.94
393.658	480.94
393.882	464.94
394.107	454.94
394.331	475.94
394.556	463.94
394.78	483.94
395.005	479.94
395.229	474.94
395.454	476.94
395.678	473.94
395.903	500.94
396.127	528.94
396.352	542.94
396.576	483.94
396.801	500.94
397.025	498.94
397.249	496.94
397.474	515.94
397.698	505.94
397.922	513.94
398.147	548.94
398.371	547.94
398.595	529.94
398.82	532.94
399.044	570.94
399.268	541.94
399.492	578.94
399.717	638.94
399.941	643.94
400.165	647.94
400.389	657.94
400.613	632.94
400.837	568.94
401.062	566.94
401.286	539.94
401.51	512.94
401.734	528.94
401.958	540.94
402.182	547.94
402.406	575.94
402.63	535.94
402.854	527.94
403.078	537.94
403.302	556.94
403.526	575.94
403.75	573.94
403.974	565.94
404.198	589.94
404.422	555.94
404.645	580.94
404.869	567.94
405.093	598.94
405.317	657.94
405.541	660.94
405.765	620.94
405.988	578.94
406.212	585.94
406.436	608.94
406.66	600.94
406.883	603.94
407.107	617.94
407.331	668.94
407.555	744.94
407.778	740.94
408.002	692.94
408.226	614.94
408.449	611.94
408.673	626.94
408.896	641.94
409.12	692.94
409.344	650.94
409.567	585.94
409.791	590.94
410.014	570.94
410.238	580.94
410.461	594.94
410.685	569.94
410.908	570.94
411.132	631.94
411.355	660.94
411.578	621.94
411.802	577.94
412.025	551.94
412.249	586.94
412.472	611.94
412.695	624.94
412.919	642.94
413.142	577.94
413.365	561.94
413.589	557.94
413.812	552.94
414.035	536.94
414.258	523.94
414.482	545.94
414.705	540.94
414.928	539.94
415.151	526.94
415.374	522.94
415.597	504.94
415.821	509.94
416.044	512.94
416.267	551.94
416.49	501.94
416.713	522.94
416.936	522.94
417.159	514.94
417.382	540.94
417.605	534.94
417.828	530.94
418.051	558.94
418.274	563.94
418.497	544.94
418.72	539.94
418.943	546.94
419.166	561.94
419.389	568.94
419.611	555.94
419.834	582.94
420.057	553.94
420.28	532.94
420.503	560.94
420.726	532.94
420.948	567.94
421.171	585.94
421.394	644.94
421.617	569.94
421.839	545.94
422.062	548.94
422.285	552.94
422.507	601.94
422.73	683.94
422.953	664.94
423.175	611.94
423.398	598.94
423.621	552.94
423.843	594.94
424.066	571.94
424.288	578.94
424.511	617.94
424.733	675.94
424.956	749.94
425.178	717.94
425.401	694.94
425.623	748.94
425.846	626.94
426.068	598.94
426.291	568.94
426.513	581.94
426.735	616.94
426.958	640.94
427.18	739.94
427.402	876.94
427.625	984.94
427.847	812.94
428.069	706.94
428.292	632.94
428.514	594.94
428.736	578.94
428.958	580.94
429.181	537.94
429.403	523.94
429.625	549.94
429.847	590.94
430.069	666.94
430.292	650.94
430.514	569.94
430.736	578.94
430.958	543.94
431.18	546.94
431.402	515.94
431.624	517.94
431.846	516.94
432.068	529.94
432.29	546.94
432.512	517.94
432.734	526.94
432.956	497.94
433.178	529.94
433.4	542.94
433.622	514.94
433.844	533.94
434.066	522.94
434.287	536.94
434.509	544.94
434.731	537.94
434.953	553.94
435.175	573.94
435.397	590.94
435.618	589.94
435.84	616.94
436.062	722.94
436.284	814.94
436.505	674.94
436.727	609.94
436.949	557.94
437.17	553.94
437.392	522.94
437.614	563.94
437.835	593.94
438.057	678.94
438.278	802.94
438.5	796.94
438.721	877.94
438.943	861.94
439.165	654.94
439.386	593.94
439.608	584.94
439.829	599.94
440.05	612.94
440.272	708.94
440.493	614.94
440.715	584.94
440.936	572.94
441.158	589.94
441.379	536.94
441.6	563.94
441.822	582.94
442.043	633.94
442.264	723.94
442.486	758.94
442.707	664.94
442.928	598.94
443.149	612.94
443.371	624.94
443.592	685.94
443.813	760.94
444.034	844.94
444.255	703.94
444.476	624.94
444.698	605.94
444.919	596.94
445.14	665.94
445.361	648.94
445.582	630.94
445.803	713.94
446.024	835.94
446.245	821.94
446.466	755.94
446.687	627.94
446.908	592.94
447.129	569.94
447.35	549.94
447.571	530.94
447.792	518.94
448.013	540.94
448.234	561.94
448.455	609.94
448.675	745.94
448.896	886.94
449.117	734.94
449.338	698.94
449.559	790.94
449.779	936.94
450	708.94
450.221	589.94
450.442	561.94
450.662	538.94
450.883	551.94
451.104	561.94
451.324	536.94
451.545	514.94
451.766	502.94
451.986	480.94
452.207	500.94
452.428	463.94
452.648	474.94
452.869	465.94
453.089	478.94
453.31	527.94
453.53	506.94
453.751	496.94
453.971	479.94
454.192	490.94
454.412	481.94
454.633	466.94
454.853	474.94
455.073	472.94
455.294	514.94
455.514	571.94
455.734	563.94
455.955	491.94
456.175	473.94
456.395	471.94
456.616	485.94
456.836	444.94
457.056	455.94
457.276	466.94
457.497	474.94
457.717	458.94
457.937	472.94
458.157	493.94
458.377	472.94
458.598	493.94
458.818	541.94
459.038	637.94
459.258	671.94
459.478	557.94
459.698	544.94
459.918	515.94
460.138	520.94
460.358	521.94
460.578	527.94
460.798	540.94
461.018	532.94
461.238	548.94
461.458	538.94
461.678	534.94
461.898	560.94
462.118	541.94
462.338	548.94
462.558	544.94
462.777	581.94
462.997	589.94
463.217	572.94
463.437	610.94
463.657	595.94
463.876	588.94
464.096	589.94
464.316	580.94
464.536	570.94
464.755	564.94
464.975	555.94
465.195	609.94
465.414	665.94
465.634	615.94
465.854	568.94
466.073	532.94
466.293	518.94
466.512	526.94
466.732	512.94
466.951	512.94
467.171	483.94
467.391	519.94
467.61	505.94
467.829	516.94
468.049	504.94
468.268	501.94
468.488	488.94
468.707	500.94
468.927	485.94
469.146	502.94
469.365	502.94
469.585	504.94
469.804	495.94
470.023	522.94
470.243	496.94
470.462	504.94
470.681	532.94
470.901	499.94
471.12	516.94
471.339	513.94
471.558	512.94
471.777	499.94
471.997	500.94
472.216	528.94
472.435	547.94
472.654	545.94
472.873	520.94
473.092	499.94
473.311	494.94
473.53	506.94
473.749	504.94
473.968	553.94
474.187	648.94
474.406	694.94
474.625	589.94
474.844	538.94
475.063	507.94
475.282	493.94
475.501	524.94
475.72	521.94
475.939	532.94
476.158	540.94
476.377	526.94
476.596	510.94
476.814	523.94
477.033	543.94
477.252	556.94
477.471	554.94
477.69	585.94
477.908	562.94
478.127	553.94
478.346	564.94
478.564	582.94
478.783	571.94
479.002	601.94
479.22	570.94
479.439	600.94
479.658	602.94
479.876	622.94
480.095	658.94
480.313	662.94
480.532	637.94
480.751	612.94
480.969	642.94
481.188	672.94
481.406	713.94
481.624	648.94
481.843	649.94
482.061	613.94
482.28	611.94
482.498	611.94
482.717	580.94
482.935	593.94
483.153	601.94
483.372	594.94
483.59	628.94
483.808	604.94
484.027	590.94
484.245	596.94
484.463	602.94
484.681	616.94
484.9	585.94
485.118	608.94
485.336	616.94
485.554	631.94
485.772	632.94
485.99	646.94
486.209	617.94
486.427	634.94
486.645	662.94
486.863	646.94
487.081	626.94
487.299	661.94
487.517	636.94
487.735	602.94
487.953	643.94
488.171	632.94
488.389	650.94
488.607	667.94
488.825	632.94
489.043	672.94
489.261	633.94
489.479	644.94
489.696	634.94
489.914	646.94
490.132	666.94
490.35	664.94
490.568	683.94
490.786	680.94
491.003	680.94
491.221	705.94
491.439	708.94
491.657	704.94
491.874	714.94
492.092	721.94
492.31	723.94
492.527	726.94
492.745	748.94
492.963	740.94
493.18	747.94
493.398	745.94
493.615	754.94
493.833	742.94
494.05	755.94
494.268	721.94
494.485	741.94
494.703	736.94
494.92	758.94
495.138	786.94
495.355	755.94
495.573	733.94
495.79	757.94
496.008	752.94
496.225	763.94
496.442	757.94
496.66	755.94
496.877	772.94
497.094	757.94
497.312	807.94
497.529	783.94
497.746	831.94
497.963	805.94
498.181	808.94
498.398	825.94
498.615	849.94
498.832	876.94
499.049	865.94
499.267	902.94
499.484	950.94
499.701	976.94
499.918	992.94
500.135	1044.94
500.352	1076.94
500.569	1072.94
500.786	1074.94
501.003	1081.94
501.22	1090.94
501.437	1011.94
501.654	1011.94
501.871	989.94
