Data from 1978.PennyLincolnUp.Lamp.En5.5.200Scan.071719.P1_HRD10591_16-14-25-863.txt Node
Date: Thu Jul 18 16:14:25 EDT 2019
User: cochatt
Spectrometer: HR+D1059
Trigger mode: 1
Integration Time (sec): 1.000000E-1
Scans to average: 1
Electric dark correction enabled: true
Nonlinearity correction enabled: false
Boxcar width: 0
XAxis mode: Wavelengths
Number of Pixels in Spectrum: 2048
>>>>>Begin Spectral Data<<<<<
223.165	-16.56
223.4	-16.56
223.635	-16.56
223.869	-16.56
224.104	-14.56
224.338	-5.56
224.573	-15.56
224.808	-12.56
225.042	1.44
225.277	-0.56
225.511	-15.56
225.746	2.44
225.98	13.44
226.215	17.44
226.449	18.44
226.683	18.44
226.918	10.44
227.152	15.44
227.387	27.44
227.621	39.44
227.856	36.44
228.09	50.44
228.324	39.44
228.559	55.44
228.793	64.44
229.027	95.44
229.262	111.44
229.496	105.44
229.73	123.44
229.964	159.44
230.199	129.44
230.433	109.44
230.667	115.44
230.901	113.44
231.136	122.44
231.37	106.44
231.604	106.44
231.838	124.44
232.072	109.44
232.306	115.44
232.541	113.44
232.775	116.44
233.009	101.44
233.243	117.44
233.477	119.44
233.711	128.44
233.945	119.44
234.179	109.44
234.413	116.44
234.647	114.44
234.881	119.44
235.115	115.44
235.349	118.44
235.583	104.44
235.817	117.44
236.051	120.44
236.285	112.44
236.519	126.44
236.753	127.44
236.987	148.44
237.221	185.44
237.455	248.44
237.689	193.44
237.922	151.44
238.156	135.44
238.39	132.44
238.624	121.44
238.858	116.44
239.091	120.44
239.325	118.44
239.559	117.44
239.793	131.44
240.027	133.44
240.26	138.44
240.494	165.44
240.728	140.44
240.961	149.44
241.195	140.44
241.429	136.44
241.662	138.44
241.896	131.44
242.13	132.44
242.363	130.44
242.597	122.44
242.83	138.44
243.064	127.44
243.298	130.44
243.531	137.44
243.765	145.44
243.998	145.44
244.232	139.44
244.465	122.44
244.699	129.44
244.932	139.44
245.166	147.44
245.399	138.44
245.633	140.44
245.866	150.44
246.099	166.44
246.333	151.44
246.566	146.44
246.8	140.44
247.033	150.44
247.266	159.44
247.5	153.44
247.733	164.44
247.966	162.44
248.2	173.44
248.433	165.44
248.666	186.44
248.899	186.44
249.133	204.44
249.366	190.44
249.599	176.44
249.832	181.44
250.066	182.44
250.299	179.44
250.532	171.44
250.765	184.44
250.998	211.44
251.231	195.44
251.465	208.44
251.698	195.44
251.931	191.44
252.164	195.44
252.397	167.44
252.63	183.44
252.863	206.44
253.096	205.44
253.329	204.44
253.562	205.44
253.795	186.44
254.028	227.44
254.261	205.44
254.494	227.44
254.727	263.44
254.96	241.44
255.193	251.44
255.426	239.44
255.659	231.44
255.892	233.44
256.124	219.44
256.357	223.44
256.59	218.44
256.823	200.44
257.056	199.44
257.289	192.44
257.521	196.44
257.754	189.44
257.987	210.44
258.22	204.44
258.452	195.44
258.685	208.44
258.918	195.44
259.151	196.44
259.383	195.44
259.616	203.44
259.849	210.44
260.081	229.44
260.314	236.44
260.547	223.44
260.779	224.44
261.012	239.44
261.244	225.44
261.477	212.44
261.71	193.44
261.942	205.44
262.175	228.44
262.407	211.44
262.64	207.44
262.872	210.44
263.105	199.44
263.337	212.44
263.57	198.44
263.802	197.44
264.035	212.44
264.267	195.44
264.499	193.44
264.732	214.44
264.964	212.44
265.197	197.44
265.429	224.44
265.661	208.44
265.894	200.44
266.126	213.44
266.358	203.44
266.591	216.44
266.823	203.44
267.055	213.44
267.287	230.44
267.52	224.44
267.752	217.44
267.984	241.44
268.216	221.44
268.448	224.44
268.681	234.44
268.913	241.44
269.145	247.44
269.377	249.44
269.609	253.44
269.841	258.44
270.073	263.44
270.306	275.44
270.538	298.44
270.77	309.44
271.002	286.44
271.234	257.44
271.466	278.44
271.698	297.44
271.93	305.44
272.162	294.44
272.394	289.44
272.626	274.44
272.858	269.44
273.09	278.44
273.322	269.44
273.553	250.44
273.785	257.44
274.017	262.44
274.249	259.44
274.481	260.44
274.713	266.44
274.945	270.44
275.176	275.44
275.408	260.44
275.64	270.44
275.872	255.44
276.104	275.44
276.335	254.44
276.567	266.44
276.799	284.44
277.031	297.44
277.262	328.44
277.494	292.44
277.726	309.44
277.957	275.44
278.189	275.44
278.421	265.44
278.652	268.44
278.884	269.44
279.115	273.44
279.347	259.44
279.579	244.44
279.81	269.44
280.042	267.44
280.273	265.44
280.505	260.44
280.736	262.44
280.968	263.44
281.199	255.44
281.431	266.44
281.662	267.44
281.894	260.44
282.125	275.44
282.356	293.44
282.588	299.44
282.819	308.44
283.051	275.44
283.282	281.44
283.513	275.44
283.745	275.44
283.976	269.44
284.207	275.44
284.439	276.44
284.67	266.44
284.901	276.44
285.132	278.44
285.364	268.44
285.595	270.44
285.826	270.44
286.057	275.44
286.288	269.44
286.52	261.44
286.751	260.44
286.982	270.44
287.213	285.44
287.444	267.44
287.675	268.44
287.906	294.44
288.138	294.44
288.369	293.44
288.6	305.44
288.831	305.44
289.062	300.44
289.293	287.44
289.524	291.44
289.755	295.44
289.986	291.44
290.217	280.44
290.448	280.44
290.679	288.44
290.91	278.44
291.141	285.44
291.371	304.44
291.602	283.44
291.833	281.44
292.064	293.44
292.295	294.44
292.526	301.44
292.757	298.44
292.987	282.44
293.218	294.44
293.449	300.44
293.68	310.44
293.91	290.44
294.141	292.44
294.372	297.44
294.603	300.44
294.833	294.44
295.064	301.44
295.295	283.44
295.525	296.44
295.756	312.44
295.987	311.44
296.217	296.44
296.448	328.44
296.679	300.44
296.909	289.44
297.14	303.44
297.37	301.44
297.601	307.44
297.831	304.44
298.062	297.44
298.292	305.44
298.523	285.44
298.753	294.44
298.984	294.44
299.214	306.44
299.445	315.44
299.675	307.44
299.905	304.44
300.136	311.44
300.366	307.44
300.597	312.44
300.827	314.44
301.057	318.44
301.288	339.44
301.518	337.44
301.748	310.44
301.979	319.44
302.209	317.44
302.439	344.44
302.669	333.44
302.9	314.44
303.13	316.44
303.36	338.44
303.59	346.44
303.82	329.44
304.051	350.44
304.281	331.44
304.511	316.44
304.741	333.44
304.971	325.44
305.201	335.44
305.431	338.44
305.661	323.44
305.891	344.44
306.121	345.44
306.352	324.44
306.582	333.44
306.812	338.44
307.042	325.44
307.272	325.44
307.502	336.44
307.731	328.44
307.961	316.44
308.191	336.44
308.421	328.44
308.651	331.44
308.881	327.44
309.111	331.44
309.341	333.44
309.571	351.44
309.8	339.44
310.03	371.44
310.26	386.44
310.49	386.44
310.72	377.44
310.949	379.44
311.179	416.44
311.409	378.44
311.639	383.44
311.868	371.44
312.098	374.44
312.328	375.44
312.557	390.44
312.787	404.44
313.017	407.44
313.246	403.44
313.476	379.44
313.706	362.44
313.935	395.44
314.165	406.44
314.394	375.44
314.624	406.44
314.853	381.44
315.083	383.44
315.312	361.44
315.542	377.44
315.771	364.44
316.001	352.44
316.23	381.44
316.46	355.44
316.689	367.44
316.919	361.44
317.148	397.44
317.377	370.44
317.607	394.44
317.836	379.44
318.065	385.44
318.295	395.44
318.524	369.44
318.753	373.44
318.983	375.44
319.212	376.44
319.441	382.44
319.67	413.44
319.9	383.44
320.129	375.44
320.358	386.44
320.587	382.44
320.816	387.44
321.046	409.44
321.275	399.44
321.504	420.44
321.733	399.44
321.962	397.44
322.191	415.44
322.42	427.44
322.649	448.44
322.878	439.44
323.108	462.44
323.337	464.44
323.566	490.44
323.795	523.44
324.024	553.44
324.253	679.44
324.482	976.44
324.71	1586.44
324.939	2423.44
325.168	2083.44
325.397	983.44
325.626	655.44
325.855	542.44
326.084	521.44
326.313	506.44
326.542	502.44
326.77	549.44
326.999	646.44
327.228	907.44
327.457	1459.44
327.686	1833.44
327.914	1118.44
328.143	735.44
328.372	626.44
328.6	602.44
328.829	563.44
329.058	561.44
329.287	585.44
329.515	558.44
329.744	529.44
329.972	505.44
330.201	530.44
330.43	567.44
330.658	561.44
330.887	611.44
331.115	599.44
331.344	524.44
331.572	502.44
331.801	475.44
332.03	480.44
332.258	474.44
332.486	469.44
332.715	450.44
332.943	459.44
333.172	443.44
333.4	463.44
333.629	476.44
333.857	497.44
334.085	491.44
334.314	505.44
334.542	531.44
334.771	579.44
334.999	504.44
335.227	492.44
335.455	476.44
335.684	453.44
335.912	446.44
336.14	445.44
336.369	473.44
336.597	473.44
336.825	453.44
337.053	448.44
337.281	448.44
337.51	447.44
337.738	450.44
337.966	447.44
338.194	465.44
338.422	449.44
338.65	436.44
338.878	443.44
339.106	437.44
339.334	456.44
339.562	426.44
339.79	428.44
340.018	441.44
340.246	440.44
340.474	444.44
340.702	435.44
340.93	443.44
341.158	430.44
341.386	428.44
341.614	445.44
341.842	452.44
342.07	431.44
342.298	447.44
342.526	433.44
342.754	409.44
342.981	441.44
343.209	428.44
343.437	445.44
343.665	431.44
343.893	459.44
344.12	438.44
344.348	442.44
344.576	440.44
344.804	459.44
345.031	473.44
345.259	455.44
345.487	455.44
345.714	435.44
345.942	424.44
346.17	411.44
346.397	419.44
346.625	421.44
346.853	428.44
347.08	428.44
347.308	434.44
347.535	423.44
347.763	427.44
347.99	431.44
348.218	440.44
348.445	425.44
348.673	439.44
348.9	435.44
349.128	434.44
349.355	411.44
349.583	412.44
349.81	397.44
350.037	409.44
350.265	409.44
350.492	406.44
350.72	411.44
350.947	420.44
351.174	423.44
351.402	425.44
351.629	431.44
351.856	421.44
352.083	425.44
352.311	426.44
352.538	447.44
352.765	445.44
352.992	432.44
353.22	435.44
353.447	439.44
353.674	411.44
353.901	407.44
354.128	409.44
354.355	394.44
354.583	403.44
354.81	404.44
355.037	402.44
355.264	405.44
355.491	378.44
355.718	387.44
355.945	409.44
356.172	395.44
356.399	385.44
356.626	402.44
356.853	397.44
357.08	401.44
357.307	391.44
357.534	401.44
357.761	405.44
357.988	401.44
358.215	404.44
358.441	403.44
358.668	384.44
358.895	400.44
359.122	400.44
359.349	398.44
359.576	433.44
359.802	444.44
360.029	492.44
360.256	485.44
360.483	472.44
360.709	455.44
360.936	442.44
361.163	444.44
361.39	427.44
361.616	441.44
361.843	441.44
362.07	436.44
362.296	435.44
362.523	444.44
362.749	425.44
362.976	425.44
363.203	404.44
363.429	437.44
363.656	429.44
363.882	428.44
364.109	413.44
364.335	409.44
364.562	415.44
364.788	411.44
365.015	424.44
365.241	428.44
365.468	442.44
365.694	415.44
365.92	426.44
366.147	443.44
366.373	434.44
366.599	406.44
366.826	401.44
367.052	408.44
367.278	404.44
367.505	397.44
367.731	425.44
367.957	431.44
368.184	419.44
368.41	427.44
368.636	431.44
368.862	443.44
369.089	439.44
369.315	421.44
369.541	403.44
369.767	419.44
369.993	417.44
370.219	442.44
370.445	427.44
370.672	437.44
370.898	389.44
371.124	404.44
371.35	415.44
371.576	415.44
371.802	427.44
372.028	404.44
372.254	416.44
372.48	420.44
372.706	432.44
372.932	430.44
373.158	444.44
373.384	431.44
373.61	427.44
373.835	440.44
374.061	419.44
374.287	431.44
374.513	429.44
374.739	446.44
374.965	419.44
375.191	438.44
375.416	446.44
375.642	428.44
375.868	425.44
376.094	429.44
376.319	417.44
376.545	410.44
376.771	416.44
376.997	433.44
377.222	425.44
377.448	405.44
377.674	411.44
377.899	414.44
378.125	425.44
378.35	422.44
378.576	426.44
378.802	417.44
379.027	399.44
379.253	408.44
379.478	412.44
379.704	439.44
379.929	438.44
380.155	406.44
380.38	419.44
380.606	447.44
380.831	416.44
381.057	398.44
381.282	428.44
381.507	423.44
381.733	432.44
381.958	421.44
382.184	424.44
382.409	431.44
382.634	399.44
382.86	436.44
383.085	439.44
383.31	462.44
383.535	442.44
383.761	434.44
383.986	422.44
384.211	444.44
384.436	448.44
384.662	450.44
384.887	464.44
385.112	440.44
385.337	439.44
385.562	461.44
385.787	462.44
386.013	468.44
386.238	480.44
386.463	491.44
386.688	460.44
386.913	461.44
387.138	465.44
387.363	475.44
387.588	462.44
387.813	466.44
388.038	466.44
388.263	472.44
388.488	459.44
388.713	471.44
388.938	463.44
389.163	467.44
389.387	484.44
389.612	458.44
389.837	445.44
390.062	464.44
390.287	480.44
390.512	468.44
390.736	461.44
390.961	458.44
391.186	481.44
391.411	472.44
391.636	475.44
391.86	477.44
392.085	501.44
392.31	487.44
392.534	489.44
392.759	482.44
392.984	471.44
393.208	470.44
393.433	456.44
393.658	479.44
393.882	459.44
394.107	475.44
394.331	473.44
394.556	484.44
394.78	484.44
395.005	501.44
395.229	491.44
395.454	455.44
395.678	506.44
395.903	527.44
396.127	537.44
396.352	528.44
396.576	507.44
396.801	477.44
397.025	498.44
397.249	505.44
397.474	499.44
397.698	519.44
397.922	538.44
398.147	522.44
398.371	545.44
398.595	549.44
398.82	544.44
399.044	552.44
399.268	558.44
399.492	597.44
399.717	645.44
399.941	641.44
400.165	680.44
400.389	692.44
400.613	607.44
400.837	569.44
401.062	565.44
401.286	559.44
401.51	567.44
401.734	541.44
401.958	553.44
402.182	569.44
402.406	568.44
402.63	539.44
402.854	559.44
403.078	575.44
403.302	548.44
403.526	581.44
403.75	565.44
403.974	584.44
404.198	580.44
404.422	564.44
404.645	587.44
404.869	562.44
405.093	617.44
405.317	660.44
405.541	715.44
405.765	639.44
405.988	605.44
406.212	594.44
406.436	621.44
406.66	635.44
406.883	639.44
407.107	647.44
407.331	682.44
407.555	772.44
407.778	771.44
408.002	706.44
408.226	639.44
408.449	614.44
408.673	641.44
408.896	661.44
409.12	714.44
409.344	685.44
409.567	639.44
409.791	618.44
410.014	591.44
410.238	583.44
410.461	595.44
410.685	573.44
410.908	604.44
411.132	630.44
411.355	666.44
411.578	644.44
411.802	585.44
412.025	602.44
412.249	561.44
412.472	581.44
412.695	654.44
412.919	639.44
413.142	595.44
413.365	550.44
413.589	559.44
413.812	567.44
414.035	552.44
414.258	563.44
414.482	550.44
414.705	553.44
414.928	537.44
415.151	522.44
415.374	567.44
415.597	547.44
415.821	546.44
416.044	526.44
416.267	559.44
416.49	539.44
416.713	540.44
416.936	534.44
417.159	545.44
417.382	515.44
417.605	555.44
417.828	540.44
418.051	580.44
418.274	557.44
418.497	543.44
418.72	561.44
418.943	539.44
419.166	557.44
419.389	596.44
419.611	592.44
419.834	565.44
420.057	588.44
420.28	568.44
420.503	562.44
420.726	575.44
420.948	568.44
421.171	605.44
421.394	657.44
421.617	593.44
421.839	587.44
422.062	573.44
422.285	570.44
422.507	641.44
422.73	743.44
422.953	711.44
423.175	625.44
423.398	570.44
423.621	588.44
423.843	603.44
424.066	601.44
424.288	620.44
424.511	635.44
424.733	683.44
424.956	770.44
425.178	746.44
425.401	728.44
425.623	777.44
425.846	638.44
426.068	618.44
426.291	604.44
426.513	595.44
426.735	607.44
426.958	651.44
427.18	741.44
427.402	899.44
427.625	976.44
427.847	853.44
428.069	714.44
428.292	630.44
428.514	618.44
428.736	577.44
428.958	609.44
429.181	557.44
429.403	559.44
429.625	567.44
429.847	603.44
430.069	699.44
430.292	651.44
430.514	600.44
430.736	566.44
430.958	564.44
431.18	532.44
431.402	564.44
431.624	535.44
431.846	540.44
432.068	537.44
432.29	545.44
432.512	544.44
432.734	545.44
432.956	541.44
433.178	555.44
433.4	568.44
433.622	539.44
433.844	532.44
434.066	547.44
434.287	561.44
434.509	547.44
434.731	544.44
434.953	556.44
435.175	575.44
435.397	583.44
435.618	588.44
435.84	637.44
436.062	775.44
436.284	861.44
436.505	676.44
436.727	625.44
436.949	587.44
437.17	547.44
437.392	554.44
437.614	575.44
437.835	619.44
438.057	725.44
438.278	831.44
438.5	861.44
438.721	938.44
438.943	863.44
439.165	710.44
439.386	637.44
439.608	624.44
439.829	625.44
440.05	652.44
440.272	701.44
440.493	668.44
440.715	610.44
440.936	585.44
441.158	552.44
441.379	566.44
441.6	590.44
441.822	593.44
442.043	641.44
442.264	726.44
442.486	806.44
442.707	678.44
442.928	609.44
443.149	630.44
443.371	660.44
443.592	692.44
443.813	771.44
444.034	908.44
444.255	707.44
444.476	629.44
444.698	595.44
444.919	617.44
445.14	708.44
445.361	691.44
445.582	650.44
445.803	733.44
446.024	837.44
446.245	870.44
446.466	813.44
446.687	634.44
446.908	597.44
447.129	613.44
447.35	577.44
447.571	543.44
447.792	559.44
448.013	569.44
448.234	572.44
448.455	605.44
448.675	815.44
448.896	913.44
449.117	745.44
449.338	739.44
449.559	824.44
449.779	975.44
450	740.44
450.221	609.44
450.442	563.44
450.662	571.44
450.883	540.44
451.104	551.44
451.324	571.44
451.545	539.44
451.766	512.44
451.986	537.44
452.207	515.44
452.428	504.44
452.648	480.44
452.869	493.44
453.089	514.44
453.31	527.44
453.53	528.44
453.751	497.44
453.971	490.44
454.192	526.44
454.412	508.44
454.633	517.44
454.853	482.44
455.073	502.44
455.294	540.44
455.514	610.44
455.734	581.44
455.955	529.44
456.175	487.44
456.395	469.44
456.616	459.44
456.836	490.44
457.056	472.44
457.276	459.44
457.497	477.44
457.717	492.44
457.937	488.44
458.157	484.44
458.377	488.44
458.598	519.44
458.818	559.44
459.038	675.44
459.258	676.44
459.478	602.44
459.698	550.44
459.918	525.44
460.138	564.44
460.358	543.44
460.578	531.44
460.798	568.44
461.018	564.44
461.238	585.44
461.458	552.44
461.678	564.44
461.898	563.44
462.118	571.44
462.338	562.44
462.558	580.44
462.777	577.44
462.997	601.44
463.217	610.44
463.437	603.44
463.657	607.44
463.876	578.44
464.096	605.44
464.316	579.44
464.536	587.44
464.755	631.44
464.975	600.44
465.195	626.44
465.414	711.44
465.634	625.44
465.854	573.44
466.073	550.44
466.293	559.44
466.512	543.44
466.732	546.44
466.951	523.44
467.171	532.44
467.391	517.44
467.61	544.44
467.829	544.44
468.049	514.44
468.268	540.44
468.488	516.44
468.707	503.44
468.927	503.44
469.146	500.44
469.365	510.44
469.585	490.44
469.804	517.44
470.023	540.44
470.243	517.44
470.462	505.44
470.681	537.44
470.901	532.44
471.12	536.44
471.339	530.44
471.558	529.44
471.777	538.44
471.997	503.44
472.216	504.44
472.435	553.44
472.654	551.44
472.873	532.44
473.092	504.44
473.311	517.44
473.53	517.44
473.749	549.44
473.968	572.44
474.187	675.44
474.406	722.44
474.625	591.44
474.844	563.44
475.063	543.44
475.282	526.44
475.501	519.44
475.72	514.44
475.939	548.44
476.158	539.44
476.377	541.44
476.596	548.44
476.814	550.44
477.033	550.44
477.252	551.44
477.471	588.44
477.69	561.44
477.908	576.44
478.127	560.44
478.346	574.44
478.564	597.44
478.783	587.44
479.002	603.44
479.22	626.44
479.439	641.44
479.658	640.44
479.876	628.44
480.095	664.44
480.313	665.44
480.532	631.44
480.751	645.44
480.969	672.44
481.188	703.44
481.406	731.44
481.624	692.44
481.843	650.44
482.061	638.44
482.28	633.44
482.498	643.44
482.717	609.44
482.935	627.44
483.153	619.44
483.372	640.44
483.59	595.44
483.808	617.44
484.027	627.44
484.245	597.44
484.463	609.44
484.681	626.44
484.9	618.44
485.118	604.44
485.336	628.44
485.554	635.44
485.772	631.44
485.99	628.44
486.209	629.44
486.427	670.44
486.645	639.44
486.863	647.44
487.081	682.44
487.299	663.44
487.517	679.44
487.735	648.44
487.953	654.44
488.171	657.44
488.389	682.44
488.607	637.44
488.825	673.44
489.043	668.44
489.261	671.44
489.479	655.44
489.696	657.44
489.914	662.44
490.132	667.44
490.35	688.44
490.568	695.44
490.786	698.44
491.003	712.44
491.221	723.44
491.439	739.44
491.657	726.44
491.874	748.44
492.092	731.44
492.31	761.44
492.527	740.44
492.745	736.44
492.963	748.44
493.18	723.44
493.398	767.44
493.615	757.44
493.833	776.44
494.05	757.44
494.268	755.44
494.485	771.44
494.703	783.44
494.92	769.44
495.138	741.44
495.355	756.44
495.573	757.44
495.79	799.44
496.008	786.44
496.225	777.44
496.442	785.44
496.66	800.44
496.877	783.44
497.094	790.44
497.312	792.44
497.529	833.44
497.746	831.44
497.963	816.44
498.181	829.44
498.398	865.44
498.615	888.44
498.832	881.44
499.049	889.44
499.267	928.44
499.484	973.44
499.701	998.44
499.918	1044.44
500.135	1080.44
500.352	1128.44
500.569	1118.44
500.786	1125.44
501.003	1101.44
501.22	1099.44
501.437	1071.44
501.654	1017.44
501.871	1036.44
