Data from 1978.PennyLincolnUp.Lamp.En5.5.200Scan.071719.P1_HRD10591_16-14-44-865.txt Node
Date: Thu Jul 18 16:14:44 EDT 2019
User: cochatt
Spectrometer: HR+D1059
Trigger mode: 1
Integration Time (sec): 1.000000E-1
Scans to average: 1
Electric dark correction enabled: true
Nonlinearity correction enabled: false
Boxcar width: 0
XAxis mode: Wavelengths
Number of Pixels in Spectrum: 2048
>>>>>Begin Spectral Data<<<<<
223.165	-16.88
223.4	-16.88
223.635	-16.88
223.869	-36.88
224.104	-17.88
224.338	-6.88
224.573	-16.88
224.808	-10.88
225.042	2.12
225.277	-1.88
225.511	-6.88
225.746	-4.88
225.98	10.12
226.215	1.12
226.449	23.12
226.683	21.12
226.918	27.12
227.152	35.12
227.387	24.12
227.621	45.12
227.856	56.12
228.09	46.12
228.324	53.12
228.559	44.12
228.793	70.12
229.027	97.12
229.262	106.12
229.496	105.12
229.73	125.12
229.964	147.12
230.199	123.12
230.433	107.12
230.667	119.12
230.901	99.12
231.136	111.12
231.37	106.12
231.604	109.12
231.838	123.12
232.072	116.12
232.306	116.12
232.541	103.12
232.775	113.12
233.009	121.12
233.243	109.12
233.477	88.12
233.711	114.12
233.945	115.12
234.179	110.12
234.413	104.12
234.647	121.12
234.881	122.12
235.115	125.12
235.349	130.12
235.583	117.12
235.817	126.12
236.051	123.12
236.285	128.12
236.519	131.12
236.753	125.12
236.987	153.12
237.221	185.12
237.455	235.12
237.689	181.12
237.922	142.12
238.156	140.12
238.39	129.12
238.624	115.12
238.858	101.12
239.091	110.12
239.325	118.12
239.559	122.12
239.793	97.12
240.027	142.12
240.26	152.12
240.494	164.12
240.728	145.12
240.961	131.12
241.195	125.12
241.429	127.12
241.662	127.12
241.896	131.12
242.13	131.12
242.363	142.12
242.597	134.12
242.83	120.12
243.064	138.12
243.298	127.12
243.531	125.12
243.765	128.12
243.998	125.12
244.232	149.12
244.465	148.12
244.699	149.12
244.932	143.12
245.166	147.12
245.399	132.12
245.633	133.12
245.866	136.12
246.099	139.12
246.333	138.12
246.566	157.12
246.8	140.12
247.033	157.12
247.266	152.12
247.5	150.12
247.733	153.12
247.966	167.12
248.2	161.12
248.433	182.12
248.666	175.12
248.899	167.12
249.133	176.12
249.366	194.12
249.599	180.12
249.832	193.12
250.066	170.12
250.299	171.12
250.532	173.12
250.765	179.12
250.998	202.12
251.231	213.12
251.465	199.12
251.698	201.12
251.931	207.12
252.164	184.12
252.397	183.12
252.63	198.12
252.863	188.12
253.096	203.12
253.329	207.12
253.562	199.12
253.795	225.12
254.028	202.12
254.261	199.12
254.494	202.12
254.727	243.12
254.96	262.12
255.193	248.12
255.426	217.12
255.659	223.12
255.892	211.12
256.124	222.12
256.357	209.12
256.59	204.12
256.823	205.12
257.056	202.12
257.289	191.12
257.521	181.12
257.754	194.12
257.987	192.12
258.22	208.12
258.452	210.12
258.685	207.12
258.918	195.12
259.151	201.12
259.383	209.12
259.616	211.12
259.849	196.12
260.081	235.12
260.314	251.12
260.547	250.12
260.779	234.12
261.012	226.12
261.244	217.12
261.477	212.12
261.71	208.12
261.942	213.12
262.175	229.12
262.407	216.12
262.64	190.12
262.872	209.12
263.105	210.12
263.337	201.12
263.57	212.12
263.802	203.12
264.035	197.12
264.267	200.12
264.499	208.12
264.732	211.12
264.964	205.12
265.197	219.12
265.429	209.12
265.661	203.12
265.894	202.12
266.126	223.12
266.358	205.12
266.591	213.12
266.823	209.12
267.055	202.12
267.287	226.12
267.52	221.12
267.752	231.12
267.984	214.12
268.216	223.12
268.448	224.12
268.681	224.12
268.913	246.12
269.145	254.12
269.377	252.12
269.609	274.12
269.841	268.12
270.073	267.12
270.306	288.12
270.538	309.12
270.77	298.12
271.002	280.12
271.234	305.12
271.466	295.12
271.698	314.12
271.93	302.12
272.162	302.12
272.394	298.12
272.626	305.12
272.858	268.12
273.09	271.12
273.322	264.12
273.553	259.12
273.785	265.12
274.017	245.12
274.249	258.12
274.481	235.12
274.713	250.12
274.945	250.12
275.176	259.12
275.408	243.12
275.64	274.12
275.872	249.12
276.104	255.12
276.335	264.12
276.567	295.12
276.799	282.12
277.031	311.12
277.262	305.12
277.494	302.12
277.726	294.12
277.957	285.12
278.189	262.12
278.421	262.12
278.652	255.12
278.884	261.12
279.115	241.12
279.347	252.12
279.579	265.12
279.81	255.12
280.042	250.12
280.273	241.12
280.505	264.12
280.736	260.12
280.968	242.12
281.199	256.12
281.431	263.12
281.662	268.12
281.894	271.12
282.125	267.12
282.356	279.12
282.588	302.12
282.819	301.12
283.051	265.12
283.282	272.12
283.513	283.12
283.745	264.12
283.976	283.12
284.207	294.12
284.439	288.12
284.67	289.12
284.901	280.12
285.132	256.12
285.364	258.12
285.595	252.12
285.826	273.12
286.057	270.12
286.288	275.12
286.52	272.12
286.751	266.12
286.982	268.12
287.213	280.12
287.444	277.12
287.675	279.12
287.906	282.12
288.138	280.12
288.369	276.12
288.6	293.12
288.831	306.12
289.062	296.12
289.293	281.12
289.524	285.12
289.755	277.12
289.986	287.12
290.217	287.12
290.448	289.12
290.679	302.12
290.91	287.12
291.141	281.12
291.371	274.12
291.602	287.12
291.833	269.12
292.064	270.12
292.295	282.12
292.526	273.12
292.757	291.12
292.987	288.12
293.218	275.12
293.449	272.12
293.68	286.12
293.91	293.12
294.141	299.12
294.372	303.12
294.603	281.12
294.833	311.12
295.064	295.12
295.295	293.12
295.525	285.12
295.756	306.12
295.987	308.12
296.217	329.12
296.448	327.12
296.679	300.12
296.909	328.12
297.14	309.12
297.37	279.12
297.601	314.12
297.831	290.12
298.062	298.12
298.292	282.12
298.523	299.12
298.753	292.12
298.984	312.12
299.214	301.12
299.445	306.12
299.675	301.12
299.905	290.12
300.136	294.12
300.366	309.12
300.597	318.12
300.827	300.12
301.057	309.12
301.288	315.12
301.518	327.12
301.748	320.12
301.979	340.12
302.209	329.12
302.439	324.12
302.669	335.12
302.9	335.12
303.13	315.12
303.36	328.12
303.59	341.12
303.82	335.12
304.051	335.12
304.281	318.12
304.511	333.12
304.741	320.12
304.971	326.12
305.201	337.12
305.431	328.12
305.661	331.12
305.891	328.12
306.121	337.12
306.352	337.12
306.582	339.12
306.812	326.12
307.042	334.12
307.272	330.12
307.502	338.12
307.731	345.12
307.961	335.12
308.191	327.12
308.421	316.12
308.651	341.12
308.881	343.12
309.111	354.12
309.341	314.12
309.571	373.12
309.8	368.12
310.03	365.12
310.26	361.12
310.49	371.12
310.72	384.12
310.949	398.12
311.179	386.12
311.409	383.12
311.639	369.12
311.868	375.12
312.098	377.12
312.328	391.12
312.557	386.12
312.787	429.12
313.017	399.12
313.246	385.12
313.476	385.12
313.706	375.12
313.935	372.12
314.165	396.12
314.394	402.12
314.624	387.12
314.853	387.12
315.083	392.12
315.312	392.12
315.542	378.12
315.771	357.12
316.001	360.12
316.23	381.12
316.46	374.12
316.689	366.12
316.919	375.12
317.148	365.12
317.377	383.12
317.607	375.12
317.836	392.12
318.065	389.12
318.295	370.12
318.524	376.12
318.753	348.12
318.983	381.12
319.212	376.12
319.441	397.12
319.67	391.12
319.9	388.12
320.129	384.12
320.358	393.12
320.587	401.12
320.816	380.12
321.046	406.12
321.275	419.12
321.504	399.12
321.733	390.12
321.962	411.12
322.191	431.12
322.42	425.12
322.649	447.12
322.878	455.12
323.108	466.12
323.337	485.12
323.566	504.12
323.795	532.12
324.024	591.12
324.253	700.12
324.482	1026.12
324.71	1632.12
324.939	2509.12
325.168	2117.12
325.397	1048.12
325.626	677.12
325.855	569.12
326.084	533.12
326.313	519.12
326.542	509.12
326.77	560.12
326.999	674.12
327.228	946.12
327.457	1462.12
327.686	1879.12
327.914	1197.12
328.143	757.12
328.372	616.12
328.6	610.12
328.829	542.12
329.058	566.12
329.287	585.12
329.515	567.12
329.744	524.12
329.972	515.12
330.201	510.12
330.43	578.12
330.658	581.12
330.887	629.12
331.115	607.12
331.344	523.12
331.572	498.12
331.801	485.12
332.03	498.12
332.258	462.12
332.486	461.12
332.715	457.12
332.943	455.12
333.172	468.12
333.4	465.12
333.629	457.12
333.857	493.12
334.085	479.12
334.314	493.12
334.542	527.12
334.771	574.12
334.999	488.12
335.227	486.12
335.455	469.12
335.684	459.12
335.912	470.12
336.14	453.12
336.369	432.12
336.597	491.12
336.825	469.12
337.053	465.12
337.281	470.12
337.51	461.12
337.738	466.12
337.966	438.12
338.194	456.12
338.422	475.12
338.65	448.12
338.878	454.12
339.106	450.12
339.334	444.12
339.562	443.12
339.79	429.12
340.018	445.12
340.246	425.12
340.474	433.12
340.702	442.12
340.93	432.12
341.158	439.12
341.386	459.12
341.614	434.12
341.842	442.12
342.07	435.12
342.298	462.12
342.526	446.12
342.754	420.12
342.981	432.12
343.209	425.12
343.437	429.12
343.665	441.12
343.893	420.12
344.12	456.12
344.348	457.12
344.576	440.12
344.804	446.12
345.031	437.12
345.259	482.12
345.487	451.12
345.714	433.12
345.942	462.12
346.17	434.12
346.397	432.12
346.625	415.12
346.853	412.12
347.08	435.12
347.308	411.12
347.535	446.12
347.763	451.12
347.99	454.12
348.218	437.12
348.445	436.12
348.673	442.12
348.9	440.12
349.128	423.12
349.355	422.12
349.583	422.12
349.81	420.12
350.037	429.12
350.265	411.12
350.492	401.12
350.72	420.12
350.947	421.12
351.174	422.12
351.402	441.12
351.629	419.12
351.856	434.12
352.083	453.12
352.311	441.12
352.538	434.12
352.765	427.12
352.992	423.12
353.22	434.12
353.447	437.12
353.674	407.12
353.901	403.12
354.128	423.12
354.355	400.12
354.583	418.12
354.81	395.12
355.037	406.12
355.264	379.12
355.491	392.12
355.718	395.12
355.945	410.12
356.172	396.12
356.399	395.12
356.626	401.12
356.853	417.12
357.08	395.12
357.307	426.12
357.534	393.12
357.761	387.12
357.988	389.12
358.215	406.12
358.441	399.12
358.668	409.12
358.895	408.12
359.122	432.12
359.349	437.12
359.576	440.12
359.802	451.12
360.029	480.12
360.256	469.12
360.483	481.12
360.709	444.12
360.936	439.12
361.163	429.12
361.39	433.12
361.616	423.12
361.843	432.12
362.07	424.12
362.296	437.12
362.523	429.12
362.749	426.12
362.976	435.12
363.203	437.12
363.429	446.12
363.656	414.12
363.882	442.12
364.109	395.12
364.335	407.12
364.562	429.12
364.788	422.12
365.015	407.12
365.241	418.12
365.468	426.12
365.694	421.12
365.92	423.12
366.147	398.12
366.373	407.12
366.599	418.12
366.826	432.12
367.052	433.12
367.278	416.12
367.505	415.12
367.731	445.12
367.957	420.12
368.184	434.12
368.41	435.12
368.636	433.12
368.862	436.12
369.089	440.12
369.315	430.12
369.541	415.12
369.767	426.12
369.993	424.12
370.219	421.12
370.445	429.12
370.672	418.12
370.898	404.12
371.124	431.12
371.35	423.12
371.576	406.12
371.802	423.12
372.028	419.12
372.254	425.12
372.48	419.12
372.706	439.12
372.932	430.12
373.158	407.12
373.384	426.12
373.61	406.12
373.835	429.12
374.061	426.12
374.287	427.12
374.513	410.12
374.739	411.12
374.965	436.12
375.191	442.12
375.416	450.12
375.642	419.12
375.868	404.12
376.094	425.12
376.319	413.12
376.545	417.12
376.771	430.12
376.997	410.12
377.222	419.12
377.448	425.12
377.674	413.12
377.899	413.12
378.125	426.12
378.35	418.12
378.576	392.12
378.802	407.12
379.027	411.12
379.253	398.12
379.478	414.12
379.704	429.12
379.929	424.12
380.155	429.12
380.38	412.12
380.606	413.12
380.831	422.12
381.057	411.12
381.282	417.12
381.507	405.12
381.733	418.12
381.958	419.12
382.184	429.12
382.409	439.12
382.634	454.12
382.86	422.12
383.085	430.12
383.31	455.12
383.535	433.12
383.761	437.12
383.986	441.12
384.211	440.12
384.436	458.12
384.662	427.12
384.887	447.12
385.112	462.12
385.337	470.12
385.562	436.12
385.787	471.12
386.013	449.12
386.238	476.12
386.463	479.12
386.688	460.12
386.913	473.12
387.138	465.12
387.363	482.12
387.588	467.12
387.813	466.12
388.038	462.12
388.263	471.12
388.488	469.12
388.713	472.12
388.938	482.12
389.163	468.12
389.387	445.12
389.612	487.12
389.837	484.12
390.062	489.12
390.287	463.12
390.512	471.12
390.736	475.12
390.961	494.12
391.186	491.12
391.411	476.12
391.636	481.12
391.86	476.12
392.085	518.12
392.31	495.12
392.534	500.12
392.759	501.12
392.984	501.12
393.208	446.12
393.433	509.12
393.658	482.12
393.882	457.12
394.107	495.12
394.331	485.12
394.556	481.12
394.78	481.12
395.005	493.12
395.229	471.12
395.454	484.12
395.678	509.12
395.903	492.12
396.127	538.12
396.352	520.12
396.576	512.12
396.801	499.12
397.025	507.12
397.249	498.12
397.474	523.12
397.698	520.12
397.922	523.12
398.147	530.12
398.371	573.12
398.595	544.12
398.82	542.12
399.044	561.12
399.268	575.12
399.492	592.12
399.717	627.12
399.941	688.12
400.165	689.12
400.389	671.12
400.613	648.12
400.837	580.12
401.062	571.12
401.286	557.12
401.51	579.12
401.734	548.12
401.958	572.12
402.182	576.12
402.406	554.12
402.63	570.12
402.854	567.12
403.078	550.12
403.302	563.12
403.526	578.12
403.75	574.12
403.974	569.12
404.198	564.12
404.422	590.12
404.645	570.12
404.869	574.12
405.093	621.12
405.317	661.12
405.541	698.12
405.765	657.12
405.988	609.12
406.212	622.12
406.436	633.12
406.66	622.12
406.883	646.12
407.107	654.12
407.331	698.12
407.555	794.12
407.778	761.12
408.002	671.12
408.226	650.12
408.449	638.12
408.673	631.12
408.896	686.12
409.12	712.12
409.344	667.12
409.567	606.12
409.791	581.12
410.014	604.12
410.238	582.12
410.461	569.12
410.685	591.12
410.908	626.12
411.132	648.12
411.355	686.12
411.578	659.12
411.802	598.12
412.025	569.12
412.249	612.12
412.472	608.12
412.695	649.12
412.919	672.12
413.142	609.12
413.365	573.12
413.589	537.12
413.812	561.12
414.035	547.12
414.258	552.12
414.482	569.12
414.705	568.12
414.928	563.12
415.151	564.12
415.374	542.12
415.597	513.12
415.821	548.12
416.044	555.12
416.267	533.12
416.49	529.12
416.713	532.12
416.936	552.12
417.159	530.12
417.382	535.12
417.605	551.12
417.828	560.12
418.051	579.12
418.274	549.12
418.497	553.12
418.72	544.12
418.943	528.12
419.166	565.12
419.389	585.12
419.611	595.12
419.834	582.12
420.057	594.12
420.28	576.12
420.503	577.12
420.726	565.12
420.948	566.12
421.171	622.12
421.394	667.12
421.617	576.12
421.839	567.12
422.062	557.12
422.285	613.12
422.507	677.12
422.73	729.12
422.953	695.12
423.175	588.12
423.398	583.12
423.621	586.12
423.843	604.12
424.066	612.12
424.288	602.12
424.511	623.12
424.733	675.12
424.956	772.12
425.178	750.12
425.401	742.12
425.623	770.12
425.846	662.12
426.068	622.12
426.291	603.12
426.513	583.12
426.735	609.12
426.958	673.12
427.18	767.12
427.402	895.12
427.625	1012.12
427.847	863.12
428.069	723.12
428.292	655.12
428.514	611.12
428.736	578.12
428.958	597.12
429.181	572.12
429.403	551.12
429.625	565.12
429.847	605.12
430.069	686.12
430.292	685.12
430.514	582.12
430.736	558.12
430.958	541.12
431.18	545.12
431.402	529.12
431.624	535.12
431.846	529.12
432.068	536.12
432.29	534.12
432.512	530.12
432.734	552.12
432.956	516.12
433.178	540.12
433.4	564.12
433.622	529.12
433.844	538.12
434.066	497.12
434.287	525.12
434.509	541.12
434.731	553.12
434.953	574.12
435.175	588.12
435.397	603.12
435.618	607.12
435.84	675.12
436.062	768.12
436.284	845.12
436.505	699.12
436.727	622.12
436.949	583.12
437.17	580.12
437.392	561.12
437.614	601.12
437.835	616.12
438.057	719.12
438.278	822.12
438.5	844.12
438.721	913.12
438.943	878.12
439.165	687.12
439.386	639.12
439.608	623.12
439.829	608.12
440.05	643.12
440.272	695.12
440.493	643.12
440.715	598.12
440.936	577.12
441.158	565.12
441.379	549.12
441.6	567.12
441.822	627.12
442.043	653.12
442.264	730.12
442.486	833.12
442.707	700.12
442.928	641.12
443.149	629.12
443.371	638.12
443.592	692.12
443.813	826.12
444.034	889.12
444.255	735.12
444.476	666.12
444.698	605.12
444.919	598.12
445.14	673.12
445.361	687.12
445.582	645.12
445.803	734.12
446.024	882.12
446.245	873.12
446.466	810.12
446.687	664.12
446.908	616.12
447.129	590.12
447.35	554.12
447.571	551.12
447.792	574.12
448.013	566.12
448.234	596.12
448.455	642.12
448.675	770.12
448.896	917.12
449.117	765.12
449.338	717.12
449.559	841.12
449.779	978.12
450	763.12
450.221	619.12
450.442	559.12
450.662	554.12
450.883	541.12
451.104	568.12
451.324	553.12
451.545	538.12
451.766	532.12
451.986	505.12
452.207	516.12
452.428	488.12
452.648	509.12
452.869	516.12
453.089	511.12
453.31	519.12
453.53	504.12
453.751	504.12
453.971	521.12
454.192	521.12
454.412	519.12
454.633	508.12
454.853	499.12
455.073	490.12
455.294	518.12
455.514	595.12
455.734	591.12
455.955	486.12
456.175	507.12
456.395	477.12
456.616	463.12
456.836	489.12
457.056	473.12
457.276	456.12
457.497	477.12
457.717	479.12
457.937	515.12
458.157	485.12
458.377	484.12
458.598	529.12
458.818	588.12
459.038	681.12
459.258	698.12
459.478	597.12
459.698	564.12
459.918	529.12
460.138	541.12
460.358	529.12
460.578	549.12
460.798	565.12
461.018	571.12
461.238	565.12
461.458	544.12
461.678	560.12
461.898	534.12
462.118	558.12
462.338	559.12
462.558	585.12
462.777	576.12
462.997	613.12
463.217	619.12
463.437	618.12
463.657	587.12
463.876	596.12
464.096	607.12
464.316	584.12
464.536	621.12
464.755	607.12
464.975	582.12
465.195	647.12
465.414	687.12
465.634	617.12
465.854	579.12
466.073	568.12
466.293	540.12
466.512	530.12
466.732	540.12
466.951	523.12
467.171	543.12
467.391	528.12
467.61	551.12
467.829	531.12
468.049	556.12
468.268	527.12
468.488	519.12
468.707	514.12
468.927	501.12
469.146	516.12
469.365	501.12
469.585	504.12
469.804	501.12
470.023	510.12
470.243	537.12
470.462	538.12
470.681	552.12
470.901	552.12
471.12	551.12
471.339	531.12
471.558	533.12
471.777	541.12
471.997	522.12
472.216	532.12
472.435	551.12
472.654	530.12
472.873	526.12
473.092	515.12
473.311	510.12
473.53	521.12
473.749	533.12
473.968	581.12
474.187	728.12
474.406	717.12
474.625	594.12
474.844	559.12
475.063	517.12
475.282	530.12
475.501	519.12
475.72	533.12
475.939	559.12
476.158	547.12
476.377	569.12
476.596	529.12
476.814	529.12
477.033	568.12
477.252	574.12
477.471	568.12
477.69	576.12
477.908	557.12
478.127	587.12
478.346	594.12
478.564	611.12
478.783	596.12
479.002	587.12
479.22	599.12
479.439	623.12
479.658	630.12
479.876	646.12
480.095	634.12
480.313	667.12
480.532	645.12
480.751	649.12
480.969	664.12
481.188	705.12
481.406	734.12
481.624	673.12
481.843	643.12
482.061	643.12
482.28	617.12
482.498	602.12
482.717	622.12
482.935	633.12
483.153	619.12
483.372	625.12
483.59	627.12
483.808	648.12
484.027	616.12
484.245	639.12
484.463	618.12
484.681	655.12
484.9	641.12
485.118	648.12
485.336	628.12
485.554	633.12
485.772	655.12
485.99	656.12
486.209	658.12
486.427	654.12
486.645	651.12
486.863	689.12
487.081	663.12
487.299	668.12
487.517	666.12
487.735	649.12
487.953	643.12
488.171	655.12
488.389	670.12
488.607	685.12
488.825	663.12
489.043	647.12
489.261	690.12
489.479	665.12
489.696	701.12
489.914	688.12
490.132	679.12
490.35	701.12
490.568	695.12
490.786	693.12
491.003	711.12
491.221	703.12
491.439	735.12
491.657	752.12
491.874	729.12
492.092	729.12
492.31	745.12
492.527	736.12
492.745	784.12
492.963	759.12
493.18	746.12
493.398	752.12
493.615	751.12
493.833	762.12
494.05	779.12
494.268	774.12
494.485	746.12
494.703	764.12
494.92	780.12
495.138	796.12
495.355	800.12
495.573	798.12
495.79	754.12
496.008	779.12
496.225	776.12
496.442	790.12
496.66	786.12
496.877	784.12
497.094	791.12
497.312	783.12
497.529	794.12
497.746	816.12
497.963	849.12
498.181	854.12
498.398	877.12
498.615	895.12
498.832	895.12
499.049	921.12
499.267	946.12
499.484	951.12
499.701	1029.12
499.918	1033.12
500.135	1102.12
500.352	1128.12
500.569	1126.12
500.786	1129.12
501.003	1134.12
501.22	1096.12
501.437	1083.12
501.654	1048.12
501.871	1002.12
