Data from 1978.PennyLincolnUp.Lamp.En5.5.200Scan.071719.P1_HRD10591_16-12-30-864.txt Node
Date: Thu Jul 18 16:12:30 EDT 2019
User: cochatt
Spectrometer: HR+D1059
Trigger mode: 1
Integration Time (sec): 1.000000E-1
Scans to average: 1
Electric dark correction enabled: true
Nonlinearity correction enabled: false
Boxcar width: 0
XAxis mode: Wavelengths
Number of Pixels in Spectrum: 2048
>>>>>Begin Spectral Data<<<<<
223.165	-18.75
223.4	-18.75
223.635	-18.75
223.869	-17.75
224.104	-9.75
224.338	-11.75
224.573	-22.75
224.808	-6.75
225.042	-24.75
225.277	-6.75
225.511	-0.75
225.746	8.25
225.98	8.25
226.215	-8.75
226.449	17.25
226.683	31.25
226.918	27.25
227.152	36.25
227.387	37.25
227.621	33.25
227.856	34.25
228.09	42.25
228.324	46.25
228.559	46.25
228.793	70.25
229.027	92.25
229.262	89.25
229.496	101.25
229.73	123.25
229.964	146.25
230.199	121.25
230.433	96.25
230.667	115.25
230.901	109.25
231.136	110.25
231.37	109.25
231.604	116.25
231.838	114.25
232.072	109.25
232.306	112.25
232.541	120.25
232.775	94.25
233.009	114.25
233.243	109.25
233.477	114.25
233.711	128.25
233.945	112.25
234.179	123.25
234.413	101.25
234.647	109.25
234.881	118.25
235.115	106.25
235.349	112.25
235.583	120.25
235.817	135.25
236.051	124.25
236.285	128.25
236.519	110.25
236.753	126.25
236.987	128.25
237.221	159.25
237.455	198.25
237.689	173.25
237.922	139.25
238.156	123.25
238.39	127.25
238.624	129.25
238.858	128.25
239.091	115.25
239.325	128.25
239.559	123.25
239.793	114.25
240.027	116.25
240.26	140.25
240.494	137.25
240.728	143.25
240.961	131.25
241.195	118.25
241.429	132.25
241.662	121.25
241.896	118.25
242.13	134.25
242.363	131.25
242.597	130.25
242.83	148.25
243.064	134.25
243.298	128.25
243.531	135.25
243.765	146.25
243.998	150.25
244.232	143.25
244.465	130.25
244.699	139.25
244.932	134.25
245.166	136.25
245.399	154.25
245.633	125.25
245.866	129.25
246.099	142.25
246.333	136.25
246.566	139.25
246.8	137.25
247.033	147.25
247.266	142.25
247.5	140.25
247.733	146.25
247.966	149.25
248.2	161.25
248.433	160.25
248.666	164.25
248.899	176.25
249.133	192.25
249.366	174.25
249.599	182.25
249.832	150.25
250.066	180.25
250.299	164.25
250.532	192.25
250.765	169.25
250.998	198.25
251.231	200.25
251.465	194.25
251.698	172.25
251.931	178.25
252.164	188.25
252.397	198.25
252.63	177.25
252.863	188.25
253.096	174.25
253.329	201.25
253.562	199.25
253.795	188.25
254.028	203.25
254.261	182.25
254.494	182.25
254.727	226.25
254.96	242.25
255.193	239.25
255.426	233.25
255.659	202.25
255.892	221.25
256.124	217.25
256.357	216.25
256.59	196.25
256.823	188.25
257.056	184.25
257.289	194.25
257.521	172.25
257.754	197.25
257.987	180.25
258.22	197.25
258.452	183.25
258.685	184.25
258.918	198.25
259.151	183.25
259.383	187.25
259.616	203.25
259.849	195.25
260.081	218.25
260.314	219.25
260.547	218.25
260.779	223.25
261.012	200.25
261.244	197.25
261.477	213.25
261.71	200.25
261.942	196.25
262.175	231.25
262.407	210.25
262.64	206.25
262.872	201.25
263.105	198.25
263.337	201.25
263.57	198.25
263.802	195.25
264.035	200.25
264.267	205.25
264.499	192.25
264.732	197.25
264.964	213.25
265.197	199.25
265.429	207.25
265.661	204.25
265.894	211.25
266.126	191.25
266.358	187.25
266.591	208.25
266.823	194.25
267.055	188.25
267.287	212.25
267.52	212.25
267.752	214.25
267.984	223.25
268.216	213.25
268.448	197.25
268.681	207.25
268.913	220.25
269.145	228.25
269.377	235.25
269.609	236.25
269.841	232.25
270.073	253.25
270.306	263.25
270.538	263.25
270.77	253.25
271.002	274.25
271.234	270.25
271.466	276.25
271.698	262.25
271.93	266.25
272.162	274.25
272.394	280.25
272.626	251.25
272.858	255.25
273.09	249.25
273.322	236.25
273.553	248.25
273.785	249.25
274.017	243.25
274.249	219.25
274.481	236.25
274.713	244.25
274.945	254.25
275.176	259.25
275.408	232.25
275.64	240.25
275.872	244.25
276.104	248.25
276.335	245.25
276.567	259.25
276.799	244.25
277.031	278.25
277.262	270.25
277.494	277.25
277.726	243.25
277.957	249.25
278.189	262.25
278.421	242.25
278.652	245.25
278.884	252.25
279.115	248.25
279.347	246.25
279.579	238.25
279.81	240.25
280.042	258.25
280.273	244.25
280.505	257.25
280.736	241.25
280.968	268.25
281.199	265.25
281.431	277.25
281.662	243.25
281.894	264.25
282.125	227.25
282.356	276.25
282.588	283.25
282.819	282.25
283.051	273.25
283.282	261.25
283.513	261.25
283.745	265.25
283.976	265.25
284.207	269.25
284.439	248.25
284.67	268.25
284.901	259.25
285.132	264.25
285.364	267.25
285.595	264.25
285.826	273.25
286.057	270.25
286.288	268.25
286.52	284.25
286.751	254.25
286.982	269.25
287.213	266.25
287.444	276.25
287.675	293.25
287.906	283.25
288.138	283.25
288.369	275.25
288.6	286.25
288.831	265.25
289.062	283.25
289.293	283.25
289.524	267.25
289.755	283.25
289.986	271.25
290.217	266.25
290.448	280.25
290.679	266.25
290.91	292.25
291.141	300.25
291.371	259.25
291.602	287.25
291.833	278.25
292.064	276.25
292.295	294.25
292.526	282.25
292.757	277.25
292.987	282.25
293.218	281.25
293.449	273.25
293.68	277.25
293.91	270.25
294.141	273.25
294.372	266.25
294.603	277.25
294.833	283.25
295.064	285.25
295.295	274.25
295.525	286.25
295.756	304.25
295.987	305.25
296.217	321.25
296.448	325.25
296.679	278.25
296.909	284.25
297.14	282.25
297.37	298.25
297.601	293.25
297.831	293.25
298.062	282.25
298.292	296.25
298.523	296.25
298.753	301.25
298.984	286.25
299.214	283.25
299.445	294.25
299.675	280.25
299.905	300.25
300.136	288.25
300.366	308.25
300.597	299.25
300.827	298.25
301.057	312.25
301.288	317.25
301.518	311.25
301.748	309.25
301.979	304.25
302.209	305.25
302.439	316.25
302.669	320.25
302.9	304.25
303.13	314.25
303.36	306.25
303.59	306.25
303.82	316.25
304.051	320.25
304.281	329.25
304.511	300.25
304.741	310.25
304.971	310.25
305.201	303.25
305.431	299.25
305.661	318.25
305.891	300.25
306.121	316.25
306.352	317.25
306.582	317.25
306.812	309.25
307.042	327.25
307.272	312.25
307.502	315.25
307.731	304.25
307.961	320.25
308.191	305.25
308.421	331.25
308.651	320.25
308.881	323.25
309.111	317.25
309.341	326.25
309.571	337.25
309.8	327.25
310.03	324.25
310.26	344.25
310.49	337.25
310.72	348.25
310.949	354.25
311.179	364.25
311.409	363.25
311.639	352.25
311.868	353.25
312.098	358.25
312.328	358.25
312.557	382.25
312.787	376.25
313.017	393.25
313.246	381.25
313.476	350.25
313.706	360.25
313.935	357.25
314.165	380.25
314.394	387.25
314.624	358.25
314.853	364.25
315.083	342.25
315.312	346.25
315.542	358.25
315.771	371.25
316.001	369.25
316.23	361.25
316.46	365.25
316.689	375.25
316.919	351.25
317.148	362.25
317.377	376.25
317.607	372.25
317.836	370.25
318.065	336.25
318.295	367.25
318.524	356.25
318.753	362.25
318.983	364.25
319.212	381.25
319.441	355.25
319.67	347.25
319.9	350.25
320.129	377.25
320.358	368.25
320.587	372.25
320.816	375.25
321.046	379.25
321.275	380.25
321.504	410.25
321.733	378.25
321.962	377.25
322.191	375.25
322.42	386.25
322.649	400.25
322.878	434.25
323.108	432.25
323.337	439.25
323.566	463.25
323.795	479.25
324.024	521.25
324.253	634.25
324.482	885.25
324.71	1350.25
324.939	2058.25
325.168	1787.25
325.397	861.25
325.626	600.25
325.855	520.25
326.084	467.25
326.313	462.25
326.542	443.25
326.77	499.25
326.999	593.25
327.228	803.25
327.457	1198.25
327.686	1579.25
327.914	1000.25
328.143	647.25
328.372	544.25
328.6	534.25
328.829	493.25
329.058	514.25
329.287	543.25
329.515	490.25
329.744	471.25
329.972	450.25
330.201	478.25
330.43	508.25
330.658	532.25
330.887	550.25
331.115	544.25
331.344	475.25
331.572	447.25
331.801	455.25
332.03	448.25
332.258	442.25
332.486	422.25
332.715	435.25
332.943	438.25
333.172	445.25
333.4	442.25
333.629	434.25
333.857	420.25
334.085	464.25
334.314	477.25
334.542	488.25
334.771	510.25
334.999	472.25
335.227	433.25
335.455	445.25
335.684	437.25
335.912	454.25
336.14	443.25
336.369	427.25
336.597	438.25
336.825	450.25
337.053	417.25
337.281	432.25
337.51	428.25
337.738	428.25
337.966	420.25
338.194	420.25
338.422	430.25
338.65	425.25
338.878	403.25
339.106	414.25
339.334	396.25
339.562	406.25
339.79	428.25
340.018	399.25
340.246	413.25
340.474	410.25
340.702	425.25
340.93	422.25
341.158	412.25
341.386	395.25
341.614	436.25
341.842	428.25
342.07	422.25
342.298	392.25
342.526	395.25
342.754	395.25
342.981	403.25
343.209	417.25
343.437	405.25
343.665	385.25
343.893	420.25
344.12	422.25
344.348	421.25
344.576	430.25
344.804	413.25
345.031	428.25
345.259	426.25
345.487	435.25
345.714	432.25
345.942	430.25
346.17	397.25
346.397	410.25
346.625	427.25
346.853	408.25
347.08	404.25
347.308	409.25
347.535	416.25
347.763	417.25
347.99	401.25
348.218	403.25
348.445	416.25
348.673	416.25
348.9	408.25
349.128	416.25
349.355	391.25
349.583	394.25
349.81	373.25
350.037	393.25
350.265	407.25
350.492	393.25
350.72	405.25
350.947	393.25
351.174	409.25
351.402	418.25
351.629	406.25
351.856	445.25
352.083	408.25
352.311	424.25
352.538	411.25
352.765	418.25
352.992	408.25
353.22	402.25
353.447	407.25
353.674	399.25
353.901	380.25
354.128	390.25
354.355	389.25
354.583	402.25
354.81	372.25
355.037	388.25
355.264	377.25
355.491	368.25
355.718	373.25
355.945	400.25
356.172	381.25
356.399	394.25
356.626	383.25
356.853	363.25
357.08	395.25
357.307	397.25
357.534	389.25
357.761	383.25
357.988	371.25
358.215	408.25
358.441	386.25
358.668	394.25
358.895	384.25
359.122	425.25
359.349	413.25
359.576	435.25
359.802	427.25
360.029	444.25
360.256	458.25
360.483	436.25
360.709	423.25
360.936	411.25
361.163	385.25
361.39	419.25
361.616	414.25
361.843	414.25
362.07	402.25
362.296	422.25
362.523	386.25
362.749	430.25
362.976	411.25
363.203	396.25
363.429	398.25
363.656	411.25
363.882	395.25
364.109	409.25
364.335	390.25
364.562	376.25
364.788	398.25
365.015	410.25
365.241	386.25
365.468	417.25
365.694	413.25
365.92	437.25
366.147	394.25
366.373	371.25
366.599	397.25
366.826	392.25
367.052	379.25
367.278	394.25
367.505	389.25
367.731	414.25
367.957	390.25
368.184	404.25
368.41	400.25
368.636	426.25
368.862	423.25
369.089	411.25
369.315	406.25
369.541	418.25
369.767	393.25
369.993	400.25
370.219	411.25
370.445	406.25
370.672	393.25
370.898	398.25
371.124	376.25
371.35	423.25
371.576	389.25
371.802	402.25
372.028	388.25
372.254	380.25
372.48	409.25
372.706	408.25
372.932	416.25
373.158	424.25
373.384	423.25
373.61	410.25
373.835	403.25
374.061	391.25
374.287	413.25
374.513	406.25
374.739	436.25
374.965	410.25
375.191	419.25
375.416	399.25
375.642	406.25
375.868	419.25
376.094	411.25
376.319	413.25
376.545	410.25
376.771	404.25
376.997	409.25
377.222	403.25
377.448	414.25
377.674	400.25
377.899	416.25
378.125	389.25
378.35	394.25
378.576	398.25
378.802	399.25
379.027	419.25
379.253	406.25
379.478	396.25
379.704	395.25
379.929	419.25
380.155	418.25
380.38	383.25
380.606	401.25
380.831	408.25
381.057	402.25
381.282	415.25
381.507	418.25
381.733	421.25
381.958	429.25
382.184	427.25
382.409	413.25
382.634	424.25
382.86	432.25
383.085	438.25
383.31	450.25
383.535	441.25
383.761	451.25
383.986	434.25
384.211	434.25
384.436	442.25
384.662	432.25
384.887	440.25
385.112	433.25
385.337	430.25
385.562	432.25
385.787	458.25
386.013	457.25
386.238	473.25
386.463	467.25
386.688	446.25
386.913	455.25
387.138	440.25
387.363	463.25
387.588	454.25
387.813	453.25
388.038	449.25
388.263	466.25
388.488	468.25
388.713	454.25
388.938	455.25
389.163	457.25
389.387	476.25
389.612	460.25
389.837	438.25
390.062	445.25
390.287	450.25
390.512	453.25
390.736	455.25
390.961	468.25
391.186	465.25
391.411	479.25
391.636	441.25
391.86	464.25
392.085	483.25
392.31	484.25
392.534	480.25
392.759	475.25
392.984	474.25
393.208	451.25
393.433	478.25
393.658	465.25
393.882	452.25
394.107	454.25
394.331	469.25
394.556	483.25
394.78	474.25
395.005	466.25
395.229	472.25
395.454	491.25
395.678	483.25
395.903	473.25
396.127	483.25
396.352	532.25
396.576	485.25
396.801	480.25
397.025	485.25
397.249	505.25
397.474	474.25
397.698	526.25
397.922	520.25
398.147	518.25
398.371	517.25
398.595	522.25
398.82	507.25
399.044	577.25
399.268	552.25
399.492	577.25
399.717	627.25
399.941	615.25
400.165	628.25
400.389	671.25
400.613	617.25
400.837	549.25
401.062	546.25
401.286	549.25
401.51	562.25
401.734	523.25
401.958	528.25
402.182	538.25
402.406	546.25
402.63	538.25
402.854	562.25
403.078	568.25
403.302	537.25
403.526	540.25
403.75	554.25
403.974	537.25
404.198	550.25
404.422	566.25
404.645	562.25
404.869	562.25
405.093	607.25
405.317	604.25
405.541	658.25
405.765	584.25
405.988	576.25
406.212	600.25
406.436	583.25
406.66	589.25
406.883	568.25
407.107	589.25
407.331	668.25
407.555	752.25
407.778	752.25
408.002	672.25
408.226	637.25
408.449	602.25
408.673	625.25
408.896	637.25
409.12	660.25
409.344	644.25
409.567	565.25
409.791	578.25
410.014	576.25
410.238	565.25
410.461	548.25
410.685	549.25
410.908	578.25
411.132	590.25
411.355	614.25
411.578	636.25
411.802	562.25
412.025	552.25
412.249	564.25
412.472	584.25
412.695	604.25
412.919	586.25
413.142	562.25
413.365	550.25
413.589	566.25
413.812	543.25
414.035	522.25
414.258	530.25
414.482	543.25
414.705	548.25
414.928	546.25
415.151	512.25
415.374	526.25
415.597	512.25
415.821	512.25
416.044	523.25
416.267	521.25
416.49	525.25
416.713	518.25
416.936	513.25
417.159	513.25
417.382	501.25
417.605	525.25
417.828	540.25
418.051	543.25
418.274	540.25
418.497	535.25
418.72	530.25
418.943	518.25
419.166	524.25
419.389	554.25
419.611	549.25
419.834	561.25
420.057	560.25
420.28	546.25
420.503	528.25
420.726	531.25
420.948	540.25
421.171	591.25
421.394	632.25
421.617	569.25
421.839	520.25
422.062	532.25
422.285	557.25
422.507	603.25
422.73	707.25
422.953	648.25
423.175	584.25
423.398	569.25
423.621	560.25
423.843	587.25
424.066	572.25
424.288	579.25
424.511	601.25
424.733	629.25
424.956	755.25
425.178	704.25
425.401	686.25
425.623	714.25
425.846	616.25
426.068	582.25
426.291	586.25
426.513	548.25
426.735	595.25
426.958	614.25
427.18	679.25
427.402	852.25
427.625	910.25
427.847	790.25
428.069	667.25
428.292	620.25
428.514	584.25
428.736	541.25
428.958	559.25
429.181	524.25
429.403	546.25
429.625	539.25
429.847	557.25
430.069	640.25
430.292	656.25
430.514	556.25
430.736	543.25
430.958	530.25
431.18	512.25
431.402	502.25
431.624	510.25
431.846	511.25
432.068	522.25
432.29	500.25
432.512	514.25
432.734	534.25
432.956	522.25
433.178	534.25
433.4	541.25
433.622	514.25
433.844	512.25
434.066	533.25
434.287	499.25
434.509	529.25
434.731	544.25
434.953	524.25
435.175	548.25
435.397	589.25
435.618	570.25
435.84	625.25
436.062	704.25
436.284	816.25
436.505	665.25
436.727	602.25
436.949	564.25
437.17	520.25
437.392	532.25
437.614	546.25
437.835	579.25
438.057	659.25
438.278	746.25
438.5	753.25
438.721	850.25
438.943	840.25
439.165	638.25
439.386	586.25
439.608	585.25
439.829	555.25
440.05	631.25
440.272	664.25
440.493	603.25
440.715	594.25
440.936	546.25
441.158	549.25
441.379	538.25
441.6	550.25
441.822	548.25
442.043	616.25
442.264	659.25
442.486	714.25
442.707	612.25
442.928	589.25
443.149	596.25
443.371	600.25
443.592	641.25
443.813	756.25
444.034	806.25
444.255	654.25
444.476	604.25
444.698	609.25
444.919	599.25
445.14	673.25
445.361	634.25
445.582	608.25
445.803	672.25
446.024	772.25
446.245	806.25
446.466	728.25
446.687	602.25
446.908	581.25
447.129	546.25
447.35	544.25
447.571	554.25
447.792	523.25
448.013	519.25
448.234	542.25
448.455	589.25
448.675	729.25
448.896	818.25
449.117	725.25
449.338	668.25
449.559	757.25
449.779	889.25
450	703.25
450.221	584.25
450.442	546.25
450.662	523.25
450.883	525.25
451.104	521.25
451.324	539.25
451.545	507.25
451.766	497.25
451.986	502.25
452.207	477.25
452.428	490.25
452.648	485.25
452.869	461.25
453.089	483.25
453.31	485.25
453.53	499.25
453.751	480.25
453.971	495.25
454.192	500.25
454.412	485.25
454.633	488.25
454.853	474.25
455.073	471.25
455.294	512.25
455.514	549.25
455.734	556.25
455.955	493.25
456.175	468.25
456.395	460.25
456.616	452.25
456.836	451.25
457.056	456.25
457.276	462.25
457.497	442.25
457.717	473.25
457.937	464.25
458.157	451.25
458.377	464.25
458.598	505.25
458.818	527.25
459.038	604.25
459.258	642.25
459.478	556.25
459.698	564.25
459.918	505.25
460.138	518.25
460.358	516.25
460.578	548.25
460.798	534.25
461.018	550.25
461.238	535.25
461.458	532.25
461.678	514.25
461.898	536.25
462.118	536.25
462.338	539.25
462.558	562.25
462.777	554.25
462.997	599.25
463.217	592.25
463.437	618.25
463.657	578.25
463.876	576.25
464.096	589.25
464.316	586.25
464.536	569.25
464.755	577.25
464.975	575.25
465.195	602.25
465.414	632.25
465.634	589.25
465.854	566.25
466.073	561.25
466.293	502.25
466.512	518.25
466.732	500.25
466.951	480.25
467.171	491.25
467.391	496.25
467.61	510.25
467.829	517.25
468.049	499.25
468.268	521.25
468.488	480.25
468.707	478.25
468.927	505.25
469.146	470.25
469.365	488.25
469.585	485.25
469.804	500.25
470.023	483.25
470.243	492.25
470.462	501.25
470.681	498.25
470.901	525.25
471.12	507.25
471.339	521.25
471.558	497.25
471.777	512.25
471.997	471.25
472.216	507.25
472.435	524.25
472.654	530.25
472.873	496.25
473.092	504.25
473.311	489.25
473.53	507.25
473.749	519.25
473.968	555.25
474.187	605.25
474.406	668.25
474.625	559.25
474.844	526.25
475.063	512.25
475.282	537.25
475.501	509.25
475.72	500.25
475.939	493.25
476.158	522.25
476.377	536.25
476.596	529.25
476.814	536.25
477.033	551.25
477.252	542.25
477.471	538.25
477.69	564.25
477.908	546.25
478.127	546.25
478.346	557.25
478.564	562.25
478.783	566.25
479.002	570.25
479.22	575.25
479.439	592.25
479.658	584.25
479.876	624.25
480.095	612.25
480.313	624.25
480.532	635.25
480.751	656.25
480.969	629.25
481.188	664.25
481.406	681.25
481.624	622.25
481.843	599.25
482.061	604.25
482.28	589.25
482.498	614.25
482.717	596.25
482.935	570.25
483.153	595.25
483.372	579.25
483.59	585.25
483.808	608.25
484.027	590.25
484.245	591.25
484.463	596.25
484.681	621.25
484.9	601.25
485.118	601.25
485.336	588.25
485.554	592.25
485.772	610.25
485.99	600.25
486.209	595.25
486.427	588.25
486.645	637.25
486.863	653.25
487.081	632.25
487.299	606.25
487.517	620.25
487.735	629.25
487.953	610.25
488.171	626.25
488.389	621.25
488.607	623.25
488.825	630.25
489.043	610.25
489.261	636.25
489.479	640.25
489.696	630.25
489.914	654.25
490.132	637.25
490.35	638.25
490.568	642.25
490.786	640.25
491.003	663.25
491.221	694.25
491.439	701.25
491.657	714.25
491.874	700.25
492.092	699.25
492.31	707.25
492.527	704.25
492.745	714.25
492.963	701.25
493.18	728.25
493.398	708.25
493.615	709.25
493.833	711.25
494.05	732.25
494.268	725.25
494.485	711.25
494.703	690.25
494.92	725.25
495.138	736.25
495.355	752.25
495.573	745.25
495.79	740.25
496.008	750.25
496.225	746.25
496.442	735.25
496.66	755.25
496.877	756.25
497.094	744.25
497.312	769.25
497.529	765.25
497.746	780.25
497.963	794.25
498.181	802.25
498.398	824.25
498.615	826.25
498.832	824.25
499.049	877.25
499.267	858.25
499.484	901.25
499.701	972.25
499.918	980.25
500.135	1019.25
500.352	1058.25
500.569	1084.25
500.786	1109.25
501.003	1100.25
501.22	1039.25
501.437	1027.25
501.654	993.25
501.871	973.25
