Data from 1978.PennyLincolnUp.Lamp.En5.5.200Scan.071719.P1_HRD10591_16-11-55-865.txt Node
Date: Thu Jul 18 16:11:55 EDT 2019
User: cochatt
Spectrometer: HR+D1059
Trigger mode: 1
Integration Time (sec): 1.000000E-1
Scans to average: 1
Electric dark correction enabled: true
Nonlinearity correction enabled: false
Boxcar width: 0
XAxis mode: Wavelengths
Number of Pixels in Spectrum: 2048
>>>>>Begin Spectral Data<<<<<
223.165	-6.69
223.4	-6.69
223.635	-6.69
223.869	-15.69
224.104	-31.69
224.338	-4.69
224.573	-15.69
224.808	-10.69
225.042	-3.69
225.277	-7.69
225.511	-3.69
225.746	8.31
225.98	-4.69
226.215	18.31
226.449	12.31
226.683	33.31
226.918	15.31
227.152	17.31
227.387	33.31
227.621	23.31
227.856	33.31
228.09	31.31
228.324	54.31
228.559	48.31
228.793	68.31
229.027	79.31
229.262	92.31
229.496	102.31
229.73	101.31
229.964	120.31
230.199	122.31
230.433	105.31
230.667	96.31
230.901	104.31
231.136	123.31
231.37	103.31
231.604	104.31
231.838	105.31
232.072	88.31
232.306	103.31
232.541	115.31
232.775	104.31
233.009	96.31
233.243	85.31
233.477	106.31
233.711	107.31
233.945	104.31
234.179	124.31
234.413	118.31
234.647	111.31
234.881	114.31
235.115	104.31
235.349	106.31
235.583	107.31
235.817	106.31
236.051	113.31
236.285	119.31
236.519	105.31
236.753	117.31
236.987	113.31
237.221	150.31
237.455	177.31
237.689	139.31
237.922	114.31
238.156	112.31
238.39	98.31
238.624	110.31
238.858	103.31
239.091	106.31
239.325	110.31
239.559	108.31
239.793	107.31
240.027	130.31
240.26	123.31
240.494	131.31
240.728	137.31
240.961	125.31
241.195	140.31
241.429	122.31
241.662	118.31
241.896	123.31
242.13	124.31
242.363	114.31
242.597	130.31
242.83	108.31
243.064	121.31
243.298	132.31
243.531	121.31
243.765	128.31
243.998	118.31
244.232	122.31
244.465	116.31
244.699	117.31
244.932	131.31
245.166	122.31
245.399	122.31
245.633	135.31
245.866	138.31
246.099	126.31
246.333	137.31
246.566	119.31
246.8	127.31
247.033	125.31
247.266	132.31
247.5	125.31
247.733	143.31
247.966	132.31
248.2	140.31
248.433	148.31
248.666	138.31
248.899	161.31
249.133	151.31
249.366	164.31
249.599	159.31
249.832	149.31
250.066	167.31
250.299	150.31
250.532	153.31
250.765	179.31
250.998	173.31
251.231	174.31
251.465	176.31
251.698	168.31
251.931	163.31
252.164	146.31
252.397	148.31
252.63	176.31
252.863	172.31
253.096	174.31
253.329	176.31
253.562	168.31
253.795	174.31
254.028	178.31
254.261	171.31
254.494	176.31
254.727	180.31
254.96	207.31
255.193	195.31
255.426	180.31
255.659	180.31
255.892	183.31
256.124	178.31
256.357	192.31
256.59	177.31
256.823	184.31
257.056	166.31
257.289	196.31
257.521	164.31
257.754	171.31
257.987	172.31
258.22	182.31
258.452	181.31
258.685	178.31
258.918	172.31
259.151	183.31
259.383	188.31
259.616	178.31
259.849	194.31
260.081	191.31
260.314	198.31
260.547	208.31
260.779	204.31
261.012	200.31
261.244	194.31
261.477	200.31
261.71	182.31
261.942	190.31
262.175	181.31
262.407	193.31
262.64	187.31
262.872	169.31
263.105	161.31
263.337	193.31
263.57	198.31
263.802	166.31
264.035	192.31
264.267	182.31
264.499	184.31
264.732	185.31
264.964	190.31
265.197	194.31
265.429	164.31
265.661	192.31
265.894	179.31
266.126	207.31
266.358	199.31
266.591	184.31
266.823	198.31
267.055	197.31
267.287	186.31
267.52	194.31
267.752	205.31
267.984	192.31
268.216	179.31
268.448	179.31
268.681	186.31
268.913	209.31
269.145	204.31
269.377	242.31
269.609	214.31
269.841	218.31
270.073	215.31
270.306	238.31
270.538	229.31
270.77	229.31
271.002	228.31
271.234	209.31
271.466	220.31
271.698	256.31
271.93	235.31
272.162	233.31
272.394	267.31
272.626	231.31
272.858	222.31
273.09	215.31
273.322	227.31
273.553	218.31
273.785	225.31
274.017	224.31
274.249	223.31
274.481	234.31
274.713	233.31
274.945	223.31
275.176	218.31
275.408	210.31
275.64	230.31
275.872	234.31
276.104	231.31
276.335	227.31
276.567	234.31
276.799	230.31
277.031	243.31
277.262	264.31
277.494	239.31
277.726	251.31
277.957	234.31
278.189	222.31
278.421	240.31
278.652	232.31
278.884	233.31
279.115	226.31
279.347	251.31
279.579	233.31
279.81	231.31
280.042	230.31
280.273	219.31
280.505	230.31
280.736	242.31
280.968	241.31
281.199	233.31
281.431	244.31
281.662	240.31
281.894	225.31
282.125	246.31
282.356	232.31
282.588	256.31
282.819	248.31
283.051	228.31
283.282	238.31
283.513	234.31
283.745	261.31
283.976	233.31
284.207	231.31
284.439	233.31
284.67	239.31
284.901	242.31
285.132	247.31
285.364	253.31
285.595	243.31
285.826	252.31
286.057	255.31
286.288	254.31
286.52	256.31
286.751	242.31
286.982	239.31
287.213	247.31
287.444	252.31
287.675	252.31
287.906	245.31
288.138	267.31
288.369	271.31
288.6	267.31
288.831	269.31
289.062	254.31
289.293	238.31
289.524	249.31
289.755	256.31
289.986	263.31
290.217	242.31
290.448	254.31
290.679	252.31
290.91	231.31
291.141	258.31
291.371	262.31
291.602	275.31
291.833	245.31
292.064	251.31
292.295	268.31
292.526	258.31
292.757	251.31
292.987	246.31
293.218	269.31
293.449	248.31
293.68	243.31
293.91	253.31
294.141	264.31
294.372	258.31
294.603	245.31
294.833	263.31
295.064	249.31
295.295	264.31
295.525	243.31
295.756	287.31
295.987	260.31
296.217	264.31
296.448	294.31
296.679	271.31
296.909	259.31
297.14	263.31
297.37	279.31
297.601	271.31
297.831	262.31
298.062	279.31
298.292	264.31
298.523	279.31
298.753	277.31
298.984	278.31
299.214	279.31
299.445	262.31
299.675	269.31
299.905	268.31
300.136	282.31
300.366	282.31
300.597	273.31
300.827	284.31
301.057	284.31
301.288	286.31
301.518	287.31
301.748	294.31
301.979	305.31
302.209	289.31
302.439	306.31
302.669	301.31
302.9	288.31
303.13	267.31
303.36	299.31
303.59	305.31
303.82	310.31
304.051	306.31
304.281	309.31
304.511	304.31
304.741	281.31
304.971	284.31
305.201	277.31
305.431	290.31
305.661	284.31
305.891	287.31
306.121	321.31
306.352	272.31
306.582	266.31
306.812	290.31
307.042	281.31
307.272	288.31
307.502	280.31
307.731	288.31
307.961	310.31
308.191	272.31
308.421	298.31
308.651	318.31
308.881	292.31
309.111	291.31
309.341	291.31
309.571	306.31
309.8	287.31
310.03	299.31
310.26	344.31
310.49	310.31
310.72	312.31
310.949	328.31
311.179	344.31
311.409	325.31
311.639	323.31
311.868	308.31
312.098	316.31
312.328	327.31
312.557	330.31
312.787	340.31
313.017	322.31
313.246	329.31
313.476	340.31
313.706	320.31
313.935	342.31
314.165	350.31
314.394	349.31
314.624	355.31
314.853	341.31
315.083	323.31
315.312	325.31
315.542	326.31
315.771	312.31
316.001	328.31
316.23	337.31
316.46	316.31
316.689	354.31
316.919	342.31
317.148	328.31
317.377	335.31
317.607	324.31
317.836	315.31
318.065	327.31
318.295	330.31
318.524	331.31
318.753	320.31
318.983	332.31
319.212	324.31
319.441	348.31
319.67	344.31
319.9	333.31
320.129	321.31
320.358	320.31
320.587	327.31
320.816	341.31
321.046	353.31
321.275	346.31
321.504	347.31
321.733	338.31
321.962	339.31
322.191	372.31
322.42	349.31
322.649	368.31
322.878	352.31
323.108	360.31
323.337	388.31
323.566	400.31
323.795	409.31
324.024	448.31
324.253	514.31
324.482	674.31
324.71	1083.31
324.939	1570.31
325.168	1382.31
325.397	676.31
325.626	496.31
325.855	439.31
326.084	423.31
326.313	407.31
326.542	423.31
326.77	435.31
326.999	487.31
327.228	661.31
327.457	954.31
327.686	1206.31
327.914	785.31
328.143	539.31
328.372	479.31
328.6	456.31
328.829	436.31
329.058	439.31
329.287	450.31
329.515	425.31
329.744	412.31
329.972	405.31
330.201	415.31
330.43	446.31
330.658	450.31
330.887	476.31
331.115	471.31
331.344	420.31
331.572	402.31
331.801	420.31
332.03	420.31
332.258	395.31
332.486	398.31
332.715	388.31
332.943	393.31
333.172	407.31
333.4	388.31
333.629	414.31
333.857	415.31
334.085	412.31
334.314	422.31
334.542	426.31
334.771	447.31
334.999	439.31
335.227	421.31
335.455	412.31
335.684	421.31
335.912	401.31
336.14	401.31
336.369	373.31
336.597	405.31
336.825	391.31
337.053	394.31
337.281	388.31
337.51	407.31
337.738	374.31
337.966	392.31
338.194	390.31
338.422	410.31
338.65	403.31
338.878	385.31
339.106	394.31
339.334	385.31
339.562	370.31
339.79	374.31
340.018	380.31
340.246	385.31
340.474	400.31
340.702	390.31
340.93	392.31
341.158	386.31
341.386	374.31
341.614	382.31
341.842	372.31
342.07	371.31
342.298	380.31
342.526	351.31
342.754	373.31
342.981	370.31
343.209	361.31
343.437	376.31
343.665	386.31
343.893	414.31
344.12	404.31
344.348	414.31
344.576	392.31
344.804	392.31
345.031	370.31
345.259	400.31
345.487	387.31
345.714	396.31
345.942	379.31
346.17	372.31
346.397	361.31
346.625	376.31
346.853	375.31
347.08	395.31
347.308	360.31
347.535	361.31
347.763	383.31
347.99	373.31
348.218	384.31
348.445	385.31
348.673	384.31
348.9	368.31
349.128	371.31
349.355	348.31
349.583	371.31
349.81	366.31
350.037	370.31
350.265	350.31
350.492	368.31
350.72	354.31
350.947	358.31
351.174	356.31
351.402	361.31
351.629	400.31
351.856	382.31
352.083	397.31
352.311	382.31
352.538	375.31
352.765	368.31
352.992	375.31
353.22	383.31
353.447	367.31
353.674	361.31
353.901	353.31
354.128	376.31
354.355	357.31
354.583	352.31
354.81	370.31
355.037	373.31
355.264	361.31
355.491	366.31
355.718	360.31
355.945	350.31
356.172	356.31
356.399	364.31
356.626	363.31
356.853	369.31
357.08	340.31
357.307	341.31
357.534	358.31
357.761	357.31
357.988	370.31
358.215	356.31
358.441	350.31
358.668	362.31
358.895	360.31
359.122	364.31
359.349	367.31
359.576	362.31
359.802	386.31
360.029	393.31
360.256	382.31
360.483	373.31
360.709	386.31
360.936	374.31
361.163	377.31
361.39	365.31
361.616	377.31
361.843	359.31
362.07	358.31
362.296	383.31
362.523	384.31
362.749	382.31
362.976	353.31
363.203	370.31
363.429	361.31
363.656	345.31
363.882	371.31
364.109	364.31
364.335	357.31
364.562	376.31
364.788	384.31
365.015	369.31
365.241	360.31
365.468	380.31
365.694	380.31
365.92	385.31
366.147	374.31
366.373	369.31
366.599	356.31
366.826	361.31
367.052	376.31
367.278	370.31
367.505	376.31
367.731	382.31
367.957	384.31
368.184	378.31
368.41	365.31
368.636	360.31
368.862	372.31
369.089	384.31
369.315	372.31
369.541	382.31
369.767	369.31
369.993	383.31
370.219	363.31
370.445	386.31
370.672	371.31
370.898	362.31
371.124	353.31
371.35	377.31
371.576	378.31
371.802	390.31
372.028	379.31
372.254	394.31
372.48	384.31
372.706	371.31
372.932	399.31
373.158	390.31
373.384	362.31
373.61	378.31
373.835	371.31
374.061	376.31
374.287	382.31
374.513	408.31
374.739	407.31
374.965	394.31
375.191	391.31
375.416	374.31
375.642	395.31
375.868	406.31
376.094	390.31
376.319	371.31
376.545	361.31
376.771	386.31
376.997	376.31
377.222	388.31
377.448	379.31
377.674	385.31
377.899	380.31
378.125	377.31
378.35	382.31
378.576	394.31
378.802	407.31
379.027	390.31
379.253	376.31
379.478	393.31
379.704	387.31
379.929	368.31
380.155	390.31
380.38	391.31
380.606	386.31
380.831	374.31
381.057	399.31
381.282	384.31
381.507	408.31
381.733	395.31
381.958	393.31
382.184	393.31
382.409	396.31
382.634	392.31
382.86	403.31
383.085	393.31
383.31	411.31
383.535	374.31
383.761	382.31
383.986	390.31
384.211	399.31
384.436	409.31
384.662	412.31
384.887	409.31
385.112	422.31
385.337	423.31
385.562	418.31
385.787	432.31
386.013	440.31
386.238	426.31
386.463	439.31
386.688	444.31
386.913	413.31
387.138	428.31
387.363	426.31
387.588	422.31
387.813	431.31
388.038	408.31
388.263	457.31
388.488	431.31
388.713	446.31
388.938	435.31
389.163	422.31
389.387	444.31
389.612	424.31
389.837	436.31
390.062	419.31
390.287	425.31
390.512	426.31
390.736	389.31
390.961	451.31
391.186	440.31
391.411	424.31
391.636	418.31
391.86	453.31
392.085	458.31
392.31	450.31
392.534	454.31
392.759	429.31
392.984	447.31
393.208	438.31
393.433	450.31
393.658	447.31
393.882	433.31
394.107	432.31
394.331	438.31
394.556	432.31
394.78	440.31
395.005	439.31
395.229	448.31
395.454	452.31
395.678	449.31
395.903	471.31
396.127	466.31
396.352	455.31
396.576	446.31
396.801	460.31
397.025	441.31
397.249	470.31
397.474	494.31
397.698	462.31
397.922	455.31
398.147	505.31
398.371	495.31
398.595	469.31
398.82	512.31
399.044	518.31
399.268	519.31
399.492	568.31
399.717	574.31
399.941	614.31
400.165	611.31
400.389	590.31
400.613	593.31
400.837	538.31
401.062	531.31
401.286	488.31
401.51	532.31
401.734	505.31
401.958	510.31
402.182	506.31
402.406	515.31
402.63	514.31
402.854	520.31
403.078	518.31
403.302	529.31
403.526	531.31
403.75	543.31
403.974	511.31
404.198	510.31
404.422	530.31
404.645	520.31
404.869	518.31
405.093	577.31
405.317	580.31
405.541	613.31
405.765	566.31
405.988	529.31
406.212	534.31
406.436	547.31
406.66	560.31
406.883	542.31
407.107	581.31
407.331	613.31
407.555	676.31
407.778	644.31
408.002	610.31
408.226	566.31
408.449	577.31
408.673	560.31
408.896	578.31
409.12	622.31
409.344	591.31
409.567	539.31
409.791	544.31
410.014	536.31
410.238	526.31
410.461	517.31
410.685	518.31
410.908	507.31
411.132	561.31
411.355	597.31
411.578	587.31
411.802	538.31
412.025	511.31
412.249	518.31
412.472	543.31
412.695	565.31
412.919	551.31
413.142	526.31
413.365	498.31
413.589	510.31
413.812	495.31
414.035	497.31
414.258	527.31
414.482	502.31
414.705	498.31
414.928	490.31
415.151	491.31
415.374	480.31
415.597	478.31
415.821	490.31
416.044	500.31
416.267	487.31
416.49	484.31
416.713	498.31
416.936	504.31
417.159	479.31
417.382	496.31
417.605	476.31
417.828	507.31
418.051	505.31
418.274	510.31
418.497	483.31
418.72	483.31
418.943	514.31
419.166	490.31
419.389	540.31
419.611	537.31
419.834	502.31
420.057	532.31
420.28	519.31
420.503	508.31
420.726	506.31
420.948	514.31
421.171	543.31
421.394	599.31
421.617	526.31
421.839	487.31
422.062	510.31
422.285	520.31
422.507	564.31
422.73	620.31
422.953	597.31
423.175	540.31
423.398	520.31
423.621	519.31
423.843	522.31
424.066	524.31
424.288	524.31
424.511	552.31
424.733	583.31
424.956	670.31
425.178	634.31
425.401	618.31
425.623	643.31
425.846	538.31
426.068	529.31
426.291	546.31
426.513	546.31
426.735	541.31
426.958	555.31
427.18	617.31
427.402	755.31
427.625	818.31
427.847	689.31
428.069	610.31
428.292	564.31
428.514	529.31
428.736	491.31
428.958	529.31
429.181	488.31
429.403	483.31
429.625	510.31
429.847	544.31
430.069	554.31
430.292	577.31
430.514	502.31
430.736	482.31
430.958	501.31
431.18	480.31
431.402	517.31
431.624	480.31
431.846	468.31
432.068	486.31
432.29	495.31
432.512	473.31
432.734	492.31
432.956	488.31
433.178	484.31
433.4	495.31
433.622	503.31
433.844	470.31
434.066	498.31
434.287	496.31
434.509	509.31
434.731	504.31
434.953	486.31
435.175	503.31
435.397	532.31
435.618	534.31
435.84	543.31
436.062	650.31
436.284	700.31
436.505	597.31
436.727	526.31
436.949	509.31
437.17	487.31
437.392	507.31
437.614	496.31
437.835	534.31
438.057	610.31
438.278	670.31
438.5	675.31
438.721	751.31
438.943	745.31
439.165	594.31
439.386	542.31
439.608	538.31
439.829	528.31
440.05	539.31
440.272	586.31
440.493	548.31
440.715	528.31
440.936	505.31
441.158	490.31
441.379	502.31
441.6	510.31
441.822	521.31
442.043	571.31
442.264	612.31
442.486	650.31
442.707	574.31
442.928	553.31
443.149	547.31
443.371	551.31
443.592	580.31
443.813	663.31
444.034	723.31
444.255	624.31
444.476	556.31
444.698	554.31
444.919	544.31
445.14	632.31
445.361	589.31
445.582	575.31
445.803	623.31
446.024	695.31
446.245	692.31
446.466	660.31
446.687	571.31
446.908	528.31
447.129	501.31
447.35	504.31
447.571	494.31
447.792	479.31
448.013	492.31
448.234	518.31
448.455	538.31
448.675	635.31
448.896	717.31
449.117	626.31
449.338	601.31
449.559	690.31
449.779	820.31
450	623.31
450.221	523.31
450.442	508.31
450.662	455.31
450.883	470.31
451.104	486.31
451.324	470.31
451.545	440.31
451.766	457.31
451.986	445.31
452.207	447.31
452.428	440.31
452.648	458.31
452.869	457.31
453.089	439.31
453.31	479.31
453.53	411.31
453.751	431.31
453.971	443.31
454.192	447.31
454.412	427.31
454.633	414.31
454.853	451.31
455.073	452.31
455.294	464.31
455.514	486.31
455.734	487.31
455.955	447.31
456.175	439.31
456.395	447.31
456.616	450.31
456.836	417.31
457.056	440.31
457.276	422.31
457.497	423.31
457.717	444.31
457.937	439.31
458.157	455.31
458.377	424.31
458.598	445.31
458.818	501.31
459.038	547.31
459.258	575.31
459.478	518.31
459.698	492.31
459.918	510.31
460.138	482.31
460.358	513.31
460.578	496.31
460.798	502.31
461.018	499.31
461.238	504.31
461.458	515.31
461.678	501.31
461.898	512.31
462.118	490.31
462.338	528.31
462.558	530.31
462.777	547.31
462.997	544.31
463.217	552.31
463.437	586.31
463.657	564.31
463.876	524.31
464.096	550.31
464.316	555.31
464.536	549.31
464.755	551.31
464.975	537.31
465.195	537.31
465.414	578.31
465.634	545.31
465.854	508.31
466.073	522.31
466.293	486.31
466.512	475.31
466.732	461.31
466.951	460.31
467.171	469.31
467.391	467.31
467.61	475.31
467.829	482.31
468.049	474.31
468.268	454.31
468.488	479.31
468.707	437.31
468.927	436.31
469.146	444.31
469.365	466.31
469.585	451.31
469.804	434.31
470.023	460.31
470.243	466.31
470.462	467.31
470.681	483.31
470.901	475.31
471.12	483.31
471.339	492.31
471.558	467.31
471.777	491.31
471.997	467.31
472.216	483.31
472.435	481.31
472.654	484.31
472.873	458.31
473.092	455.31
473.311	458.31
473.53	476.31
473.749	469.31
473.968	507.31
474.187	574.31
474.406	582.31
474.625	538.31
474.844	490.31
475.063	476.31
475.282	468.31
475.501	487.31
475.72	511.31
475.939	494.31
476.158	496.31
476.377	488.31
476.596	472.31
476.814	511.31
477.033	504.31
477.252	514.31
477.471	514.31
477.69	532.31
477.908	516.31
478.127	524.31
478.346	532.31
478.564	507.31
478.783	522.31
479.002	538.31
479.22	546.31
479.439	554.31
479.658	572.31
479.876	583.31
480.095	565.31
480.313	589.31
480.532	568.31
480.751	585.31
480.969	578.31
481.188	608.31
481.406	644.31
481.624	562.31
481.843	572.31
482.061	560.31
482.28	556.31
482.498	562.31
482.717	569.31
482.935	532.31
483.153	544.31
483.372	551.31
483.59	563.31
483.808	562.31
484.027	583.31
484.245	579.31
484.463	553.31
484.681	546.31
484.9	563.31
485.118	571.31
485.336	569.31
485.554	572.31
485.772	590.31
485.99	582.31
486.209	572.31
486.427	596.31
486.645	584.31
486.863	580.31
487.081	579.31
487.299	570.31
487.517	584.31
487.735	567.31
487.953	576.31
488.171	577.31
488.389	578.31
488.607	587.31
488.825	596.31
489.043	586.31
489.261	608.31
489.479	598.31
489.696	595.31
489.914	596.31
490.132	598.31
490.35	596.31
490.568	608.31
490.786	604.31
491.003	616.31
491.221	642.31
491.439	620.31
491.657	642.31
491.874	647.31
492.092	642.31
492.31	632.31
492.527	675.31
492.745	648.31
492.963	656.31
493.18	644.31
493.398	664.31
493.615	651.31
493.833	660.31
494.05	651.31
494.268	654.31
494.485	672.31
494.703	642.31
494.92	663.31
495.138	662.31
495.355	679.31
495.573	665.31
495.79	658.31
496.008	698.31
496.225	667.31
496.442	672.31
496.66	660.31
496.877	683.31
497.094	702.31
497.312	673.31
497.529	695.31
497.746	711.31
497.963	711.31
498.181	782.31
498.398	778.31
498.615	788.31
498.832	822.31
499.049	809.31
499.267	851.31
499.484	884.31
499.701	914.31
499.918	943.31
500.135	981.31
500.352	1010.31
500.569	1044.31
500.786	1056.31
501.003	1029.31
501.22	999.31
501.437	969.31
501.654	926.31
501.871	898.31
502.088	866.31
