Data from 1978.PennyLincolnUp.Lamp.En5.5.200Scan.071719.P1_HRD10591_16-14-50-864.txt Node
Date: Thu Jul 18 16:14:50 EDT 2019
User: cochatt
Spectrometer: HR+D1059
Trigger mode: 1
Integration Time (sec): 1.000000E-1
Scans to average: 1
Electric dark correction enabled: true
Nonlinearity correction enabled: false
Boxcar width: 0
XAxis mode: Wavelengths
Number of Pixels in Spectrum: 2048
>>>>>Begin Spectral Data<<<<<
223.165	-18.5
223.4	-18.5
223.635	-18.5
223.869	-9.5
224.104	-14.5
224.338	-19.5
224.573	-4.5
224.808	-15.5
225.042	-1.5
225.277	-14.5
225.511	-3.5
225.746	-6.5
225.98	0.5
226.215	28.5
226.449	12.5
226.683	14.5
226.918	17.5
227.152	34.5
227.387	33.5
227.621	38.5
227.856	40.5
228.09	41.5
228.324	54.5
228.559	28.5
228.793	45.5
229.027	94.5
229.262	106.5
229.496	107.5
229.73	132.5
229.964	140.5
230.199	132.5
230.433	117.5
230.667	121.5
230.901	104.5
231.136	110.5
231.37	99.5
231.604	115.5
231.838	103.5
232.072	101.5
232.306	111.5
232.541	109.5
232.775	116.5
233.009	124.5
233.243	116.5
233.477	111.5
233.711	108.5
233.945	110.5
234.179	99.5
234.413	116.5
234.647	107.5
234.881	138.5
235.115	113.5
235.349	115.5
235.583	124.5
235.817	135.5
236.051	128.5
236.285	126.5
236.519	126.5
236.753	121.5
236.987	139.5
237.221	186.5
237.455	245.5
237.689	204.5
237.922	126.5
238.156	124.5
238.39	125.5
238.624	118.5
238.858	123.5
239.091	110.5
239.325	124.5
239.559	135.5
239.793	132.5
240.027	131.5
240.26	154.5
240.494	158.5
240.728	138.5
240.961	144.5
241.195	127.5
241.429	140.5
241.662	121.5
241.896	134.5
242.13	134.5
242.363	109.5
242.597	131.5
242.83	133.5
243.064	131.5
243.298	143.5
243.531	128.5
243.765	136.5
243.998	141.5
244.232	137.5
244.465	148.5
244.699	142.5
244.932	143.5
245.166	135.5
245.399	152.5
245.633	150.5
245.866	139.5
246.099	120.5
246.333	150.5
246.566	140.5
246.8	128.5
247.033	154.5
247.266	172.5
247.5	143.5
247.733	157.5
247.966	170.5
248.2	164.5
248.433	161.5
248.666	155.5
248.899	181.5
249.133	189.5
249.366	191.5
249.599	190.5
249.832	182.5
250.066	160.5
250.299	170.5
250.532	185.5
250.765	191.5
250.998	216.5
251.231	203.5
251.465	193.5
251.698	213.5
251.931	204.5
252.164	200.5
252.397	178.5
252.63	201.5
252.863	195.5
253.096	190.5
253.329	200.5
253.562	209.5
253.795	213.5
254.028	200.5
254.261	216.5
254.494	210.5
254.727	226.5
254.96	265.5
255.193	261.5
255.426	213.5
255.659	217.5
255.892	231.5
256.124	226.5
256.357	221.5
256.59	206.5
256.823	198.5
257.056	202.5
257.289	201.5
257.521	210.5
257.754	226.5
257.987	195.5
258.22	209.5
258.452	207.5
258.685	196.5
258.918	207.5
259.151	210.5
259.383	209.5
259.616	209.5
259.849	226.5
260.081	225.5
260.314	221.5
260.547	244.5
260.779	219.5
261.012	223.5
261.244	202.5
261.477	208.5
261.71	221.5
261.942	214.5
262.175	233.5
262.407	215.5
262.64	209.5
262.872	205.5
263.105	199.5
263.337	214.5
263.57	209.5
263.802	215.5
264.035	206.5
264.267	206.5
264.499	190.5
264.732	195.5
264.964	199.5
265.197	198.5
265.429	198.5
265.661	207.5
265.894	222.5
266.126	205.5
266.358	209.5
266.591	217.5
266.823	229.5
267.055	210.5
267.287	214.5
267.52	227.5
267.752	212.5
267.984	226.5
268.216	206.5
268.448	236.5
268.681	212.5
268.913	222.5
269.145	242.5
269.377	255.5
269.609	271.5
269.841	257.5
270.073	260.5
270.306	267.5
270.538	284.5
270.77	299.5
271.002	283.5
271.234	272.5
271.466	291.5
271.698	299.5
271.93	302.5
272.162	297.5
272.394	305.5
272.626	292.5
272.858	283.5
273.09	254.5
273.322	263.5
273.553	247.5
273.785	259.5
274.017	247.5
274.249	249.5
274.481	274.5
274.713	264.5
274.945	261.5
275.176	245.5
275.408	251.5
275.64	274.5
275.872	253.5
276.104	245.5
276.335	269.5
276.567	273.5
276.799	266.5
277.031	309.5
277.262	313.5
277.494	311.5
277.726	292.5
277.957	287.5
278.189	275.5
278.421	280.5
278.652	253.5
278.884	248.5
279.115	264.5
279.347	268.5
279.579	275.5
279.81	276.5
280.042	268.5
280.273	282.5
280.505	270.5
280.736	269.5
280.968	280.5
281.199	276.5
281.431	271.5
281.662	271.5
281.894	274.5
282.125	270.5
282.356	262.5
282.588	287.5
282.819	306.5
283.051	277.5
283.282	271.5
283.513	268.5
283.745	251.5
283.976	270.5
284.207	269.5
284.439	268.5
284.67	264.5
284.901	278.5
285.132	288.5
285.364	269.5
285.595	264.5
285.826	268.5
286.057	268.5
286.288	273.5
286.52	285.5
286.751	280.5
286.982	280.5
287.213	291.5
287.444	279.5
287.675	290.5
287.906	306.5
288.138	293.5
288.369	289.5
288.6	305.5
288.831	282.5
289.062	290.5
289.293	285.5
289.524	289.5
289.755	269.5
289.986	282.5
290.217	276.5
290.448	292.5
290.679	283.5
290.91	298.5
291.141	286.5
291.371	280.5
291.602	271.5
291.833	281.5
292.064	321.5
292.295	308.5
292.526	306.5
292.757	283.5
292.987	289.5
293.218	283.5
293.449	286.5
293.68	279.5
293.91	279.5
294.141	284.5
294.372	277.5
294.603	287.5
294.833	285.5
295.064	282.5
295.295	293.5
295.525	278.5
295.756	316.5
295.987	289.5
296.217	307.5
296.448	326.5
296.679	295.5
296.909	299.5
297.14	322.5
297.37	300.5
297.601	292.5
297.831	301.5
298.062	307.5
298.292	292.5
298.523	304.5
298.753	291.5
298.984	310.5
299.214	316.5
299.445	308.5
299.675	306.5
299.905	304.5
300.136	317.5
300.366	310.5
300.597	315.5
300.827	301.5
301.057	308.5
301.288	325.5
301.518	327.5
301.748	322.5
301.979	327.5
302.209	325.5
302.439	341.5
302.669	318.5
302.9	329.5
303.13	330.5
303.36	348.5
303.59	328.5
303.82	320.5
304.051	333.5
304.281	317.5
304.511	321.5
304.741	323.5
304.971	322.5
305.201	317.5
305.431	317.5
305.661	324.5
305.891	336.5
306.121	321.5
306.352	331.5
306.582	340.5
306.812	347.5
307.042	316.5
307.272	332.5
307.502	327.5
307.731	333.5
307.961	324.5
308.191	319.5
308.421	329.5
308.651	324.5
308.881	338.5
309.111	350.5
309.341	342.5
309.571	358.5
309.8	360.5
310.03	347.5
310.26	348.5
310.49	368.5
310.72	364.5
310.949	379.5
311.179	397.5
311.409	380.5
311.639	384.5
311.868	387.5
312.098	384.5
312.328	360.5
312.557	394.5
312.787	406.5
313.017	396.5
313.246	395.5
313.476	364.5
313.706	378.5
313.935	378.5
314.165	390.5
314.394	390.5
314.624	403.5
314.853	404.5
315.083	378.5
315.312	372.5
315.542	385.5
315.771	380.5
316.001	388.5
316.23	373.5
316.46	363.5
316.689	376.5
316.919	365.5
317.148	382.5
317.377	396.5
317.607	379.5
317.836	392.5
318.065	378.5
318.295	374.5
318.524	377.5
318.753	370.5
318.983	395.5
319.212	374.5
319.441	398.5
319.67	411.5
319.9	382.5
320.129	381.5
320.358	385.5
320.587	382.5
320.816	408.5
321.046	388.5
321.275	407.5
321.504	395.5
321.733	380.5
321.962	433.5
322.191	416.5
322.42	448.5
322.649	448.5
322.878	461.5
323.108	448.5
323.337	475.5
323.566	485.5
323.795	553.5
324.024	584.5
324.253	680.5
324.482	1026.5
324.71	1662.5
324.939	2478.5
325.168	2161.5
325.397	992.5
325.626	647.5
325.855	564.5
326.084	516.5
326.313	525.5
326.542	525.5
326.77	579.5
326.999	668.5
327.228	928.5
327.457	1464.5
327.686	1870.5
327.914	1174.5
328.143	716.5
328.372	631.5
328.6	590.5
328.829	587.5
329.058	598.5
329.287	568.5
329.515	554.5
329.744	528.5
329.972	500.5
330.201	537.5
330.43	570.5
330.658	595.5
330.887	600.5
331.115	597.5
331.344	522.5
331.572	487.5
331.801	495.5
332.03	496.5
332.258	504.5
332.486	443.5
332.715	454.5
332.943	475.5
333.172	460.5
333.4	455.5
333.629	461.5
333.857	492.5
334.085	475.5
334.314	486.5
334.542	518.5
334.771	542.5
334.999	518.5
335.227	463.5
335.455	460.5
335.684	457.5
335.912	434.5
336.14	445.5
336.369	465.5
336.597	445.5
336.825	474.5
337.053	454.5
337.281	459.5
337.51	458.5
337.738	444.5
337.966	452.5
338.194	428.5
338.422	452.5
338.65	440.5
338.878	437.5
339.106	440.5
339.334	461.5
339.562	419.5
339.79	449.5
340.018	462.5
340.246	436.5
340.474	433.5
340.702	448.5
340.93	443.5
341.158	439.5
341.386	427.5
341.614	435.5
341.842	434.5
342.07	443.5
342.298	441.5
342.526	403.5
342.754	434.5
342.981	422.5
343.209	416.5
343.437	430.5
343.665	420.5
343.893	427.5
344.12	449.5
344.348	436.5
344.576	469.5
344.804	457.5
345.031	477.5
345.259	480.5
345.487	457.5
345.714	441.5
345.942	443.5
346.17	449.5
346.397	422.5
346.625	426.5
346.853	439.5
347.08	428.5
347.308	436.5
347.535	441.5
347.763	440.5
347.99	442.5
348.218	426.5
348.445	437.5
348.673	471.5
348.9	434.5
349.128	399.5
349.355	421.5
349.583	416.5
349.81	401.5
350.037	418.5
350.265	416.5
350.492	419.5
350.72	411.5
350.947	443.5
351.174	434.5
351.402	462.5
351.629	429.5
351.856	438.5
352.083	434.5
352.311	439.5
352.538	448.5
352.765	458.5
352.992	444.5
353.22	422.5
353.447	423.5
353.674	450.5
353.901	419.5
354.128	427.5
354.355	408.5
354.583	408.5
354.81	390.5
355.037	377.5
355.264	402.5
355.491	410.5
355.718	388.5
355.945	400.5
356.172	386.5
356.399	381.5
356.626	386.5
356.853	383.5
357.08	410.5
357.307	392.5
357.534	392.5
357.761	400.5
357.988	420.5
358.215	393.5
358.441	406.5
358.668	398.5
358.895	419.5
359.122	420.5
359.349	420.5
359.576	454.5
359.802	452.5
360.029	471.5
360.256	487.5
360.483	472.5
360.709	440.5
360.936	426.5
361.163	426.5
361.39	405.5
361.616	444.5
361.843	430.5
362.07	428.5
362.296	435.5
362.523	428.5
362.749	427.5
362.976	422.5
363.203	422.5
363.429	422.5
363.656	405.5
363.882	408.5
364.109	412.5
364.335	399.5
364.562	404.5
364.788	432.5
365.015	403.5
365.241	417.5
365.468	423.5
365.694	445.5
365.92	433.5
366.147	425.5
366.373	418.5
366.599	427.5
366.826	408.5
367.052	407.5
367.278	411.5
367.505	433.5
367.731	405.5
367.957	426.5
368.184	426.5
368.41	444.5
368.636	423.5
368.862	443.5
369.089	434.5
369.315	432.5
369.541	390.5
369.767	398.5
369.993	407.5
370.219	422.5
370.445	449.5
370.672	430.5
370.898	411.5
371.124	416.5
371.35	425.5
371.576	401.5
371.802	411.5
372.028	429.5
372.254	419.5
372.48	422.5
372.706	424.5
372.932	416.5
373.158	415.5
373.384	429.5
373.61	419.5
373.835	392.5
374.061	432.5
374.287	416.5
374.513	402.5
374.739	451.5
374.965	424.5
375.191	408.5
375.416	454.5
375.642	426.5
375.868	437.5
376.094	420.5
376.319	419.5
376.545	421.5
376.771	402.5
376.997	407.5
377.222	439.5
377.448	436.5
377.674	429.5
377.899	418.5
378.125	394.5
378.35	409.5
378.576	414.5
378.802	425.5
379.027	414.5
379.253	429.5
379.478	414.5
379.704	411.5
379.929	422.5
380.155	424.5
380.38	444.5
380.606	438.5
380.831	428.5
381.057	442.5
381.282	420.5
381.507	424.5
381.733	419.5
381.958	421.5
382.184	460.5
382.409	436.5
382.634	445.5
382.86	428.5
383.085	446.5
383.31	438.5
383.535	449.5
383.761	439.5
383.986	441.5
384.211	454.5
384.436	455.5
384.662	453.5
384.887	448.5
385.112	446.5
385.337	473.5
385.562	455.5
385.787	445.5
386.013	457.5
386.238	469.5
386.463	484.5
386.688	466.5
386.913	475.5
387.138	470.5
387.363	456.5
387.588	462.5
387.813	463.5
388.038	472.5
388.263	468.5
388.488	487.5
388.713	474.5
388.938	458.5
389.163	488.5
389.387	476.5
389.612	467.5
389.837	460.5
390.062	459.5
390.287	481.5
390.512	475.5
390.736	464.5
390.961	467.5
391.186	467.5
391.411	477.5
391.636	483.5
391.86	478.5
392.085	492.5
392.31	472.5
392.534	498.5
392.759	486.5
392.984	498.5
393.208	476.5
393.433	489.5
393.658	448.5
393.882	464.5
394.107	477.5
394.331	468.5
394.556	457.5
394.78	456.5
395.005	485.5
395.229	485.5
395.454	525.5
395.678	499.5
395.903	500.5
396.127	518.5
396.352	522.5
396.576	520.5
396.801	513.5
397.025	472.5
397.249	489.5
397.474	510.5
397.698	498.5
397.922	561.5
398.147	552.5
398.371	538.5
398.595	543.5
398.82	549.5
399.044	562.5
399.268	575.5
399.492	589.5
399.717	639.5
399.941	648.5
400.165	650.5
400.389	693.5
400.613	645.5
400.837	581.5
401.062	576.5
401.286	571.5
401.51	561.5
401.734	554.5
401.958	548.5
402.182	541.5
402.406	556.5
402.63	542.5
402.854	548.5
403.078	560.5
403.302	571.5
403.526	569.5
403.75	572.5
403.974	568.5
404.198	583.5
404.422	568.5
404.645	595.5
404.869	572.5
405.093	636.5
405.317	656.5
405.541	695.5
405.765	651.5
405.988	605.5
406.212	593.5
406.436	619.5
406.66	658.5
406.883	620.5
407.107	630.5
407.331	682.5
407.555	759.5
407.778	754.5
408.002	686.5
408.226	652.5
408.449	636.5
408.673	647.5
408.896	666.5
409.12	722.5
409.344	712.5
409.567	616.5
409.791	573.5
410.014	584.5
410.238	587.5
410.461	584.5
410.685	595.5
410.908	586.5
411.132	658.5
411.355	690.5
411.578	650.5
411.802	588.5
412.025	551.5
412.249	608.5
412.472	598.5
412.695	640.5
412.919	630.5
413.142	590.5
413.365	560.5
413.589	562.5
413.812	579.5
414.035	553.5
414.258	554.5
414.482	552.5
414.705	560.5
414.928	541.5
415.151	534.5
415.374	540.5
415.597	529.5
415.821	525.5
416.044	528.5
416.267	555.5
416.49	534.5
416.713	541.5
416.936	530.5
417.159	546.5
417.382	539.5
417.605	554.5
417.828	541.5
418.051	586.5
418.274	546.5
418.497	558.5
418.72	554.5
418.943	520.5
419.166	565.5
419.389	564.5
419.611	592.5
419.834	587.5
420.057	544.5
420.28	550.5
420.503	539.5
420.726	573.5
420.948	584.5
421.171	630.5
421.394	649.5
421.617	582.5
421.839	575.5
422.062	563.5
422.285	580.5
422.507	652.5
422.73	738.5
422.953	714.5
423.175	599.5
423.398	572.5
423.621	588.5
423.843	590.5
424.066	615.5
424.288	602.5
424.511	606.5
424.733	696.5
424.956	788.5
425.178	723.5
425.401	756.5
425.623	787.5
425.846	681.5
426.068	602.5
426.291	585.5
426.513	581.5
426.735	603.5
426.958	656.5
427.18	749.5
427.402	899.5
427.625	1012.5
427.847	864.5
428.069	763.5
428.292	662.5
428.514	589.5
428.736	591.5
428.958	578.5
429.181	558.5
429.403	586.5
429.625	569.5
429.847	610.5
430.069	702.5
430.292	661.5
430.514	583.5
430.736	576.5
430.958	548.5
431.18	537.5
431.402	544.5
431.624	531.5
431.846	549.5
432.068	538.5
432.29	547.5
432.512	534.5
432.734	539.5
432.956	556.5
433.178	534.5
433.4	547.5
433.622	534.5
433.844	538.5
434.066	540.5
434.287	545.5
434.509	549.5
434.731	562.5
434.953	563.5
435.175	582.5
435.397	602.5
435.618	600.5
435.84	646.5
436.062	748.5
436.284	837.5
436.505	704.5
436.727	640.5
436.949	574.5
437.17	560.5
437.392	574.5
437.614	581.5
437.835	614.5
438.057	713.5
438.278	818.5
438.5	804.5
438.721	940.5
438.943	892.5
439.165	679.5
439.386	637.5
439.608	625.5
439.829	619.5
440.05	661.5
440.272	704.5
440.493	644.5
440.715	601.5
440.936	590.5
441.158	572.5
441.379	560.5
441.6	600.5
441.822	615.5
442.043	650.5
442.264	730.5
442.486	780.5
442.707	672.5
442.928	630.5
443.149	629.5
443.371	660.5
443.592	702.5
443.813	810.5
444.034	853.5
444.255	693.5
444.476	632.5
444.698	629.5
444.919	628.5
445.14	677.5
445.361	678.5
445.582	640.5
445.803	731.5
446.024	861.5
446.245	864.5
446.466	797.5
446.687	686.5
446.908	622.5
447.129	588.5
447.35	575.5
447.571	578.5
447.792	560.5
448.013	545.5
448.234	564.5
448.455	609.5
448.675	748.5
448.896	909.5
449.117	747.5
449.338	732.5
449.559	813.5
449.779	951.5
450	782.5
450.221	635.5
450.442	575.5
450.662	532.5
450.883	581.5
451.104	576.5
451.324	541.5
451.545	527.5
451.766	500.5
451.986	512.5
452.207	518.5
452.428	501.5
452.648	508.5
452.869	512.5
453.089	491.5
453.31	508.5
453.53	512.5
453.751	502.5
453.971	513.5
454.192	530.5
454.412	518.5
454.633	489.5
454.853	490.5
455.073	484.5
455.294	531.5
455.514	599.5
455.734	619.5
455.955	507.5
456.175	479.5
456.395	474.5
456.616	468.5
456.836	488.5
457.056	489.5
457.276	458.5
457.497	499.5
457.717	489.5
457.937	502.5
458.157	489.5
458.377	522.5
458.598	536.5
458.818	588.5
459.038	659.5
459.258	678.5
459.478	598.5
459.698	550.5
459.918	549.5
460.138	548.5
460.358	541.5
460.578	550.5
460.798	556.5
461.018	565.5
461.238	533.5
461.458	554.5
461.678	523.5
461.898	553.5
462.118	560.5
462.338	574.5
462.558	589.5
462.777	578.5
462.997	589.5
463.217	615.5
463.437	612.5
463.657	573.5
463.876	594.5
464.096	582.5
464.316	576.5
464.536	586.5
464.755	590.5
464.975	583.5
465.195	629.5
465.414	715.5
465.634	604.5
465.854	586.5
466.073	566.5
466.293	551.5
466.512	545.5
466.732	530.5
466.951	521.5
467.171	523.5
467.391	526.5
467.61	536.5
467.829	543.5
468.049	539.5
468.268	536.5
468.488	510.5
468.707	496.5
468.927	510.5
469.146	505.5
469.365	505.5
469.585	507.5
469.804	506.5
470.023	531.5
470.243	534.5
470.462	540.5
470.681	561.5
470.901	542.5
471.12	516.5
471.339	531.5
471.558	529.5
471.777	503.5
471.997	518.5
472.216	534.5
472.435	558.5
472.654	556.5
472.873	514.5
473.092	531.5
473.311	536.5
473.53	520.5
473.749	544.5
473.968	587.5
474.187	713.5
474.406	712.5
474.625	591.5
474.844	544.5
475.063	552.5
475.282	552.5
475.501	544.5
475.72	538.5
475.939	552.5
476.158	539.5
476.377	554.5
476.596	559.5
476.814	534.5
477.033	562.5
477.252	574.5
477.471	569.5
477.69	568.5
477.908	568.5
478.127	557.5
478.346	568.5
478.564	615.5
478.783	582.5
479.002	584.5
479.22	588.5
479.439	617.5
479.658	633.5
479.876	658.5
480.095	640.5
480.313	664.5
480.532	656.5
480.751	636.5
480.969	665.5
481.188	693.5
481.406	731.5
481.624	663.5
481.843	647.5
482.061	619.5
482.28	598.5
482.498	594.5
482.717	618.5
482.935	618.5
483.153	613.5
483.372	588.5
483.59	597.5
483.808	630.5
484.027	592.5
484.245	628.5
484.463	614.5
484.681	635.5
484.9	616.5
485.118	629.5
485.336	621.5
485.554	629.5
485.772	629.5
485.99	644.5
486.209	635.5
486.427	640.5
486.645	644.5
486.863	681.5
487.081	667.5
487.299	649.5
487.517	659.5
487.735	642.5
487.953	680.5
488.171	662.5
488.389	650.5
488.607	641.5
488.825	670.5
489.043	674.5
489.261	651.5
489.479	653.5
489.696	681.5
489.914	688.5
490.132	706.5
490.35	676.5
490.568	698.5
490.786	676.5
491.003	705.5
491.221	710.5
491.439	722.5
491.657	730.5
491.874	734.5
492.092	740.5
492.31	737.5
492.527	759.5
492.745	752.5
492.963	769.5
493.18	769.5
493.398	746.5
493.615	744.5
493.833	745.5
494.05	779.5
494.268	777.5
494.485	798.5
494.703	790.5
494.92	769.5
495.138	779.5
495.355	765.5
495.573	770.5
495.79	736.5
496.008	775.5
496.225	756.5
496.442	768.5
496.66	775.5
496.877	793.5
497.094	782.5
497.312	793.5
497.529	809.5
497.746	825.5
497.963	818.5
498.181	839.5
498.398	866.5
498.615	905.5
498.832	905.5
499.049	921.5
499.267	948.5
499.484	971.5
499.701	978.5
499.918	998.5
500.135	1081.5
500.352	1083.5
500.569	1133.5
500.786	1108.5
501.003	1098.5
501.22	1078.5
501.437	1047.5
501.654	1039.5
501.871	1005.5
502.088	974.5
502.305	948.5
502.522	902.5
502.739	880.5
502.956	857.5
503.172	837.5
503.389	794.5
503.606	820.5
503.823	836.5
504.04	816.5
504.256	791.5
504.473	816.5
504.69	809.5
504.907	788.5
505.123	777.5
505.34	768.5
505.557	761.5
505.773	752.5
505.99	745.5
506.207	758.5
506.423	744.5
506.64	741.5
506.856	732.5
507.073	736.5
507.289	701.5
507.506	717.5
507.722	737.5
507.939	757.5
508.155	728.5
508.372	717.5
508.588	700.5
508.805	688.5
509.021	703.5
509.238	708.5
509.454	712.5
509.67	703.5
509.887	715.5
510.103	695.5
510.319	669.5
510.536	821.5
510.752	1216.5
510.968	1024.5
511.184	708.5
511.401	668.5
511.617	670.5
511.833	662.5
512.049	676.5
512.265	680.5
512.481	677.5
512.698	657.5
512.914	660.5
513.13	672.5
513.346	650.5
513.562	668.5
513.778	663.5
513.994	666.5
514.21	695.5
514.426	666.5
514.642	734.5
514.858	780.5
515.074	804.5
515.29	910.5
515.506	1232.5
515.721	1101.5
515.937	803.5
516.153	737.5
516.369	740.5
516.585	699.5
516.801	709.5
517.016	704.5
517.232	713.5
517.448	715.5
517.664	714.5
517.879	722.5
518.095	718.5
518.311	696.5
518.527	701.5
518.742	703.5
518.958	674.5
519.173	679.5
519.389	661.5
519.605	653.5
