Data from 1978.PennyLincolnUp.Lamp.En5.5.200Scan.071719.P1_HRD10591_16-13-46-864.txt Node
Date: Thu Jul 18 16:13:46 EDT 2019
User: cochatt
Spectrometer: HR+D1059
Trigger mode: 1
Integration Time (sec): 1.000000E-1
Scans to average: 1
Electric dark correction enabled: true
Nonlinearity correction enabled: false
Boxcar width: 0
XAxis mode: Wavelengths
Number of Pixels in Spectrum: 2048
>>>>>Begin Spectral Data<<<<<
223.165	-6.56
223.4	-6.56
223.635	-6.56
223.869	-21.56
224.104	-19.56
224.338	-15.56
224.573	-6.56
224.808	-2.56
225.042	-12.56
225.277	-1.56
225.511	-9.56
225.746	10.44
225.98	2.44
226.215	11.44
226.449	18.44
226.683	4.44
226.918	20.44
227.152	28.44
227.387	42.44
227.621	33.44
227.856	45.44
228.09	48.44
228.324	40.44
228.559	59.44
228.793	74.44
229.027	98.44
229.262	109.44
229.496	128.44
229.73	125.44
229.964	160.44
230.199	143.44
230.433	108.44
230.667	119.44
230.901	116.44
231.136	115.44
231.37	102.44
231.604	108.44
231.838	112.44
232.072	119.44
232.306	109.44
232.541	126.44
232.775	118.44
233.009	113.44
233.243	117.44
233.477	100.44
233.711	110.44
233.945	99.44
234.179	131.44
234.413	116.44
234.647	122.44
234.881	113.44
235.115	104.44
235.349	107.44
235.583	120.44
235.817	119.44
236.051	125.44
236.285	129.44
236.519	126.44
236.753	124.44
236.987	145.44
237.221	184.44
237.455	229.44
237.689	182.44
237.922	149.44
238.156	132.44
238.39	142.44
238.624	128.44
238.858	120.44
239.091	146.44
239.325	124.44
239.559	134.44
239.793	136.44
240.027	134.44
240.26	141.44
240.494	152.44
240.728	139.44
240.961	140.44
241.195	137.44
241.429	138.44
241.662	145.44
241.896	136.44
242.13	132.44
242.363	144.44
242.597	138.44
242.83	139.44
243.064	138.44
243.298	145.44
243.531	133.44
243.765	140.44
243.998	144.44
244.232	142.44
244.465	145.44
244.699	147.44
244.932	139.44
245.166	158.44
245.399	138.44
245.633	152.44
245.866	154.44
246.099	145.44
246.333	152.44
246.566	161.44
246.8	154.44
247.033	150.44
247.266	139.44
247.5	156.44
247.733	159.44
247.966	160.44
248.2	154.44
248.433	170.44
248.666	170.44
248.899	175.44
249.133	192.44
249.366	182.44
249.599	180.44
249.832	191.44
250.066	180.44
250.299	169.44
250.532	185.44
250.765	195.44
250.998	198.44
251.231	221.44
251.465	197.44
251.698	196.44
251.931	191.44
252.164	182.44
252.397	178.44
252.63	176.44
252.863	198.44
253.096	206.44
253.329	213.44
253.562	228.44
253.795	222.44
254.028	212.44
254.261	218.44
254.494	223.44
254.727	241.44
254.96	260.44
255.193	264.44
255.426	213.44
255.659	219.44
255.892	206.44
256.124	206.44
256.357	215.44
256.59	226.44
256.823	206.44
257.056	207.44
257.289	190.44
257.521	191.44
257.754	193.44
257.987	213.44
258.22	205.44
258.452	184.44
258.685	201.44
258.918	174.44
259.151	201.44
259.383	209.44
259.616	206.44
259.849	193.44
260.081	228.44
260.314	232.44
260.547	242.44
260.779	235.44
261.012	209.44
261.244	224.44
261.477	223.44
261.71	203.44
261.942	212.44
262.175	241.44
262.407	220.44
262.64	212.44
262.872	206.44
263.105	220.44
263.337	206.44
263.57	202.44
263.802	203.44
264.035	198.44
264.267	210.44
264.499	212.44
264.732	220.44
264.964	216.44
265.197	201.44
265.429	219.44
265.661	218.44
265.894	208.44
266.126	205.44
266.358	216.44
266.591	210.44
266.823	230.44
267.055	206.44
267.287	226.44
267.52	208.44
267.752	221.44
267.984	221.44
268.216	220.44
268.448	222.44
268.681	234.44
268.913	225.44
269.145	255.44
269.377	250.44
269.609	260.44
269.841	272.44
270.073	270.44
270.306	277.44
270.538	290.44
270.77	285.44
271.002	277.44
271.234	270.44
271.466	278.44
271.698	313.44
271.93	321.44
272.162	291.44
272.394	282.44
272.626	291.44
272.858	262.44
273.09	250.44
273.322	260.44
273.553	254.44
273.785	267.44
274.017	255.44
274.249	250.44
274.481	246.44
274.713	261.44
274.945	257.44
275.176	262.44
275.408	265.44
275.64	249.44
275.872	254.44
276.104	244.44
276.335	263.44
276.567	258.44
276.799	287.44
277.031	279.44
277.262	278.44
277.494	317.44
277.726	306.44
277.957	274.44
278.189	277.44
278.421	271.44
278.652	240.44
278.884	241.44
279.115	254.44
279.347	278.44
279.579	252.44
279.81	281.44
280.042	268.44
280.273	248.44
280.505	281.44
280.736	271.44
280.968	261.44
281.199	252.44
281.431	260.44
281.662	249.44
281.894	279.44
282.125	259.44
282.356	285.44
282.588	299.44
282.819	293.44
283.051	272.44
283.282	254.44
283.513	269.44
283.745	273.44
283.976	275.44
284.207	265.44
284.439	254.44
284.67	268.44
284.901	279.44
285.132	274.44
285.364	253.44
285.595	273.44
285.826	274.44
286.057	293.44
286.288	278.44
286.52	273.44
286.751	263.44
286.982	272.44
287.213	280.44
287.444	274.44
287.675	266.44
287.906	296.44
288.138	283.44
288.369	287.44
288.6	295.44
288.831	281.44
289.062	291.44
289.293	292.44
289.524	285.44
289.755	302.44
289.986	288.44
290.217	284.44
290.448	297.44
290.679	275.44
290.91	269.44
291.141	289.44
291.371	271.44
291.602	288.44
291.833	285.44
292.064	270.44
292.295	277.44
292.526	283.44
292.757	278.44
292.987	288.44
293.218	281.44
293.449	272.44
293.68	268.44
293.91	272.44
294.141	281.44
294.372	290.44
294.603	279.44
294.833	282.44
295.064	300.44
295.295	304.44
295.525	277.44
295.756	309.44
295.987	293.44
296.217	331.44
296.448	320.44
296.679	320.44
296.909	292.44
297.14	284.44
297.37	303.44
297.601	316.44
297.831	303.44
298.062	292.44
298.292	300.44
298.523	305.44
298.753	307.44
298.984	280.44
299.214	313.44
299.445	302.44
299.675	299.44
299.905	299.44
300.136	294.44
300.366	313.44
300.597	316.44
300.827	324.44
301.057	309.44
301.288	330.44
301.518	341.44
301.748	326.44
301.979	328.44
302.209	318.44
302.439	330.44
302.669	308.44
302.9	318.44
303.13	327.44
303.36	328.44
303.59	348.44
303.82	330.44
304.051	342.44
304.281	323.44
304.511	329.44
304.741	312.44
304.971	299.44
305.201	313.44
305.431	316.44
305.661	308.44
305.891	330.44
306.121	329.44
306.352	328.44
306.582	318.44
306.812	316.44
307.042	324.44
307.272	340.44
307.502	324.44
307.731	331.44
307.961	329.44
308.191	328.44
308.421	330.44
308.651	331.44
308.881	317.44
309.111	330.44
309.341	333.44
309.571	349.44
309.8	337.44
310.03	376.44
310.26	373.44
310.49	384.44
310.72	369.44
310.949	385.44
311.179	384.44
311.409	356.44
311.639	350.44
311.868	393.44
312.098	379.44
312.328	376.44
312.557	410.44
312.787	391.44
313.017	399.44
313.246	390.44
313.476	371.44
313.706	365.44
313.935	390.44
314.165	385.44
314.394	386.44
314.624	369.44
314.853	384.44
315.083	405.44
315.312	363.44
315.542	373.44
315.771	370.44
316.001	372.44
316.23	365.44
316.46	354.44
316.689	357.44
316.919	374.44
317.148	382.44
317.377	399.44
317.607	393.44
317.836	380.44
318.065	362.44
318.295	360.44
318.524	382.44
318.753	364.44
318.983	375.44
319.212	372.44
319.441	382.44
319.67	395.44
319.9	406.44
320.129	368.44
320.358	365.44
320.587	373.44
320.816	384.44
321.046	404.44
321.275	388.44
321.504	378.44
321.733	389.44
321.962	402.44
322.191	412.44
322.42	425.44
322.649	425.44
322.878	456.44
323.108	440.44
323.337	472.44
323.566	500.44
323.795	518.44
324.024	573.44
324.253	684.44
324.482	956.44
324.71	1526.44
324.939	2304.44
325.168	2004.44
325.397	973.44
325.626	662.44
325.855	549.44
326.084	538.44
326.313	505.44
326.542	493.44
326.77	546.44
326.999	648.44
327.228	887.44
327.457	1373.44
327.686	1759.44
327.914	1121.44
328.143	703.44
328.372	623.44
328.6	584.44
328.829	551.44
329.058	562.44
329.287	570.44
329.515	548.44
329.744	522.44
329.972	489.44
330.201	506.44
330.43	527.44
330.658	579.44
330.887	581.44
331.115	582.44
331.344	517.44
331.572	480.44
331.801	513.44
332.03	472.44
332.258	460.44
332.486	460.44
332.715	469.44
332.943	445.44
333.172	466.44
333.4	458.44
333.629	462.44
333.857	517.44
334.085	485.44
334.314	493.44
334.542	512.44
334.771	530.44
334.999	480.44
335.227	468.44
335.455	463.44
335.684	476.44
335.912	467.44
336.14	463.44
336.369	449.44
336.597	461.44
336.825	445.44
337.053	446.44
337.281	436.44
337.51	439.44
337.738	442.44
337.966	427.44
338.194	456.44
338.422	442.44
338.65	446.44
338.878	438.44
339.106	432.44
339.334	439.44
339.562	453.44
339.79	436.44
340.018	437.44
340.246	452.44
340.474	440.44
340.702	426.44
340.93	434.44
341.158	438.44
341.386	426.44
341.614	431.44
341.842	420.44
342.07	429.44
342.298	423.44
342.526	426.44
342.754	409.44
342.981	422.44
343.209	405.44
343.437	423.44
343.665	431.44
343.893	421.44
344.12	449.44
344.348	453.44
344.576	446.44
344.804	448.44
345.031	450.44
345.259	465.44
345.487	443.44
345.714	434.44
345.942	430.44
346.17	426.44
346.397	432.44
346.625	408.44
346.853	449.44
347.08	412.44
347.308	404.44
347.535	416.44
347.763	441.44
347.99	432.44
348.218	424.44
348.445	445.44
348.673	440.44
348.9	417.44
349.128	411.44
349.355	398.44
349.583	421.44
349.81	396.44
350.037	389.44
350.265	369.44
350.492	400.44
350.72	416.44
350.947	403.44
351.174	437.44
351.402	420.44
351.629	427.44
351.856	437.44
352.083	443.44
352.311	442.44
352.538	448.44
352.765	430.44
352.992	407.44
353.22	423.44
353.447	441.44
353.674	417.44
353.901	418.44
354.128	398.44
354.355	409.44
354.583	413.44
354.81	394.44
355.037	412.44
355.264	384.44
355.491	397.44
355.718	369.44
355.945	396.44
356.172	388.44
356.399	389.44
356.626	405.44
356.853	426.44
357.08	368.44
357.307	415.44
357.534	394.44
357.761	388.44
357.988	390.44
358.215	385.44
358.441	398.44
358.668	395.44
358.895	414.44
359.122	394.44
359.349	412.44
359.576	432.44
359.802	429.44
360.029	466.44
360.256	495.44
360.483	457.44
360.709	434.44
360.936	423.44
361.163	425.44
361.39	424.44
361.616	417.44
361.843	417.44
362.07	411.44
362.296	433.44
362.523	446.44
362.749	434.44
362.976	434.44
363.203	418.44
363.429	420.44
363.656	414.44
363.882	425.44
364.109	412.44
364.335	408.44
364.562	408.44
364.788	415.44
365.015	417.44
365.241	385.44
365.468	399.44
365.694	407.44
365.92	409.44
366.147	430.44
366.373	428.44
366.599	414.44
366.826	392.44
367.052	415.44
367.278	416.44
367.505	412.44
367.731	402.44
367.957	416.44
368.184	402.44
368.41	420.44
368.636	413.44
368.862	434.44
369.089	422.44
369.315	396.44
369.541	419.44
369.767	432.44
369.993	409.44
370.219	420.44
370.445	406.44
370.672	405.44
370.898	404.44
371.124	429.44
371.35	427.44
371.576	432.44
371.802	433.44
372.028	407.44
372.254	405.44
372.48	407.44
372.706	415.44
372.932	438.44
373.158	410.44
373.384	445.44
373.61	394.44
373.835	438.44
374.061	414.44
374.287	425.44
374.513	399.44
374.739	414.44
374.965	423.44
375.191	424.44
375.416	420.44
375.642	415.44
375.868	432.44
376.094	434.44
376.319	436.44
376.545	408.44
376.771	421.44
376.997	406.44
377.222	416.44
377.448	425.44
377.674	431.44
377.899	440.44
378.125	429.44
378.35	406.44
378.576	422.44
378.802	419.44
379.027	410.44
379.253	401.44
379.478	409.44
379.704	422.44
379.929	403.44
380.155	416.44
380.38	441.44
380.606	430.44
380.831	418.44
381.057	431.44
381.282	403.44
381.507	424.44
381.733	417.44
381.958	427.44
382.184	417.44
382.409	430.44
382.634	433.44
382.86	430.44
383.085	416.44
383.31	453.44
383.535	441.44
383.761	420.44
383.986	442.44
384.211	463.44
384.436	428.44
384.662	445.44
384.887	445.44
385.112	463.44
385.337	443.44
385.562	461.44
385.787	478.44
386.013	482.44
386.238	447.44
386.463	495.44
386.688	458.44
386.913	464.44
387.138	462.44
387.363	463.44
387.588	448.44
387.813	463.44
388.038	471.44
388.263	462.44
388.488	480.44
388.713	440.44
388.938	466.44
389.163	451.44
389.387	463.44
389.612	464.44
389.837	487.44
390.062	461.44
390.287	480.44
390.512	463.44
390.736	456.44
390.961	461.44
391.186	444.44
391.411	490.44
391.636	505.44
391.86	507.44
392.085	511.44
392.31	472.44
392.534	481.44
392.759	469.44
392.984	486.44
393.208	466.44
393.433	461.44
393.658	462.44
393.882	466.44
394.107	465.44
394.331	482.44
394.556	478.44
394.78	482.44
395.005	484.44
395.229	465.44
395.454	502.44
395.678	486.44
395.903	516.44
396.127	527.44
396.352	518.44
396.576	481.44
396.801	478.44
397.025	478.44
397.249	505.44
397.474	502.44
397.698	508.44
397.922	503.44
398.147	534.44
398.371	540.44
398.595	540.44
398.82	524.44
399.044	531.44
399.268	549.44
399.492	583.44
399.717	610.44
399.941	660.44
400.165	670.44
400.389	669.44
400.613	625.44
400.837	591.44
401.062	587.44
401.286	551.44
401.51	556.44
401.734	554.44
401.958	546.44
402.182	548.44
402.406	531.44
402.63	557.44
402.854	559.44
403.078	567.44
403.302	559.44
403.526	565.44
403.75	584.44
403.974	558.44
404.198	552.44
404.422	570.44
404.645	564.44
404.869	588.44
405.093	629.44
405.317	644.44
405.541	662.44
405.765	628.44
405.988	588.44
406.212	593.44
406.436	605.44
406.66	634.44
406.883	602.44
407.107	648.44
407.331	704.44
407.555	764.44
407.778	765.44
408.002	685.44
408.226	620.44
408.449	632.44
408.673	611.44
408.896	656.44
409.12	700.44
409.344	680.44
409.567	605.44
409.791	581.44
410.014	567.44
410.238	602.44
410.461	579.44
410.685	554.44
410.908	583.44
411.132	621.44
411.355	659.44
411.578	642.44
411.802	599.44
412.025	575.44
412.249	570.44
412.472	591.44
412.695	635.44
412.919	654.44
413.142	582.44
413.365	542.44
413.589	559.44
413.812	544.44
414.035	552.44
414.258	565.44
414.482	530.44
414.705	545.44
414.928	566.44
415.151	543.44
415.374	550.44
415.597	536.44
415.821	533.44
416.044	524.44
416.267	528.44
416.49	536.44
416.713	544.44
416.936	567.44
417.159	520.44
417.382	517.44
417.605	536.44
417.828	552.44
418.051	580.44
418.274	552.44
418.497	507.44
418.72	539.44
418.943	543.44
419.166	551.44
419.389	565.44
419.611	542.44
419.834	566.44
420.057	589.44
420.28	573.44
420.503	569.44
420.726	554.44
420.948	561.44
421.171	629.44
421.394	636.44
421.617	576.44
421.839	554.44
422.062	551.44
422.285	574.44
422.507	623.44
422.73	691.44
422.953	680.44
423.175	618.44
423.398	573.44
423.621	575.44
423.843	608.44
424.066	585.44
424.288	610.44
424.511	619.44
424.733	684.44
424.956	794.44
425.178	730.44
425.401	734.44
425.623	748.44
425.846	670.44
426.068	606.44
426.291	586.44
426.513	598.44
426.735	621.44
426.958	644.44
427.18	722.44
427.402	877.44
427.625	958.44
427.847	841.44
428.069	724.44
428.292	654.44
428.514	585.44
428.736	578.44
428.958	578.44
429.181	545.44
429.403	559.44
429.625	567.44
429.847	606.44
430.069	664.44
430.292	671.44
430.514	570.44
430.736	560.44
430.958	536.44
431.18	525.44
431.402	542.44
431.624	554.44
431.846	510.44
432.068	536.44
432.29	526.44
432.512	525.44
432.734	535.44
432.956	553.44
433.178	542.44
433.4	528.44
433.622	538.44
433.844	541.44
434.066	539.44
434.287	527.44
434.509	539.44
434.731	549.44
434.953	559.44
435.175	570.44
435.397	588.44
435.618	612.44
435.84	641.44
436.062	754.44
436.284	811.44
436.505	701.44
436.727	618.44
436.949	576.44
437.17	570.44
437.392	538.44
437.614	566.44
437.835	601.44
438.057	676.44
438.278	827.44
438.5	818.44
438.721	906.44
438.943	845.44
439.165	671.44
439.386	623.44
439.608	618.44
439.829	616.44
440.05	612.44
440.272	696.44
440.493	636.44
440.715	596.44
440.936	596.44
441.158	565.44
441.379	549.44
441.6	588.44
441.822	586.44
442.043	636.44
442.264	712.44
442.486	778.44
442.707	670.44
442.928	608.44
443.149	639.44
443.371	621.44
443.592	698.44
443.813	786.44
444.034	846.44
444.255	702.44
444.476	634.44
444.698	585.44
444.919	625.44
445.14	681.44
445.361	657.44
445.582	681.44
445.803	729.44
446.024	836.44
446.245	870.44
446.466	775.44
446.687	642.44
446.908	594.44
447.129	568.44
447.35	563.44
447.571	557.44
447.792	552.44
448.013	557.44
448.234	580.44
448.455	621.44
448.675	753.44
448.896	903.44
449.117	735.44
449.338	690.44
449.559	819.44
449.779	960.44
450	721.44
450.221	624.44
450.442	560.44
450.662	557.44
450.883	539.44
451.104	560.44
451.324	553.44
451.545	518.44
451.766	505.44
451.986	519.44
452.207	497.44
452.428	492.44
452.648	492.44
452.869	504.44
453.089	509.44
453.31	503.44
453.53	501.44
453.751	516.44
453.971	498.44
454.192	520.44
454.412	492.44
454.633	502.44
454.853	487.44
455.073	493.44
455.294	511.44
455.514	598.44
455.734	553.44
455.955	511.44
456.175	476.44
456.395	489.44
456.616	457.44
456.836	460.44
457.056	457.44
457.276	465.44
457.497	489.44
457.717	461.44
457.937	501.44
458.157	461.44
458.377	490.44
458.598	534.44
458.818	568.44
459.038	648.44
459.258	661.44
459.478	582.44
459.698	549.44
459.918	551.44
460.138	531.44
460.358	543.44
460.578	557.44
460.798	560.44
461.018	551.44
461.238	555.44
461.458	561.44
461.678	526.44
461.898	535.44
462.118	544.44
462.338	566.44
462.558	555.44
462.777	560.44
462.997	593.44
463.217	602.44
463.437	594.44
463.657	592.44
463.876	585.44
464.096	572.44
464.316	588.44
464.536	580.44
464.755	600.44
464.975	607.44
465.195	629.44
465.414	666.44
465.634	604.44
465.854	574.44
466.073	531.44
466.293	536.44
466.512	509.44
466.732	518.44
466.951	540.44
467.171	520.44
467.391	525.44
467.61	535.44
467.829	550.44
468.049	525.44
468.268	529.44
468.488	520.44
468.707	506.44
468.927	499.44
469.146	481.44
469.365	502.44
469.585	501.44
469.804	529.44
470.023	517.44
470.243	529.44
470.462	530.44
470.681	542.44
470.901	561.44
471.12	542.44
471.339	535.44
471.558	534.44
471.777	526.44
471.997	520.44
472.216	524.44
472.435	559.44
472.654	540.44
472.873	508.44
473.092	525.44
473.311	509.44
473.53	531.44
473.749	503.44
473.968	560.44
474.187	679.44
474.406	701.44
474.625	576.44
474.844	537.44
475.063	526.44
475.282	546.44
475.501	533.44
475.72	506.44
475.939	522.44
476.158	548.44
476.377	530.44
476.596	535.44
476.814	528.44
477.033	546.44
477.252	556.44
477.471	557.44
477.69	566.44
477.908	577.44
478.127	580.44
478.346	584.44
478.564	580.44
478.783	581.44
479.002	592.44
479.22	616.44
479.439	616.44
479.658	622.44
479.876	618.44
480.095	628.44
480.313	666.44
480.532	639.44
480.751	632.44
480.969	651.44
481.188	687.44
481.406	708.44
481.624	636.44
481.843	625.44
482.061	609.44
482.28	619.44
482.498	601.44
482.717	612.44
482.935	608.44
483.153	607.44
483.372	614.44
483.59	621.44
483.808	604.44
484.027	601.44
484.245	612.44
484.463	609.44
484.681	627.44
484.9	617.44
485.118	655.44
485.336	623.44
485.554	629.44
485.772	634.44
485.99	623.44
486.209	625.44
486.427	651.44
486.645	632.44
486.863	658.44
487.081	661.44
487.299	648.44
487.517	671.44
487.735	651.44
487.953	646.44
488.171	647.44
488.389	658.44
488.607	659.44
488.825	660.44
489.043	652.44
489.261	643.44
489.479	648.44
489.696	658.44
489.914	674.44
490.132	653.44
490.35	686.44
490.568	653.44
490.786	676.44
491.003	698.44
491.221	695.44
491.439	702.44
491.657	689.44
491.874	738.44
492.092	720.44
492.31	748.44
492.527	712.44
492.745	738.44
492.963	726.44
493.18	743.44
493.398	732.44
493.615	756.44
493.833	738.44
494.05	758.44
494.268	734.44
494.485	723.44
494.703	745.44
494.92	739.44
495.138	762.44
495.355	756.44
495.573	756.44
495.79	787.44
496.008	742.44
496.225	780.44
496.442	769.44
496.66	756.44
496.877	772.44
497.094	780.44
497.312	786.44
497.529	773.44
497.746	807.44
497.963	792.44
498.181	843.44
498.398	841.44
498.615	852.44
498.832	885.44
499.049	888.44
499.267	934.44
499.484	922.44
499.701	988.44
499.918	1030.44
500.135	1046.44
500.352	1050.44
500.569	1085.44
500.786	1106.44
501.003	1108.44
501.22	1060.44
501.437	1052.44
501.654	991.44
501.871	1018.44
