Data from 1978.PennyLincolnUp.Lamp.En5.5.200Scan.071719.P1_HRD10591_16-12-47-864.txt Node
Date: Thu Jul 18 16:12:47 EDT 2019
User: cochatt
Spectrometer: HR+D1059
Trigger mode: 1
Integration Time (sec): 1.000000E-1
Scans to average: 1
Electric dark correction enabled: true
Nonlinearity correction enabled: false
Boxcar width: 0
XAxis mode: Wavelengths
Number of Pixels in Spectrum: 2048
>>>>>Begin Spectral Data<<<<<
223.165	-19.31
223.4	-19.31
223.635	-19.31
223.869	-18.31
224.104	-15.31
224.338	-24.31
224.573	-14.31
224.808	0.69
225.042	-14.31
225.277	-16.31
225.511	-6.31
225.746	15.69
225.98	7.69
226.215	16.69
226.449	8.69
226.683	21.69
226.918	24.69
227.152	32.69
227.387	18.69
227.621	20.69
227.856	34.69
228.09	41.69
228.324	47.69
228.559	69.69
228.793	58.69
229.027	99.69
229.262	109.69
229.496	130.69
229.73	120.69
229.964	145.69
230.199	140.69
230.433	108.69
230.667	110.69
230.901	112.69
231.136	108.69
231.37	101.69
231.604	122.69
231.838	103.69
232.072	121.69
232.306	116.69
232.541	117.69
232.775	105.69
233.009	126.69
233.243	126.69
233.477	110.69
233.711	116.69
233.945	116.69
234.179	113.69
234.413	118.69
234.647	117.69
234.881	112.69
235.115	106.69
235.349	114.69
235.583	102.69
235.817	126.69
236.051	138.69
236.285	122.69
236.519	126.69
236.753	138.69
236.987	144.69
237.221	183.69
237.455	216.69
237.689	186.69
237.922	141.69
238.156	116.69
238.39	138.69
238.624	132.69
238.858	131.69
239.091	120.69
239.325	128.69
239.559	133.69
239.793	133.69
240.027	130.69
240.26	138.69
240.494	146.69
240.728	138.69
240.961	144.69
241.195	138.69
241.429	136.69
241.662	122.69
241.896	128.69
242.13	138.69
242.363	123.69
242.597	126.69
242.83	130.69
243.064	151.69
243.298	127.69
243.531	123.69
243.765	121.69
243.998	126.69
244.232	131.69
244.465	134.69
244.699	134.69
244.932	151.69
245.166	146.69
245.399	138.69
245.633	157.69
245.866	134.69
246.099	146.69
246.333	151.69
246.566	146.69
246.8	142.69
247.033	154.69
247.266	150.69
247.5	156.69
247.733	165.69
247.966	171.69
248.2	151.69
248.433	168.69
248.666	181.69
248.899	162.69
249.133	191.69
249.366	193.69
249.599	200.69
249.832	173.69
250.066	177.69
250.299	173.69
250.532	173.69
250.765	203.69
250.998	214.69
251.231	216.69
251.465	200.69
251.698	172.69
251.931	199.69
252.164	186.69
252.397	182.69
252.63	205.69
252.863	197.69
253.096	205.69
253.329	209.69
253.562	186.69
253.795	198.69
254.028	196.69
254.261	204.69
254.494	228.69
254.727	233.69
254.96	261.69
255.193	251.69
255.426	220.69
255.659	209.69
255.892	201.69
256.124	213.69
256.357	219.69
256.59	207.69
256.823	214.69
257.056	194.69
257.289	193.69
257.521	202.69
257.754	192.69
257.987	201.69
258.22	211.69
258.452	215.69
258.685	195.69
258.918	202.69
259.151	204.69
259.383	205.69
259.616	211.69
259.849	223.69
260.081	200.69
260.314	217.69
260.547	233.69
260.779	229.69
261.012	222.69
261.244	205.69
261.477	209.69
261.71	201.69
261.942	220.69
262.175	226.69
262.407	212.69
262.64	212.69
262.872	196.69
263.105	211.69
263.337	221.69
263.57	210.69
263.802	209.69
264.035	202.69
264.267	200.69
264.499	214.69
264.732	220.69
264.964	203.69
265.197	199.69
265.429	214.69
265.661	206.69
265.894	194.69
266.126	208.69
266.358	209.69
266.591	217.69
266.823	222.69
267.055	210.69
267.287	210.69
267.52	217.69
267.752	224.69
267.984	215.69
268.216	218.69
268.448	217.69
268.681	221.69
268.913	235.69
269.145	254.69
269.377	248.69
269.609	266.69
269.841	256.69
270.073	241.69
270.306	262.69
270.538	284.69
270.77	277.69
271.002	271.69
271.234	273.69
271.466	281.69
271.698	292.69
271.93	287.69
272.162	297.69
272.394	288.69
272.626	292.69
272.858	267.69
273.09	263.69
273.322	272.69
273.553	248.69
273.785	246.69
274.017	233.69
274.249	247.69
274.481	267.69
274.713	247.69
274.945	257.69
275.176	270.69
275.408	248.69
275.64	250.69
275.872	275.69
276.104	262.69
276.335	270.69
276.567	267.69
276.799	252.69
277.031	298.69
277.262	278.69
277.494	301.69
277.726	300.69
277.957	275.69
278.189	264.69
278.421	254.69
278.652	259.69
278.884	238.69
279.115	266.69
279.347	258.69
279.579	268.69
279.81	255.69
280.042	265.69
280.273	265.69
280.505	237.69
280.736	270.69
280.968	254.69
281.199	260.69
281.431	244.69
281.662	261.69
281.894	293.69
282.125	269.69
282.356	273.69
282.588	297.69
282.819	295.69
283.051	279.69
283.282	265.69
283.513	247.69
283.745	266.69
283.976	265.69
284.207	279.69
284.439	266.69
284.67	288.69
284.901	264.69
285.132	266.69
285.364	270.69
285.595	270.69
285.826	280.69
286.057	278.69
286.288	274.69
286.52	272.69
286.751	276.69
286.982	276.69
287.213	254.69
287.444	275.69
287.675	287.69
287.906	297.69
288.138	282.69
288.369	300.69
288.6	297.69
288.831	284.69
289.062	300.69
289.293	306.69
289.524	298.69
289.755	283.69
289.986	286.69
290.217	282.69
290.448	286.69
290.679	292.69
290.91	285.69
291.141	285.69
291.371	296.69
291.602	280.69
291.833	282.69
292.064	282.69
292.295	289.69
292.526	277.69
292.757	267.69
292.987	290.69
293.218	280.69
293.449	289.69
293.68	297.69
293.91	279.69
294.141	278.69
294.372	281.69
294.603	300.69
294.833	296.69
295.064	290.69
295.295	312.69
295.525	285.69
295.756	288.69
295.987	321.69
296.217	322.69
296.448	324.69
296.679	304.69
296.909	276.69
297.14	304.69
297.37	304.69
297.601	285.69
297.831	306.69
298.062	293.69
298.292	301.69
298.523	309.69
298.753	316.69
298.984	294.69
299.214	313.69
299.445	287.69
299.675	306.69
299.905	313.69
300.136	296.69
300.366	299.69
300.597	305.69
300.827	321.69
301.057	306.69
301.288	338.69
301.518	320.69
301.748	304.69
301.979	320.69
302.209	333.69
302.439	323.69
302.669	312.69
302.9	324.69
303.13	310.69
303.36	318.69
303.59	320.69
303.82	338.69
304.051	322.69
304.281	338.69
304.511	320.69
304.741	325.69
304.971	328.69
305.201	326.69
305.431	332.69
305.661	300.69
305.891	342.69
306.121	348.69
306.352	322.69
306.582	328.69
306.812	328.69
307.042	322.69
307.272	325.69
307.502	324.69
307.731	321.69
307.961	327.69
308.191	314.69
308.421	344.69
308.651	324.69
308.881	321.69
309.111	343.69
309.341	327.69
309.571	353.69
309.8	353.69
310.03	361.69
310.26	365.69
310.49	349.69
310.72	361.69
310.949	406.69
311.179	378.69
311.409	369.69
311.639	356.69
311.868	366.69
312.098	379.69
312.328	374.69
312.557	380.69
312.787	406.69
313.017	386.69
313.246	368.69
313.476	384.69
313.706	376.69
313.935	385.69
314.165	388.69
314.394	400.69
314.624	386.69
314.853	393.69
315.083	365.69
315.312	374.69
315.542	401.69
315.771	363.69
316.001	368.69
316.23	383.69
316.46	365.69
316.689	363.69
316.919	366.69
317.148	374.69
317.377	376.69
317.607	375.69
317.836	392.69
318.065	368.69
318.295	376.69
318.524	374.69
318.753	372.69
318.983	365.69
319.212	380.69
319.441	380.69
319.67	379.69
319.9	378.69
320.129	370.69
320.358	361.69
320.587	386.69
320.816	389.69
321.046	388.69
321.275	386.69
321.504	391.69
321.733	393.69
321.962	381.69
322.191	410.69
322.42	438.69
322.649	423.69
322.878	438.69
323.108	447.69
323.337	452.69
323.566	476.69
323.795	516.69
324.024	543.69
324.253	627.69
324.482	898.69
324.71	1422.69
324.939	2185.69
325.168	1952.69
325.397	918.69
325.626	616.69
325.855	522.69
326.084	477.69
326.313	488.69
326.542	493.69
326.77	548.69
326.999	594.69
327.228	847.69
327.457	1324.69
327.686	1646.69
327.914	1079.69
328.143	689.69
328.372	597.69
328.6	556.69
328.829	534.69
329.058	546.69
329.287	564.69
329.515	530.69
329.744	483.69
329.972	484.69
330.201	521.69
330.43	542.69
330.658	587.69
330.887	581.69
331.115	564.69
331.344	491.69
331.572	482.69
331.801	479.69
332.03	469.69
332.258	460.69
332.486	437.69
332.715	432.69
332.943	464.69
333.172	450.69
333.4	471.69
333.629	474.69
333.857	476.69
334.085	491.69
334.314	497.69
334.542	519.69
334.771	536.69
334.999	505.69
335.227	466.69
335.455	470.69
335.684	462.69
335.912	449.69
336.14	429.69
336.369	426.69
336.597	440.69
336.825	472.69
337.053	454.69
337.281	455.69
337.51	437.69
337.738	452.69
337.966	446.69
338.194	426.69
338.422	454.69
338.65	446.69
338.878	451.69
339.106	421.69
339.334	431.69
339.562	436.69
339.79	412.69
340.018	433.69
340.246	435.69
340.474	430.69
340.702	435.69
340.93	436.69
341.158	418.69
341.386	421.69
341.614	420.69
341.842	427.69
342.07	440.69
342.298	444.69
342.526	422.69
342.754	414.69
342.981	421.69
343.209	417.69
343.437	441.69
343.665	440.69
343.893	448.69
344.12	434.69
344.348	458.69
344.576	430.69
344.804	454.69
345.031	441.69
345.259	444.69
345.487	446.69
345.714	446.69
345.942	442.69
346.17	444.69
346.397	399.69
346.625	428.69
346.853	424.69
347.08	415.69
347.308	438.69
347.535	436.69
347.763	433.69
347.99	426.69
348.218	431.69
348.445	450.69
348.673	449.69
348.9	427.69
349.128	417.69
349.355	420.69
349.583	410.69
349.81	404.69
350.037	410.69
350.265	422.69
350.492	425.69
350.72	426.69
350.947	428.69
351.174	438.69
351.402	419.69
351.629	422.69
351.856	416.69
352.083	438.69
352.311	425.69
352.538	430.69
352.765	438.69
352.992	434.69
353.22	427.69
353.447	443.69
353.674	406.69
353.901	416.69
354.128	388.69
354.355	398.69
354.583	400.69
354.81	393.69
355.037	392.69
355.264	382.69
355.491	391.69
355.718	401.69
355.945	380.69
356.172	398.69
356.399	378.69
356.626	405.69
356.853	402.69
357.08	409.69
357.307	393.69
357.534	400.69
357.761	409.69
357.988	406.69
358.215	416.69
358.441	385.69
358.668	400.69
358.895	398.69
359.122	412.69
359.349	429.69
359.576	423.69
359.802	450.69
360.029	456.69
360.256	460.69
360.483	457.69
360.709	442.69
360.936	434.69
361.163	428.69
361.39	415.69
361.616	445.69
361.843	432.69
362.07	450.69
362.296	433.69
362.523	432.69
362.749	413.69
362.976	415.69
363.203	409.69
363.429	406.69
363.656	424.69
363.882	411.69
364.109	411.69
364.335	408.69
364.562	407.69
364.788	397.69
365.015	408.69
365.241	431.69
365.468	428.69
365.694	415.69
365.92	411.69
366.147	402.69
366.373	416.69
366.599	391.69
366.826	408.69
367.052	424.69
367.278	414.69
367.505	405.69
367.731	437.69
367.957	422.69
368.184	424.69
368.41	425.69
368.636	436.69
368.862	433.69
369.089	413.69
369.315	421.69
369.541	434.69
369.767	418.69
369.993	424.69
370.219	418.69
370.445	409.69
370.672	418.69
370.898	411.69
371.124	428.69
371.35	423.69
371.576	446.69
371.802	412.69
372.028	399.69
372.254	432.69
372.48	438.69
372.706	415.69
372.932	419.69
373.158	426.69
373.384	449.69
373.61	440.69
373.835	406.69
374.061	411.69
374.287	420.69
374.513	433.69
374.739	418.69
374.965	425.69
375.191	446.69
375.416	422.69
375.642	429.69
375.868	426.69
376.094	419.69
376.319	413.69
376.545	398.69
376.771	423.69
376.997	395.69
377.222	401.69
377.448	403.69
377.674	407.69
377.899	416.69
378.125	416.69
378.35	415.69
378.576	401.69
378.802	401.69
379.027	399.69
379.253	425.69
379.478	405.69
379.704	423.69
379.929	415.69
380.155	445.69
380.38	438.69
380.606	437.69
380.831	422.69
381.057	436.69
381.282	442.69
381.507	416.69
381.733	413.69
381.958	418.69
382.184	430.69
382.409	420.69
382.634	428.69
382.86	424.69
383.085	445.69
383.31	440.69
383.535	432.69
383.761	460.69
383.986	462.69
384.211	435.69
384.436	420.69
384.662	452.69
384.887	464.69
385.112	433.69
385.337	449.69
385.562	442.69
385.787	458.69
386.013	484.69
386.238	477.69
386.463	466.69
386.688	475.69
386.913	466.69
387.138	458.69
387.363	465.69
387.588	449.69
387.813	468.69
388.038	469.69
388.263	444.69
388.488	478.69
388.713	482.69
388.938	469.69
389.163	465.69
389.387	462.69
389.612	453.69
389.837	473.69
390.062	456.69
390.287	465.69
390.512	455.69
390.736	463.69
390.961	467.69
391.186	466.69
391.411	472.69
391.636	478.69
391.86	484.69
392.085	483.69
392.31	505.69
392.534	491.69
392.759	485.69
392.984	474.69
393.208	486.69
393.433	472.69
393.658	481.69
393.882	481.69
394.107	467.69
394.331	463.69
394.556	485.69
394.78	485.69
395.005	469.69
395.229	491.69
395.454	491.69
395.678	524.69
395.903	516.69
396.127	530.69
396.352	550.69
396.576	495.69
396.801	482.69
397.025	511.69
397.249	506.69
397.474	502.69
397.698	521.69
397.922	548.69
398.147	531.69
398.371	511.69
398.595	497.69
398.82	530.69
399.044	545.69
399.268	572.69
399.492	588.69
399.717	628.69
399.941	639.69
400.165	678.69
400.389	696.69
400.613	630.69
400.837	592.69
401.062	578.69
401.286	593.69
401.51	571.69
401.734	555.69
401.958	533.69
402.182	550.69
402.406	582.69
402.63	560.69
402.854	556.69
403.078	566.69
403.302	572.69
403.526	557.69
403.75	567.69
403.974	565.69
404.198	562.69
404.422	556.69
404.645	592.69
404.869	575.69
405.093	605.69
405.317	668.69
405.541	668.69
405.765	632.69
405.988	599.69
406.212	584.69
406.436	594.69
406.66	617.69
406.883	604.69
407.107	646.69
407.331	686.69
407.555	748.69
407.778	750.69
408.002	644.69
408.226	613.69
408.449	621.69
408.673	631.69
408.896	652.69
409.12	709.69
409.344	674.69
409.567	613.69
409.791	586.69
410.014	584.69
410.238	581.69
410.461	541.69
410.685	584.69
410.908	593.69
411.132	638.69
411.355	642.69
411.578	623.69
411.802	595.69
412.025	590.69
412.249	582.69
412.472	594.69
412.695	625.69
412.919	634.69
413.142	587.69
413.365	557.69
413.589	573.69
413.812	557.69
414.035	555.69
414.258	537.69
414.482	536.69
414.705	540.69
414.928	550.69
415.151	564.69
415.374	542.69
415.597	560.69
415.821	553.69
416.044	567.69
416.267	528.69
416.49	530.69
416.713	556.69
416.936	536.69
417.159	541.69
417.382	530.69
417.605	550.69
417.828	536.69
418.051	568.69
418.274	559.69
418.497	518.69
418.72	519.69
418.943	521.69
419.166	551.69
419.389	586.69
419.611	598.69
419.834	584.69
420.057	559.69
420.28	560.69
420.503	544.69
420.726	553.69
420.948	561.69
421.171	620.69
421.394	658.69
421.617	554.69
421.839	566.69
422.062	569.69
422.285	552.69
422.507	622.69
422.73	717.69
422.953	692.69
423.175	597.69
423.398	591.69
423.621	577.69
423.843	581.69
424.066	589.69
424.288	606.69
424.511	620.69
424.733	664.69
424.956	794.69
425.178	744.69
425.401	714.69
425.623	732.69
425.846	621.69
426.068	615.69
426.291	571.69
426.513	583.69
426.735	605.69
426.958	659.69
427.18	734.69
427.402	865.69
427.625	960.69
427.847	814.69
428.069	700.69
428.292	638.69
428.514	607.69
428.736	572.69
428.958	599.69
429.181	548.69
429.403	542.69
429.625	558.69
429.847	593.69
430.069	672.69
430.292	661.69
430.514	584.69
430.736	553.69
430.958	536.69
431.18	526.69
431.402	532.69
431.624	550.69
431.846	523.69
432.068	510.69
432.29	543.69
432.512	523.69
432.734	556.69
432.956	554.69
433.178	530.69
433.4	536.69
433.622	534.69
433.844	519.69
434.066	533.69
434.287	542.69
434.509	530.69
434.731	564.69
434.953	572.69
435.175	587.69
435.397	592.69
435.618	565.69
435.84	642.69
436.062	739.69
436.284	830.69
436.505	684.69
436.727	606.69
436.949	582.69
437.17	566.69
437.392	559.69
437.614	520.69
437.835	573.69
438.057	694.69
438.278	793.69
438.5	808.69
438.721	908.69
438.943	859.69
439.165	669.69
439.386	602.69
439.608	573.69
439.829	594.69
440.05	622.69
440.272	680.69
440.493	628.69
440.715	598.69
440.936	577.69
441.158	580.69
441.379	564.69
441.6	573.69
441.822	575.69
442.043	644.69
442.264	708.69
442.486	774.69
442.707	659.69
442.928	642.69
443.149	610.69
443.371	618.69
443.592	668.69
443.813	771.69
444.034	840.69
444.255	683.69
444.476	639.69
444.698	615.69
444.919	601.69
445.14	710.69
445.361	644.69
445.582	644.69
445.803	714.69
446.024	817.69
446.245	824.69
446.466	764.69
446.687	631.69
446.908	600.69
447.129	567.69
447.35	557.69
447.571	564.69
447.792	567.69
448.013	567.69
448.234	573.69
448.455	598.69
448.675	746.69
448.896	864.69
449.117	743.69
449.338	676.69
449.559	781.69
449.779	915.69
450	720.69
450.221	590.69
450.442	541.69
450.662	548.69
450.883	528.69
451.104	544.69
451.324	536.69
451.545	513.69
451.766	501.69
451.986	493.69
452.207	495.69
452.428	505.69
452.648	474.69
452.869	497.69
453.089	519.69
453.31	514.69
453.53	493.69
453.751	486.69
453.971	496.69
454.192	502.69
454.412	481.69
454.633	502.69
454.853	470.69
455.073	482.69
455.294	514.69
455.514	580.69
455.734	605.69
455.955	489.69
456.175	488.69
456.395	472.69
456.616	475.69
456.836	487.69
457.056	461.69
457.276	465.69
457.497	485.69
457.717	479.69
457.937	488.69
458.157	488.69
458.377	498.69
458.598	491.69
458.818	566.69
459.038	657.69
459.258	668.69
459.478	612.69
459.698	534.69
459.918	532.69
460.138	552.69
460.358	575.69
460.578	559.69
460.798	573.69
461.018	567.69
461.238	564.69
461.458	567.69
461.678	541.69
461.898	574.69
462.118	550.69
462.338	556.69
462.558	561.69
462.777	578.69
462.997	614.69
463.217	598.69
463.437	609.69
463.657	582.69
463.876	597.69
464.096	576.69
464.316	593.69
464.536	605.69
464.755	587.69
464.975	597.69
465.195	640.69
465.414	672.69
465.634	605.69
465.854	565.69
466.073	558.69
466.293	551.69
466.512	537.69
466.732	534.69
466.951	524.69
467.171	516.69
467.391	505.69
467.61	522.69
467.829	529.69
468.049	528.69
468.268	534.69
468.488	508.69
468.707	489.69
468.927	486.69
469.146	478.69
469.365	505.69
469.585	491.69
469.804	505.69
470.023	494.69
470.243	530.69
470.462	535.69
470.681	545.69
470.901	523.69
471.12	524.69
471.339	524.69
471.558	503.69
471.777	530.69
471.997	508.69
472.216	520.69
472.435	552.69
472.654	551.69
472.873	541.69
473.092	533.69
473.311	525.69
473.53	516.69
473.749	525.69
473.968	564.69
474.187	663.69
474.406	675.69
474.625	547.69
474.844	531.69
475.063	534.69
475.282	507.69
475.501	532.69
475.72	522.69
475.939	518.69
476.158	523.69
476.377	525.69
476.596	527.69
476.814	531.69
477.033	545.69
477.252	544.69
477.471	555.69
477.69	565.69
477.908	557.69
478.127	562.69
478.346	575.69
478.564	582.69
478.783	566.69
479.002	606.69
479.22	564.69
479.439	594.69
479.658	621.69
479.876	626.69
480.095	631.69
480.313	660.69
480.532	625.69
480.751	629.69
480.969	647.69
481.188	692.69
481.406	689.69
481.624	644.69
481.843	608.69
482.061	621.69
482.28	625.69
482.498	629.69
482.717	603.69
482.935	585.69
483.153	586.69
483.372	602.69
483.59	608.69
483.808	611.69
484.027	594.69
484.245	620.69
484.463	610.69
484.681	631.69
484.9	608.69
485.118	645.69
485.336	615.69
485.554	640.69
485.772	634.69
485.99	647.69
486.209	637.69
486.427	642.69
486.645	649.69
486.863	660.69
487.081	670.69
487.299	669.69
487.517	656.69
487.735	670.69
487.953	644.69
488.171	664.69
488.389	641.69
488.607	623.69
488.825	644.69
489.043	672.69
489.261	660.69
489.479	656.69
489.696	657.69
489.914	648.69
490.132	664.69
490.35	662.69
490.568	677.69
490.786	678.69
491.003	689.69
491.221	711.69
491.439	707.69
491.657	702.69
491.874	727.69
492.092	706.69
492.31	738.69
492.527	728.69
492.745	718.69
492.963	724.69
493.18	739.69
493.398	742.69
493.615	757.69
493.833	756.69
494.05	741.69
494.268	753.69
494.485	742.69
494.703	769.69
494.92	752.69
495.138	755.69
495.355	757.69
495.573	739.69
495.79	730.69
496.008	734.69
496.225	764.69
496.442	765.69
496.66	772.69
496.877	774.69
497.094	785.69
497.312	746.69
497.529	782.69
497.746	822.69
497.963	827.69
498.181	852.69
498.398	843.69
498.615	878.69
498.832	874.69
499.049	880.69
499.267	928.69
499.484	932.69
499.701	977.69
499.918	992.69
500.135	1062.69
500.352	1098.69
500.569	1125.69
500.786	1136.69
501.003	1121.69
501.22	1088.69
501.437	1054.69
501.654	1009.69
501.871	997.69
