Data from 1978.PennyLincolnUp.Lamp.En5.5.200Scan.071719.P1_HRD10591_16-13-02-864.txt Node
Date: Thu Jul 18 16:13:02 EDT 2019
User: cochatt
Spectrometer: HR+D1059
Trigger mode: 1
Integration Time (sec): 1.000000E-1
Scans to average: 1
Electric dark correction enabled: true
Nonlinearity correction enabled: false
Boxcar width: 0
XAxis mode: Wavelengths
Number of Pixels in Spectrum: 2048
>>>>>Begin Spectral Data<<<<<
223.165	-25.06
223.4	-25.06
223.635	-25.06
223.869	-19.06
224.104	-5.06
224.338	0.94
224.573	-23.06
224.808	-9.06
225.042	5.94
225.277	-15.06
225.511	-10.06
225.746	0.94
225.98	11.94
226.215	7.94
226.449	23.94
226.683	18.94
226.918	15.94
227.152	19.94
227.387	30.94
227.621	46.94
227.856	27.94
228.09	30.94
228.324	30.94
228.559	57.94
228.793	71.94
229.027	87.94
229.262	106.94
229.496	115.94
229.73	131.94
229.964	162.94
230.199	131.94
230.433	119.94
230.667	117.94
230.901	118.94
231.136	113.94
231.37	112.94
231.604	91.94
231.838	98.94
232.072	119.94
232.306	113.94
232.541	119.94
232.775	106.94
233.009	116.94
233.243	117.94
233.477	110.94
233.711	101.94
233.945	105.94
234.179	121.94
234.413	106.94
234.647	119.94
234.881	111.94
235.115	116.94
235.349	110.94
235.583	121.94
235.817	119.94
236.051	126.94
236.285	124.94
236.519	116.94
236.753	127.94
236.987	130.94
237.221	177.94
237.455	235.94
237.689	173.94
237.922	135.94
238.156	136.94
238.39	139.94
238.624	137.94
238.858	137.94
239.091	130.94
239.325	120.94
239.559	118.94
239.793	139.94
240.027	133.94
240.26	137.94
240.494	146.94
240.728	142.94
240.961	147.94
241.195	139.94
241.429	126.94
241.662	136.94
241.896	129.94
242.13	127.94
242.363	126.94
242.597	126.94
242.83	119.94
243.064	140.94
243.298	125.94
243.531	149.94
243.765	142.94
243.998	147.94
244.232	135.94
244.465	135.94
244.699	131.94
244.932	152.94
245.166	143.94
245.399	141.94
245.633	134.94
245.866	137.94
246.099	143.94
246.333	151.94
246.566	145.94
246.8	144.94
247.033	153.94
247.266	137.94
247.5	143.94
247.733	158.94
247.966	165.94
248.2	161.94
248.433	176.94
248.666	154.94
248.899	171.94
249.133	182.94
249.366	199.94
249.599	198.94
249.832	170.94
250.066	171.94
250.299	169.94
250.532	164.94
250.765	191.94
250.998	189.94
251.231	205.94
251.465	213.94
251.698	196.94
251.931	201.94
252.164	194.94
252.397	172.94
252.63	189.94
252.863	194.94
253.096	207.94
253.329	216.94
253.562	215.94
253.795	206.94
254.028	206.94
254.261	182.94
254.494	203.94
254.727	242.94
254.96	262.94
255.193	262.94
255.426	217.94
255.659	211.94
255.892	216.94
256.124	205.94
256.357	208.94
256.59	187.94
256.823	200.94
257.056	201.94
257.289	193.94
257.521	187.94
257.754	194.94
257.987	211.94
258.22	204.94
258.452	187.94
258.685	184.94
258.918	191.94
259.151	191.94
259.383	202.94
259.616	206.94
259.849	184.94
260.081	207.94
260.314	239.94
260.547	232.94
260.779	230.94
261.012	203.94
261.244	206.94
261.477	231.94
261.71	221.94
261.942	216.94
262.175	223.94
262.407	216.94
262.64	205.94
262.872	200.94
263.105	210.94
263.337	211.94
263.57	196.94
263.802	217.94
264.035	200.94
264.267	202.94
264.499	207.94
264.732	215.94
264.964	201.94
265.197	201.94
265.429	225.94
265.661	193.94
265.894	208.94
266.126	216.94
266.358	222.94
266.591	206.94
266.823	198.94
267.055	225.94
267.287	220.94
267.52	230.94
267.752	217.94
267.984	229.94
268.216	226.94
268.448	214.94
268.681	203.94
268.913	233.94
269.145	247.94
269.377	248.94
269.609	257.94
269.841	247.94
270.073	246.94
270.306	275.94
270.538	289.94
270.77	277.94
271.002	278.94
271.234	261.94
271.466	281.94
271.698	281.94
271.93	302.94
272.162	278.94
272.394	306.94
272.626	268.94
272.858	261.94
273.09	271.94
273.322	255.94
273.553	247.94
273.785	263.94
274.017	260.94
274.249	268.94
274.481	260.94
274.713	260.94
274.945	250.94
275.176	261.94
275.408	244.94
275.64	257.94
275.872	258.94
276.104	254.94
276.335	253.94
276.567	253.94
276.799	277.94
277.031	277.94
277.262	283.94
277.494	292.94
277.726	273.94
277.957	288.94
278.189	276.94
278.421	262.94
278.652	261.94
278.884	259.94
279.115	260.94
279.347	261.94
279.579	269.94
279.81	261.94
280.042	274.94
280.273	260.94
280.505	261.94
280.736	245.94
280.968	244.94
281.199	254.94
281.431	276.94
281.662	269.94
281.894	267.94
282.125	275.94
282.356	278.94
282.588	304.94
282.819	301.94
283.051	279.94
283.282	269.94
283.513	260.94
283.745	270.94
283.976	252.94
284.207	280.94
284.439	274.94
284.67	254.94
284.901	267.94
285.132	269.94
285.364	267.94
285.595	249.94
285.826	274.94
286.057	289.94
286.288	272.94
286.52	274.94
286.751	272.94
286.982	290.94
287.213	277.94
287.444	288.94
287.675	261.94
287.906	287.94
288.138	292.94
288.369	303.94
288.6	285.94
288.831	291.94
289.062	279.94
289.293	295.94
289.524	285.94
289.755	288.94
289.986	295.94
290.217	293.94
290.448	275.94
290.679	266.94
290.91	279.94
291.141	277.94
291.371	292.94
291.602	284.94
291.833	288.94
292.064	292.94
292.295	292.94
292.526	277.94
292.757	271.94
292.987	286.94
293.218	284.94
293.449	306.94
293.68	291.94
293.91	287.94
294.141	282.94
294.372	301.94
294.603	285.94
294.833	295.94
295.064	274.94
295.295	291.94
295.525	293.94
295.756	286.94
295.987	299.94
296.217	315.94
296.448	316.94
296.679	313.94
296.909	295.94
297.14	293.94
297.37	301.94
297.601	297.94
297.831	291.94
298.062	291.94
298.292	303.94
298.523	294.94
298.753	323.94
298.984	305.94
299.214	313.94
299.445	302.94
299.675	295.94
299.905	330.94
300.136	307.94
300.366	309.94
300.597	296.94
300.827	313.94
301.057	314.94
301.288	325.94
301.518	328.94
301.748	311.94
301.979	311.94
302.209	339.94
302.439	309.94
302.669	309.94
302.9	317.94
303.13	297.94
303.36	325.94
303.59	327.94
303.82	334.94
304.051	334.94
304.281	318.94
304.511	319.94
304.741	310.94
304.971	317.94
305.201	328.94
305.431	327.94
305.661	325.94
305.891	303.94
306.121	337.94
306.352	341.94
306.582	312.94
306.812	322.94
307.042	325.94
307.272	317.94
307.502	314.94
307.731	333.94
307.961	341.94
308.191	330.94
308.421	300.94
308.651	351.94
308.881	335.94
309.111	334.94
309.341	347.94
309.571	336.94
309.8	343.94
310.03	385.94
310.26	369.94
310.49	374.94
310.72	359.94
310.949	376.94
311.179	354.94
311.409	335.94
311.639	381.94
311.868	372.94
312.098	345.94
312.328	369.94
312.557	391.94
312.787	381.94
313.017	377.94
313.246	401.94
313.476	358.94
313.706	367.94
313.935	382.94
314.165	356.94
314.394	381.94
314.624	401.94
314.853	383.94
315.083	374.94
315.312	356.94
315.542	348.94
315.771	367.94
316.001	364.94
316.23	369.94
316.46	369.94
316.689	378.94
316.919	376.94
317.148	394.94
317.377	379.94
317.607	353.94
317.836	360.94
318.065	360.94
318.295	379.94
318.524	378.94
318.753	369.94
318.983	381.94
319.212	354.94
319.441	376.94
319.67	384.94
319.9	386.94
320.129	395.94
320.358	390.94
320.587	369.94
320.816	384.94
321.046	375.94
321.275	383.94
321.504	383.94
321.733	382.94
321.962	385.94
322.191	399.94
322.42	412.94
322.649	439.94
322.878	418.94
323.108	447.94
323.337	449.94
323.566	485.94
323.795	493.94
324.024	548.94
324.253	629.94
324.482	926.94
324.71	1461.94
324.939	2187.94
325.168	1917.94
325.397	935.94
325.626	640.94
325.855	531.94
326.084	494.94
326.313	490.94
326.542	488.94
326.77	530.94
326.999	598.94
327.228	797.94
327.457	1272.94
327.686	1668.94
327.914	1087.94
328.143	669.94
328.372	587.94
328.6	577.94
328.829	546.94
329.058	548.94
329.287	549.94
329.515	498.94
329.744	498.94
329.972	470.94
330.201	491.94
330.43	536.94
330.658	532.94
330.887	586.94
331.115	557.94
331.344	498.94
331.572	503.94
331.801	476.94
332.03	484.94
332.258	477.94
332.486	467.94
332.715	445.94
332.943	433.94
333.172	450.94
333.4	439.94
333.629	435.94
333.857	455.94
334.085	481.94
334.314	485.94
334.542	503.94
334.771	518.94
334.999	498.94
335.227	472.94
335.455	469.94
335.684	460.94
335.912	465.94
336.14	439.94
336.369	447.94
336.597	468.94
336.825	452.94
337.053	458.94
337.281	447.94
337.51	455.94
337.738	452.94
337.966	458.94
338.194	443.94
338.422	442.94
338.65	428.94
338.878	457.94
339.106	443.94
339.334	447.94
339.562	442.94
339.79	429.94
340.018	428.94
340.246	441.94
340.474	448.94
340.702	410.94
340.93	401.94
341.158	420.94
341.386	441.94
341.614	434.94
341.842	426.94
342.07	439.94
342.298	405.94
342.526	430.94
342.754	405.94
342.981	421.94
343.209	418.94
343.437	433.94
343.665	426.94
343.893	420.94
344.12	466.94
344.348	445.94
344.576	467.94
344.804	433.94
345.031	446.94
345.259	455.94
345.487	427.94
345.714	437.94
345.942	426.94
346.17	419.94
346.397	422.94
346.625	423.94
346.853	423.94
347.08	410.94
347.308	424.94
347.535	415.94
347.763	399.94
347.99	429.94
348.218	437.94
348.445	429.94
348.673	427.94
348.9	404.94
349.128	415.94
349.355	409.94
349.583	412.94
349.81	407.94
350.037	405.94
350.265	409.94
350.492	412.94
350.72	409.94
350.947	403.94
351.174	430.94
351.402	424.94
351.629	429.94
351.856	428.94
352.083	444.94
352.311	426.94
352.538	417.94
352.765	434.94
352.992	451.94
353.22	397.94
353.447	405.94
353.674	408.94
353.901	428.94
354.128	385.94
354.355	414.94
354.583	431.94
354.81	399.94
355.037	404.94
355.264	392.94
355.491	407.94
355.718	377.94
355.945	385.94
356.172	400.94
356.399	384.94
356.626	397.94
356.853	397.94
357.08	382.94
357.307	389.94
357.534	402.94
357.761	408.94
357.988	393.94
358.215	382.94
358.441	405.94
358.668	386.94
358.895	407.94
359.122	418.94
359.349	399.94
359.576	426.94
359.802	460.94
360.029	446.94
360.256	467.94
360.483	471.94
360.709	424.94
360.936	433.94
361.163	413.94
361.39	422.94
361.616	421.94
361.843	413.94
362.07	409.94
362.296	431.94
362.523	430.94
362.749	405.94
362.976	429.94
363.203	393.94
363.429	404.94
363.656	417.94
363.882	403.94
364.109	412.94
364.335	393.94
364.562	397.94
364.788	406.94
365.015	398.94
365.241	392.94
365.468	405.94
365.694	428.94
365.92	411.94
366.147	405.94
366.373	427.94
366.599	412.94
366.826	409.94
367.052	408.94
367.278	391.94
367.505	405.94
367.731	417.94
367.957	390.94
368.184	409.94
368.41	404.94
368.636	435.94
368.862	429.94
369.089	426.94
369.315	415.94
369.541	413.94
369.767	390.94
369.993	422.94
370.219	415.94
370.445	413.94
370.672	427.94
370.898	409.94
371.124	399.94
371.35	427.94
371.576	422.94
371.802	427.94
372.028	425.94
372.254	397.94
372.48	396.94
372.706	413.94
372.932	407.94
373.158	425.94
373.384	447.94
373.61	427.94
373.835	421.94
374.061	407.94
374.287	419.94
374.513	435.94
374.739	436.94
374.965	420.94
375.191	431.94
375.416	441.94
375.642	425.94
375.868	421.94
376.094	435.94
376.319	415.94
376.545	406.94
376.771	420.94
376.997	411.94
377.222	432.94
377.448	421.94
377.674	409.94
377.899	411.94
378.125	427.94
378.35	409.94
378.576	406.94
378.802	419.94
379.027	407.94
379.253	435.94
379.478	419.94
379.704	404.94
379.929	424.94
380.155	410.94
380.38	401.94
380.606	413.94
380.831	425.94
381.057	416.94
381.282	405.94
381.507	416.94
381.733	430.94
381.958	437.94
382.184	423.94
382.409	438.94
382.634	414.94
382.86	401.94
383.085	442.94
383.31	419.94
383.535	425.94
383.761	433.94
383.986	448.94
384.211	443.94
384.436	441.94
384.662	444.94
384.887	468.94
385.112	460.94
385.337	461.94
385.562	430.94
385.787	475.94
386.013	475.94
386.238	465.94
386.463	472.94
386.688	459.94
386.913	455.94
387.138	457.94
387.363	467.94
387.588	471.94
387.813	470.94
388.038	468.94
388.263	479.94
388.488	487.94
388.713	473.94
388.938	480.94
389.163	460.94
389.387	483.94
389.612	486.94
389.837	464.94
390.062	489.94
390.287	465.94
390.512	456.94
390.736	449.94
390.961	463.94
391.186	467.94
391.411	490.94
391.636	474.94
391.86	469.94
392.085	477.94
392.31	486.94
392.534	467.94
392.759	488.94
392.984	487.94
393.208	480.94
393.433	473.94
393.658	468.94
393.882	467.94
394.107	473.94
394.331	478.94
394.556	491.94
394.78	471.94
395.005	459.94
395.229	472.94
395.454	501.94
395.678	503.94
395.903	521.94
396.127	539.94
396.352	546.94
396.576	514.94
396.801	494.94
397.025	489.94
397.249	510.94
397.474	508.94
397.698	519.94
397.922	508.94
398.147	535.94
398.371	534.94
398.595	551.94
398.82	533.94
399.044	543.94
399.268	573.94
399.492	583.94
399.717	615.94
399.941	649.94
400.165	680.94
400.389	669.94
400.613	621.94
400.837	573.94
401.062	556.94
401.286	554.94
401.51	556.94
401.734	551.94
401.958	549.94
402.182	551.94
402.406	558.94
402.63	558.94
402.854	551.94
403.078	545.94
403.302	548.94
403.526	563.94
403.75	579.94
403.974	546.94
404.198	550.94
404.422	565.94
404.645	595.94
404.869	593.94
405.093	611.94
405.317	658.94
405.541	702.94
405.765	644.94
405.988	590.94
406.212	598.94
406.436	639.94
406.66	640.94
406.883	610.94
407.107	635.94
407.331	682.94
407.555	761.94
407.778	747.94
408.002	695.94
408.226	640.94
408.449	648.94
408.673	605.94
408.896	677.94
409.12	708.94
409.344	663.94
409.567	583.94
409.791	593.94
410.014	584.94
410.238	575.94
410.461	561.94
410.685	586.94
410.908	579.94
411.132	622.94
411.355	655.94
411.578	636.94
411.802	569.94
412.025	557.94
412.249	579.94
412.472	632.94
412.695	630.94
412.919	607.94
413.142	602.94
413.365	555.94
413.589	573.94
413.812	519.94
414.035	540.94
414.258	568.94
414.482	555.94
414.705	548.94
414.928	545.94
415.151	537.94
415.374	545.94
415.597	539.94
415.821	533.94
416.044	536.94
416.267	544.94
416.49	549.94
416.713	547.94
416.936	546.94
417.159	535.94
417.382	545.94
417.605	549.94
417.828	559.94
418.051	568.94
418.274	555.94
418.497	548.94
418.72	539.94
418.943	539.94
419.166	557.94
419.389	577.94
419.611	576.94
419.834	563.94
420.057	575.94
420.28	533.94
420.503	561.94
420.726	542.94
420.948	573.94
421.171	628.94
421.394	655.94
421.617	573.94
421.839	548.94
422.062	555.94
422.285	564.94
422.507	622.94
422.73	710.94
422.953	681.94
423.175	617.94
423.398	576.94
423.621	599.94
423.843	612.94
424.066	584.94
424.288	593.94
424.511	603.94
424.733	665.94
424.956	763.94
425.178	705.94
425.401	696.94
425.623	764.94
425.846	619.94
426.068	592.94
426.291	585.94
426.513	584.94
426.735	590.94
426.958	655.94
427.18	716.94
427.402	882.94
427.625	971.94
427.847	806.94
428.069	718.94
428.292	654.94
428.514	601.94
428.736	561.94
428.958	567.94
429.181	553.94
429.403	561.94
429.625	567.94
429.847	585.94
430.069	666.94
430.292	657.94
430.514	571.94
430.736	549.94
430.958	551.94
431.18	502.94
431.402	534.94
431.624	540.94
431.846	538.94
432.068	524.94
432.29	556.94
432.512	532.94
432.734	535.94
432.956	557.94
433.178	532.94
433.4	551.94
433.622	532.94
433.844	531.94
434.066	536.94
434.287	508.94
434.509	525.94
434.731	546.94
434.953	546.94
435.175	551.94
435.397	594.94
435.618	597.94
435.84	629.94
436.062	733.94
436.284	819.94
436.505	687.94
436.727	619.94
436.949	550.94
437.17	567.94
437.392	558.94
437.614	567.94
437.835	605.94
438.057	690.94
438.278	813.94
438.5	771.94
438.721	890.94
438.943	851.94
439.165	684.94
439.386	613.94
439.608	609.94
439.829	591.94
440.05	653.94
440.272	684.94
440.493	632.94
440.715	599.94
440.936	553.94
441.158	567.94
441.379	559.94
441.6	563.94
441.822	591.94
442.043	605.94
442.264	708.94
442.486	769.94
442.707	655.94
442.928	633.94
443.149	617.94
443.371	629.94
443.592	661.94
443.813	789.94
444.034	862.94
444.255	704.94
444.476	633.94
444.698	604.94
444.919	583.94
445.14	722.94
445.361	658.94
445.582	638.94
445.803	708.94
446.024	834.94
446.245	858.94
446.466	739.94
446.687	641.94
446.908	605.94
447.129	564.94
447.35	544.94
447.571	541.94
447.792	556.94
448.013	548.94
448.234	572.94
448.455	609.94
448.675	726.94
448.896	887.94
449.117	712.94
449.338	697.94
449.559	801.94
449.779	940.94
450	734.94
450.221	620.94
450.442	535.94
450.662	558.94
450.883	548.94
451.104	548.94
451.324	537.94
451.545	498.94
451.766	507.94
451.986	506.94
452.207	490.94
452.428	482.94
452.648	500.94
452.869	463.94
453.089	504.94
453.31	507.94
453.53	497.94
453.751	479.94
453.971	489.94
454.192	510.94
454.412	475.94
454.633	466.94
454.853	481.94
455.073	470.94
455.294	513.94
455.514	579.94
455.734	539.94
455.955	491.94
456.175	482.94
456.395	483.94
456.616	467.94
456.836	458.94
457.056	469.94
457.276	475.94
457.497	481.94
457.717	456.94
457.937	467.94
458.157	478.94
458.377	499.94
458.598	498.94
458.818	540.94
459.038	639.94
459.258	649.94
459.478	595.94
459.698	547.94
459.918	540.94
460.138	526.94
460.358	546.94
460.578	533.94
460.798	557.94
461.018	553.94
461.238	550.94
461.458	582.94
461.678	547.94
461.898	553.94
462.118	550.94
462.338	572.94
462.558	569.94
462.777	571.94
462.997	587.94
463.217	601.94
463.437	605.94
463.657	599.94
463.876	585.94
464.096	600.94
464.316	588.94
464.536	586.94
464.755	596.94
464.975	567.94
465.195	615.94
465.414	681.94
465.634	588.94
465.854	559.94
466.073	548.94
466.293	525.94
466.512	528.94
466.732	499.94
466.951	536.94
467.171	509.94
467.391	510.94
467.61	515.94
467.829	529.94
468.049	520.94
468.268	512.94
468.488	510.94
468.707	498.94
468.927	496.94
469.146	500.94
469.365	503.94
469.585	475.94
469.804	487.94
470.023	505.94
470.243	527.94
470.462	537.94
470.681	518.94
470.901	535.94
471.12	536.94
471.339	508.94
471.558	537.94
471.777	513.94
471.997	512.94
472.216	503.94
472.435	554.94
472.654	525.94
472.873	512.94
473.092	494.94
473.311	509.94
473.53	526.94
473.749	535.94
473.968	563.94
474.187	668.94
474.406	669.94
474.625	558.94
474.844	544.94
475.063	523.94
475.282	535.94
475.501	515.94
475.72	508.94
475.939	523.94
476.158	533.94
476.377	542.94
476.596	565.94
476.814	548.94
477.033	568.94
477.252	549.94
477.471	561.94
477.69	543.94
477.908	577.94
478.127	552.94
478.346	555.94
478.564	577.94
478.783	561.94
479.002	581.94
479.22	591.94
479.439	603.94
479.658	626.94
479.876	623.94
480.095	617.94
480.313	651.94
480.532	652.94
480.751	651.94
480.969	647.94
481.188	668.94
481.406	719.94
481.624	681.94
481.843	651.94
482.061	599.94
482.28	613.94
482.498	607.94
482.717	603.94
482.935	596.94
483.153	600.94
483.372	582.94
483.59	599.94
483.808	581.94
484.027	629.94
484.245	601.94
484.463	612.94
484.681	636.94
484.9	622.94
485.118	598.94
485.336	614.94
485.554	646.94
485.772	628.94
485.99	607.94
486.209	624.94
486.427	635.94
486.645	641.94
486.863	648.94
487.081	646.94
487.299	639.94
487.517	643.94
487.735	645.94
487.953	649.94
488.171	624.94
488.389	630.94
488.607	656.94
488.825	654.94
489.043	643.94
489.261	632.94
489.479	663.94
489.696	662.94
489.914	637.94
490.132	673.94
490.35	677.94
490.568	672.94
490.786	666.94
491.003	682.94
491.221	714.94
491.439	700.94
491.657	689.94
491.874	725.94
492.092	723.94
492.31	727.94
492.527	730.94
492.745	713.94
492.963	725.94
493.18	733.94
493.398	728.94
493.615	757.94
493.833	769.94
494.05	762.94
494.268	753.94
494.485	756.94
494.703	724.94
494.92	750.94
495.138	714.94
495.355	752.94
495.573	746.94
495.79	756.94
496.008	754.94
496.225	774.94
496.442	762.94
496.66	761.94
496.877	782.94
497.094	775.94
497.312	756.94
497.529	804.94
497.746	799.94
497.963	827.94
498.181	823.94
498.398	851.94
498.615	877.94
498.832	890.94
499.049	923.94
499.267	919.94
499.484	930.94
499.701	995.94
499.918	993.94
500.135	1054.94
500.352	1091.94
500.569	1106.94
500.786	1106.94
501.003	1090.94
501.22	1077.94
501.437	1053.94
501.654	1035.94
501.871	1002.94
