Data from 1978.PennyLincolnUp.Lamp.En5.5.200Scan.071719.P1_HRD10591_16-12-08-865.txt Node
Date: Thu Jul 18 16:12:08 EDT 2019
User: cochatt
Spectrometer: HR+D1059
Trigger mode: 1
Integration Time (sec): 1.000000E-1
Scans to average: 1
Electric dark correction enabled: true
Nonlinearity correction enabled: false
Boxcar width: 0
XAxis mode: Wavelengths
Number of Pixels in Spectrum: 2048
>>>>>Begin Spectral Data<<<<<
223.165	1.75
223.4	1.75
223.635	1.75
223.869	-8.25
224.104	-8.25
224.338	-15.25
224.573	-6.25
224.808	-12.25
225.042	-17.25
225.277	-12.25
225.511	-12.25
225.746	10.75
225.98	12.75
226.215	3.75
226.449	16.75
226.683	26.75
226.918	9.75
227.152	9.75
227.387	27.75
227.621	44.75
227.856	35.75
228.09	30.75
228.324	42.75
228.559	54.75
228.793	64.75
229.027	102.75
229.262	99.75
229.496	101.75
229.73	118.75
229.964	127.75
230.199	116.75
230.433	114.75
230.667	122.75
230.901	102.75
231.136	108.75
231.37	103.75
231.604	111.75
231.838	107.75
232.072	95.75
232.306	102.75
232.541	106.75
232.775	118.75
233.009	106.75
233.243	109.75
233.477	119.75
233.711	110.75
233.945	113.75
234.179	97.75
234.413	107.75
234.647	115.75
234.881	107.75
235.115	101.75
235.349	117.75
235.583	123.75
235.817	107.75
236.051	120.75
236.285	115.75
236.519	115.75
236.753	119.75
236.987	109.75
237.221	161.75
237.455	206.75
237.689	173.75
237.922	129.75
238.156	116.75
238.39	123.75
238.624	126.75
238.858	100.75
239.091	118.75
239.325	122.75
239.559	117.75
239.793	119.75
240.027	120.75
240.26	124.75
240.494	135.75
240.728	127.75
240.961	127.75
241.195	142.75
241.429	126.75
241.662	122.75
241.896	136.75
242.13	141.75
242.363	119.75
242.597	110.75
242.83	134.75
243.064	119.75
243.298	120.75
243.531	127.75
243.765	132.75
243.998	123.75
244.232	131.75
244.465	122.75
244.699	129.75
244.932	139.75
245.166	132.75
245.399	141.75
245.633	139.75
245.866	125.75
246.099	149.75
246.333	130.75
246.566	151.75
246.8	145.75
247.033	142.75
247.266	155.75
247.5	126.75
247.733	141.75
247.966	161.75
248.2	143.75
248.433	164.75
248.666	139.75
248.899	172.75
249.133	168.75
249.366	189.75
249.599	179.75
249.832	143.75
250.066	173.75
250.299	153.75
250.532	179.75
250.765	179.75
250.998	184.75
251.231	178.75
251.465	172.75
251.698	179.75
251.931	166.75
252.164	166.75
252.397	167.75
252.63	177.75
252.863	166.75
253.096	193.75
253.329	177.75
253.562	197.75
253.795	181.75
254.028	193.75
254.261	185.75
254.494	197.75
254.727	215.75
254.96	228.75
255.193	225.75
255.426	202.75
255.659	191.75
255.892	187.75
256.124	182.75
256.357	203.75
256.59	195.75
256.823	196.75
257.056	188.75
257.289	188.75
257.521	198.75
257.754	183.75
257.987	191.75
258.22	207.75
258.452	196.75
258.685	173.75
258.918	186.75
259.151	189.75
259.383	201.75
259.616	192.75
259.849	212.75
260.081	209.75
260.314	234.75
260.547	223.75
260.779	212.75
261.012	219.75
261.244	212.75
261.477	217.75
261.71	197.75
261.942	203.75
262.175	198.75
262.407	190.75
262.64	190.75
262.872	199.75
263.105	191.75
263.337	193.75
263.57	190.75
263.802	194.75
264.035	209.75
264.267	195.75
264.499	196.75
264.732	208.75
264.964	201.75
265.197	201.75
265.429	190.75
265.661	193.75
265.894	193.75
266.126	198.75
266.358	204.75
266.591	210.75
266.823	215.75
267.055	198.75
267.287	200.75
267.52	191.75
267.752	207.75
267.984	223.75
268.216	199.75
268.448	222.75
268.681	218.75
268.913	207.75
269.145	224.75
269.377	229.75
269.609	235.75
269.841	235.75
270.073	245.75
270.306	235.75
270.538	263.75
270.77	251.75
271.002	245.75
271.234	249.75
271.466	252.75
271.698	259.75
271.93	267.75
272.162	258.75
272.394	263.75
272.626	261.75
272.858	266.75
273.09	229.75
273.322	225.75
273.553	220.75
273.785	227.75
274.017	240.75
274.249	249.75
274.481	226.75
274.713	241.75
274.945	219.75
275.176	232.75
275.408	252.75
275.64	245.75
275.872	253.75
276.104	234.75
276.335	236.75
276.567	238.75
276.799	252.75
277.031	243.75
277.262	270.75
277.494	283.75
277.726	257.75
277.957	262.75
278.189	241.75
278.421	241.75
278.652	265.75
278.884	235.75
279.115	238.75
279.347	247.75
279.579	255.75
279.81	229.75
280.042	247.75
280.273	249.75
280.505	260.75
280.736	253.75
280.968	256.75
281.199	242.75
281.431	269.75
281.662	269.75
281.894	276.75
282.125	231.75
282.356	263.75
282.588	276.75
282.819	262.75
283.051	275.75
283.282	250.75
283.513	262.75
283.745	253.75
283.976	255.75
284.207	255.75
284.439	246.75
284.67	269.75
284.901	261.75
285.132	247.75
285.364	249.75
285.595	258.75
285.826	256.75
286.057	259.75
286.288	266.75
286.52	262.75
286.751	249.75
286.982	245.75
287.213	272.75
287.444	266.75
287.675	265.75
287.906	265.75
288.138	256.75
288.369	285.75
288.6	280.75
288.831	279.75
289.062	265.75
289.293	268.75
289.524	276.75
289.755	268.75
289.986	278.75
290.217	268.75
290.448	266.75
290.679	276.75
290.91	262.75
291.141	247.75
291.371	266.75
291.602	253.75
291.833	263.75
292.064	274.75
292.295	265.75
292.526	271.75
292.757	291.75
292.987	294.75
293.218	267.75
293.449	273.75
293.68	262.75
293.91	271.75
294.141	269.75
294.372	263.75
294.603	251.75
294.833	278.75
295.064	265.75
295.295	283.75
295.525	266.75
295.756	248.75
295.987	283.75
296.217	285.75
296.448	316.75
296.679	292.75
296.909	284.75
297.14	274.75
297.37	291.75
297.601	284.75
297.831	264.75
298.062	278.75
298.292	271.75
298.523	299.75
298.753	268.75
298.984	275.75
299.214	300.75
299.445	293.75
299.675	290.75
299.905	305.75
300.136	278.75
300.366	275.75
300.597	275.75
300.827	306.75
301.057	305.75
301.288	298.75
301.518	297.75
301.748	296.75
301.979	313.75
302.209	302.75
302.439	294.75
302.669	304.75
302.9	290.75
303.13	303.75
303.36	305.75
303.59	317.75
303.82	305.75
304.051	316.75
304.281	309.75
304.511	297.75
304.741	313.75
304.971	303.75
305.201	319.75
305.431	294.75
305.661	306.75
305.891	325.75
306.121	297.75
306.352	321.75
306.582	311.75
306.812	316.75
307.042	317.75
307.272	301.75
307.502	314.75
307.731	307.75
307.961	320.75
308.191	303.75
308.421	314.75
308.651	308.75
308.881	292.75
309.111	300.75
309.341	315.75
309.571	322.75
309.8	327.75
310.03	338.75
310.26	326.75
310.49	336.75
310.72	336.75
310.949	359.75
311.179	360.75
311.409	333.75
311.639	343.75
311.868	329.75
312.098	343.75
312.328	361.75
312.557	354.75
312.787	371.75
313.017	350.75
313.246	350.75
313.476	336.75
313.706	356.75
313.935	345.75
314.165	356.75
314.394	368.75
314.624	380.75
314.853	338.75
315.083	344.75
315.312	352.75
315.542	341.75
315.771	323.75
316.001	335.75
316.23	355.75
316.46	348.75
316.689	338.75
316.919	347.75
317.148	360.75
317.377	378.75
317.607	329.75
317.836	348.75
318.065	339.75
318.295	363.75
318.524	365.75
318.753	333.75
318.983	352.75
319.212	354.75
319.441	347.75
319.67	357.75
319.9	357.75
320.129	340.75
320.358	349.75
320.587	353.75
320.816	354.75
321.046	355.75
321.275	371.75
321.504	362.75
321.733	372.75
321.962	383.75
322.191	391.75
322.42	360.75
322.649	369.75
322.878	413.75
323.108	406.75
323.337	418.75
323.566	437.75
323.795	447.75
324.024	497.75
324.253	572.75
324.482	785.75
324.71	1190.75
324.939	1783.75
325.168	1550.75
325.397	746.75
325.626	540.75
325.855	478.75
326.084	434.75
326.313	437.75
326.542	426.75
326.77	482.75
326.999	521.75
327.228	699.75
327.457	1094.75
327.686	1372.75
327.914	880.75
328.143	567.75
328.372	538.75
328.6	502.75
328.829	473.75
329.058	468.75
329.287	483.75
329.515	489.75
329.744	445.75
329.972	426.75
330.201	459.75
330.43	462.75
330.658	482.75
330.887	509.75
331.115	509.75
331.344	446.75
331.572	435.75
331.801	419.75
332.03	442.75
332.258	402.75
332.486	424.75
332.715	429.75
332.943	424.75
333.172	405.75
333.4	438.75
333.629	445.75
333.857	447.75
334.085	446.75
334.314	448.75
334.542	470.75
334.771	491.75
334.999	481.75
335.227	438.75
335.455	457.75
335.684	428.75
335.912	414.75
336.14	393.75
336.369	429.75
336.597	429.75
336.825	412.75
337.053	421.75
337.281	421.75
337.51	438.75
337.738	428.75
337.966	403.75
338.194	443.75
338.422	425.75
338.65	402.75
338.878	393.75
339.106	404.75
339.334	409.75
339.562	430.75
339.79	395.75
340.018	403.75
340.246	428.75
340.474	421.75
340.702	414.75
340.93	395.75
341.158	417.75
341.386	393.75
341.614	400.75
341.842	402.75
342.07	403.75
342.298	413.75
342.526	399.75
342.754	387.75
342.981	385.75
343.209	366.75
343.437	391.75
343.665	415.75
343.893	430.75
344.12	419.75
344.348	423.75
344.576	411.75
344.804	402.75
345.031	427.75
345.259	405.75
345.487	423.75
345.714	406.75
345.942	409.75
346.17	397.75
346.397	381.75
346.625	390.75
346.853	398.75
347.08	403.75
347.308	387.75
347.535	386.75
347.763	415.75
347.99	396.75
348.218	414.75
348.445	407.75
348.673	396.75
348.9	393.75
349.128	396.75
349.355	367.75
349.583	382.75
349.81	407.75
350.037	382.75
350.265	378.75
350.492	389.75
350.72	377.75
350.947	397.75
351.174	411.75
351.402	390.75
351.629	383.75
351.856	396.75
352.083	414.75
352.311	399.75
352.538	427.75
352.765	400.75
352.992	393.75
353.22	402.75
353.447	383.75
353.674	391.75
353.901	400.75
354.128	389.75
354.355	378.75
354.583	381.75
354.81	395.75
355.037	388.75
355.264	376.75
355.491	377.75
355.718	395.75
355.945	394.75
356.172	391.75
356.399	394.75
356.626	372.75
356.853	389.75
357.08	386.75
357.307	387.75
357.534	382.75
357.761	378.75
357.988	391.75
358.215	383.75
358.441	373.75
358.668	391.75
358.895	376.75
359.122	383.75
359.349	389.75
359.576	400.75
359.802	417.75
360.029	431.75
360.256	419.75
360.483	410.75
360.709	413.75
360.936	402.75
361.163	403.75
361.39	388.75
361.616	394.75
361.843	411.75
362.07	409.75
362.296	417.75
362.523	383.75
362.749	403.75
362.976	397.75
363.203	388.75
363.429	405.75
363.656	387.75
363.882	384.75
364.109	385.75
364.335	396.75
364.562	388.75
364.788	393.75
365.015	403.75
365.241	380.75
365.468	394.75
365.694	382.75
365.92	388.75
366.147	393.75
366.373	383.75
366.599	374.75
366.826	386.75
367.052	399.75
367.278	366.75
367.505	385.75
367.731	399.75
367.957	380.75
368.184	384.75
368.41	387.75
368.636	408.75
368.862	411.75
369.089	388.75
369.315	399.75
369.541	385.75
369.767	371.75
369.993	381.75
370.219	384.75
370.445	387.75
370.672	412.75
370.898	389.75
371.124	412.75
371.35	410.75
371.576	385.75
371.802	381.75
372.028	411.75
372.254	413.75
372.48	407.75
372.706	402.75
372.932	403.75
373.158	413.75
373.384	410.75
373.61	390.75
373.835	415.75
374.061	419.75
374.287	435.75
374.513	432.75
374.739	403.75
374.965	412.75
375.191	407.75
375.416	420.75
375.642	415.75
375.868	415.75
376.094	393.75
376.319	395.75
376.545	417.75
376.771	396.75
376.997	399.75
377.222	407.75
377.448	394.75
377.674	411.75
377.899	392.75
378.125	398.75
378.35	401.75
378.576	395.75
378.802	396.75
379.027	389.75
379.253	402.75
379.478	375.75
379.704	397.75
379.929	402.75
380.155	399.75
380.38	391.75
380.606	391.75
380.831	412.75
381.057	420.75
381.282	388.75
381.507	427.75
381.733	408.75
381.958	400.75
382.184	403.75
382.409	408.75
382.634	407.75
382.86	402.75
383.085	433.75
383.31	414.75
383.535	410.75
383.761	426.75
383.986	420.75
384.211	419.75
384.436	424.75
384.662	421.75
384.887	424.75
385.112	457.75
385.337	437.75
385.562	464.75
385.787	433.75
386.013	431.75
386.238	449.75
386.463	442.75
386.688	450.75
386.913	441.75
387.138	444.75
387.363	468.75
387.588	455.75
387.813	457.75
388.038	461.75
388.263	463.75
388.488	449.75
388.713	444.75
388.938	459.75
389.163	450.75
389.387	451.75
389.612	455.75
389.837	438.75
390.062	437.75
390.287	475.75
390.512	454.75
390.736	440.75
390.961	441.75
391.186	447.75
391.411	456.75
391.636	446.75
391.86	452.75
392.085	463.75
392.31	483.75
392.534	467.75
392.759	451.75
392.984	454.75
393.208	463.75
393.433	472.75
393.658	445.75
393.882	469.75
394.107	462.75
394.331	460.75
394.556	446.75
394.78	451.75
395.005	437.75
395.229	476.75
395.454	477.75
395.678	476.75
395.903	492.75
396.127	509.75
396.352	509.75
396.576	462.75
396.801	473.75
397.025	468.75
397.249	478.75
397.474	475.75
397.698	491.75
397.922	496.75
398.147	504.75
398.371	525.75
398.595	523.75
398.82	538.75
399.044	532.75
399.268	534.75
399.492	574.75
399.717	584.75
399.941	615.75
400.165	652.75
400.389	649.75
400.613	589.75
400.837	546.75
401.062	533.75
401.286	536.75
401.51	547.75
401.734	541.75
401.958	541.75
402.182	524.75
402.406	525.75
402.63	542.75
402.854	534.75
403.078	532.75
403.302	532.75
403.526	559.75
403.75	563.75
403.974	553.75
404.198	547.75
404.422	550.75
404.645	551.75
404.869	558.75
405.093	574.75
405.317	590.75
405.541	631.75
405.765	610.75
405.988	554.75
406.212	537.75
406.436	571.75
406.66	585.75
406.883	602.75
407.107	604.75
407.331	656.75
407.555	695.75
407.778	694.75
408.002	661.75
408.226	623.75
408.449	597.75
408.673	607.75
408.896	607.75
409.12	669.75
409.344	610.75
409.567	583.75
409.791	579.75
410.014	532.75
410.238	547.75
410.461	581.75
410.685	567.75
410.908	586.75
411.132	608.75
411.355	634.75
411.578	605.75
411.802	560.75
412.025	531.75
412.249	554.75
412.472	569.75
412.695	590.75
412.919	603.75
413.142	544.75
413.365	529.75
413.589	538.75
413.812	538.75
414.035	519.75
414.258	495.75
414.482	543.75
414.705	535.75
414.928	528.75
415.151	510.75
415.374	525.75
415.597	528.75
415.821	505.75
416.044	511.75
416.267	534.75
416.49	513.75
416.713	517.75
416.936	494.75
417.159	535.75
417.382	497.75
417.605	508.75
417.828	515.75
418.051	550.75
418.274	519.75
418.497	494.75
418.72	526.75
418.943	509.75
419.166	536.75
419.389	552.75
419.611	538.75
419.834	540.75
420.057	553.75
420.28	533.75
420.503	526.75
420.726	548.75
420.948	516.75
421.171	575.75
421.394	584.75
421.617	550.75
421.839	530.75
422.062	549.75
422.285	514.75
422.507	613.75
422.73	641.75
422.953	644.75
423.175	586.75
423.398	547.75
423.621	543.75
423.843	566.75
424.066	562.75
424.288	563.75
424.511	581.75
424.733	623.75
424.956	716.75
425.178	685.75
425.401	662.75
425.623	669.75
425.846	598.75
426.068	559.75
426.291	568.75
426.513	551.75
426.735	577.75
426.958	591.75
427.18	670.75
427.402	821.75
427.625	900.75
427.847	738.75
428.069	673.75
428.292	586.75
428.514	571.75
428.736	551.75
428.958	521.75
429.181	509.75
429.403	518.75
429.625	531.75
429.847	555.75
430.069	618.75
430.292	617.75
430.514	527.75
430.736	524.75
430.958	505.75
431.18	531.75
431.402	507.75
431.624	475.75
431.846	500.75
432.068	510.75
432.29	488.75
432.512	513.75
432.734	492.75
432.956	515.75
433.178	533.75
433.4	514.75
433.622	532.75
433.844	506.75
434.066	503.75
434.287	508.75
434.509	527.75
434.731	517.75
434.953	514.75
435.175	529.75
435.397	544.75
435.618	572.75
435.84	605.75
436.062	694.75
436.284	749.75
436.505	600.75
436.727	567.75
436.949	547.75
437.17	519.75
437.392	526.75
437.614	538.75
437.835	587.75
438.057	641.75
438.278	712.75
438.5	746.75
438.721	829.75
438.943	795.75
439.165	620.75
439.386	557.75
439.608	542.75
439.829	558.75
440.05	591.75
440.272	645.75
440.493	595.75
440.715	534.75
440.936	537.75
441.158	519.75
441.379	524.75
441.6	535.75
441.822	555.75
442.043	605.75
442.264	673.75
442.486	728.75
442.707	618.75
442.928	598.75
443.149	553.75
443.371	610.75
443.592	646.75
443.813	745.75
444.034	789.75
444.255	657.75
444.476	606.75
444.698	577.75
444.919	567.75
445.14	678.75
445.361	622.75
445.582	617.75
445.803	655.75
446.024	737.75
446.245	771.75
446.466	685.75
446.687	571.75
446.908	568.75
447.129	525.75
447.35	528.75
447.571	515.75
447.792	516.75
448.013	505.75
448.234	536.75
448.455	591.75
448.675	650.75
448.896	784.75
449.117	667.75
449.338	630.75
449.559	738.75
449.779	838.75
450	669.75
450.221	561.75
450.442	511.75
450.662	499.75
450.883	508.75
451.104	522.75
451.324	517.75
451.545	469.75
451.766	482.75
451.986	468.75
452.207	476.75
452.428	464.75
452.648	468.75
452.869	472.75
453.089	463.75
453.31	478.75
453.53	468.75
453.751	470.75
453.971	467.75
454.192	474.75
454.412	494.75
454.633	478.75
454.853	450.75
455.073	455.75
455.294	473.75
455.514	546.75
455.734	517.75
455.955	473.75
456.175	449.75
456.395	441.75
456.616	462.75
456.836	439.75
457.056	452.75
457.276	422.75
457.497	445.75
457.717	458.75
457.937	461.75
458.157	469.75
458.377	479.75
458.598	481.75
458.818	529.75
459.038	579.75
459.258	618.75
459.478	531.75
459.698	500.75
459.918	489.75
460.138	497.75
460.358	513.75
460.578	508.75
460.798	536.75
461.018	532.75
461.238	522.75
461.458	520.75
461.678	519.75
461.898	543.75
462.118	520.75
462.338	565.75
462.558	557.75
462.777	564.75
462.997	562.75
463.217	590.75
463.437	592.75
463.657	554.75
463.876	588.75
464.096	575.75
464.316	561.75
464.536	543.75
464.755	540.75
464.975	556.75
465.195	567.75
465.414	617.75
465.634	549.75
465.854	538.75
466.073	521.75
466.293	515.75
466.512	509.75
466.732	481.75
466.951	480.75
467.171	488.75
467.391	511.75
467.61	479.75
467.829	492.75
468.049	477.75
468.268	500.75
468.488	488.75
468.707	475.75
468.927	486.75
469.146	475.75
469.365	472.75
469.585	477.75
469.804	481.75
470.023	485.75
470.243	518.75
470.462	510.75
470.681	515.75
470.901	501.75
471.12	493.75
471.339	487.75
471.558	499.75
471.777	485.75
471.997	481.75
472.216	497.75
472.435	523.75
472.654	505.75
472.873	502.75
473.092	494.75
473.311	487.75
473.53	469.75
473.749	493.75
473.968	524.75
474.187	593.75
474.406	653.75
474.625	539.75
474.844	491.75
475.063	522.75
475.282	510.75
475.501	517.75
475.72	515.75
475.939	495.75
476.158	517.75
476.377	513.75
476.596	502.75
476.814	517.75
477.033	535.75
477.252	541.75
477.471	511.75
477.69	544.75
477.908	555.75
478.127	567.75
478.346	531.75
478.564	559.75
478.783	565.75
479.002	566.75
479.22	584.75
479.439	603.75
479.658	586.75
479.876	594.75
480.095	605.75
480.313	623.75
480.532	620.75
480.751	589.75
480.969	630.75
481.188	650.75
481.406	670.75
481.624	601.75
481.843	593.75
482.061	586.75
482.28	591.75
482.498	589.75
482.717	570.75
482.935	583.75
483.153	579.75
483.372	538.75
483.59	559.75
483.808	592.75
484.027	575.75
484.245	588.75
484.463	563.75
484.681	601.75
484.9	584.75
485.118	587.75
485.336	584.75
485.554	590.75
485.772	607.75
485.99	605.75
486.209	622.75
486.427	607.75
486.645	629.75
486.863	626.75
487.081	638.75
487.299	630.75
487.517	599.75
487.735	611.75
487.953	603.75
488.171	612.75
488.389	621.75
488.607	638.75
488.825	608.75
489.043	620.75
489.261	617.75
489.479	596.75
489.696	606.75
489.914	615.75
490.132	625.75
490.35	664.75
490.568	638.75
490.786	655.75
491.003	634.75
491.221	653.75
491.439	684.75
491.657	660.75
491.874	672.75
492.092	666.75
492.31	680.75
492.527	685.75
492.745	689.75
492.963	686.75
493.18	678.75
493.398	682.75
493.615	685.75
493.833	704.75
494.05	697.75
494.268	698.75
494.485	678.75
494.703	704.75
494.92	717.75
495.138	713.75
495.355	708.75
495.573	718.75
495.79	684.75
496.008	711.75
496.225	743.75
496.442	719.75
496.66	724.75
496.877	733.75
497.094	719.75
497.312	725.75
497.529	750.75
497.746	744.75
497.963	776.75
498.181	786.75
498.398	801.75
498.615	809.75
498.832	852.75
499.049	869.75
499.267	870.75
499.484	909.75
499.701	964.75
499.918	973.75
500.135	1020.75
500.352	1058.75
500.569	1100.75
500.786	1098.75
501.003	1093.75
501.22	1058.75
501.437	996.75
501.654	972.75
501.871	951.75
502.088	907.75
