Data from 1978.PennyLincolnUp.Lamp.En5.5.200Scan.071719.P1_HRD10591_16-11-44-864.txt Node
Date: Thu Jul 18 16:11:44 EDT 2019
User: cochatt
Spectrometer: HR+D1059
Trigger mode: 1
Integration Time (sec): 1.000000E-1
Scans to average: 1
Electric dark correction enabled: true
Nonlinearity correction enabled: false
Boxcar width: 0
XAxis mode: Wavelengths
Number of Pixels in Spectrum: 2048
>>>>>Begin Spectral Data<<<<<
223.165	-19.69
223.4	-19.69
223.635	-19.69
223.869	-12.69
224.104	-13.69
224.338	-35.69
224.573	-13.69
224.808	-5.69
225.042	-9.69
225.277	0.31
225.511	2.31
225.746	3.31
225.98	8.31
226.215	18.31
226.449	14.31
226.683	9.31
226.918	25.31
227.152	29.31
227.387	58.31
227.621	41.31
227.856	46.31
228.09	51.31
228.324	50.31
228.559	54.31
228.793	89.31
229.027	85.31
229.262	92.31
229.496	106.31
229.73	104.31
229.964	126.31
230.199	106.31
230.433	111.31
230.667	108.31
230.901	100.31
231.136	111.31
231.37	110.31
231.604	117.31
231.838	111.31
232.072	112.31
232.306	105.31
232.541	113.31
232.775	107.31
233.009	114.31
233.243	121.31
233.477	124.31
233.711	120.31
233.945	123.31
234.179	123.31
234.413	129.31
234.647	113.31
234.881	122.31
235.115	119.31
235.349	107.31
235.583	130.31
235.817	121.31
236.051	111.31
236.285	109.31
236.519	120.31
236.753	128.31
236.987	110.31
237.221	152.31
237.455	184.31
237.689	142.31
237.922	129.31
238.156	118.31
238.39	120.31
238.624	111.31
238.858	113.31
239.091	126.31
239.325	122.31
239.559	131.31
239.793	124.31
240.027	106.31
240.26	120.31
240.494	129.31
240.728	140.31
240.961	146.31
241.195	131.31
241.429	121.31
241.662	111.31
241.896	129.31
242.13	126.31
242.363	126.31
242.597	128.31
242.83	128.31
243.064	131.31
243.298	136.31
243.531	131.31
243.765	133.31
243.998	123.31
244.232	132.31
244.465	132.31
244.699	131.31
244.932	150.31
245.166	138.31
245.399	147.31
245.633	119.31
245.866	130.31
246.099	125.31
246.333	153.31
246.566	134.31
246.8	132.31
247.033	146.31
247.266	165.31
247.5	147.31
247.733	158.31
247.966	158.31
248.2	148.31
248.433	161.31
248.666	164.31
248.899	168.31
249.133	174.31
249.366	160.31
249.599	167.31
249.832	137.31
250.066	152.31
250.299	167.31
250.532	159.31
250.765	156.31
250.998	162.31
251.231	172.31
251.465	182.31
251.698	170.31
251.931	162.31
252.164	167.31
252.397	152.31
252.63	166.31
252.863	163.31
253.096	172.31
253.329	187.31
253.562	192.31
253.795	161.31
254.028	195.31
254.261	168.31
254.494	187.31
254.727	192.31
254.96	202.31
255.193	202.31
255.426	185.31
255.659	166.31
255.892	190.31
256.124	179.31
256.357	195.31
256.59	195.31
256.823	192.31
257.056	187.31
257.289	186.31
257.521	201.31
257.754	188.31
257.987	172.31
258.22	167.31
258.452	185.31
258.685	171.31
258.918	181.31
259.151	177.31
259.383	170.31
259.616	190.31
259.849	194.31
260.081	205.31
260.314	192.31
260.547	194.31
260.779	209.31
261.012	200.31
261.244	195.31
261.477	187.31
261.71	210.31
261.942	189.31
262.175	196.31
262.407	187.31
262.64	178.31
262.872	171.31
263.105	188.31
263.337	196.31
263.57	186.31
263.802	186.31
264.035	202.31
264.267	194.31
264.499	192.31
264.732	187.31
264.964	188.31
265.197	196.31
265.429	191.31
265.661	180.31
265.894	194.31
266.126	194.31
266.358	187.31
266.591	170.31
266.823	214.31
267.055	206.31
267.287	176.31
267.52	202.31
267.752	198.31
267.984	196.31
268.216	212.31
268.448	209.31
268.681	204.31
268.913	199.31
269.145	206.31
269.377	207.31
269.609	218.31
269.841	219.31
270.073	219.31
270.306	234.31
270.538	247.31
270.77	251.31
271.002	235.31
271.234	218.31
271.466	227.31
271.698	231.31
271.93	238.31
272.162	241.31
272.394	242.31
272.626	237.31
272.858	233.31
273.09	232.31
273.322	226.31
273.553	218.31
273.785	218.31
274.017	209.31
274.249	205.31
274.481	222.31
274.713	229.31
274.945	216.31
275.176	222.31
275.408	233.31
275.64	224.31
275.872	219.31
276.104	232.31
276.335	214.31
276.567	218.31
276.799	239.31
277.031	226.31
277.262	258.31
277.494	233.31
277.726	243.31
277.957	247.31
278.189	239.31
278.421	228.31
278.652	248.31
278.884	238.31
279.115	235.31
279.347	254.31
279.579	236.31
279.81	237.31
280.042	243.31
280.273	252.31
280.505	246.31
280.736	230.31
280.968	232.31
281.199	251.31
281.431	238.31
281.662	249.31
281.894	231.31
282.125	251.31
282.356	248.31
282.588	235.31
282.819	241.31
283.051	243.31
283.282	232.31
283.513	242.31
283.745	248.31
283.976	254.31
284.207	250.31
284.439	263.31
284.67	272.31
284.901	264.31
285.132	247.31
285.364	248.31
285.595	241.31
285.826	231.31
286.057	227.31
286.288	247.31
286.52	247.31
286.751	260.31
286.982	243.31
287.213	266.31
287.444	272.31
287.675	268.31
287.906	253.31
288.138	262.31
288.369	263.31
288.6	253.31
288.831	266.31
289.062	256.31
289.293	264.31
289.524	250.31
289.755	241.31
289.986	270.31
290.217	262.31
290.448	252.31
290.679	270.31
290.91	260.31
291.141	254.31
291.371	259.31
291.602	262.31
291.833	251.31
292.064	274.31
292.295	264.31
292.526	268.31
292.757	262.31
292.987	257.31
293.218	264.31
293.449	275.31
293.68	263.31
293.91	248.31
294.141	273.31
294.372	262.31
294.603	258.31
294.833	260.31
295.064	268.31
295.295	267.31
295.525	267.31
295.756	270.31
295.987	254.31
296.217	271.31
296.448	277.31
296.679	261.31
296.909	264.31
297.14	250.31
297.37	282.31
297.601	271.31
297.831	289.31
298.062	260.31
298.292	275.31
298.523	271.31
298.753	288.31
298.984	269.31
299.214	280.31
299.445	276.31
299.675	291.31
299.905	252.31
300.136	280.31
300.366	290.31
300.597	279.31
300.827	288.31
301.057	273.31
301.288	276.31
301.518	285.31
301.748	275.31
301.979	288.31
302.209	280.31
302.439	286.31
302.669	301.31
302.9	297.31
303.13	297.31
303.36	303.31
303.59	294.31
303.82	291.31
304.051	289.31
304.281	299.31
304.511	295.31
304.741	304.31
304.971	298.31
305.201	315.31
305.431	294.31
305.661	316.31
305.891	306.31
306.121	307.31
306.352	297.31
306.582	306.31
306.812	290.31
307.042	289.31
307.272	298.31
307.502	291.31
307.731	309.31
307.961	304.31
308.191	294.31
308.421	286.31
308.651	283.31
308.881	303.31
309.111	304.31
309.341	302.31
309.571	281.31
309.8	300.31
310.03	309.31
310.26	320.31
310.49	322.31
310.72	318.31
310.949	311.31
311.179	330.31
311.409	333.31
311.639	338.31
311.868	299.31
312.098	315.31
312.328	317.31
312.557	326.31
312.787	340.31
313.017	346.31
313.246	310.31
313.476	318.31
313.706	323.31
313.935	340.31
314.165	327.31
314.394	340.31
314.624	337.31
314.853	332.31
315.083	318.31
315.312	321.31
315.542	294.31
315.771	324.31
316.001	310.31
316.23	330.31
316.46	331.31
316.689	334.31
316.919	305.31
317.148	341.31
317.377	345.31
317.607	336.31
317.836	330.31
318.065	311.31
318.295	336.31
318.524	337.31
318.753	329.31
318.983	327.31
319.212	341.31
319.441	344.31
319.67	331.31
319.9	325.31
320.129	344.31
320.358	345.31
320.587	334.31
320.816	342.31
321.046	325.31
321.275	348.31
321.504	348.31
321.733	332.31
321.962	345.31
322.191	334.31
322.42	359.31
322.649	369.31
322.878	367.31
323.108	385.31
323.337	383.31
323.566	384.31
323.795	396.31
324.024	428.31
324.253	487.31
324.482	632.31
324.71	922.31
324.939	1357.31
325.168	1206.31
325.397	625.31
325.626	438.31
325.855	416.31
326.084	410.31
326.313	403.31
326.542	390.31
326.77	401.31
326.999	440.31
327.228	584.31
327.457	850.31
327.686	1055.31
327.914	715.31
328.143	492.31
328.372	447.31
328.6	421.31
328.829	410.31
329.058	429.31
329.287	451.31
329.515	404.31
329.744	409.31
329.972	388.31
330.201	396.31
330.43	407.31
330.658	413.31
330.887	445.31
331.115	438.31
331.344	402.31
331.572	390.31
331.801	382.31
332.03	402.31
332.258	387.31
332.486	373.31
332.715	382.31
332.943	388.31
333.172	390.31
333.4	412.31
333.629	404.31
333.857	424.31
334.085	412.31
334.314	419.31
334.542	440.31
334.771	442.31
334.999	426.31
335.227	408.31
335.455	419.31
335.684	398.31
335.912	394.31
336.14	400.31
336.369	403.31
336.597	391.31
336.825	391.31
337.053	394.31
337.281	380.31
337.51	381.31
337.738	381.31
337.966	388.31
338.194	378.31
338.422	368.31
338.65	386.31
338.878	382.31
339.106	377.31
339.334	382.31
339.562	390.31
339.79	394.31
340.018	383.31
340.246	376.31
340.474	392.31
340.702	375.31
340.93	380.31
341.158	399.31
341.386	385.31
341.614	388.31
341.842	377.31
342.07	394.31
342.298	380.31
342.526	381.31
342.754	376.31
342.981	392.31
343.209	368.31
343.437	402.31
343.665	400.31
343.893	397.31
344.12	399.31
344.348	403.31
344.576	413.31
344.804	397.31
345.031	388.31
345.259	417.31
345.487	387.31
345.714	382.31
345.942	379.31
346.17	382.31
346.397	390.31
346.625	368.31
346.853	368.31
347.08	376.31
347.308	355.31
347.535	350.31
347.763	386.31
347.99	386.31
348.218	375.31
348.445	377.31
348.673	376.31
348.9	362.31
349.128	359.31
349.355	354.31
349.583	363.31
349.81	369.31
350.037	367.31
350.265	379.31
350.492	375.31
350.72	379.31
350.947	354.31
351.174	372.31
351.402	367.31
351.629	370.31
351.856	368.31
352.083	384.31
352.311	365.31
352.538	369.31
352.765	358.31
352.992	379.31
353.22	367.31
353.447	361.31
353.674	352.31
353.901	355.31
354.128	379.31
354.355	371.31
354.583	344.31
354.81	353.31
355.037	359.31
355.264	350.31
355.491	379.31
355.718	353.31
355.945	353.31
356.172	341.31
356.399	362.31
356.626	361.31
356.853	362.31
357.08	365.31
357.307	367.31
357.534	371.31
357.761	367.31
357.988	376.31
358.215	378.31
358.441	382.31
358.668	371.31
358.895	380.31
359.122	370.31
359.349	358.31
359.576	371.31
359.802	383.31
360.029	386.31
360.256	399.31
360.483	403.31
360.709	369.31
360.936	363.31
361.163	379.31
361.39	367.31
361.616	388.31
361.843	374.31
362.07	369.31
362.296	398.31
362.523	392.31
362.749	383.31
362.976	370.31
363.203	370.31
363.429	379.31
363.656	382.31
363.882	355.31
364.109	374.31
364.335	357.31
364.562	351.31
364.788	366.31
365.015	385.31
365.241	382.31
365.468	367.31
365.694	356.31
365.92	369.31
366.147	369.31
366.373	371.31
366.599	384.31
366.826	371.31
367.052	378.31
367.278	371.31
367.505	383.31
367.731	370.31
367.957	386.31
368.184	367.31
368.41	363.31
368.636	391.31
368.862	404.31
369.089	386.31
369.315	380.31
369.541	374.31
369.767	386.31
369.993	373.31
370.219	371.31
370.445	360.31
370.672	392.31
370.898	379.31
371.124	374.31
371.35	379.31
371.576	378.31
371.802	386.31
372.028	374.31
372.254	371.31
372.48	382.31
372.706	382.31
372.932	426.31
373.158	403.31
373.384	394.31
373.61	384.31
373.835	405.31
374.061	399.31
374.287	391.31
374.513	371.31
374.739	382.31
374.965	398.31
375.191	394.31
375.416	390.31
375.642	400.31
375.868	380.31
376.094	398.31
376.319	383.31
376.545	383.31
376.771	379.31
376.997	386.31
377.222	390.31
377.448	376.31
377.674	401.31
377.899	381.31
378.125	374.31
378.35	363.31
378.576	382.31
378.802	357.31
379.027	386.31
379.253	388.31
379.478	399.31
379.704	394.31
379.929	406.31
380.155	394.31
380.38	391.31
380.606	372.31
380.831	386.31
381.057	378.31
381.282	397.31
381.507	401.31
381.733	400.31
381.958	385.31
382.184	404.31
382.409	397.31
382.634	402.31
382.86	400.31
383.085	408.31
383.31	398.31
383.535	415.31
383.761	412.31
383.986	420.31
384.211	401.31
384.436	418.31
384.662	414.31
384.887	451.31
385.112	423.31
385.337	415.31
385.562	425.31
385.787	429.31
386.013	445.31
386.238	436.31
386.463	446.31
386.688	434.31
386.913	449.31
387.138	446.31
387.363	452.31
387.588	415.31
387.813	442.31
388.038	439.31
388.263	442.31
388.488	444.31
388.713	436.31
388.938	422.31
389.163	451.31
389.387	427.31
389.612	431.31
389.837	434.31
390.062	442.31
390.287	431.31
390.512	444.31
390.736	432.31
390.961	430.31
391.186	448.31
391.411	438.31
391.636	440.31
391.86	448.31
392.085	453.31
392.31	446.31
392.534	464.31
392.759	442.31
392.984	446.31
393.208	417.31
393.433	453.31
393.658	442.31
393.882	460.31
394.107	445.31
394.331	456.31
394.556	433.31
394.78	449.31
395.005	450.31
395.229	443.31
395.454	474.31
395.678	446.31
395.903	479.31
396.127	473.31
396.352	474.31
396.576	468.31
396.801	455.31
397.025	482.31
397.249	460.31
397.474	455.31
397.698	468.31
397.922	483.31
398.147	487.31
398.371	494.31
398.595	494.31
398.82	507.31
399.044	509.31
399.268	543.31
399.492	574.31
399.717	582.31
399.941	607.31
400.165	602.31
400.389	616.31
400.613	560.31
400.837	552.31
401.062	526.31
401.286	507.31
401.51	506.31
401.734	515.31
401.958	530.31
402.182	514.31
402.406	520.31
402.63	509.31
402.854	506.31
403.078	513.31
403.302	504.31
403.526	521.31
403.75	543.31
403.974	526.31
404.198	539.31
404.422	515.31
404.645	526.31
404.869	529.31
405.093	554.31
405.317	581.31
405.541	600.31
405.765	539.31
405.988	568.31
406.212	550.31
406.436	538.31
406.66	566.31
406.883	546.31
407.107	565.31
407.331	595.31
407.555	662.31
407.778	671.31
408.002	624.31
408.226	618.31
408.449	582.31
408.673	594.31
408.896	601.31
409.12	595.31
409.344	591.31
409.567	536.31
409.791	531.31
410.014	538.31
410.238	534.31
410.461	546.31
410.685	541.31
410.908	556.31
411.132	563.31
411.355	594.31
411.578	568.31
411.802	542.31
412.025	528.31
412.249	524.31
412.472	540.31
412.695	556.31
412.919	575.31
413.142	532.31
413.365	528.31
413.589	529.31
413.812	502.31
414.035	503.31
414.258	499.31
414.482	504.31
414.705	502.31
414.928	533.31
415.151	513.31
415.374	507.31
415.597	498.31
415.821	493.31
416.044	509.31
416.267	506.31
416.49	502.31
416.713	482.31
416.936	500.31
417.159	498.31
417.382	514.31
417.605	500.31
417.828	502.31
418.051	503.31
418.274	505.31
418.497	486.31
418.72	494.31
418.943	479.31
419.166	506.31
419.389	520.31
419.611	530.31
419.834	514.31
420.057	523.31
420.28	492.31
420.503	474.31
420.726	453.31
420.948	506.31
421.171	552.31
421.394	541.31
421.617	541.31
421.839	506.31
422.062	499.31
422.285	528.31
422.507	560.31
422.73	615.31
422.953	602.31
423.175	556.31
423.398	538.31
423.621	514.31
423.843	540.31
424.066	544.31
424.288	530.31
424.511	530.31
424.733	566.31
424.956	632.31
425.178	607.31
425.401	590.31
425.623	633.31
425.846	559.31
426.068	526.31
426.291	542.31
426.513	522.31
426.735	530.31
426.958	541.31
427.18	607.31
427.402	712.31
427.625	814.31
427.847	684.31
428.069	607.31
428.292	543.31
428.514	494.31
428.736	512.31
428.958	528.31
429.181	491.31
429.403	497.31
429.625	502.31
429.847	510.31
430.069	578.31
430.292	568.31
430.514	527.31
430.736	505.31
430.958	471.31
431.18	482.31
431.402	482.31
431.624	486.31
431.846	484.31
432.068	472.31
432.29	484.31
432.512	494.31
432.734	481.31
432.956	502.31
433.178	476.31
433.4	498.31
433.622	496.31
433.844	481.31
434.066	490.31
434.287	470.31
434.509	495.31
434.731	503.31
434.953	516.31
435.175	519.31
435.397	539.31
435.618	538.31
435.84	566.31
436.062	623.31
436.284	708.31
436.505	580.31
436.727	522.31
436.949	505.31
437.17	482.31
437.392	487.31
437.614	495.31
437.835	528.31
438.057	605.31
438.278	664.31
438.5	656.31
438.721	750.31
438.943	725.31
439.165	591.31
439.386	529.31
439.608	540.31
439.829	538.31
440.05	535.31
440.272	559.31
440.493	548.31
440.715	514.31
440.936	488.31
441.158	492.31
441.379	508.31
441.6	505.31
441.822	526.31
442.043	557.31
442.264	600.31
442.486	642.31
442.707	572.31
442.928	556.31
443.149	540.31
443.371	562.31
443.592	558.31
443.813	661.31
444.034	700.31
444.255	615.31
444.476	538.31
444.698	577.31
444.919	545.31
445.14	663.31
445.361	596.31
445.582	544.31
445.803	589.31
446.024	660.31
446.245	690.31
446.466	631.31
446.687	564.31
446.908	534.31
447.129	515.31
447.35	491.31
447.571	496.31
447.792	464.31
448.013	499.31
448.234	495.31
448.455	542.31
448.675	640.31
448.896	714.31
449.117	626.31
449.338	582.31
449.559	658.31
449.779	774.31
450	611.31
450.221	530.31
450.442	498.31
450.662	495.31
450.883	474.31
451.104	483.31
451.324	471.31
451.545	487.31
451.766	458.31
451.986	461.31
452.207	426.31
452.428	454.31
452.648	455.31
452.869	443.31
453.089	448.31
453.31	449.31
453.53	435.31
453.751	472.31
453.971	431.31
454.192	449.31
454.412	438.31
454.633	441.31
454.853	451.31
455.073	419.31
455.294	465.31
455.514	482.31
455.734	488.31
455.955	440.31
456.175	427.31
456.395	441.31
456.616	422.31
456.836	429.31
457.056	433.31
457.276	424.31
457.497	431.31
457.717	447.31
457.937	431.31
458.157	452.31
458.377	422.31
458.598	435.31
458.818	477.31
459.038	517.31
459.258	562.31
459.478	519.31
459.698	503.31
459.918	509.31
460.138	502.31
460.358	495.31
460.578	500.31
460.798	495.31
461.018	494.31
461.238	526.31
461.458	526.31
461.678	533.31
461.898	535.31
462.118	502.31
462.338	523.31
462.558	500.31
462.777	546.31
462.997	560.31
463.217	559.31
463.437	570.31
463.657	564.31
463.876	553.31
464.096	563.31
464.316	561.31
464.536	556.31
464.755	550.31
464.975	546.31
465.195	547.31
465.414	561.31
465.634	526.31
465.854	498.31
466.073	507.31
466.293	481.31
466.512	494.31
466.732	458.31
466.951	468.31
467.171	489.31
467.391	484.31
467.61	459.31
467.829	482.31
468.049	475.31
468.268	467.31
468.488	455.31
468.707	471.31
468.927	463.31
469.146	451.31
469.365	445.31
469.585	449.31
469.804	451.31
470.023	476.31
470.243	473.31
470.462	468.31
470.681	478.31
470.901	484.31
471.12	475.31
471.339	456.31
471.558	459.31
471.777	464.31
471.997	489.31
472.216	490.31
472.435	491.31
472.654	491.31
472.873	475.31
473.092	477.31
473.311	472.31
473.53	472.31
473.749	476.31
473.968	494.31
474.187	577.31
474.406	575.31
474.625	504.31
474.844	466.31
475.063	466.31
475.282	485.31
475.501	483.31
475.72	502.31
475.939	480.31
476.158	482.31
476.377	503.31
476.596	510.31
476.814	519.31
477.033	515.31
477.252	503.31
477.471	536.31
477.69	520.31
477.908	522.31
478.127	546.31
478.346	541.31
478.564	538.31
478.783	530.31
479.002	554.31
479.22	554.31
479.439	557.31
479.658	579.31
479.876	566.31
480.095	568.31
480.313	600.31
480.532	585.31
480.751	587.31
480.969	576.31
481.188	597.31
481.406	595.31
481.624	575.31
481.843	568.31
482.061	556.31
482.28	579.31
482.498	562.31
482.717	537.31
482.935	549.31
483.153	541.31
483.372	588.31
483.59	568.31
483.808	542.31
484.027	576.31
484.245	573.31
484.463	548.31
484.681	554.31
484.9	563.31
485.118	553.31
485.336	553.31
485.554	580.31
485.772	584.31
485.99	572.31
486.209	595.31
486.427	570.31
486.645	602.31
486.863	606.31
487.081	622.31
487.299	586.31
487.517	586.31
487.735	586.31
487.953	569.31
488.171	586.31
488.389	596.31
488.607	590.31
488.825	605.31
489.043	599.31
489.261	595.31
489.479	613.31
489.696	587.31
489.914	616.31
490.132	627.31
490.35	627.31
490.568	607.31
490.786	619.31
491.003	598.31
491.221	660.31
491.439	628.31
491.657	639.31
491.874	650.31
492.092	637.31
492.31	635.31
492.527	632.31
492.745	643.31
492.963	653.31
493.18	656.31
493.398	648.31
493.615	663.31
493.833	664.31
494.05	679.31
494.268	676.31
494.485	625.31
494.703	650.31
494.92	660.31
495.138	648.31
495.355	658.31
495.573	648.31
495.79	668.31
496.008	696.31
496.225	690.31
496.442	704.31
496.66	696.31
496.877	682.31
497.094	672.31
497.312	704.31
497.529	716.31
497.746	736.31
497.963	726.31
498.181	761.31
498.398	772.31
498.615	798.31
498.832	817.31
499.049	815.31
499.267	857.31
499.484	886.31
499.701	944.31
499.918	953.31
500.135	1004.31
500.352	1035.31
500.569	1043.31
500.786	1049.31
501.003	1041.31
501.22	1015.31
501.437	953.31
501.654	931.31
501.871	907.31
