Data from 1978.PennyLincolnUp.Lamp.En5.5.200Scan.071719.P1_HRD10591_16-14-22-864.txt Node
Date: Thu Jul 18 16:14:22 EDT 2019
User: cochatt
Spectrometer: HR+D1059
Trigger mode: 1
Integration Time (sec): 1.000000E-1
Scans to average: 1
Electric dark correction enabled: true
Nonlinearity correction enabled: false
Boxcar width: 0
XAxis mode: Wavelengths
Number of Pixels in Spectrum: 2048
>>>>>Begin Spectral Data<<<<<
223.165	-12.19
223.4	-12.19
223.635	-12.19
223.869	-17.19
224.104	-21.19
224.338	-2.19
224.573	-8.19
224.808	-7.19
225.042	-7.19
225.277	0.81
225.511	-18.19
225.746	8.81
225.98	4.81
226.215	14.81
226.449	12.81
226.683	7.81
226.918	16.81
227.152	26.81
227.387	35.81
227.621	29.81
227.856	48.81
228.09	40.81
228.324	48.81
228.559	65.81
228.793	60.81
229.027	105.81
229.262	98.81
229.496	102.81
229.73	120.81
229.964	150.81
230.199	132.81
230.433	106.81
230.667	121.81
230.901	116.81
231.136	101.81
231.37	112.81
231.604	102.81
231.838	112.81
232.072	108.81
232.306	110.81
232.541	121.81
232.775	90.81
233.009	107.81
233.243	104.81
233.477	117.81
233.711	112.81
233.945	108.81
234.179	104.81
234.413	126.81
234.647	119.81
234.881	108.81
235.115	121.81
235.349	128.81
235.583	122.81
235.817	125.81
236.051	122.81
236.285	122.81
236.519	124.81
236.753	120.81
236.987	136.81
237.221	184.81
237.455	230.81
237.689	191.81
237.922	155.81
238.156	140.81
238.39	113.81
238.624	109.81
238.858	126.81
239.091	114.81
239.325	119.81
239.559	101.81
239.793	124.81
240.027	137.81
240.26	134.81
240.494	146.81
240.728	144.81
240.961	150.81
241.195	149.81
241.429	146.81
241.662	138.81
241.896	130.81
242.13	123.81
242.363	126.81
242.597	126.81
242.83	126.81
243.064	132.81
243.298	139.81
243.531	131.81
243.765	129.81
243.998	135.81
244.232	132.81
244.465	126.81
244.699	138.81
244.932	132.81
245.166	150.81
245.399	147.81
245.633	134.81
245.866	148.81
246.099	154.81
246.333	128.81
246.566	134.81
246.8	139.81
247.033	156.81
247.266	158.81
247.5	167.81
247.733	156.81
247.966	167.81
248.2	167.81
248.433	161.81
248.666	161.81
248.899	172.81
249.133	192.81
249.366	188.81
249.599	192.81
249.832	189.81
250.066	164.81
250.299	162.81
250.532	184.81
250.765	195.81
250.998	214.81
251.231	227.81
251.465	185.81
251.698	197.81
251.931	178.81
252.164	183.81
252.397	185.81
252.63	197.81
252.863	204.81
253.096	198.81
253.329	207.81
253.562	207.81
253.795	204.81
254.028	209.81
254.261	209.81
254.494	224.81
254.727	245.81
254.96	268.81
255.193	265.81
255.426	255.81
255.659	230.81
255.892	214.81
256.124	210.81
256.357	229.81
256.59	226.81
256.823	214.81
257.056	221.81
257.289	202.81
257.521	208.81
257.754	204.81
257.987	204.81
258.22	207.81
258.452	185.81
258.685	200.81
258.918	192.81
259.151	186.81
259.383	220.81
259.616	206.81
259.849	203.81
260.081	228.81
260.314	240.81
260.547	257.81
260.779	242.81
261.012	237.81
261.244	220.81
261.477	213.81
261.71	216.81
261.942	227.81
262.175	234.81
262.407	215.81
262.64	214.81
262.872	220.81
263.105	205.81
263.337	194.81
263.57	222.81
263.802	194.81
264.035	195.81
264.267	191.81
264.499	201.81
264.732	212.81
264.964	220.81
265.197	217.81
265.429	218.81
265.661	231.81
265.894	213.81
266.126	218.81
266.358	206.81
266.591	219.81
266.823	220.81
267.055	206.81
267.287	218.81
267.52	232.81
267.752	216.81
267.984	224.81
268.216	223.81
268.448	250.81
268.681	244.81
268.913	230.81
269.145	249.81
269.377	271.81
269.609	258.81
269.841	234.81
270.073	265.81
270.306	285.81
270.538	324.81
270.77	308.81
271.002	274.81
271.234	265.81
271.466	278.81
271.698	284.81
271.93	294.81
272.162	298.81
272.394	305.81
272.626	295.81
272.858	272.81
273.09	273.81
273.322	266.81
273.553	251.81
273.785	249.81
274.017	258.81
274.249	264.81
274.481	236.81
274.713	256.81
274.945	276.81
275.176	272.81
275.408	249.81
275.64	272.81
275.872	246.81
276.104	258.81
276.335	257.81
276.567	256.81
276.799	281.81
277.031	306.81
277.262	310.81
277.494	299.81
277.726	299.81
277.957	276.81
278.189	266.81
278.421	279.81
278.652	282.81
278.884	246.81
279.115	261.81
279.347	255.81
279.579	280.81
279.81	271.81
280.042	261.81
280.273	269.81
280.505	259.81
280.736	258.81
280.968	265.81
281.199	264.81
281.431	263.81
281.662	258.81
281.894	276.81
282.125	277.81
282.356	279.81
282.588	282.81
282.819	315.81
283.051	278.81
283.282	249.81
283.513	279.81
283.745	267.81
283.976	289.81
284.207	268.81
284.439	295.81
284.67	276.81
284.901	296.81
285.132	285.81
285.364	282.81
285.595	299.81
285.826	276.81
286.057	279.81
286.288	288.81
286.52	280.81
286.751	276.81
286.982	274.81
287.213	281.81
287.444	287.81
287.675	277.81
287.906	294.81
288.138	289.81
288.369	321.81
288.6	292.81
288.831	280.81
289.062	298.81
289.293	285.81
289.524	269.81
289.755	275.81
289.986	285.81
290.217	285.81
290.448	297.81
290.679	283.81
290.91	271.81
291.141	289.81
291.371	288.81
291.602	298.81
291.833	288.81
292.064	300.81
292.295	273.81
292.526	276.81
292.757	295.81
292.987	293.81
293.218	291.81
293.449	298.81
293.68	284.81
293.91	276.81
294.141	280.81
294.372	292.81
294.603	287.81
294.833	292.81
295.064	300.81
295.295	275.81
295.525	293.81
295.756	301.81
295.987	315.81
296.217	321.81
296.448	332.81
296.679	291.81
296.909	294.81
297.14	326.81
297.37	314.81
297.601	290.81
297.831	281.81
298.062	284.81
298.292	297.81
298.523	296.81
298.753	309.81
298.984	304.81
299.214	316.81
299.445	314.81
299.675	300.81
299.905	315.81
300.136	304.81
300.366	310.81
300.597	312.81
300.827	309.81
301.057	319.81
301.288	328.81
301.518	342.81
301.748	308.81
301.979	327.81
302.209	324.81
302.439	325.81
302.669	306.81
302.9	308.81
303.13	315.81
303.36	328.81
303.59	334.81
303.82	344.81
304.051	343.81
304.281	344.81
304.511	331.81
304.741	337.81
304.971	333.81
305.201	335.81
305.431	320.81
305.661	318.81
305.891	338.81
306.121	332.81
306.352	349.81
306.582	345.81
306.812	326.81
307.042	336.81
307.272	350.81
307.502	319.81
307.731	348.81
307.961	334.81
308.191	328.81
308.421	333.81
308.651	348.81
308.881	325.81
309.111	341.81
309.341	347.81
309.571	334.81
309.8	358.81
310.03	360.81
310.26	376.81
310.49	362.81
310.72	381.81
310.949	373.81
311.179	421.81
311.409	398.81
311.639	381.81
311.868	370.81
312.098	371.81
312.328	396.81
312.557	383.81
312.787	409.81
313.017	399.81
313.246	376.81
313.476	362.81
313.706	366.81
313.935	373.81
314.165	385.81
314.394	392.81
314.624	392.81
314.853	371.81
315.083	366.81
315.312	380.81
315.542	360.81
315.771	356.81
316.001	381.81
316.23	360.81
316.46	355.81
316.689	393.81
316.919	370.81
317.148	374.81
317.377	397.81
317.607	392.81
317.836	395.81
318.065	406.81
318.295	381.81
318.524	370.81
318.753	377.81
318.983	381.81
319.212	361.81
319.441	400.81
319.67	384.81
319.9	376.81
320.129	393.81
320.358	386.81
320.587	396.81
320.816	406.81
321.046	406.81
321.275	388.81
321.504	410.81
321.733	405.81
321.962	423.81
322.191	416.81
322.42	410.81
322.649	430.81
322.878	449.81
323.108	450.81
323.337	482.81
323.566	493.81
323.795	521.81
324.024	580.81
324.253	714.81
324.482	1016.81
324.71	1628.81
324.939	2533.81
325.168	2139.81
325.397	1037.81
325.626	676.81
325.855	567.81
326.084	527.81
326.313	518.81
326.542	527.81
326.77	551.81
326.999	666.81
327.228	918.81
327.457	1490.81
327.686	1852.81
327.914	1205.81
328.143	721.81
328.372	631.81
328.6	616.81
328.829	568.81
329.058	576.81
329.287	602.81
329.515	568.81
329.744	533.81
329.972	504.81
330.201	520.81
330.43	563.81
330.658	613.81
330.887	626.81
331.115	614.81
331.344	531.81
331.572	489.81
331.801	474.81
332.03	486.81
332.258	479.81
332.486	470.81
332.715	469.81
332.943	451.81
333.172	448.81
333.4	455.81
333.629	476.81
333.857	477.81
334.085	490.81
334.314	506.81
334.542	570.81
334.771	542.81
334.999	507.81
335.227	468.81
335.455	472.81
335.684	456.81
335.912	460.81
336.14	439.81
336.369	453.81
336.597	471.81
336.825	463.81
337.053	457.81
337.281	457.81
337.51	456.81
337.738	456.81
337.966	446.81
338.194	455.81
338.422	457.81
338.65	459.81
338.878	453.81
339.106	423.81
339.334	429.81
339.562	443.81
339.79	423.81
340.018	437.81
340.246	442.81
340.474	451.81
340.702	442.81
340.93	436.81
341.158	428.81
341.386	428.81
341.614	451.81
341.842	446.81
342.07	422.81
342.298	440.81
342.526	425.81
342.754	429.81
342.981	410.81
343.209	421.81
343.437	434.81
343.665	450.81
343.893	443.81
344.12	430.81
344.348	439.81
344.576	448.81
344.804	468.81
345.031	445.81
345.259	474.81
345.487	457.81
345.714	424.81
345.942	429.81
346.17	440.81
346.397	427.81
346.625	428.81
346.853	435.81
347.08	435.81
347.308	453.81
347.535	437.81
347.763	448.81
347.99	438.81
348.218	451.81
348.445	467.81
348.673	421.81
348.9	428.81
349.128	421.81
349.355	408.81
349.583	422.81
349.81	424.81
350.037	420.81
350.265	416.81
350.492	413.81
350.72	425.81
350.947	416.81
351.174	436.81
351.402	441.81
351.629	438.81
351.856	423.81
352.083	454.81
352.311	444.81
352.538	464.81
352.765	463.81
352.992	470.81
353.22	425.81
353.447	426.81
353.674	425.81
353.901	423.81
354.128	420.81
354.355	403.81
354.583	416.81
354.81	405.81
355.037	416.81
355.264	406.81
355.491	382.81
355.718	385.81
355.945	392.81
356.172	395.81
356.399	389.81
356.626	409.81
356.853	421.81
357.08	382.81
357.307	382.81
357.534	403.81
357.761	389.81
357.988	408.81
358.215	426.81
358.441	403.81
358.668	410.81
358.895	397.81
359.122	400.81
359.349	424.81
359.576	426.81
359.802	454.81
360.029	467.81
360.256	487.81
360.483	466.81
360.709	442.81
360.936	443.81
361.163	454.81
361.39	426.81
361.616	411.81
361.843	444.81
362.07	434.81
362.296	422.81
362.523	426.81
362.749	424.81
362.976	417.81
363.203	430.81
363.429	427.81
363.656	422.81
363.882	416.81
364.109	414.81
364.335	388.81
364.562	446.81
364.788	418.81
365.015	427.81
365.241	427.81
365.468	411.81
365.694	434.81
365.92	412.81
366.147	410.81
366.373	418.81
366.599	392.81
366.826	424.81
367.052	443.81
367.278	408.81
367.505	403.81
367.731	420.81
367.957	415.81
368.184	412.81
368.41	422.81
368.636	433.81
368.862	443.81
369.089	441.81
369.315	398.81
369.541	425.81
369.767	432.81
369.993	434.81
370.219	413.81
370.445	427.81
370.672	415.81
370.898	415.81
371.124	400.81
371.35	415.81
371.576	432.81
371.802	425.81
372.028	415.81
372.254	404.81
372.48	428.81
372.706	419.81
372.932	442.81
373.158	427.81
373.384	423.81
373.61	417.81
373.835	445.81
374.061	430.81
374.287	421.81
374.513	433.81
374.739	432.81
374.965	444.81
375.191	423.81
375.416	431.81
375.642	406.81
375.868	411.81
376.094	419.81
376.319	410.81
376.545	411.81
376.771	430.81
376.997	440.81
377.222	443.81
377.448	414.81
377.674	408.81
377.899	432.81
378.125	427.81
378.35	398.81
378.576	438.81
378.802	425.81
379.027	437.81
379.253	424.81
379.478	400.81
379.704	422.81
379.929	423.81
380.155	440.81
380.38	417.81
380.606	422.81
380.831	434.81
381.057	424.81
381.282	432.81
381.507	417.81
381.733	436.81
381.958	428.81
382.184	417.81
382.409	423.81
382.634	430.81
382.86	424.81
383.085	438.81
383.31	454.81
383.535	439.81
383.761	442.81
383.986	435.81
384.211	440.81
384.436	444.81
384.662	452.81
384.887	461.81
385.112	457.81
385.337	453.81
385.562	474.81
385.787	476.81
386.013	471.81
386.238	458.81
386.463	469.81
386.688	468.81
386.913	461.81
387.138	480.81
387.363	482.81
387.588	466.81
387.813	464.81
388.038	452.81
388.263	462.81
388.488	471.81
388.713	464.81
388.938	465.81
389.163	472.81
389.387	463.81
389.612	467.81
389.837	460.81
390.062	446.81
390.287	481.81
390.512	489.81
390.736	460.81
390.961	448.81
391.186	473.81
391.411	458.81
391.636	489.81
391.86	478.81
392.085	500.81
392.31	498.81
392.534	483.81
392.759	471.81
392.984	473.81
393.208	486.81
393.433	477.81
393.658	486.81
393.882	442.81
394.107	496.81
394.331	475.81
394.556	472.81
394.78	487.81
395.005	497.81
395.229	472.81
395.454	488.81
395.678	517.81
395.903	512.81
396.127	519.81
396.352	534.81
396.576	491.81
396.801	504.81
397.025	503.81
397.249	493.81
397.474	516.81
397.698	502.81
397.922	516.81
398.147	534.81
398.371	524.81
398.595	530.81
398.82	516.81
399.044	562.81
399.268	564.81
399.492	589.81
399.717	621.81
399.941	656.81
400.165	684.81
400.389	702.81
400.613	634.81
400.837	567.81
401.062	560.81
401.286	581.81
401.51	557.81
401.734	565.81
401.958	548.81
402.182	561.81
402.406	549.81
402.63	560.81
402.854	558.81
403.078	556.81
403.302	574.81
403.526	574.81
403.75	582.81
403.974	576.81
404.198	572.81
404.422	580.81
404.645	591.81
404.869	576.81
405.093	612.81
405.317	680.81
405.541	712.81
405.765	633.81
405.988	605.81
406.212	619.81
406.436	620.81
406.66	633.81
406.883	605.81
407.107	654.81
407.331	680.81
407.555	792.81
407.778	779.81
408.002	689.81
408.226	639.81
408.449	645.81
408.673	636.81
408.896	660.81
409.12	713.81
409.344	661.81
409.567	610.81
409.791	583.81
410.014	606.81
410.238	598.81
410.461	580.81
410.685	566.81
410.908	583.81
411.132	640.81
411.355	694.81
411.578	640.81
411.802	585.81
412.025	560.81
412.249	587.81
412.472	628.81
412.695	656.81
412.919	640.81
413.142	604.81
413.365	572.81
413.589	552.81
413.812	565.81
414.035	561.81
414.258	562.81
414.482	545.81
414.705	535.81
414.928	547.81
415.151	572.81
415.374	564.81
415.597	536.81
415.821	532.81
416.044	535.81
416.267	525.81
416.49	533.81
416.713	533.81
416.936	542.81
417.159	533.81
417.382	544.81
417.605	553.81
417.828	558.81
418.051	585.81
418.274	554.81
418.497	525.81
418.72	549.81
418.943	537.81
419.166	562.81
419.389	593.81
419.611	581.81
419.834	600.81
420.057	588.81
420.28	566.81
420.503	566.81
420.726	553.81
420.948	576.81
421.171	641.81
421.394	668.81
421.617	584.81
421.839	582.81
422.062	578.81
422.285	564.81
422.507	626.81
422.73	712.81
422.953	715.81
423.175	600.81
423.398	589.81
423.621	618.81
423.843	603.81
424.066	591.81
424.288	589.81
424.511	627.81
424.733	688.81
424.956	781.81
425.178	720.81
425.401	745.81
425.623	760.81
425.846	660.81
426.068	599.81
426.291	605.81
426.513	606.81
426.735	605.81
426.958	662.81
427.18	760.81
427.402	909.81
427.625	1000.81
427.847	848.81
428.069	738.81
428.292	680.81
428.514	609.81
428.736	562.81
428.958	583.81
429.181	579.81
429.403	541.81
429.625	586.81
429.847	609.81
430.069	678.81
430.292	685.81
430.514	594.81
430.736	582.81
430.958	549.81
431.18	527.81
431.402	545.81
431.624	534.81
431.846	506.81
432.068	528.81
432.29	527.81
432.512	537.81
432.734	536.81
432.956	544.81
433.178	538.81
433.4	549.81
433.622	564.81
433.844	537.81
434.066	539.81
434.287	540.81
434.509	565.81
434.731	544.81
434.953	564.81
435.175	572.81
435.397	613.81
435.618	596.81
435.84	642.81
436.062	773.81
436.284	857.81
436.505	716.81
436.727	620.81
436.949	586.81
437.17	576.81
437.392	573.81
437.614	576.81
437.835	617.81
438.057	736.81
438.278	828.81
438.5	831.81
438.721	932.81
438.943	898.81
439.165	716.81
439.386	631.81
439.608	647.81
439.829	626.81
440.05	651.81
440.272	696.81
440.493	648.81
440.715	612.81
440.936	587.81
441.158	536.81
441.379	566.81
441.6	585.81
441.822	605.81
442.043	652.81
442.264	782.81
442.486	816.81
442.707	668.81
442.928	652.81
443.149	614.81
443.371	651.81
443.592	698.81
443.813	818.81
444.034	917.81
444.255	732.81
444.476	634.81
444.698	625.81
444.919	611.81
445.14	693.81
445.361	678.81
445.582	657.81
445.803	728.81
446.024	853.81
446.245	866.81
446.466	800.81
446.687	655.81
446.908	603.81
447.129	574.81
447.35	552.81
447.571	542.81
447.792	580.81
448.013	574.81
448.234	588.81
448.455	646.81
448.675	778.81
448.896	940.81
449.117	736.81
449.338	685.81
449.559	828.81
449.779	958.81
450	754.81
450.221	628.81
450.442	583.81
450.662	555.81
450.883	570.81
451.104	563.81
451.324	546.81
451.545	544.81
451.766	532.81
451.986	513.81
452.207	493.81
452.428	482.81
452.648	492.81
452.869	512.81
453.089	534.81
453.31	527.81
453.53	526.81
453.751	512.81
453.971	498.81
454.192	532.81
454.412	525.81
454.633	501.81
454.853	490.81
455.073	498.81
455.294	505.81
455.514	610.81
455.734	603.81
455.955	531.81
456.175	484.81
456.395	467.81
456.616	453.81
456.836	468.81
457.056	480.81
457.276	474.81
457.497	473.81
457.717	483.81
457.937	500.81
458.157	489.81
458.377	489.81
458.598	514.81
458.818	570.81
459.038	662.81
459.258	688.81
459.478	602.81
459.698	557.81
459.918	535.81
460.138	544.81
460.358	550.81
460.578	542.81
460.798	536.81
461.018	545.81
461.238	562.81
461.458	551.81
461.678	541.81
461.898	553.81
462.118	556.81
462.338	571.81
462.558	592.81
462.777	586.81
462.997	606.81
463.217	591.81
463.437	619.81
463.657	601.81
463.876	593.81
464.096	605.81
464.316	596.81
464.536	587.81
464.755	615.81
464.975	601.81
465.195	633.81
465.414	688.81
465.634	608.81
465.854	592.81
466.073	555.81
466.293	541.81
466.512	546.81
466.732	526.81
466.951	525.81
467.171	521.81
467.391	537.81
467.61	527.81
467.829	581.81
468.049	523.81
468.268	507.81
468.488	494.81
468.707	526.81
468.927	519.81
469.146	523.81
469.365	502.81
469.585	508.81
469.804	508.81
470.023	538.81
470.243	537.81
470.462	542.81
470.681	550.81
470.901	547.81
471.12	518.81
471.339	539.81
471.558	550.81
471.777	512.81
471.997	507.81
472.216	530.81
472.435	567.81
472.654	541.81
472.873	524.81
473.092	514.81
473.311	516.81
473.53	512.81
473.749	551.81
473.968	570.81
474.187	691.81
474.406	702.81
474.625	593.81
474.844	568.81
475.063	541.81
475.282	544.81
475.501	524.81
475.72	535.81
475.939	538.81
476.158	548.81
476.377	533.81
476.596	556.81
476.814	582.81
477.033	549.81
477.252	565.81
477.471	554.81
477.69	565.81
477.908	584.81
478.127	569.81
478.346	574.81
478.564	595.81
478.783	598.81
479.002	601.81
479.22	617.81
479.439	619.81
479.658	629.81
479.876	620.81
480.095	642.81
480.313	706.81
480.532	635.81
480.751	685.81
480.969	650.81
481.188	707.81
481.406	740.81
481.624	683.81
481.843	658.81
482.061	635.81
482.28	604.81
482.498	625.81
482.717	616.81
482.935	614.81
483.153	610.81
483.372	606.81
483.59	611.81
483.808	601.81
484.027	592.81
484.245	602.81
484.463	627.81
484.681	632.81
484.9	602.81
485.118	622.81
485.336	616.81
485.554	629.81
485.772	665.81
485.99	651.81
486.209	635.81
486.427	627.81
486.645	655.81
486.863	668.81
487.081	681.81
487.299	647.81
487.517	650.81
487.735	633.81
487.953	666.81
488.171	646.81
488.389	635.81
488.607	664.81
488.825	673.81
489.043	658.81
489.261	675.81
489.479	668.81
489.696	664.81
489.914	676.81
490.132	682.81
490.35	693.81
490.568	683.81
490.786	692.81
491.003	712.81
491.221	711.81
491.439	717.81
491.657	747.81
491.874	718.81
492.092	729.81
492.31	761.81
492.527	758.81
492.745	745.81
492.963	737.81
493.18	754.81
493.398	761.81
493.615	776.81
493.833	760.81
494.05	757.81
494.268	774.81
494.485	762.81
494.703	740.81
494.92	760.81
495.138	768.81
495.355	758.81
495.573	776.81
495.79	794.81
496.008	785.81
496.225	787.81
496.442	774.81
496.66	773.81
496.877	779.81
497.094	794.81
497.312	805.81
497.529	830.81
497.746	840.81
497.963	826.81
498.181	852.81
498.398	883.81
498.615	854.81
498.832	896.81
499.049	902.81
499.267	937.81
499.484	938.81
499.701	989.81
499.918	1048.81
500.135	1083.81
500.352	1110.81
500.569	1134.81
500.786	1120.81
501.003	1116.81
501.22	1084.81
501.437	1039.81
501.654	1035.81
501.871	1022.81
