Data from 1978.PennyLincolnUp.Lamp.En5.5.200Scan.071719.P1_HRD10591_16-13-29-864.txt Node
Date: Thu Jul 18 16:13:29 EDT 2019
User: cochatt
Spectrometer: HR+D1059
Trigger mode: 1
Integration Time (sec): 1.000000E-1
Scans to average: 1
Electric dark correction enabled: true
Nonlinearity correction enabled: false
Boxcar width: 0
XAxis mode: Wavelengths
Number of Pixels in Spectrum: 2048
>>>>>Begin Spectral Data<<<<<
223.165	-15.69
223.4	-15.69
223.635	-15.69
223.869	-12.69
224.104	-24.69
224.338	-12.69
224.573	-33.69
224.808	-8.69
225.042	-11.69
225.277	-7.69
225.511	-9.69
225.746	0.31
225.98	6.31
226.215	17.31
226.449	20.31
226.683	20.31
226.918	36.31
227.152	36.31
227.387	41.31
227.621	40.31
227.856	43.31
228.09	44.31
228.324	58.31
228.559	63.31
228.793	61.31
229.027	93.31
229.262	97.31
229.496	102.31
229.73	115.31
229.964	159.31
230.199	126.31
230.433	111.31
230.667	119.31
230.901	103.31
231.136	112.31
231.37	105.31
231.604	122.31
231.838	107.31
232.072	106.31
232.306	106.31
232.541	121.31
232.775	108.31
233.009	107.31
233.243	113.31
233.477	102.31
233.711	120.31
233.945	117.31
234.179	103.31
234.413	115.31
234.647	117.31
234.881	114.31
235.115	110.31
235.349	123.31
235.583	110.31
235.817	125.31
236.051	118.31
236.285	108.31
236.519	116.31
236.753	127.31
236.987	147.31
237.221	169.31
237.455	233.31
237.689	183.31
237.922	128.31
238.156	123.31
238.39	124.31
238.624	134.31
238.858	127.31
239.091	121.31
239.325	122.31
239.559	136.31
239.793	121.31
240.027	133.31
240.26	136.31
240.494	175.31
240.728	154.31
240.961	147.31
241.195	128.31
241.429	119.31
241.662	125.31
241.896	132.31
242.13	134.31
242.363	125.31
242.597	125.31
242.83	133.31
243.064	135.31
243.298	135.31
243.531	128.31
243.765	128.31
243.998	136.31
244.232	132.31
244.465	127.31
244.699	133.31
244.932	138.31
245.166	154.31
245.399	140.31
245.633	138.31
245.866	129.31
246.099	123.31
246.333	152.31
246.566	145.31
246.8	136.31
247.033	158.31
247.266	154.31
247.5	139.31
247.733	155.31
247.966	146.31
248.2	172.31
248.433	155.31
248.666	166.31
248.899	166.31
249.133	173.31
249.366	194.31
249.599	189.31
249.832	171.31
250.066	165.31
250.299	161.31
250.532	181.31
250.765	204.31
250.998	199.31
251.231	220.31
251.465	185.31
251.698	179.31
251.931	190.31
252.164	179.31
252.397	171.31
252.63	189.31
252.863	192.31
253.096	210.31
253.329	205.31
253.562	214.31
253.795	196.31
254.028	209.31
254.261	187.31
254.494	199.31
254.727	236.31
254.96	253.31
255.193	245.31
255.426	216.31
255.659	218.31
255.892	225.31
256.124	223.31
256.357	217.31
256.59	204.31
256.823	195.31
257.056	195.31
257.289	211.31
257.521	199.31
257.754	187.31
257.987	180.31
258.22	191.31
258.452	195.31
258.685	200.31
258.918	197.31
259.151	197.31
259.383	188.31
259.616	203.31
259.849	212.31
260.081	205.31
260.314	236.31
260.547	246.31
260.779	235.31
261.012	218.31
261.244	218.31
261.477	215.31
261.71	216.31
261.942	211.31
262.175	211.31
262.407	210.31
262.64	194.31
262.872	204.31
263.105	210.31
263.337	227.31
263.57	196.31
263.802	210.31
264.035	223.31
264.267	195.31
264.499	195.31
264.732	215.31
264.964	212.31
265.197	218.31
265.429	197.31
265.661	184.31
265.894	181.31
266.126	192.31
266.358	221.31
266.591	204.31
266.823	205.31
267.055	215.31
267.287	218.31
267.52	221.31
267.752	223.31
267.984	214.31
268.216	228.31
268.448	209.31
268.681	230.31
268.913	233.31
269.145	250.31
269.377	255.31
269.609	248.31
269.841	267.31
270.073	264.31
270.306	269.31
270.538	299.31
270.77	293.31
271.002	283.31
271.234	272.31
271.466	283.31
271.698	278.31
271.93	283.31
272.162	292.31
272.394	286.31
272.626	279.31
272.858	265.31
273.09	271.31
273.322	262.31
273.553	243.31
273.785	258.31
274.017	257.31
274.249	234.31
274.481	260.31
274.713	246.31
274.945	241.31
275.176	250.31
275.408	257.31
275.64	266.31
275.872	257.31
276.104	260.31
276.335	253.31
276.567	253.31
276.799	279.31
277.031	284.31
277.262	300.31
277.494	316.31
277.726	283.31
277.957	281.31
278.189	264.31
278.421	268.31
278.652	267.31
278.884	261.31
279.115	250.31
279.347	249.31
279.579	265.31
279.81	260.31
280.042	232.31
280.273	264.31
280.505	256.31
280.736	269.31
280.968	256.31
281.199	268.31
281.431	267.31
281.662	261.31
281.894	269.31
282.125	264.31
282.356	287.31
282.588	285.31
282.819	289.31
283.051	284.31
283.282	281.31
283.513	280.31
283.745	264.31
283.976	278.31
284.207	259.31
284.439	284.31
284.67	267.31
284.901	262.31
285.132	267.31
285.364	264.31
285.595	265.31
285.826	258.31
286.057	275.31
286.288	252.31
286.52	285.31
286.751	279.31
286.982	275.31
287.213	269.31
287.444	262.31
287.675	281.31
287.906	278.31
288.138	286.31
288.369	296.31
288.6	300.31
288.831	279.31
289.062	276.31
289.293	276.31
289.524	263.31
289.755	270.31
289.986	291.31
290.217	287.31
290.448	286.31
290.679	288.31
290.91	298.31
291.141	267.31
291.371	283.31
291.602	295.31
291.833	290.31
292.064	285.31
292.295	272.31
292.526	291.31
292.757	293.31
292.987	280.31
293.218	282.31
293.449	284.31
293.68	294.31
293.91	303.31
294.141	289.31
294.372	267.31
294.603	289.31
294.833	299.31
295.064	281.31
295.295	295.31
295.525	292.31
295.756	310.31
295.987	285.31
296.217	308.31
296.448	328.31
296.679	284.31
296.909	284.31
297.14	308.31
297.37	293.31
297.601	295.31
297.831	298.31
298.062	304.31
298.292	295.31
298.523	275.31
298.753	295.31
298.984	313.31
299.214	307.31
299.445	295.31
299.675	312.31
299.905	296.31
300.136	311.31
300.366	298.31
300.597	301.31
300.827	319.31
301.057	300.31
301.288	315.31
301.518	316.31
301.748	319.31
301.979	318.31
302.209	321.31
302.439	315.31
302.669	315.31
302.9	312.31
303.13	305.31
303.36	305.31
303.59	328.31
303.82	329.31
304.051	327.31
304.281	321.31
304.511	330.31
304.741	321.31
304.971	313.31
305.201	311.31
305.431	317.31
305.661	320.31
305.891	327.31
306.121	358.31
306.352	337.31
306.582	345.31
306.812	320.31
307.042	316.31
307.272	318.31
307.502	331.31
307.731	315.31
307.961	311.31
308.191	327.31
308.421	315.31
308.651	315.31
308.881	332.31
309.111	327.31
309.341	340.31
309.571	340.31
309.8	358.31
310.03	345.31
310.26	364.31
310.49	363.31
310.72	383.31
310.949	373.31
311.179	369.31
311.409	379.31
311.639	367.31
311.868	376.31
312.098	380.31
312.328	360.31
312.557	381.31
312.787	395.31
313.017	397.31
313.246	381.31
313.476	377.31
313.706	377.31
313.935	373.31
314.165	379.31
314.394	389.31
314.624	388.31
314.853	364.31
315.083	383.31
315.312	370.31
315.542	364.31
315.771	361.31
316.001	370.31
316.23	373.31
316.46	330.31
316.689	371.31
316.919	358.31
317.148	385.31
317.377	370.31
317.607	388.31
317.836	389.31
318.065	375.31
318.295	374.31
318.524	370.31
318.753	380.31
318.983	380.31
319.212	377.31
319.441	377.31
319.67	381.31
319.9	376.31
320.129	372.31
320.358	385.31
320.587	387.31
320.816	405.31
321.046	394.31
321.275	410.31
321.504	401.31
321.733	394.31
321.962	385.31
322.191	408.31
322.42	426.31
322.649	443.31
322.878	457.31
323.108	435.31
323.337	465.31
323.566	480.31
323.795	505.31
324.024	556.31
324.253	639.31
324.482	948.31
324.71	1512.31
324.939	2322.31
325.168	1977.31
325.397	975.31
325.626	631.31
325.855	548.31
326.084	515.31
326.313	489.31
326.542	509.31
326.77	536.31
326.999	640.31
327.228	894.31
327.457	1388.31
327.686	1734.31
327.914	1113.31
328.143	732.31
328.372	610.31
328.6	591.31
328.829	535.31
329.058	569.31
329.287	554.31
329.515	523.31
329.744	500.31
329.972	495.31
330.201	502.31
330.43	533.31
330.658	566.31
330.887	593.31
331.115	567.31
331.344	512.31
331.572	479.31
331.801	469.31
332.03	476.31
332.258	450.31
332.486	463.31
332.715	438.31
332.943	464.31
333.172	459.31
333.4	448.31
333.629	479.31
333.857	497.31
334.085	475.31
334.314	470.31
334.542	525.31
334.771	529.31
334.999	499.31
335.227	487.31
335.455	493.31
335.684	471.31
335.912	447.31
336.14	453.31
336.369	442.31
336.597	455.31
336.825	453.31
337.053	448.31
337.281	447.31
337.51	457.31
337.738	442.31
337.966	421.31
338.194	447.31
338.422	443.31
338.65	443.31
338.878	427.31
339.106	444.31
339.334	443.31
339.562	446.31
339.79	455.31
340.018	443.31
340.246	434.31
340.474	429.31
340.702	441.31
340.93	433.31
341.158	408.31
341.386	451.31
341.614	441.31
341.842	439.31
342.07	436.31
342.298	425.31
342.526	426.31
342.754	422.31
342.981	425.31
343.209	416.31
343.437	418.31
343.665	437.31
343.893	433.31
344.12	442.31
344.348	422.31
344.576	439.31
344.804	443.31
345.031	459.31
345.259	464.31
345.487	438.31
345.714	435.31
345.942	442.31
346.17	411.31
346.397	449.31
346.625	428.31
346.853	427.31
347.08	424.31
347.308	426.31
347.535	425.31
347.763	415.31
347.99	415.31
348.218	440.31
348.445	421.31
348.673	429.31
348.9	429.31
349.128	432.31
349.355	412.31
349.583	420.31
349.81	416.31
350.037	401.31
350.265	411.31
350.492	402.31
350.72	402.31
350.947	434.31
351.174	439.31
351.402	413.31
351.629	425.31
351.856	418.31
352.083	437.31
352.311	427.31
352.538	437.31
352.765	451.31
352.992	429.31
353.22	424.31
353.447	424.31
353.674	418.31
353.901	421.31
354.128	396.31
354.355	396.31
354.583	390.31
354.81	396.31
355.037	397.31
355.264	408.31
355.491	399.31
355.718	408.31
355.945	390.31
356.172	397.31
356.399	407.31
356.626	388.31
356.853	389.31
357.08	391.31
357.307	384.31
357.534	395.31
357.761	403.31
357.988	400.31
358.215	409.31
358.441	399.31
358.668	400.31
358.895	412.31
359.122	392.31
359.349	420.31
359.576	425.31
359.802	434.31
360.029	470.31
360.256	473.31
360.483	471.31
360.709	438.31
360.936	428.31
361.163	434.31
361.39	437.31
361.616	439.31
361.843	423.31
362.07	422.31
362.296	419.31
362.523	429.31
362.749	416.31
362.976	437.31
363.203	423.31
363.429	415.31
363.656	414.31
363.882	397.31
364.109	398.31
364.335	419.31
364.562	397.31
364.788	412.31
365.015	427.31
365.241	417.31
365.468	426.31
365.694	407.31
365.92	415.31
366.147	393.31
366.373	424.31
366.599	401.31
366.826	406.31
367.052	407.31
367.278	423.31
367.505	406.31
367.731	415.31
367.957	417.31
368.184	403.31
368.41	414.31
368.636	416.31
368.862	439.31
369.089	424.31
369.315	411.31
369.541	417.31
369.767	404.31
369.993	395.31
370.219	418.31
370.445	425.31
370.672	413.31
370.898	403.31
371.124	405.31
371.35	418.31
371.576	413.31
371.802	415.31
372.028	431.31
372.254	393.31
372.48	425.31
372.706	406.31
372.932	432.31
373.158	426.31
373.384	431.31
373.61	421.31
373.835	428.31
374.061	419.31
374.287	415.31
374.513	420.31
374.739	428.31
374.965	428.31
375.191	426.31
375.416	440.31
375.642	433.31
375.868	423.31
376.094	409.31
376.319	429.31
376.545	432.31
376.771	414.31
376.997	395.31
377.222	415.31
377.448	419.31
377.674	403.31
377.899	411.31
378.125	400.31
378.35	399.31
378.576	397.31
378.802	423.31
379.027	442.31
379.253	408.31
379.478	424.31
379.704	417.31
379.929	413.31
380.155	434.31
380.38	435.31
380.606	447.31
380.831	420.31
381.057	424.31
381.282	428.31
381.507	427.31
381.733	432.31
381.958	423.31
382.184	424.31
382.409	434.31
382.634	434.31
382.86	437.31
383.085	436.31
383.31	435.31
383.535	445.31
383.761	437.31
383.986	457.31
384.211	446.31
384.436	449.31
384.662	460.31
384.887	468.31
385.112	459.31
385.337	460.31
385.562	457.31
385.787	465.31
386.013	482.31
386.238	459.31
386.463	483.31
386.688	470.31
386.913	458.31
387.138	469.31
387.363	466.31
387.588	459.31
387.813	477.31
388.038	451.31
388.263	471.31
388.488	456.31
388.713	462.31
388.938	480.31
389.163	468.31
389.387	470.31
389.612	484.31
389.837	484.31
390.062	482.31
390.287	459.31
390.512	461.31
390.736	461.31
390.961	479.31
391.186	486.31
391.411	481.31
391.636	484.31
391.86	483.31
392.085	485.31
392.31	507.31
392.534	461.31
392.759	491.31
392.984	468.31
393.208	471.31
393.433	455.31
393.658	465.31
393.882	447.31
394.107	480.31
394.331	488.31
394.556	475.31
394.78	489.31
395.005	483.31
395.229	501.31
395.454	511.31
395.678	473.31
395.903	515.31
396.127	538.31
396.352	545.31
396.576	502.31
396.801	501.31
397.025	502.31
397.249	496.31
397.474	524.31
397.698	523.31
397.922	544.31
398.147	552.31
398.371	551.31
398.595	543.31
398.82	523.31
399.044	553.31
399.268	541.31
399.492	593.31
399.717	614.31
399.941	667.31
400.165	689.31
400.389	683.31
400.613	624.31
400.837	595.31
401.062	566.31
401.286	567.31
401.51	543.31
401.734	536.31
401.958	543.31
402.182	580.31
402.406	596.31
402.63	568.31
402.854	556.31
403.078	569.31
403.302	562.31
403.526	553.31
403.75	551.31
403.974	551.31
404.198	548.31
404.422	579.31
404.645	584.31
404.869	592.31
405.093	602.31
405.317	647.31
405.541	680.31
405.765	649.31
405.988	597.31
406.212	590.31
406.436	639.31
406.66	643.31
406.883	613.31
407.107	655.31
407.331	682.31
407.555	767.31
407.778	743.31
408.002	689.31
408.226	639.31
408.449	656.31
408.673	606.31
408.896	637.31
409.12	689.31
409.344	658.31
409.567	621.31
409.791	603.31
410.014	569.31
410.238	561.31
410.461	589.31
410.685	577.31
410.908	580.31
411.132	623.31
411.355	670.31
411.578	659.31
411.802	575.31
412.025	571.31
412.249	583.31
412.472	614.31
412.695	633.31
412.919	614.31
413.142	583.31
413.365	575.31
413.589	559.31
413.812	533.31
414.035	531.31
414.258	549.31
414.482	566.31
414.705	549.31
414.928	532.31
415.151	547.31
415.374	535.31
415.597	543.31
415.821	521.31
416.044	525.31
416.267	535.31
416.49	551.31
416.713	531.31
416.936	535.31
417.159	540.31
417.382	539.31
417.605	546.31
417.828	547.31
418.051	548.31
418.274	541.31
418.497	529.31
418.72	548.31
418.943	522.31
419.166	582.31
419.389	559.31
419.611	582.31
419.834	567.31
420.057	594.31
420.28	561.31
420.503	565.31
420.726	538.31
420.948	571.31
421.171	618.31
421.394	634.31
421.617	599.31
421.839	565.31
422.062	542.31
422.285	579.31
422.507	651.31
422.73	729.31
422.953	701.31
423.175	615.31
423.398	581.31
423.621	570.31
423.843	605.31
424.066	597.31
424.288	582.31
424.511	599.31
424.733	648.31
424.956	751.31
425.178	744.31
425.401	731.31
425.623	785.31
425.846	629.31
426.068	585.31
426.291	583.31
426.513	584.31
426.735	600.31
426.958	647.31
427.18	732.31
427.402	892.31
427.625	967.31
427.847	857.31
428.069	751.31
428.292	641.31
428.514	579.31
428.736	578.31
428.958	553.31
429.181	571.31
429.403	548.31
429.625	567.31
429.847	616.31
430.069	669.31
430.292	671.31
430.514	573.31
430.736	546.31
430.958	549.31
431.18	532.31
431.402	521.31
431.624	530.31
431.846	528.31
432.068	527.31
432.29	523.31
432.512	529.31
432.734	540.31
432.956	555.31
433.178	543.31
433.4	563.31
433.622	551.31
433.844	525.31
434.066	539.31
434.287	530.31
434.509	528.31
434.731	580.31
434.953	555.31
435.175	553.31
435.397	590.31
435.618	593.31
435.84	638.31
436.062	763.31
436.284	840.31
436.505	699.31
436.727	640.31
436.949	594.31
437.17	556.31
437.392	580.31
437.614	549.31
437.835	621.31
438.057	699.31
438.278	821.31
438.5	821.31
438.721	901.31
438.943	887.31
439.165	687.31
439.386	618.31
439.608	620.31
439.829	612.31
440.05	636.31
440.272	678.31
440.493	661.31
440.715	582.31
440.936	580.31
441.158	545.31
441.379	561.31
441.6	582.31
441.822	580.31
442.043	653.31
442.264	724.31
442.486	776.31
442.707	662.31
442.928	607.31
443.149	629.31
443.371	645.31
443.592	682.31
443.813	821.31
444.034	861.31
444.255	726.31
444.476	645.31
444.698	617.31
444.919	601.31
445.14	738.31
445.361	675.31
445.582	681.31
445.803	735.31
446.024	849.31
446.245	866.31
446.466	763.31
446.687	659.31
446.908	611.31
447.129	552.31
447.35	549.31
447.571	571.31
447.792	543.31
448.013	551.31
448.234	569.31
448.455	633.31
448.675	735.31
448.896	881.31
449.117	743.31
449.338	685.31
449.559	818.31
449.779	963.31
450	753.31
450.221	597.31
450.442	573.31
450.662	540.31
450.883	553.31
451.104	553.31
451.324	553.31
451.545	532.31
451.766	514.31
451.986	524.31
452.207	491.31
452.428	517.31
452.648	466.31
452.869	492.31
453.089	479.31
453.31	499.31
453.53	493.31
453.751	520.31
453.971	503.31
454.192	523.31
454.412	528.31
454.633	501.31
454.853	506.31
455.073	503.31
455.294	516.31
455.514	587.31
455.734	566.31
455.955	499.31
456.175	487.31
456.395	475.31
456.616	482.31
456.836	494.31
457.056	453.31
457.276	470.31
457.497	486.31
457.717	474.31
457.937	481.31
458.157	509.31
458.377	497.31
458.598	528.31
458.818	585.31
459.038	618.31
459.258	666.31
459.478	593.31
459.698	550.31
459.918	537.31
460.138	533.31
460.358	519.31
460.578	549.31
460.798	541.31
461.018	552.31
461.238	553.31
461.458	559.31
461.678	531.31
461.898	547.31
462.118	550.31
462.338	578.31
462.558	570.31
462.777	580.31
462.997	599.31
463.217	623.31
463.437	608.31
463.657	600.31
463.876	597.31
464.096	596.31
464.316	588.31
464.536	576.31
464.755	581.31
464.975	579.31
465.195	622.31
465.414	693.31
465.634	625.31
465.854	591.31
466.073	569.31
466.293	529.31
466.512	533.31
466.732	517.31
466.951	529.31
467.171	509.31
467.391	526.31
467.61	538.31
467.829	523.31
468.049	525.31
468.268	520.31
468.488	516.31
468.707	505.31
468.927	511.31
469.146	520.31
469.365	527.31
469.585	499.31
469.804	519.31
470.023	516.31
470.243	531.31
470.462	542.31
470.681	542.31
470.901	539.31
471.12	531.31
471.339	515.31
471.558	522.31
471.777	522.31
471.997	521.31
472.216	511.31
472.435	569.31
472.654	547.31
472.873	535.31
473.092	514.31
473.311	545.31
473.53	515.31
473.749	526.31
473.968	587.31
474.187	673.31
474.406	668.31
474.625	593.31
474.844	538.31
475.063	536.31
475.282	551.31
475.501	555.31
475.72	530.31
475.939	526.31
476.158	547.31
476.377	550.31
476.596	518.31
476.814	562.31
477.033	587.31
477.252	541.31
477.471	570.31
477.69	563.31
477.908	567.31
478.127	567.31
478.346	569.31
478.564	579.31
478.783	595.31
479.002	602.31
479.22	615.31
479.439	618.31
479.658	620.31
479.876	629.31
480.095	644.31
480.313	657.31
480.532	655.31
480.751	641.31
480.969	661.31
481.188	687.31
481.406	717.31
481.624	640.31
481.843	631.31
482.061	624.31
482.28	613.31
482.498	591.31
482.717	586.31
482.935	611.31
483.153	611.31
483.372	623.31
483.59	615.31
483.808	610.31
484.027	618.31
484.245	621.31
484.463	611.31
484.681	601.31
484.9	628.31
485.118	614.31
485.336	611.31
485.554	630.31
485.772	635.31
485.99	624.31
486.209	620.31
486.427	644.31
486.645	639.31
486.863	663.31
487.081	662.31
487.299	660.31
487.517	649.31
487.735	654.31
487.953	655.31
488.171	656.31
488.389	650.31
488.607	693.31
488.825	643.31
489.043	661.31
489.261	667.31
489.479	687.31
489.696	670.31
489.914	682.31
490.132	652.31
490.35	684.31
490.568	665.31
490.786	692.31
491.003	675.31
491.221	733.31
491.439	721.31
491.657	741.31
491.874	720.31
492.092	730.31
492.31	713.31
492.527	706.31
492.745	727.31
492.963	737.31
493.18	765.31
493.398	771.31
493.615	751.31
493.833	751.31
494.05	762.31
494.268	758.31
494.485	730.31
494.703	757.31
494.92	768.31
495.138	753.31
495.355	774.31
495.573	780.31
495.79	767.31
496.008	793.31
496.225	789.31
496.442	777.31
496.66	784.31
496.877	767.31
497.094	777.31
497.312	822.31
497.529	801.31
497.746	823.31
497.963	828.31
498.181	851.31
498.398	873.31
498.615	869.31
498.832	900.31
499.049	933.31
499.267	927.31
499.484	962.31
499.701	982.31
499.918	1001.31
500.135	1067.31
500.352	1084.31
500.569	1123.31
500.786	1135.31
501.003	1114.31
501.22	1098.31
501.437	1060.31
501.654	1009.31
501.871	991.31
