Data from 1978.PennyLincolnUp.Lamp.En5.5.200Scan.071719.P1_HRD10591_16-12-56-864.txt Node
Date: Thu Jul 18 16:12:56 EDT 2019
User: cochatt
Spectrometer: HR+D1059
Trigger mode: 1
Integration Time (sec): 1.000000E-1
Scans to average: 1
Electric dark correction enabled: true
Nonlinearity correction enabled: false
Boxcar width: 0
XAxis mode: Wavelengths
Number of Pixels in Spectrum: 2048
>>>>>Begin Spectral Data<<<<<
223.165	-2.69
223.4	-2.69
223.635	-2.69
223.869	-8.69
224.104	-17.69
224.338	-16.69
224.573	-6.69
224.808	-12.69
225.042	-12.69
225.277	-12.69
225.511	-4.69
225.746	2.31
225.98	5.31
226.215	13.31
226.449	10.31
226.683	13.31
226.918	25.31
227.152	25.31
227.387	47.31
227.621	43.31
227.856	28.31
228.09	41.31
228.324	43.31
228.559	54.31
228.793	69.31
229.027	94.31
229.262	99.31
229.496	120.31
229.73	121.31
229.964	141.31
230.199	123.31
230.433	105.31
230.667	105.31
230.901	108.31
231.136	110.31
231.37	102.31
231.604	93.31
231.838	123.31
232.072	124.31
232.306	108.31
232.541	106.31
232.775	124.31
233.009	108.31
233.243	125.31
233.477	115.31
233.711	107.31
233.945	108.31
234.179	105.31
234.413	109.31
234.647	117.31
234.881	114.31
235.115	104.31
235.349	115.31
235.583	106.31
235.817	120.31
236.051	102.31
236.285	118.31
236.519	131.31
236.753	117.31
236.987	136.31
237.221	168.31
237.455	220.31
237.689	169.31
237.922	154.31
238.156	133.31
238.39	131.31
238.624	123.31
238.858	123.31
239.091	118.31
239.325	124.31
239.559	126.31
239.793	121.31
240.027	125.31
240.26	136.31
240.494	155.31
240.728	131.31
240.961	141.31
241.195	140.31
241.429	132.31
241.662	130.31
241.896	116.31
242.13	108.31
242.363	122.31
242.597	113.31
242.83	138.31
243.064	121.31
243.298	135.31
243.531	139.31
243.765	132.31
243.998	146.31
244.232	139.31
244.465	130.31
244.699	139.31
244.932	144.31
245.166	157.31
245.399	139.31
245.633	143.31
245.866	146.31
246.099	141.31
246.333	139.31
246.566	141.31
246.8	129.31
247.033	140.31
247.266	140.31
247.5	154.31
247.733	161.31
247.966	144.31
248.2	179.31
248.433	167.31
248.666	167.31
248.899	164.31
249.133	178.31
249.366	193.31
249.599	186.31
249.832	192.31
250.066	173.31
250.299	173.31
250.532	162.31
250.765	173.31
250.998	214.31
251.231	196.31
251.465	214.31
251.698	188.31
251.931	175.31
252.164	168.31
252.397	177.31
252.63	194.31
252.863	189.31
253.096	187.31
253.329	216.31
253.562	194.31
253.795	202.31
254.028	201.31
254.261	201.31
254.494	202.31
254.727	214.31
254.96	251.31
255.193	253.31
255.426	229.31
255.659	199.31
255.892	207.31
256.124	203.31
256.357	207.31
256.59	205.31
256.823	193.31
257.056	202.31
257.289	197.31
257.521	193.31
257.754	192.31
257.987	192.31
258.22	196.31
258.452	189.31
258.685	205.31
258.918	200.31
259.151	183.31
259.383	194.31
259.616	194.31
259.849	211.31
260.081	226.31
260.314	223.31
260.547	235.31
260.779	221.31
261.012	201.31
261.244	225.31
261.477	207.31
261.71	189.31
261.942	221.31
262.175	222.31
262.407	193.31
262.64	205.31
262.872	203.31
263.105	199.31
263.337	202.31
263.57	212.31
263.802	197.31
264.035	210.31
264.267	206.31
264.499	190.31
264.732	197.31
264.964	205.31
265.197	200.31
265.429	212.31
265.661	211.31
265.894	207.31
266.126	205.31
266.358	207.31
266.591	219.31
266.823	206.31
267.055	215.31
267.287	223.31
267.52	209.31
267.752	201.31
267.984	218.31
268.216	213.31
268.448	227.31
268.681	217.31
268.913	241.31
269.145	244.31
269.377	244.31
269.609	238.31
269.841	256.31
270.073	250.31
270.306	268.31
270.538	268.31
270.77	274.31
271.002	266.31
271.234	239.31
271.466	263.31
271.698	277.31
271.93	282.31
272.162	297.31
272.394	280.31
272.626	264.31
272.858	265.31
273.09	262.31
273.322	251.31
273.553	233.31
273.785	253.31
274.017	251.31
274.249	249.31
274.481	252.31
274.713	242.31
274.945	251.31
275.176	243.31
275.408	260.31
275.64	235.31
275.872	249.31
276.104	242.31
276.335	238.31
276.567	269.31
276.799	263.31
277.031	250.31
277.262	282.31
277.494	270.31
277.726	283.31
277.957	258.31
278.189	250.31
278.421	252.31
278.652	259.31
278.884	257.31
279.115	262.31
279.347	251.31
279.579	266.31
279.81	243.31
280.042	270.31
280.273	281.31
280.505	257.31
280.736	254.31
280.968	246.31
281.199	251.31
281.431	260.31
281.662	246.31
281.894	267.31
282.125	273.31
282.356	263.31
282.588	275.31
282.819	293.31
283.051	279.31
283.282	262.31
283.513	255.31
283.745	270.31
283.976	267.31
284.207	266.31
284.439	266.31
284.67	275.31
284.901	271.31
285.132	257.31
285.364	270.31
285.595	252.31
285.826	275.31
286.057	265.31
286.288	274.31
286.52	277.31
286.751	275.31
286.982	260.31
287.213	257.31
287.444	278.31
287.675	278.31
287.906	263.31
288.138	292.31
288.369	283.31
288.6	291.31
288.831	264.31
289.062	284.31
289.293	263.31
289.524	268.31
289.755	275.31
289.986	258.31
290.217	280.31
290.448	294.31
290.679	282.31
290.91	275.31
291.141	254.31
291.371	263.31
291.602	265.31
291.833	258.31
292.064	267.31
292.295	280.31
292.526	271.31
292.757	283.31
292.987	290.31
293.218	279.31
293.449	267.31
293.68	273.31
293.91	290.31
294.141	267.31
294.372	272.31
294.603	288.31
294.833	284.31
295.064	265.31
295.295	286.31
295.525	278.31
295.756	289.31
295.987	280.31
296.217	304.31
296.448	329.31
296.679	301.31
296.909	292.31
297.14	291.31
297.37	285.31
297.601	322.31
297.831	273.31
298.062	298.31
298.292	279.31
298.523	299.31
298.753	298.31
298.984	287.31
299.214	299.31
299.445	289.31
299.675	277.31
299.905	308.31
300.136	299.31
300.366	307.31
300.597	293.31
300.827	310.31
301.057	302.31
301.288	302.31
301.518	305.31
301.748	307.31
301.979	318.31
302.209	304.31
302.439	308.31
302.669	319.31
302.9	316.31
303.13	281.31
303.36	322.31
303.59	312.31
303.82	319.31
304.051	311.31
304.281	321.31
304.511	317.31
304.741	312.31
304.971	316.31
305.201	319.31
305.431	315.31
305.661	316.31
305.891	317.31
306.121	310.31
306.352	305.31
306.582	309.31
306.812	323.31
307.042	325.31
307.272	322.31
307.502	311.31
307.731	330.31
307.961	302.31
308.191	309.31
308.421	351.31
308.651	334.31
308.881	327.31
309.111	331.31
309.341	345.31
309.571	322.31
309.8	347.31
310.03	346.31
310.26	351.31
310.49	354.31
310.72	368.31
310.949	375.31
311.179	378.31
311.409	351.31
311.639	350.31
311.868	357.31
312.098	364.31
312.328	367.31
312.557	383.31
312.787	374.31
313.017	385.31
313.246	377.31
313.476	371.31
313.706	362.31
313.935	336.31
314.165	363.31
314.394	376.31
314.624	359.31
314.853	369.31
315.083	377.31
315.312	365.31
315.542	368.31
315.771	362.31
316.001	341.31
316.23	373.31
316.46	375.31
316.689	369.31
316.919	350.31
317.148	355.31
317.377	381.31
317.607	379.31
317.836	361.31
318.065	362.31
318.295	356.31
318.524	378.31
318.753	360.31
318.983	373.31
319.212	365.31
319.441	366.31
319.67	387.31
319.9	373.31
320.129	363.31
320.358	371.31
320.587	379.31
320.816	382.31
321.046	381.31
321.275	383.31
321.504	397.31
321.733	389.31
321.962	381.31
322.191	381.31
322.42	402.31
322.649	419.31
322.878	422.31
323.108	428.31
323.337	435.31
323.566	450.31
323.795	487.31
324.024	526.31
324.253	637.31
324.482	917.31
324.71	1401.31
324.939	2199.31
325.168	1905.31
325.397	927.31
325.626	625.31
325.855	529.31
326.084	472.31
326.313	473.31
326.542	472.31
326.77	539.31
326.999	591.31
327.228	832.31
327.457	1299.31
327.686	1637.31
327.914	1045.31
328.143	669.31
328.372	581.31
328.6	547.31
328.829	506.31
329.058	537.31
329.287	561.31
329.515	515.31
329.744	473.31
329.972	467.31
330.201	493.31
330.43	535.31
330.658	546.31
330.887	562.31
331.115	534.31
331.344	500.31
331.572	470.31
331.801	452.31
332.03	461.31
332.258	458.31
332.486	445.31
332.715	427.31
332.943	429.31
333.172	419.31
333.4	423.31
333.629	473.31
333.857	451.31
334.085	447.31
334.314	470.31
334.542	512.31
334.771	509.31
334.999	487.31
335.227	470.31
335.455	441.31
335.684	443.31
335.912	433.31
336.14	424.31
336.369	434.31
336.597	440.31
336.825	437.31
337.053	443.31
337.281	430.31
337.51	411.31
337.738	438.31
337.966	450.31
338.194	437.31
338.422	433.31
338.65	436.31
338.878	443.31
339.106	398.31
339.334	411.31
339.562	408.31
339.79	422.31
340.018	422.31
340.246	462.31
340.474	420.31
340.702	442.31
340.93	421.31
341.158	439.31
341.386	430.31
341.614	427.31
341.842	414.31
342.07	440.31
342.298	418.31
342.526	398.31
342.754	405.31
342.981	397.31
343.209	405.31
343.437	433.31
343.665	437.31
343.893	424.31
344.12	429.31
344.348	438.31
344.576	420.31
344.804	441.31
345.031	437.31
345.259	459.31
345.487	433.31
345.714	417.31
345.942	422.31
346.17	409.31
346.397	403.31
346.625	423.31
346.853	399.31
347.08	407.31
347.308	411.31
347.535	406.31
347.763	413.31
347.99	409.31
348.218	403.31
348.445	423.31
348.673	414.31
348.9	419.31
349.128	419.31
349.355	412.31
349.583	411.31
349.81	392.31
350.037	403.31
350.265	437.31
350.492	393.31
350.72	416.31
350.947	411.31
351.174	402.31
351.402	409.31
351.629	427.31
351.856	401.31
352.083	411.31
352.311	408.31
352.538	428.31
352.765	418.31
352.992	414.31
353.22	423.31
353.447	414.31
353.674	409.31
353.901	389.31
354.128	413.31
354.355	389.31
354.583	393.31
354.81	392.31
355.037	409.31
355.264	397.31
355.491	391.31
355.718	388.31
355.945	394.31
356.172	375.31
356.399	379.31
356.626	403.31
356.853	392.31
357.08	395.31
357.307	380.31
357.534	409.31
357.761	382.31
357.988	407.31
358.215	389.31
358.441	402.31
358.668	388.31
358.895	387.31
359.122	403.31
359.349	400.31
359.576	405.31
359.802	414.31
360.029	453.31
360.256	460.31
360.483	452.31
360.709	407.31
360.936	427.31
361.163	412.31
361.39	417.31
361.616	422.31
361.843	423.31
362.07	409.31
362.296	408.31
362.523	440.31
362.749	414.31
362.976	407.31
363.203	403.31
363.429	386.31
363.656	399.31
363.882	409.31
364.109	406.31
364.335	395.31
364.562	397.31
364.788	410.31
365.015	393.31
365.241	393.31
365.468	413.31
365.694	417.31
365.92	380.31
366.147	410.31
366.373	415.31
366.599	419.31
366.826	394.31
367.052	407.31
367.278	407.31
367.505	396.31
367.731	393.31
367.957	394.31
368.184	400.31
368.41	405.31
368.636	408.31
368.862	415.31
369.089	414.31
369.315	410.31
369.541	411.31
369.767	402.31
369.993	405.31
370.219	412.31
370.445	401.31
370.672	408.31
370.898	399.31
371.124	415.31
371.35	397.31
371.576	417.31
371.802	406.31
372.028	398.31
372.254	414.31
372.48	413.31
372.706	418.31
372.932	413.31
373.158	396.31
373.384	411.31
373.61	401.31
373.835	433.31
374.061	400.31
374.287	419.31
374.513	426.31
374.739	411.31
374.965	422.31
375.191	413.31
375.416	430.31
375.642	400.31
375.868	422.31
376.094	430.31
376.319	407.31
376.545	411.31
376.771	401.31
376.997	401.31
377.222	396.31
377.448	407.31
377.674	399.31
377.899	396.31
378.125	395.31
378.35	389.31
378.576	405.31
378.802	403.31
379.027	395.31
379.253	413.31
379.478	405.31
379.704	413.31
379.929	407.31
380.155	426.31
380.38	405.31
380.606	421.31
380.831	406.31
381.057	413.31
381.282	414.31
381.507	411.31
381.733	397.31
381.958	408.31
382.184	427.31
382.409	425.31
382.634	422.31
382.86	426.31
383.085	428.31
383.31	422.31
383.535	426.31
383.761	424.31
383.986	401.31
384.211	431.31
384.436	412.31
384.662	426.31
384.887	420.31
385.112	442.31
385.337	447.31
385.562	440.31
385.787	436.31
386.013	470.31
386.238	463.31
386.463	459.31
386.688	441.31
386.913	455.31
387.138	443.31
387.363	453.31
387.588	438.31
387.813	453.31
388.038	456.31
388.263	469.31
388.488	453.31
388.713	470.31
388.938	449.31
389.163	449.31
389.387	453.31
389.612	461.31
389.837	454.31
390.062	462.31
390.287	482.31
390.512	457.31
390.736	467.31
390.961	474.31
391.186	451.31
391.411	466.31
391.636	458.31
391.86	483.31
392.085	476.31
392.31	474.31
392.534	470.31
392.759	498.31
392.984	472.31
393.208	464.31
393.433	452.31
393.658	467.31
393.882	477.31
394.107	475.31
394.331	498.31
394.556	449.31
394.78	457.31
395.005	483.31
395.229	477.31
395.454	475.31
395.678	463.31
395.903	512.31
396.127	531.31
396.352	508.31
396.576	478.31
396.801	489.31
397.025	492.31
397.249	476.31
397.474	504.31
397.698	490.31
397.922	513.31
398.147	529.31
398.371	529.31
398.595	539.31
398.82	537.31
399.044	566.31
399.268	567.31
399.492	596.31
399.717	602.31
399.941	645.31
400.165	671.31
400.389	671.31
400.613	601.31
400.837	556.31
401.062	563.31
401.286	538.31
401.51	522.31
401.734	513.31
401.958	535.31
402.182	545.31
402.406	532.31
402.63	548.31
402.854	547.31
403.078	527.31
403.302	559.31
403.526	540.31
403.75	546.31
403.974	571.31
404.198	547.31
404.422	566.31
404.645	548.31
404.869	569.31
405.093	585.31
405.317	623.31
405.541	670.31
405.765	612.31
405.988	573.31
406.212	585.31
406.436	605.31
406.66	636.31
406.883	591.31
407.107	612.31
407.331	674.31
407.555	753.31
407.778	749.31
408.002	685.31
408.226	619.31
408.449	613.31
408.673	610.31
408.896	647.31
409.12	679.31
409.344	643.31
409.567	580.31
409.791	583.31
410.014	567.31
410.238	546.31
410.461	555.31
410.685	535.31
410.908	569.31
411.132	606.31
411.355	665.31
411.578	613.31
411.802	567.31
412.025	588.31
412.249	540.31
412.472	587.31
412.695	607.31
412.919	614.31
413.142	583.31
413.365	578.31
413.589	549.31
413.812	542.31
414.035	530.31
414.258	522.31
414.482	527.31
414.705	527.31
414.928	542.31
415.151	524.31
415.374	536.31
415.597	531.31
415.821	501.31
416.044	499.31
416.267	530.31
416.49	515.31
416.713	528.31
416.936	516.31
417.159	519.31
417.382	537.31
417.605	537.31
417.828	541.31
418.051	551.31
418.274	550.31
418.497	525.31
418.72	518.31
418.943	519.31
419.166	540.31
419.389	572.31
419.611	559.31
419.834	550.31
420.057	564.31
420.28	549.31
420.503	557.31
420.726	530.31
420.948	547.31
421.171	582.31
421.394	643.31
421.617	565.31
421.839	529.31
422.062	540.31
422.285	567.31
422.507	630.31
422.73	693.31
422.953	683.31
423.175	567.31
423.398	561.31
423.621	559.31
423.843	567.31
424.066	583.31
424.288	573.31
424.511	603.31
424.733	631.31
424.956	749.31
425.178	707.31
425.401	710.31
425.623	745.31
425.846	627.31
426.068	580.31
426.291	581.31
426.513	581.31
426.735	578.31
426.958	622.31
427.18	696.31
427.402	851.31
427.625	970.31
427.847	805.31
428.069	692.31
428.292	609.31
428.514	560.31
428.736	564.31
428.958	563.31
429.181	548.31
429.403	551.31
429.625	548.31
429.847	589.31
430.069	637.31
430.292	659.31
430.514	556.31
430.736	547.31
430.958	531.31
431.18	506.31
431.402	537.31
431.624	517.31
431.846	514.31
432.068	522.31
432.29	502.31
432.512	495.31
432.734	499.31
432.956	491.31
433.178	523.31
433.4	531.31
433.622	529.31
433.844	537.31
434.066	511.31
434.287	517.31
434.509	523.31
434.731	537.31
434.953	541.31
435.175	532.31
435.397	580.31
435.618	563.31
435.84	611.31
436.062	717.31
436.284	812.31
436.505	673.31
436.727	605.31
436.949	555.31
437.17	532.31
437.392	533.31
437.614	568.31
437.835	586.31
438.057	686.31
438.278	802.31
438.5	773.31
438.721	863.31
438.943	838.31
439.165	642.31
439.386	586.31
439.608	569.31
439.829	592.31
440.05	592.31
440.272	670.31
440.493	620.31
440.715	553.31
440.936	545.31
441.158	540.31
441.379	565.31
441.6	556.31
441.822	584.31
442.043	633.31
442.264	694.31
442.486	759.31
442.707	637.31
442.928	598.31
443.149	608.31
443.371	618.31
443.592	649.31
443.813	768.31
444.034	844.31
444.255	711.31
444.476	626.31
444.698	591.31
444.919	606.31
445.14	692.31
445.361	657.31
445.582	645.31
445.803	708.31
446.024	814.31
446.245	817.31
446.466	720.31
446.687	610.31
446.908	588.31
447.129	570.31
447.35	519.31
447.571	506.31
447.792	528.31
448.013	527.31
448.234	526.31
448.455	596.31
448.675	718.31
448.896	857.31
449.117	720.31
449.338	684.31
449.559	789.31
449.779	912.31
450	691.31
450.221	590.31
450.442	541.31
450.662	525.31
450.883	519.31
451.104	529.31
451.324	529.31
451.545	511.31
451.766	501.31
451.986	490.31
452.207	463.31
452.428	477.31
452.648	461.31
452.869	490.31
453.089	471.31
453.31	491.31
453.53	502.31
453.751	499.31
453.971	501.31
454.192	504.31
454.412	483.31
454.633	489.31
454.853	444.31
455.073	489.31
455.294	525.31
455.514	587.31
455.734	575.31
455.955	475.31
456.175	455.31
456.395	453.31
456.616	467.31
456.836	467.31
457.056	456.31
457.276	455.31
457.497	469.31
457.717	460.31
457.937	474.31
458.157	492.31
458.377	482.31
458.598	498.31
458.818	553.31
459.038	629.31
459.258	675.31
459.478	578.31
459.698	555.31
459.918	529.31
460.138	531.31
460.358	515.31
460.578	538.31
460.798	548.31
461.018	562.31
461.238	533.31
461.458	554.31
461.678	545.31
461.898	526.31
462.118	551.31
462.338	552.31
462.558	565.31
462.777	577.31
462.997	567.31
463.217	594.31
463.437	603.31
463.657	579.31
463.876	587.31
464.096	595.31
464.316	574.31
464.536	591.31
464.755	578.31
464.975	556.31
465.195	612.31
465.414	670.31
465.634	603.31
465.854	566.31
466.073	544.31
466.293	515.31
466.512	527.31
466.732	518.31
466.951	513.31
467.171	511.31
467.391	521.31
467.61	500.31
467.829	525.31
468.049	517.31
468.268	513.31
468.488	500.31
468.707	499.31
468.927	505.31
469.146	476.31
469.365	473.31
469.585	492.31
469.804	509.31
470.023	492.31
470.243	506.31
470.462	490.31
470.681	511.31
470.901	537.31
471.12	524.31
471.339	501.31
471.558	501.31
471.777	480.31
471.997	483.31
472.216	519.31
472.435	515.31
472.654	519.31
472.873	531.31
473.092	481.31
473.311	521.31
473.53	531.31
473.749	511.31
473.968	551.31
474.187	634.31
474.406	686.31
474.625	558.31
474.844	538.31
475.063	510.31
475.282	519.31
475.501	487.31
475.72	526.31
475.939	522.31
476.158	511.31
476.377	494.31
476.596	525.31
476.814	520.31
477.033	542.31
477.252	549.31
477.471	535.31
477.69	549.31
477.908	579.31
478.127	543.31
478.346	534.31
478.564	550.31
478.783	542.31
479.002	582.31
479.22	587.31
479.439	612.31
479.658	599.31
479.876	617.31
480.095	614.31
480.313	646.31
480.532	618.31
480.751	621.31
480.969	625.31
481.188	657.31
481.406	656.31
481.624	633.31
481.843	620.31
482.061	617.31
482.28	601.31
482.498	591.31
482.717	587.31
482.935	582.31
483.153	595.31
483.372	605.31
483.59	591.31
483.808	585.31
484.027	580.31
484.245	584.31
484.463	619.31
484.681	606.31
484.9	601.31
485.118	604.31
485.336	614.31
485.554	598.31
485.772	623.31
485.99	638.31
486.209	618.31
486.427	627.31
486.645	637.31
486.863	658.31
487.081	638.31
487.299	622.31
487.517	635.31
487.735	653.31
487.953	603.31
488.171	627.31
488.389	611.31
488.607	632.31
488.825	633.31
489.043	628.31
489.261	621.31
489.479	643.31
489.696	637.31
489.914	641.31
490.132	658.31
490.35	631.31
490.568	656.31
490.786	682.31
491.003	699.31
491.221	683.31
491.439	670.31
491.657	706.31
491.874	695.31
492.092	682.31
492.31	702.31
492.527	703.31
492.745	734.31
492.963	713.31
493.18	707.31
493.398	726.31
493.615	730.31
493.833	719.31
494.05	739.31
494.268	727.31
494.485	741.31
494.703	740.31
494.92	746.31
495.138	714.31
495.355	736.31
495.573	703.31
495.79	719.31
496.008	750.31
496.225	761.31
496.442	730.31
496.66	742.31
496.877	776.31
497.094	755.31
497.312	752.31
497.529	782.31
497.746	795.31
497.963	792.31
498.181	811.31
498.398	859.31
498.615	858.31
498.832	845.31
499.049	876.31
499.267	887.31
499.484	923.31
499.701	952.31
499.918	1023.31
500.135	1019.31
500.352	1044.31
500.569	1075.31
500.786	1076.31
501.003	1073.31
501.22	1039.31
501.437	995.31
501.654	1002.31
501.871	963.31
