Data from 1978.PennyLincolnUp.Lamp.En5.5.200Scan.071719.P1_HRD10591_16-12-55-864.txt Node
Date: Thu Jul 18 16:12:55 EDT 2019
User: cochatt
Spectrometer: HR+D1059
Trigger mode: 1
Integration Time (sec): 1.000000E-1
Scans to average: 1
Electric dark correction enabled: true
Nonlinearity correction enabled: false
Boxcar width: 0
XAxis mode: Wavelengths
Number of Pixels in Spectrum: 2048
>>>>>Begin Spectral Data<<<<<
223.165	-7.94
223.4	-7.94
223.635	-7.94
223.869	-23.94
224.104	-15.94
224.338	-21.94
224.573	-10.94
224.808	-8.94
225.042	-17.94
225.277	-5.94
225.511	7.06
225.746	-5.94
225.98	9.06
226.215	6.06
226.449	29.06
226.683	18.06
226.918	25.06
227.152	25.06
227.387	23.06
227.621	37.06
227.856	46.06
228.09	27.06
228.324	51.06
228.559	49.06
228.793	57.06
229.027	82.06
229.262	92.06
229.496	107.06
229.73	115.06
229.964	146.06
230.199	121.06
230.433	100.06
230.667	114.06
230.901	109.06
231.136	120.06
231.37	102.06
231.604	98.06
231.838	102.06
232.072	123.06
232.306	106.06
232.541	104.06
232.775	116.06
233.009	114.06
233.243	96.06
233.477	118.06
233.711	118.06
233.945	112.06
234.179	114.06
234.413	124.06
234.647	110.06
234.881	121.06
235.115	100.06
235.349	120.06
235.583	115.06
235.817	98.06
236.051	126.06
236.285	117.06
236.519	119.06
236.753	132.06
236.987	139.06
237.221	178.06
237.455	210.06
237.689	185.06
237.922	137.06
238.156	136.06
238.39	130.06
238.624	119.06
238.858	98.06
239.091	119.06
239.325	125.06
239.559	129.06
239.793	124.06
240.027	109.06
240.26	137.06
240.494	140.06
240.728	130.06
240.961	142.06
241.195	119.06
241.429	138.06
241.662	134.06
241.896	130.06
242.13	123.06
242.363	118.06
242.597	118.06
242.83	129.06
243.064	143.06
243.298	133.06
243.531	128.06
243.765	132.06
243.998	131.06
244.232	125.06
244.465	119.06
244.699	134.06
244.932	142.06
245.166	141.06
245.399	136.06
245.633	134.06
245.866	134.06
246.099	138.06
246.333	144.06
246.566	148.06
246.8	144.06
247.033	163.06
247.266	139.06
247.5	153.06
247.733	157.06
247.966	143.06
248.2	154.06
248.433	159.06
248.666	164.06
248.899	156.06
249.133	172.06
249.366	178.06
249.599	176.06
249.832	165.06
250.066	141.06
250.299	153.06
250.532	168.06
250.765	197.06
250.998	209.06
251.231	208.06
251.465	183.06
251.698	183.06
251.931	194.06
252.164	190.06
252.397	170.06
252.63	194.06
252.863	184.06
253.096	201.06
253.329	210.06
253.562	194.06
253.795	194.06
254.028	187.06
254.261	207.06
254.494	202.06
254.727	206.06
254.96	249.06
255.193	233.06
255.426	224.06
255.659	213.06
255.892	198.06
256.124	200.06
256.357	190.06
256.59	196.06
256.823	181.06
257.056	199.06
257.289	206.06
257.521	193.06
257.754	186.06
257.987	176.06
258.22	187.06
258.452	185.06
258.685	193.06
258.918	212.06
259.151	193.06
259.383	194.06
259.616	209.06
259.849	200.06
260.081	210.06
260.314	245.06
260.547	222.06
260.779	228.06
261.012	222.06
261.244	214.06
261.477	215.06
261.71	203.06
261.942	215.06
262.175	218.06
262.407	216.06
262.64	214.06
262.872	213.06
263.105	190.06
263.337	183.06
263.57	200.06
263.802	200.06
264.035	182.06
264.267	191.06
264.499	201.06
264.732	194.06
264.964	205.06
265.197	180.06
265.429	189.06
265.661	220.06
265.894	214.06
266.126	212.06
266.358	201.06
266.591	194.06
266.823	214.06
267.055	187.06
267.287	210.06
267.52	221.06
267.752	204.06
267.984	206.06
268.216	213.06
268.448	224.06
268.681	216.06
268.913	230.06
269.145	220.06
269.377	266.06
269.609	260.06
269.841	249.06
270.073	260.06
270.306	250.06
270.538	282.06
270.77	302.06
271.002	256.06
271.234	268.06
271.466	265.06
271.698	284.06
271.93	284.06
272.162	304.06
272.394	284.06
272.626	249.06
272.858	265.06
273.09	268.06
273.322	240.06
273.553	254.06
273.785	241.06
274.017	245.06
274.249	257.06
274.481	241.06
274.713	234.06
274.945	242.06
275.176	245.06
275.408	266.06
275.64	248.06
275.872	230.06
276.104	250.06
276.335	245.06
276.567	238.06
276.799	258.06
277.031	287.06
277.262	279.06
277.494	293.06
277.726	280.06
277.957	266.06
278.189	264.06
278.421	245.06
278.652	254.06
278.884	272.06
279.115	239.06
279.347	254.06
279.579	244.06
279.81	258.06
280.042	261.06
280.273	256.06
280.505	244.06
280.736	240.06
280.968	240.06
281.199	241.06
281.431	264.06
281.662	265.06
281.894	246.06
282.125	264.06
282.356	266.06
282.588	298.06
282.819	292.06
283.051	249.06
283.282	274.06
283.513	267.06
283.745	271.06
283.976	270.06
284.207	255.06
284.439	286.06
284.67	270.06
284.901	264.06
285.132	249.06
285.364	262.06
285.595	276.06
285.826	278.06
286.057	277.06
286.288	248.06
286.52	274.06
286.751	280.06
286.982	263.06
287.213	265.06
287.444	270.06
287.675	270.06
287.906	282.06
288.138	271.06
288.369	298.06
288.6	271.06
288.831	281.06
289.062	288.06
289.293	276.06
289.524	282.06
289.755	283.06
289.986	278.06
290.217	269.06
290.448	272.06
290.679	277.06
290.91	286.06
291.141	286.06
291.371	273.06
291.602	270.06
291.833	278.06
292.064	265.06
292.295	268.06
292.526	293.06
292.757	277.06
292.987	285.06
293.218	276.06
293.449	287.06
293.68	281.06
293.91	263.06
294.141	278.06
294.372	282.06
294.603	269.06
294.833	276.06
295.064	281.06
295.295	272.06
295.525	289.06
295.756	295.06
295.987	305.06
296.217	307.06
296.448	315.06
296.679	298.06
296.909	278.06
297.14	294.06
297.37	268.06
297.601	292.06
297.831	307.06
298.062	291.06
298.292	293.06
298.523	284.06
298.753	288.06
298.984	311.06
299.214	292.06
299.445	278.06
299.675	305.06
299.905	300.06
300.136	301.06
300.366	294.06
300.597	293.06
300.827	306.06
301.057	292.06
301.288	317.06
301.518	309.06
301.748	314.06
301.979	310.06
302.209	306.06
302.439	316.06
302.669	320.06
302.9	311.06
303.13	323.06
303.36	306.06
303.59	316.06
303.82	309.06
304.051	309.06
304.281	309.06
304.511	313.06
304.741	314.06
304.971	317.06
305.201	308.06
305.431	316.06
305.661	325.06
305.891	333.06
306.121	304.06
306.352	322.06
306.582	321.06
306.812	324.06
307.042	317.06
307.272	315.06
307.502	313.06
307.731	301.06
307.961	308.06
308.191	310.06
308.421	309.06
308.651	314.06
308.881	309.06
309.111	308.06
309.341	324.06
309.571	337.06
309.8	337.06
310.03	348.06
310.26	359.06
310.49	349.06
310.72	360.06
310.949	374.06
311.179	386.06
311.409	359.06
311.639	370.06
311.868	371.06
312.098	362.06
312.328	375.06
312.557	384.06
312.787	386.06
313.017	371.06
313.246	368.06
313.476	366.06
313.706	368.06
313.935	358.06
314.165	357.06
314.394	392.06
314.624	380.06
314.853	394.06
315.083	363.06
315.312	371.06
315.542	348.06
315.771	360.06
316.001	354.06
316.23	365.06
316.46	365.06
316.689	371.06
316.919	334.06
317.148	365.06
317.377	385.06
317.607	378.06
317.836	342.06
318.065	352.06
318.295	352.06
318.524	354.06
318.753	350.06
318.983	363.06
319.212	389.06
319.441	381.06
319.67	351.06
319.9	355.06
320.129	354.06
320.358	381.06
320.587	372.06
320.816	381.06
321.046	393.06
321.275	381.06
321.504	381.06
321.733	375.06
321.962	380.06
322.191	384.06
322.42	414.06
322.649	430.06
322.878	448.06
323.108	436.06
323.337	453.06
323.566	463.06
323.795	493.06
324.024	518.06
324.253	649.06
324.482	921.06
324.71	1481.06
324.939	2242.06
325.168	1922.06
325.397	947.06
325.626	618.06
325.855	548.06
326.084	482.06
326.313	487.06
326.542	485.06
326.77	516.06
326.999	621.06
327.228	843.06
327.457	1304.06
327.686	1682.06
327.914	1073.06
328.143	677.06
328.372	594.06
328.6	566.06
328.829	537.06
329.058	558.06
329.287	562.06
329.515	517.06
329.744	483.06
329.972	472.06
330.201	487.06
330.43	550.06
330.658	548.06
330.887	582.06
331.115	584.06
331.344	498.06
331.572	446.06
331.801	457.06
332.03	485.06
332.258	450.06
332.486	439.06
332.715	437.06
332.943	445.06
333.172	425.06
333.4	438.06
333.629	437.06
333.857	452.06
334.085	440.06
334.314	466.06
334.542	514.06
334.771	512.06
334.999	470.06
335.227	468.06
335.455	457.06
335.684	446.06
335.912	442.06
336.14	444.06
336.369	421.06
336.597	450.06
336.825	448.06
337.053	438.06
337.281	441.06
337.51	427.06
337.738	432.06
337.966	434.06
338.194	437.06
338.422	450.06
338.65	424.06
338.878	422.06
339.106	393.06
339.334	424.06
339.562	413.06
339.79	417.06
340.018	409.06
340.246	432.06
340.474	408.06
340.702	413.06
340.93	417.06
341.158	398.06
341.386	423.06
341.614	419.06
341.842	436.06
342.07	418.06
342.298	409.06
342.526	412.06
342.754	404.06
342.981	399.06
343.209	404.06
343.437	399.06
343.665	426.06
343.893	421.06
344.12	428.06
344.348	450.06
344.576	424.06
344.804	451.06
345.031	442.06
345.259	436.06
345.487	436.06
345.714	412.06
345.942	398.06
346.17	428.06
346.397	408.06
346.625	407.06
346.853	426.06
347.08	403.06
347.308	409.06
347.535	413.06
347.763	425.06
347.99	416.06
348.218	422.06
348.445	405.06
348.673	429.06
348.9	436.06
349.128	394.06
349.355	392.06
349.583	391.06
349.81	394.06
350.037	378.06
350.265	392.06
350.492	374.06
350.72	408.06
350.947	420.06
351.174	409.06
351.402	424.06
351.629	386.06
351.856	408.06
352.083	417.06
352.311	412.06
352.538	413.06
352.765	426.06
352.992	421.06
353.22	401.06
353.447	404.06
353.674	422.06
353.901	404.06
354.128	384.06
354.355	371.06
354.583	394.06
354.81	400.06
355.037	374.06
355.264	382.06
355.491	378.06
355.718	391.06
355.945	377.06
356.172	397.06
356.399	380.06
356.626	388.06
356.853	394.06
357.08	396.06
357.307	391.06
357.534	374.06
357.761	394.06
357.988	402.06
358.215	397.06
358.441	384.06
358.668	393.06
358.895	410.06
359.122	415.06
359.349	402.06
359.576	405.06
359.802	440.06
360.029	444.06
360.256	471.06
360.483	452.06
360.709	438.06
360.936	416.06
361.163	417.06
361.39	423.06
361.616	420.06
361.843	403.06
362.07	398.06
362.296	417.06
362.523	427.06
362.749	414.06
362.976	396.06
363.203	418.06
363.429	388.06
363.656	400.06
363.882	414.06
364.109	404.06
364.335	389.06
364.562	398.06
364.788	393.06
365.015	416.06
365.241	394.06
365.468	414.06
365.694	416.06
365.92	416.06
366.147	381.06
366.373	395.06
366.599	414.06
366.826	376.06
367.052	411.06
367.278	399.06
367.505	402.06
367.731	394.06
367.957	405.06
368.184	402.06
368.41	395.06
368.636	406.06
368.862	407.06
369.089	404.06
369.315	398.06
369.541	397.06
369.767	412.06
369.993	406.06
370.219	392.06
370.445	402.06
370.672	405.06
370.898	409.06
371.124	395.06
371.35	429.06
371.576	395.06
371.802	395.06
372.028	396.06
372.254	404.06
372.48	409.06
372.706	411.06
372.932	402.06
373.158	394.06
373.384	420.06
373.61	406.06
373.835	403.06
374.061	397.06
374.287	420.06
374.513	412.06
374.739	397.06
374.965	419.06
375.191	410.06
375.416	414.06
375.642	396.06
375.868	411.06
376.094	401.06
376.319	411.06
376.545	412.06
376.771	423.06
376.997	390.06
377.222	418.06
377.448	409.06
377.674	410.06
377.899	408.06
378.125	382.06
378.35	385.06
378.576	416.06
378.802	389.06
379.027	400.06
379.253	403.06
379.478	383.06
379.704	394.06
379.929	422.06
380.155	407.06
380.38	418.06
380.606	407.06
380.831	384.06
381.057	397.06
381.282	411.06
381.507	398.06
381.733	404.06
381.958	408.06
382.184	435.06
382.409	406.06
382.634	420.06
382.86	426.06
383.085	427.06
383.31	428.06
383.535	422.06
383.761	427.06
383.986	436.06
384.211	437.06
384.436	437.06
384.662	430.06
384.887	440.06
385.112	456.06
385.337	437.06
385.562	470.06
385.787	453.06
386.013	463.06
386.238	448.06
386.463	456.06
386.688	456.06
386.913	437.06
387.138	427.06
387.363	443.06
387.588	453.06
387.813	480.06
388.038	456.06
388.263	457.06
388.488	453.06
388.713	456.06
388.938	440.06
389.163	450.06
389.387	464.06
389.612	456.06
389.837	458.06
390.062	484.06
390.287	455.06
390.512	426.06
390.736	444.06
390.961	438.06
391.186	455.06
391.411	458.06
391.636	442.06
391.86	460.06
392.085	477.06
392.31	505.06
392.534	475.06
392.759	463.06
392.984	477.06
393.208	458.06
393.433	455.06
393.658	455.06
393.882	448.06
394.107	453.06
394.331	459.06
394.556	460.06
394.78	465.06
395.005	457.06
395.229	468.06
395.454	464.06
395.678	454.06
395.903	501.06
396.127	509.06
396.352	500.06
396.576	472.06
396.801	473.06
397.025	481.06
397.249	490.06
397.474	509.06
397.698	504.06
397.922	494.06
398.147	500.06
398.371	522.06
398.595	528.06
398.82	517.06
399.044	544.06
399.268	537.06
399.492	565.06
399.717	598.06
399.941	627.06
400.165	660.06
400.389	649.06
400.613	608.06
400.837	553.06
401.062	562.06
401.286	546.06
401.51	536.06
401.734	535.06
401.958	529.06
402.182	545.06
402.406	567.06
402.63	538.06
402.854	548.06
403.078	552.06
403.302	540.06
403.526	570.06
403.75	564.06
403.974	557.06
404.198	540.06
404.422	541.06
404.645	541.06
404.869	549.06
405.093	577.06
405.317	628.06
405.541	660.06
405.765	594.06
405.988	573.06
406.212	576.06
406.436	600.06
406.66	620.06
406.883	609.06
407.107	642.06
407.331	672.06
407.555	754.06
407.778	716.06
408.002	680.06
408.226	612.06
408.449	621.06
408.673	581.06
408.896	642.06
409.12	706.06
409.344	659.06
409.567	602.06
409.791	554.06
410.014	576.06
410.238	545.06
410.461	556.06
410.685	568.06
410.908	586.06
411.132	617.06
411.355	649.06
411.578	621.06
411.802	560.06
412.025	571.06
412.249	565.06
412.472	578.06
412.695	602.06
412.919	612.06
413.142	563.06
413.365	533.06
413.589	548.06
413.812	535.06
414.035	548.06
414.258	528.06
414.482	516.06
414.705	546.06
414.928	516.06
415.151	546.06
415.374	529.06
415.597	511.06
415.821	509.06
416.044	517.06
416.267	517.06
416.49	534.06
416.713	531.06
416.936	524.06
417.159	534.06
417.382	516.06
417.605	507.06
417.828	567.06
418.051	536.06
418.274	531.06
418.497	521.06
418.72	524.06
418.943	530.06
419.166	532.06
419.389	567.06
419.611	563.06
419.834	541.06
420.057	555.06
420.28	529.06
420.503	555.06
420.726	534.06
420.948	540.06
421.171	593.06
421.394	632.06
421.617	540.06
421.839	550.06
422.062	534.06
422.285	552.06
422.507	621.06
422.73	688.06
422.953	658.06
423.175	579.06
423.398	570.06
423.621	544.06
423.843	558.06
424.066	576.06
424.288	562.06
424.511	591.06
424.733	631.06
424.956	715.06
425.178	698.06
425.401	696.06
425.623	735.06
425.846	638.06
426.068	579.06
426.291	564.06
426.513	571.06
426.735	568.06
426.958	620.06
427.18	692.06
427.402	848.06
427.625	925.06
427.847	808.06
428.069	715.06
428.292	633.06
428.514	557.06
428.736	538.06
428.958	547.06
429.181	505.06
429.403	527.06
429.625	532.06
429.847	593.06
430.069	630.06
430.292	640.06
430.514	568.06
430.736	528.06
430.958	537.06
431.18	526.06
431.402	520.06
431.624	492.06
431.846	504.06
432.068	511.06
432.29	514.06
432.512	529.06
432.734	512.06
432.956	507.06
433.178	529.06
433.4	510.06
433.622	528.06
433.844	510.06
434.066	504.06
434.287	512.06
434.509	524.06
434.731	514.06
434.953	551.06
435.175	560.06
435.397	576.06
435.618	562.06
435.84	626.06
436.062	739.06
436.284	794.06
436.505	662.06
436.727	614.06
436.949	549.06
437.17	547.06
437.392	522.06
437.614	533.06
437.835	585.06
438.057	688.06
438.278	801.06
438.5	788.06
438.721	845.06
438.943	836.06
439.165	647.06
439.386	594.06
439.608	608.06
439.829	588.06
440.05	616.06
440.272	671.06
440.493	634.06
440.715	577.06
440.936	545.06
441.158	555.06
441.379	537.06
441.6	539.06
441.822	555.06
442.043	625.06
442.264	703.06
442.486	764.06
442.707	648.06
442.928	591.06
443.149	618.06
443.371	630.06
443.592	661.06
443.813	800.06
444.034	825.06
444.255	682.06
444.476	622.06
444.698	626.06
444.919	577.06
445.14	706.06
445.361	649.06
445.582	642.06
445.803	701.06
446.024	830.06
446.245	796.06
446.466	722.06
446.687	604.06
446.908	593.06
447.129	551.06
447.35	528.06
447.571	531.06
447.792	514.06
448.013	526.06
448.234	550.06
448.455	590.06
448.675	704.06
448.896	858.06
449.117	719.06
449.338	690.06
449.559	811.06
449.779	904.06
450	698.06
450.221	580.06
450.442	544.06
450.662	521.06
450.883	526.06
451.104	547.06
451.324	519.06
451.545	514.06
451.766	507.06
451.986	484.06
452.207	496.06
452.428	466.06
452.648	489.06
452.869	460.06
453.089	490.06
453.31	484.06
453.53	486.06
453.751	467.06
453.971	476.06
454.192	499.06
454.412	504.06
454.633	493.06
454.853	486.06
455.073	467.06
455.294	506.06
455.514	564.06
455.734	550.06
455.955	499.06
456.175	457.06
456.395	452.06
456.616	448.06
456.836	454.06
457.056	458.06
457.276	453.06
457.497	448.06
457.717	461.06
457.937	496.06
458.157	454.06
458.377	480.06
458.598	505.06
458.818	552.06
459.038	640.06
459.258	632.06
459.478	544.06
459.698	538.06
459.918	526.06
460.138	530.06
460.358	521.06
460.578	533.06
460.798	536.06
461.018	547.06
461.238	520.06
461.458	510.06
461.678	531.06
461.898	544.06
462.118	534.06
462.338	543.06
462.558	576.06
462.777	567.06
462.997	596.06
463.217	573.06
463.437	604.06
463.657	572.06
463.876	543.06
464.096	574.06
464.316	581.06
464.536	560.06
464.755	577.06
464.975	566.06
465.195	593.06
465.414	677.06
465.634	592.06
465.854	584.06
466.073	522.06
466.293	541.06
466.512	520.06
466.732	530.06
466.951	507.06
467.171	491.06
467.391	497.06
467.61	505.06
467.829	516.06
468.049	518.06
468.268	505.06
468.488	488.06
468.707	494.06
468.927	491.06
469.146	489.06
469.365	500.06
469.585	477.06
469.804	502.06
470.023	523.06
470.243	500.06
470.462	540.06
470.681	521.06
470.901	532.06
471.12	516.06
471.339	493.06
471.558	503.06
471.777	521.06
471.997	499.06
472.216	508.06
472.435	522.06
472.654	525.06
472.873	500.06
473.092	509.06
473.311	501.06
473.53	498.06
473.749	494.06
473.968	534.06
474.187	635.06
474.406	662.06
474.625	560.06
474.844	503.06
475.063	518.06
475.282	497.06
475.501	506.06
475.72	516.06
475.939	527.06
476.158	525.06
476.377	522.06
476.596	517.06
476.814	523.06
477.033	549.06
477.252	546.06
477.471	528.06
477.69	543.06
477.908	553.06
478.127	562.06
478.346	554.06
478.564	551.06
478.783	536.06
479.002	548.06
479.22	599.06
479.439	595.06
479.658	621.06
479.876	642.06
480.095	613.06
480.313	620.06
480.532	628.06
480.751	633.06
480.969	612.06
481.188	668.06
481.406	700.06
481.624	649.06
481.843	621.06
482.061	604.06
482.28	609.06
482.498	585.06
482.717	587.06
482.935	596.06
483.153	562.06
483.372	587.06
483.59	587.06
483.808	596.06
484.027	588.06
484.245	601.06
484.463	615.06
484.681	594.06
484.9	608.06
485.118	583.06
485.336	620.06
485.554	618.06
485.772	599.06
485.99	629.06
486.209	596.06
486.427	615.06
486.645	618.06
486.863	629.06
487.081	624.06
487.299	642.06
487.517	625.06
487.735	612.06
487.953	622.06
488.171	613.06
488.389	634.06
488.607	644.06
488.825	652.06
489.043	638.06
489.261	652.06
489.479	673.06
489.696	621.06
489.914	649.06
490.132	634.06
490.35	680.06
490.568	652.06
490.786	640.06
491.003	645.06
491.221	677.06
491.439	681.06
491.657	692.06
491.874	692.06
492.092	715.06
492.31	692.06
492.527	706.06
492.745	725.06
492.963	696.06
493.18	710.06
493.398	732.06
493.615	717.06
493.833	725.06
494.05	695.06
494.268	715.06
494.485	699.06
494.703	704.06
494.92	745.06
495.138	718.06
495.355	713.06
495.573	751.06
495.79	757.06
496.008	753.06
496.225	723.06
496.442	746.06
496.66	727.06
496.877	744.06
497.094	749.06
497.312	762.06
497.529	756.06
497.746	779.06
497.963	787.06
498.181	812.06
498.398	834.06
498.615	858.06
498.832	885.06
499.049	879.06
499.267	908.06
499.484	926.06
499.701	924.06
499.918	997.06
500.135	1034.06
500.352	1063.06
500.569	1074.06
500.786	1077.06
501.003	1089.06
501.22	1066.06
501.437	1012.06
501.654	990.06
501.871	997.06
