Data from 1978.PennyLincolnUp.Lamp.En5.5.200Scan.071719.P1_HRD10591_16-11-59-866.txt Node
Date: Thu Jul 18 16:11:59 EDT 2019
User: cochatt
Spectrometer: HR+D1059
Trigger mode: 1
Integration Time (sec): 1.000000E-1
Scans to average: 1
Electric dark correction enabled: true
Nonlinearity correction enabled: false
Boxcar width: 0
XAxis mode: Wavelengths
Number of Pixels in Spectrum: 2048
>>>>>Begin Spectral Data<<<<<
223.165	-21.44
223.4	-21.44
223.635	-21.44
223.869	-21.44
224.104	-26.44
224.338	-9.44
224.573	-15.44
224.808	-25.44
225.042	-2.44
225.277	-10.44
225.511	-3.44
225.746	0.56
225.98	20.56
226.215	14.56
226.449	19.56
226.683	9.56
226.918	24.56
227.152	46.56
227.387	43.56
227.621	49.56
227.856	43.56
228.09	39.56
228.324	51.56
228.559	52.56
228.793	88.56
229.027	74.56
229.262	96.56
229.496	100.56
229.73	119.56
229.964	125.56
230.199	122.56
230.433	108.56
230.667	122.56
230.901	108.56
231.136	102.56
231.37	108.56
231.604	114.56
231.838	116.56
232.072	107.56
232.306	92.56
232.541	96.56
232.775	113.56
233.009	138.56
233.243	113.56
233.477	102.56
233.711	107.56
233.945	125.56
234.179	103.56
234.413	112.56
234.647	105.56
234.881	111.56
235.115	129.56
235.349	116.56
235.583	129.56
235.817	122.56
236.051	109.56
236.285	109.56
236.519	118.56
236.753	128.56
236.987	125.56
237.221	142.56
237.455	177.56
237.689	156.56
237.922	144.56
238.156	129.56
238.39	112.56
238.624	106.56
238.858	106.56
239.091	101.56
239.325	110.56
239.559	123.56
239.793	112.56
240.027	114.56
240.26	128.56
240.494	118.56
240.728	140.56
240.961	138.56
241.195	145.56
241.429	130.56
241.662	130.56
241.896	116.56
242.13	117.56
242.363	132.56
242.597	120.56
242.83	117.56
243.064	123.56
243.298	141.56
243.531	134.56
243.765	133.56
243.998	133.56
244.232	134.56
244.465	135.56
244.699	143.56
244.932	152.56
245.166	140.56
245.399	142.56
245.633	142.56
245.866	153.56
246.099	134.56
246.333	142.56
246.566	141.56
246.8	152.56
247.033	138.56
247.266	144.56
247.5	167.56
247.733	143.56
247.966	166.56
248.2	156.56
248.433	153.56
248.666	150.56
248.899	162.56
249.133	161.56
249.366	176.56
249.599	162.56
249.832	160.56
250.066	166.56
250.299	169.56
250.532	174.56
250.765	166.56
250.998	187.56
251.231	185.56
251.465	176.56
251.698	168.56
251.931	172.56
252.164	165.56
252.397	177.56
252.63	170.56
252.863	172.56
253.096	175.56
253.329	191.56
253.562	189.56
253.795	174.56
254.028	195.56
254.261	184.56
254.494	195.56
254.727	212.56
254.96	206.56
255.193	215.56
255.426	205.56
255.659	209.56
255.892	221.56
256.124	196.56
256.357	208.56
256.59	213.56
256.823	182.56
257.056	198.56
257.289	181.56
257.521	178.56
257.754	184.56
257.987	192.56
258.22	194.56
258.452	196.56
258.685	184.56
258.918	181.56
259.151	192.56
259.383	189.56
259.616	192.56
259.849	197.56
260.081	204.56
260.314	210.56
260.547	194.56
260.779	207.56
261.012	204.56
261.244	209.56
261.477	196.56
261.71	199.56
261.942	197.56
262.175	209.56
262.407	210.56
262.64	204.56
262.872	198.56
263.105	195.56
263.337	184.56
263.57	194.56
263.802	205.56
264.035	188.56
264.267	195.56
264.499	187.56
264.732	186.56
264.964	181.56
265.197	195.56
265.429	198.56
265.661	193.56
265.894	200.56
266.126	208.56
266.358	207.56
266.591	201.56
266.823	186.56
267.055	216.56
267.287	204.56
267.52	196.56
267.752	192.56
267.984	194.56
268.216	203.56
268.448	199.56
268.681	209.56
268.913	205.56
269.145	224.56
269.377	236.56
269.609	219.56
269.841	216.56
270.073	237.56
270.306	244.56
270.538	248.56
270.77	251.56
271.002	231.56
271.234	237.56
271.466	261.56
271.698	255.56
271.93	254.56
272.162	262.56
272.394	270.56
272.626	244.56
272.858	279.56
273.09	233.56
273.322	262.56
273.553	228.56
273.785	230.56
274.017	236.56
274.249	245.56
274.481	236.56
274.713	240.56
274.945	240.56
275.176	243.56
275.408	232.56
275.64	231.56
275.872	228.56
276.104	240.56
276.335	238.56
276.567	227.56
276.799	233.56
277.031	270.56
277.262	266.56
277.494	256.56
277.726	269.56
277.957	253.56
278.189	232.56
278.421	230.56
278.652	233.56
278.884	252.56
279.115	217.56
279.347	249.56
279.579	241.56
279.81	245.56
280.042	242.56
280.273	269.56
280.505	256.56
280.736	245.56
280.968	216.56
281.199	248.56
281.431	255.56
281.662	239.56
281.894	248.56
282.125	222.56
282.356	249.56
282.588	265.56
282.819	269.56
283.051	260.56
283.282	246.56
283.513	257.56
283.745	249.56
283.976	264.56
284.207	256.56
284.439	257.56
284.67	235.56
284.901	236.56
285.132	251.56
285.364	255.56
285.595	257.56
285.826	247.56
286.057	262.56
286.288	273.56
286.52	262.56
286.751	272.56
286.982	262.56
287.213	270.56
287.444	273.56
287.675	244.56
287.906	268.56
288.138	268.56
288.369	271.56
288.6	279.56
288.831	270.56
289.062	262.56
289.293	253.56
289.524	267.56
289.755	288.56
289.986	271.56
290.217	278.56
290.448	254.56
290.679	273.56
290.91	269.56
291.141	263.56
291.371	292.56
291.602	262.56
291.833	263.56
292.064	276.56
292.295	270.56
292.526	291.56
292.757	278.56
292.987	282.56
293.218	264.56
293.449	283.56
293.68	276.56
293.91	284.56
294.141	270.56
294.372	263.56
294.603	284.56
294.833	269.56
295.064	287.56
295.295	269.56
295.525	276.56
295.756	257.56
295.987	280.56
296.217	304.56
296.448	303.56
296.679	281.56
296.909	282.56
297.14	288.56
297.37	267.56
297.601	288.56
297.831	288.56
298.062	269.56
298.292	263.56
298.523	264.56
298.753	261.56
298.984	287.56
299.214	311.56
299.445	294.56
299.675	300.56
299.905	310.56
300.136	287.56
300.366	275.56
300.597	305.56
300.827	281.56
301.057	303.56
301.288	288.56
301.518	302.56
301.748	288.56
301.979	292.56
302.209	310.56
302.439	319.56
302.669	289.56
302.9	315.56
303.13	297.56
303.36	300.56
303.59	316.56
303.82	312.56
304.051	322.56
304.281	305.56
304.511	306.56
304.741	294.56
304.971	295.56
305.201	296.56
305.431	302.56
305.661	296.56
305.891	299.56
306.121	311.56
306.352	300.56
306.582	312.56
306.812	308.56
307.042	310.56
307.272	305.56
307.502	319.56
307.731	310.56
307.961	313.56
308.191	295.56
308.421	297.56
308.651	302.56
308.881	305.56
309.111	329.56
309.341	299.56
309.571	321.56
309.8	324.56
310.03	344.56
310.26	328.56
310.49	324.56
310.72	337.56
310.949	331.56
311.179	349.56
311.409	332.56
311.639	341.56
311.868	338.56
312.098	345.56
312.328	340.56
312.557	343.56
312.787	350.56
313.017	350.56
313.246	335.56
313.476	332.56
313.706	339.56
313.935	346.56
314.165	348.56
314.394	362.56
314.624	368.56
314.853	352.56
315.083	341.56
315.312	354.56
315.542	341.56
315.771	320.56
316.001	330.56
316.23	353.56
316.46	346.56
316.689	345.56
316.919	345.56
317.148	352.56
317.377	358.56
317.607	347.56
317.836	356.56
318.065	352.56
318.295	359.56
318.524	344.56
318.753	328.56
318.983	349.56
319.212	331.56
319.441	341.56
319.67	353.56
319.9	350.56
320.129	353.56
320.358	353.56
320.587	338.56
320.816	360.56
321.046	354.56
321.275	364.56
321.504	369.56
321.733	366.56
321.962	369.56
322.191	379.56
322.42	375.56
322.649	393.56
322.878	384.56
323.108	416.56
323.337	429.56
323.566	429.56
323.795	440.56
324.024	459.56
324.253	543.56
324.482	759.56
324.71	1140.56
324.939	1729.56
325.168	1468.56
325.397	741.56
325.626	541.56
325.855	460.56
326.084	440.56
326.313	414.56
326.542	460.56
326.77	462.56
326.999	522.56
327.228	690.56
327.457	1042.56
327.686	1278.56
327.914	843.56
328.143	568.56
328.372	489.56
328.6	485.56
328.829	458.56
329.058	476.56
329.287	450.56
329.515	450.56
329.744	436.56
329.972	435.56
330.201	445.56
330.43	469.56
330.658	466.56
330.887	482.56
331.115	519.56
331.344	461.56
331.572	424.56
331.801	446.56
332.03	409.56
332.258	427.56
332.486	397.56
332.715	402.56
332.943	406.56
333.172	410.56
333.4	410.56
333.629	442.56
333.857	427.56
334.085	444.56
334.314	456.56
334.542	461.56
334.771	460.56
334.999	474.56
335.227	458.56
335.455	412.56
335.684	432.56
335.912	428.56
336.14	423.56
336.369	418.56
336.597	424.56
336.825	418.56
337.053	418.56
337.281	424.56
337.51	420.56
337.738	411.56
337.966	412.56
338.194	423.56
338.422	428.56
338.65	424.56
338.878	413.56
339.106	453.56
339.334	421.56
339.562	395.56
339.79	410.56
340.018	392.56
340.246	417.56
340.474	412.56
340.702	397.56
340.93	400.56
341.158	409.56
341.386	396.56
341.614	394.56
341.842	389.56
342.07	388.56
342.298	390.56
342.526	421.56
342.754	382.56
342.981	401.56
343.209	400.56
343.437	398.56
343.665	419.56
343.893	402.56
344.12	426.56
344.348	427.56
344.576	398.56
344.804	410.56
345.031	411.56
345.259	406.56
345.487	428.56
345.714	406.56
345.942	412.56
346.17	378.56
346.397	380.56
346.625	401.56
346.853	400.56
347.08	382.56
347.308	392.56
347.535	386.56
347.763	386.56
347.99	394.56
348.218	411.56
348.445	412.56
348.673	412.56
348.9	376.56
349.128	398.56
349.355	358.56
349.583	403.56
349.81	376.56
350.037	398.56
350.265	394.56
350.492	379.56
350.72	386.56
350.947	375.56
351.174	380.56
351.402	389.56
351.629	394.56
351.856	383.56
352.083	385.56
352.311	382.56
352.538	396.56
352.765	402.56
352.992	404.56
353.22	392.56
353.447	390.56
353.674	387.56
353.901	385.56
354.128	390.56
354.355	379.56
354.583	375.56
354.81	376.56
355.037	391.56
355.264	375.56
355.491	404.56
355.718	383.56
355.945	368.56
356.172	384.56
356.399	388.56
356.626	380.56
356.853	372.56
357.08	378.56
357.307	408.56
357.534	377.56
357.761	394.56
357.988	382.56
358.215	364.56
358.441	380.56
358.668	369.56
358.895	372.56
359.122	386.56
359.349	408.56
359.576	406.56
359.802	394.56
360.029	412.56
360.256	409.56
360.483	408.56
360.709	407.56
360.936	400.56
361.163	399.56
361.39	384.56
361.616	414.56
361.843	396.56
362.07	397.56
362.296	392.56
362.523	406.56
362.749	401.56
362.976	379.56
363.203	391.56
363.429	394.56
363.656	382.56
363.882	381.56
364.109	397.56
364.335	383.56
364.562	382.56
364.788	386.56
365.015	388.56
365.241	407.56
365.468	384.56
365.694	375.56
365.92	395.56
366.147	374.56
366.373	386.56
366.599	382.56
366.826	393.56
367.052	376.56
367.278	365.56
367.505	391.56
367.731	385.56
367.957	390.56
368.184	377.56
368.41	410.56
368.636	407.56
368.862	412.56
369.089	400.56
369.315	390.56
369.541	382.56
369.767	399.56
369.993	386.56
370.219	389.56
370.445	382.56
370.672	399.56
370.898	414.56
371.124	392.56
371.35	410.56
371.576	403.56
371.802	398.56
372.028	388.56
372.254	391.56
372.48	394.56
372.706	401.56
372.932	385.56
373.158	395.56
373.384	390.56
373.61	408.56
373.835	388.56
374.061	422.56
374.287	411.56
374.513	428.56
374.739	433.56
374.965	406.56
375.191	413.56
375.416	404.56
375.642	394.56
375.868	394.56
376.094	416.56
376.319	421.56
376.545	394.56
376.771	397.56
376.997	410.56
377.222	397.56
377.448	386.56
377.674	410.56
377.899	384.56
378.125	380.56
378.35	402.56
378.576	399.56
378.802	377.56
379.027	396.56
379.253	382.56
379.478	411.56
379.704	386.56
379.929	403.56
380.155	401.56
380.38	393.56
380.606	398.56
380.831	412.56
381.057	414.56
381.282	418.56
381.507	390.56
381.733	409.56
381.958	410.56
382.184	429.56
382.409	414.56
382.634	395.56
382.86	403.56
383.085	427.56
383.31	421.56
383.535	440.56
383.761	409.56
383.986	422.56
384.211	420.56
384.436	432.56
384.662	430.56
384.887	423.56
385.112	425.56
385.337	442.56
385.562	438.56
385.787	439.56
386.013	454.56
386.238	441.56
386.463	446.56
386.688	457.56
386.913	445.56
387.138	440.56
387.363	443.56
387.588	428.56
387.813	427.56
388.038	462.56
388.263	436.56
388.488	452.56
388.713	456.56
388.938	445.56
389.163	441.56
389.387	477.56
389.612	432.56
389.837	440.56
390.062	443.56
390.287	461.56
390.512	469.56
390.736	436.56
390.961	432.56
391.186	462.56
391.411	454.56
391.636	450.56
391.86	447.56
392.085	462.56
392.31	452.56
392.534	460.56
392.759	447.56
392.984	441.56
393.208	465.56
393.433	460.56
393.658	475.56
393.882	442.56
394.107	464.56
394.331	445.56
394.556	459.56
394.78	459.56
395.005	461.56
395.229	447.56
395.454	476.56
395.678	476.56
395.903	465.56
396.127	494.56
396.352	505.56
396.576	485.56
396.801	476.56
397.025	465.56
397.249	484.56
397.474	501.56
397.698	461.56
397.922	531.56
398.147	506.56
398.371	522.56
398.595	514.56
398.82	498.56
399.044	505.56
399.268	526.56
399.492	559.56
399.717	581.56
399.941	610.56
400.165	636.56
400.389	640.56
400.613	581.56
400.837	568.56
401.062	554.56
401.286	565.56
401.51	539.56
401.734	527.56
401.958	534.56
402.182	516.56
402.406	541.56
402.63	538.56
402.854	520.56
403.078	537.56
403.302	535.56
403.526	543.56
403.75	534.56
403.974	556.56
404.198	533.56
404.422	551.56
404.645	523.56
404.869	544.56
405.093	581.56
405.317	606.56
405.541	650.56
405.765	580.56
405.988	569.56
406.212	554.56
406.436	572.56
406.66	605.56
406.883	570.56
407.107	601.56
407.331	632.56
407.555	667.56
407.778	688.56
408.002	620.56
408.226	607.56
408.449	614.56
408.673	594.56
408.896	600.56
409.12	658.56
409.344	600.56
409.567	583.56
409.791	568.56
410.014	556.56
410.238	549.56
410.461	552.56
410.685	560.56
410.908	566.56
411.132	590.56
411.355	622.56
411.578	599.56
411.802	543.56
412.025	549.56
412.249	577.56
412.472	548.56
412.695	617.56
412.919	579.56
413.142	562.56
413.365	540.56
413.589	535.56
413.812	530.56
414.035	508.56
414.258	521.56
414.482	530.56
414.705	520.56
414.928	488.56
415.151	508.56
415.374	519.56
415.597	527.56
415.821	518.56
416.044	512.56
416.267	504.56
416.49	487.56
416.713	514.56
416.936	517.56
417.159	524.56
417.382	527.56
417.605	510.56
417.828	520.56
418.051	524.56
418.274	505.56
418.497	518.56
418.72	498.56
418.943	516.56
419.166	530.56
419.389	569.56
419.611	550.56
419.834	542.56
420.057	534.56
420.28	535.56
420.503	531.56
420.726	526.56
420.948	531.56
421.171	575.56
421.394	584.56
421.617	548.56
421.839	530.56
422.062	533.56
422.285	530.56
422.507	582.56
422.73	636.56
422.953	624.56
423.175	561.56
423.398	545.56
423.621	548.56
423.843	563.56
424.066	546.56
424.288	560.56
424.511	564.56
424.733	596.56
424.956	700.56
425.178	654.56
425.401	654.56
425.623	698.56
425.846	568.56
426.068	564.56
426.291	552.56
426.513	531.56
426.735	557.56
426.958	584.56
427.18	658.56
427.402	784.56
427.625	875.56
427.847	735.56
428.069	627.56
428.292	596.56
428.514	545.56
428.736	550.56
428.958	546.56
429.181	507.56
429.403	497.56
429.625	511.56
429.847	552.56
430.069	616.56
430.292	616.56
430.514	516.56
430.736	504.56
430.958	522.56
431.18	513.56
431.402	494.56
431.624	486.56
431.846	473.56
432.068	492.56
432.29	487.56
432.512	485.56
432.734	479.56
432.956	488.56
433.178	526.56
433.4	495.56
433.622	497.56
433.844	502.56
434.066	505.56
434.287	508.56
434.509	517.56
434.731	524.56
434.953	523.56
435.175	537.56
435.397	544.56
435.618	554.56
435.84	585.56
436.062	662.56
436.284	743.56
436.505	608.56
436.727	548.56
436.949	549.56
437.17	534.56
437.392	509.56
437.614	526.56
437.835	544.56
438.057	631.56
438.278	698.56
438.5	704.56
438.721	808.56
438.943	777.56
439.165	606.56
439.386	523.56
439.608	572.56
439.829	557.56
440.05	556.56
440.272	614.56
440.493	558.56
440.715	540.56
440.936	529.56
441.158	542.56
441.379	516.56
441.6	528.56
441.822	539.56
442.043	566.56
442.264	660.56
442.486	690.56
442.707	600.56
442.928	568.56
443.149	583.56
443.371	609.56
443.592	619.56
443.813	699.56
444.034	765.56
444.255	636.56
444.476	606.56
444.698	577.56
444.919	581.56
445.14	684.56
445.361	619.56
445.582	591.56
445.803	651.56
446.024	717.56
446.245	723.56
446.466	684.56
446.687	581.56
446.908	570.56
447.129	539.56
447.35	541.56
447.571	521.56
447.792	502.56
448.013	487.56
448.234	522.56
448.455	566.56
448.675	668.56
448.896	743.56
449.117	641.56
449.338	613.56
449.559	714.56
449.779	816.56
450	653.56
450.221	532.56
450.442	532.56
450.662	501.56
450.883	512.56
451.104	510.56
451.324	492.56
451.545	467.56
451.766	472.56
451.986	474.56
452.207	485.56
452.428	472.56
452.648	458.56
452.869	460.56
453.089	480.56
453.31	478.56
453.53	484.56
453.751	459.56
453.971	465.56
454.192	456.56
454.412	440.56
454.633	457.56
454.853	458.56
455.073	470.56
455.294	479.56
455.514	508.56
455.734	526.56
455.955	457.56
456.175	475.56
456.395	439.56
456.616	433.56
456.836	456.56
457.056	451.56
457.276	434.56
457.497	448.56
457.717	449.56
457.937	465.56
458.157	450.56
458.377	455.56
458.598	491.56
458.818	512.56
459.038	577.56
459.258	593.56
459.478	534.56
459.698	519.56
459.918	508.56
460.138	511.56
460.358	528.56
460.578	526.56
460.798	541.56
461.018	528.56
461.238	521.56
461.458	527.56
461.678	534.56
461.898	534.56
462.118	530.56
462.338	538.56
462.558	544.56
462.777	541.56
462.997	579.56
463.217	577.56
463.437	593.56
463.657	576.56
463.876	580.56
464.096	572.56
464.316	545.56
464.536	585.56
464.755	572.56
464.975	559.56
465.195	568.56
465.414	617.56
465.634	547.56
465.854	518.56
466.073	500.56
466.293	505.56
466.512	493.56
466.732	500.56
466.951	503.56
467.171	491.56
467.391	499.56
467.61	503.56
467.829	494.56
468.049	492.56
468.268	471.56
468.488	482.56
468.707	466.56
468.927	473.56
469.146	485.56
469.365	486.56
469.585	454.56
469.804	491.56
470.023	489.56
470.243	492.56
470.462	494.56
470.681	512.56
470.901	490.56
471.12	510.56
471.339	497.56
471.558	491.56
471.777	519.56
471.997	496.56
472.216	501.56
472.435	514.56
472.654	505.56
472.873	501.56
473.092	488.56
473.311	502.56
473.53	503.56
473.749	493.56
473.968	530.56
474.187	610.56
474.406	604.56
474.625	525.56
474.844	502.56
475.063	481.56
475.282	494.56
475.501	519.56
475.72	494.56
475.939	492.56
476.158	510.56
476.377	518.56
476.596	504.56
476.814	526.56
477.033	518.56
477.252	519.56
477.471	532.56
477.69	518.56
477.908	533.56
478.127	543.56
478.346	542.56
478.564	536.56
478.783	534.56
479.002	553.56
479.22	559.56
479.439	571.56
479.658	591.56
479.876	596.56
480.095	591.56
480.313	615.56
480.532	592.56
480.751	583.56
480.969	615.56
481.188	642.56
481.406	628.56
481.624	615.56
481.843	608.56
482.061	578.56
482.28	581.56
482.498	588.56
482.717	577.56
482.935	576.56
483.153	571.56
483.372	584.56
483.59	601.56
483.808	581.56
484.027	591.56
484.245	568.56
484.463	578.56
484.681	581.56
484.9	568.56
485.118	591.56
485.336	559.56
485.554	595.56
485.772	599.56
485.99	593.56
486.209	609.56
486.427	581.56
486.645	616.56
486.863	616.56
487.081	619.56
487.299	621.56
487.517	613.56
487.735	645.56
487.953	609.56
488.171	606.56
488.389	599.56
488.607	591.56
488.825	605.56
489.043	596.56
489.261	603.56
489.479	630.56
489.696	605.56
489.914	652.56
490.132	637.56
490.35	644.56
490.568	631.56
490.786	617.56
491.003	634.56
491.221	636.56
491.439	648.56
491.657	658.56
491.874	667.56
492.092	670.56
492.31	667.56
492.527	656.56
492.745	663.56
492.963	672.56
493.18	706.56
493.398	701.56
493.615	684.56
493.833	692.56
494.05	705.56
494.268	690.56
494.485	677.56
494.703	693.56
494.92	690.56
495.138	702.56
495.355	687.56
495.573	705.56
495.79	733.56
496.008	721.56
496.225	702.56
496.442	690.56
496.66	734.56
496.877	723.56
497.094	701.56
497.312	734.56
497.529	734.56
497.746	752.56
497.963	781.56
498.181	779.56
498.398	797.56
498.615	826.56
498.832	834.56
499.049	892.56
499.267	890.56
499.484	911.56
499.701	946.56
499.918	966.56
500.135	1022.56
500.352	1028.56
500.569	1037.56
500.786	1069.56
501.003	1049.56
501.22	1025.56
501.437	1020.56
501.654	943.56
501.871	940.56
