Data from 1978.PennyLincolnUp.Lamp.En5.5.200Scan.071719.P1_HRD10591_16-13-13-863.txt Node
Date: Thu Jul 18 16:13:13 EDT 2019
User: cochatt
Spectrometer: HR+D1059
Trigger mode: 1
Integration Time (sec): 1.000000E-1
Scans to average: 1
Electric dark correction enabled: true
Nonlinearity correction enabled: false
Boxcar width: 0
XAxis mode: Wavelengths
Number of Pixels in Spectrum: 2048
>>>>>Begin Spectral Data<<<<<
223.165	-19.25
223.4	-19.25
223.635	-19.25
223.869	-20.25
224.104	-22.25
224.338	-14.25
224.573	-18.25
224.808	-4.25
225.042	-11.25
225.277	2.75
225.511	-5.25
225.746	-10.25
225.98	27.75
226.215	6.75
226.449	19.75
226.683	24.75
226.918	13.75
227.152	29.75
227.387	32.75
227.621	38.75
227.856	44.75
228.09	43.75
228.324	59.75
228.559	62.75
228.793	79.75
229.027	103.75
229.262	103.75
229.496	106.75
229.73	134.75
229.964	153.75
230.199	127.75
230.433	127.75
230.667	105.75
230.901	112.75
231.136	99.75
231.37	99.75
231.604	100.75
231.838	117.75
232.072	117.75
232.306	120.75
232.541	104.75
232.775	116.75
233.009	107.75
233.243	115.75
233.477	107.75
233.711	108.75
233.945	124.75
234.179	126.75
234.413	134.75
234.647	102.75
234.881	114.75
235.115	120.75
235.349	112.75
235.583	120.75
235.817	120.75
236.051	128.75
236.285	122.75
236.519	132.75
236.753	133.75
236.987	136.75
237.221	184.75
237.455	229.75
237.689	183.75
237.922	150.75
238.156	136.75
238.39	140.75
238.624	135.75
238.858	133.75
239.091	130.75
239.325	130.75
239.559	127.75
239.793	139.75
240.027	139.75
240.26	131.75
240.494	144.75
240.728	155.75
240.961	143.75
241.195	129.75
241.429	141.75
241.662	140.75
241.896	130.75
242.13	121.75
242.363	125.75
242.597	135.75
242.83	148.75
243.064	146.75
243.298	148.75
243.531	127.75
243.765	138.75
243.998	145.75
244.232	144.75
244.465	134.75
244.699	152.75
244.932	145.75
245.166	136.75
245.399	144.75
245.633	125.75
245.866	151.75
246.099	134.75
246.333	142.75
246.566	142.75
246.8	158.75
247.033	154.75
247.266	159.75
247.5	170.75
247.733	154.75
247.966	183.75
248.2	167.75
248.433	158.75
248.666	182.75
248.899	171.75
249.133	196.75
249.366	189.75
249.599	187.75
249.832	184.75
250.066	171.75
250.299	192.75
250.532	186.75
250.765	204.75
250.998	195.75
251.231	206.75
251.465	187.75
251.698	195.75
251.931	196.75
252.164	190.75
252.397	167.75
252.63	180.75
252.863	203.75
253.096	186.75
253.329	221.75
253.562	200.75
253.795	213.75
254.028	208.75
254.261	207.75
254.494	207.75
254.727	224.75
254.96	245.75
255.193	251.75
255.426	226.75
255.659	214.75
255.892	220.75
256.124	226.75
256.357	229.75
256.59	217.75
256.823	208.75
257.056	198.75
257.289	202.75
257.521	199.75
257.754	205.75
257.987	191.75
258.22	199.75
258.452	197.75
258.685	198.75
258.918	195.75
259.151	203.75
259.383	221.75
259.616	213.75
259.849	216.75
260.081	226.75
260.314	228.75
260.547	251.75
260.779	218.75
261.012	221.75
261.244	229.75
261.477	221.75
261.71	219.75
261.942	198.75
262.175	230.75
262.407	209.75
262.64	207.75
262.872	212.75
263.105	205.75
263.337	218.75
263.57	198.75
263.802	218.75
264.035	215.75
264.267	205.75
264.499	203.75
264.732	209.75
264.964	206.75
265.197	193.75
265.429	195.75
265.661	201.75
265.894	210.75
266.126	207.75
266.358	211.75
266.591	221.75
266.823	205.75
267.055	213.75
267.287	229.75
267.52	199.75
267.752	220.75
267.984	219.75
268.216	215.75
268.448	224.75
268.681	238.75
268.913	220.75
269.145	250.75
269.377	274.75
269.609	276.75
269.841	262.75
270.073	249.75
270.306	274.75
270.538	294.75
270.77	292.75
271.002	299.75
271.234	278.75
271.466	271.75
271.698	289.75
271.93	301.75
272.162	303.75
272.394	279.75
272.626	271.75
272.858	292.75
273.09	284.75
273.322	275.75
273.553	264.75
273.785	248.75
274.017	258.75
274.249	252.75
274.481	252.75
274.713	254.75
274.945	252.75
275.176	248.75
275.408	263.75
275.64	265.75
275.872	243.75
276.104	262.75
276.335	249.75
276.567	264.75
276.799	277.75
277.031	303.75
277.262	296.75
277.494	290.75
277.726	288.75
277.957	274.75
278.189	267.75
278.421	264.75
278.652	268.75
278.884	248.75
279.115	263.75
279.347	266.75
279.579	253.75
279.81	260.75
280.042	265.75
280.273	265.75
280.505	269.75
280.736	253.75
280.968	252.75
281.199	251.75
281.431	273.75
281.662	241.75
281.894	270.75
282.125	268.75
282.356	291.75
282.588	280.75
282.819	291.75
283.051	261.75
283.282	255.75
283.513	267.75
283.745	268.75
283.976	259.75
284.207	276.75
284.439	276.75
284.67	280.75
284.901	268.75
285.132	268.75
285.364	270.75
285.595	269.75
285.826	275.75
286.057	272.75
286.288	253.75
286.52	284.75
286.751	276.75
286.982	259.75
287.213	267.75
287.444	271.75
287.675	282.75
287.906	291.75
288.138	295.75
288.369	296.75
288.6	309.75
288.831	288.75
289.062	290.75
289.293	289.75
289.524	276.75
289.755	280.75
289.986	282.75
290.217	278.75
290.448	279.75
290.679	291.75
290.91	279.75
291.141	284.75
291.371	270.75
291.602	286.75
291.833	284.75
292.064	293.75
292.295	273.75
292.526	271.75
292.757	278.75
292.987	280.75
293.218	272.75
293.449	294.75
293.68	283.75
293.91	287.75
294.141	281.75
294.372	291.75
294.603	275.75
294.833	306.75
295.064	298.75
295.295	302.75
295.525	286.75
295.756	297.75
295.987	286.75
296.217	321.75
296.448	320.75
296.679	302.75
296.909	292.75
297.14	296.75
297.37	299.75
297.601	298.75
297.831	298.75
298.062	289.75
298.292	299.75
298.523	329.75
298.753	294.75
298.984	280.75
299.214	315.75
299.445	295.75
299.675	310.75
299.905	308.75
300.136	310.75
300.366	295.75
300.597	305.75
300.827	322.75
301.057	310.75
301.288	321.75
301.518	334.75
301.748	303.75
301.979	329.75
302.209	316.75
302.439	320.75
302.669	318.75
302.9	338.75
303.13	331.75
303.36	333.75
303.59	328.75
303.82	338.75
304.051	320.75
304.281	338.75
304.511	338.75
304.741	326.75
304.971	325.75
305.201	341.75
305.431	323.75
305.661	320.75
305.891	320.75
306.121	331.75
306.352	332.75
306.582	308.75
306.812	311.75
307.042	308.75
307.272	315.75
307.502	328.75
307.731	337.75
307.961	310.75
308.191	308.75
308.421	314.75
308.651	320.75
308.881	341.75
309.111	349.75
309.341	323.75
309.571	342.75
309.8	367.75
310.03	356.75
310.26	346.75
310.49	379.75
310.72	381.75
310.949	376.75
311.179	394.75
311.409	377.75
311.639	379.75
311.868	359.75
312.098	378.75
312.328	369.75
312.557	383.75
312.787	393.75
313.017	392.75
313.246	380.75
313.476	353.75
313.706	360.75
313.935	369.75
314.165	392.75
314.394	382.75
314.624	400.75
314.853	370.75
315.083	376.75
315.312	362.75
315.542	371.75
315.771	362.75
316.001	363.75
316.23	349.75
316.46	376.75
316.689	358.75
316.919	383.75
317.148	374.75
317.377	364.75
317.607	388.75
317.836	375.75
318.065	375.75
318.295	374.75
318.524	378.75
318.753	360.75
318.983	368.75
319.212	353.75
319.441	376.75
319.67	384.75
319.9	373.75
320.129	365.75
320.358	374.75
320.587	386.75
320.816	381.75
321.046	392.75
321.275	400.75
321.504	384.75
321.733	385.75
321.962	390.75
322.191	406.75
322.42	431.75
322.649	449.75
322.878	470.75
323.108	461.75
323.337	470.75
323.566	492.75
323.795	534.75
324.024	546.75
324.253	674.75
324.482	901.75
324.71	1501.75
324.939	2298.75
325.168	1987.75
325.397	954.75
325.626	629.75
325.855	537.75
326.084	499.75
326.313	492.75
326.542	493.75
326.77	536.75
326.999	613.75
327.228	864.75
327.457	1348.75
327.686	1698.75
327.914	1098.75
328.143	710.75
328.372	631.75
328.6	572.75
328.829	548.75
329.058	554.75
329.287	558.75
329.515	533.75
329.744	503.75
329.972	494.75
330.201	504.75
330.43	518.75
330.658	547.75
330.887	580.75
331.115	564.75
331.344	490.75
331.572	486.75
331.801	468.75
332.03	482.75
332.258	448.75
332.486	447.75
332.715	445.75
332.943	441.75
333.172	460.75
333.4	467.75
333.629	462.75
333.857	487.75
334.085	479.75
334.314	508.75
334.542	526.75
334.771	522.75
334.999	509.75
335.227	496.75
335.455	482.75
335.684	460.75
335.912	462.75
336.14	459.75
336.369	458.75
336.597	465.75
336.825	444.75
337.053	459.75
337.281	451.75
337.51	440.75
337.738	449.75
337.966	460.75
338.194	439.75
338.422	438.75
338.65	466.75
338.878	451.75
339.106	424.75
339.334	437.75
339.562	422.75
339.79	445.75
340.018	431.75
340.246	433.75
340.474	454.75
340.702	438.75
340.93	431.75
341.158	428.75
341.386	436.75
341.614	438.75
341.842	429.75
342.07	436.75
342.298	431.75
342.526	426.75
342.754	424.75
342.981	412.75
343.209	418.75
343.437	414.75
343.665	430.75
343.893	446.75
344.12	463.75
344.348	456.75
344.576	459.75
344.804	446.75
345.031	461.75
345.259	455.75
345.487	464.75
345.714	437.75
345.942	434.75
346.17	442.75
346.397	433.75
346.625	428.75
346.853	423.75
347.08	427.75
347.308	416.75
347.535	458.75
347.763	445.75
347.99	427.75
348.218	430.75
348.445	439.75
348.673	434.75
348.9	422.75
349.128	418.75
349.355	405.75
349.583	421.75
349.81	419.75
350.037	408.75
350.265	413.75
350.492	418.75
350.72	431.75
350.947	406.75
351.174	423.75
351.402	447.75
351.629	431.75
351.856	430.75
352.083	437.75
352.311	439.75
352.538	445.75
352.765	435.75
352.992	430.75
353.22	436.75
353.447	399.75
353.674	405.75
353.901	419.75
354.128	390.75
354.355	410.75
354.583	410.75
354.81	412.75
355.037	417.75
355.264	399.75
355.491	403.75
355.718	390.75
355.945	396.75
356.172	389.75
356.399	375.75
356.626	390.75
356.853	399.75
357.08	403.75
357.307	401.75
357.534	384.75
357.761	407.75
357.988	399.75
358.215	392.75
358.441	398.75
358.668	418.75
358.895	412.75
359.122	399.75
359.349	401.75
359.576	391.75
359.802	450.75
360.029	460.75
360.256	469.75
360.483	458.75
360.709	428.75
360.936	424.75
361.163	403.75
361.39	440.75
361.616	432.75
361.843	412.75
362.07	447.75
362.296	416.75
362.523	415.75
362.749	443.75
362.976	412.75
363.203	419.75
363.429	410.75
363.656	447.75
363.882	422.75
364.109	404.75
364.335	411.75
364.562	400.75
364.788	395.75
365.015	412.75
365.241	412.75
365.468	443.75
365.694	401.75
365.92	414.75
366.147	416.75
366.373	417.75
366.599	404.75
366.826	409.75
367.052	400.75
367.278	417.75
367.505	417.75
367.731	413.75
367.957	419.75
368.184	434.75
368.41	424.75
368.636	424.75
368.862	404.75
369.089	435.75
369.315	407.75
369.541	414.75
369.767	435.75
369.993	410.75
370.219	415.75
370.445	423.75
370.672	419.75
370.898	403.75
371.124	422.75
371.35	418.75
371.576	427.75
371.802	417.75
372.028	418.75
372.254	420.75
372.48	427.75
372.706	429.75
372.932	408.75
373.158	413.75
373.384	415.75
373.61	424.75
373.835	429.75
374.061	428.75
374.287	431.75
374.513	429.75
374.739	429.75
374.965	428.75
375.191	451.75
375.416	436.75
375.642	419.75
375.868	430.75
376.094	434.75
376.319	408.75
376.545	401.75
376.771	434.75
376.997	404.75
377.222	424.75
377.448	420.75
377.674	446.75
377.899	442.75
378.125	414.75
378.35	407.75
378.576	420.75
378.802	415.75
379.027	425.75
379.253	431.75
379.478	395.75
379.704	423.75
379.929	424.75
380.155	430.75
380.38	426.75
380.606	428.75
380.831	419.75
381.057	442.75
381.282	423.75
381.507	423.75
381.733	435.75
381.958	420.75
382.184	437.75
382.409	436.75
382.634	422.75
382.86	437.75
383.085	434.75
383.31	438.75
383.535	419.75
383.761	423.75
383.986	456.75
384.211	454.75
384.436	455.75
384.662	459.75
384.887	447.75
385.112	454.75
385.337	444.75
385.562	447.75
385.787	441.75
386.013	477.75
386.238	482.75
386.463	462.75
386.688	487.75
386.913	472.75
387.138	458.75
387.363	477.75
387.588	474.75
387.813	471.75
388.038	474.75
388.263	492.75
388.488	473.75
388.713	476.75
388.938	449.75
389.163	462.75
389.387	454.75
389.612	470.75
389.837	488.75
390.062	491.75
390.287	492.75
390.512	496.75
390.736	487.75
390.961	477.75
391.186	477.75
391.411	439.75
391.636	486.75
391.86	489.75
392.085	467.75
392.31	483.75
392.534	493.75
392.759	476.75
392.984	467.75
393.208	485.75
393.433	489.75
393.658	491.75
393.882	502.75
394.107	488.75
394.331	480.75
394.556	502.75
394.78	472.75
395.005	474.75
395.229	496.75
395.454	492.75
395.678	506.75
395.903	500.75
396.127	539.75
396.352	533.75
396.576	500.75
396.801	489.75
397.025	500.75
397.249	500.75
397.474	493.75
397.698	519.75
397.922	539.75
398.147	538.75
398.371	527.75
398.595	521.75
398.82	561.75
399.044	571.75
399.268	586.75
399.492	600.75
399.717	632.75
399.941	656.75
400.165	681.75
400.389	690.75
400.613	640.75
400.837	587.75
401.062	558.75
401.286	572.75
401.51	538.75
401.734	549.75
401.958	539.75
402.182	555.75
402.406	571.75
402.63	550.75
402.854	574.75
403.078	570.75
403.302	559.75
403.526	567.75
403.75	565.75
403.974	558.75
404.198	562.75
404.422	598.75
404.645	562.75
404.869	587.75
405.093	608.75
405.317	630.75
405.541	674.75
405.765	628.75
405.988	593.75
406.212	588.75
406.436	622.75
406.66	613.75
406.883	614.75
407.107	622.75
407.331	676.75
407.555	724.75
407.778	747.75
408.002	703.75
408.226	654.75
408.449	636.75
408.673	638.75
408.896	677.75
409.12	703.75
409.344	648.75
409.567	619.75
409.791	582.75
410.014	566.75
410.238	578.75
410.461	595.75
410.685	588.75
410.908	604.75
411.132	623.75
411.355	677.75
411.578	642.75
411.802	606.75
412.025	560.75
412.249	601.75
412.472	606.75
412.695	660.75
412.919	630.75
413.142	593.75
413.365	579.75
413.589	568.75
413.812	536.75
414.035	551.75
414.258	534.75
414.482	567.75
414.705	539.75
414.928	533.75
415.151	525.75
415.374	547.75
415.597	537.75
415.821	524.75
416.044	541.75
416.267	546.75
416.49	548.75
416.713	543.75
416.936	550.75
417.159	534.75
417.382	537.75
417.605	553.75
417.828	554.75
418.051	572.75
418.274	556.75
418.497	532.75
418.72	541.75
418.943	533.75
419.166	571.75
419.389	585.75
419.611	581.75
419.834	583.75
420.057	565.75
420.28	558.75
420.503	552.75
420.726	538.75
420.948	574.75
421.171	634.75
421.394	657.75
421.617	582.75
421.839	571.75
422.062	555.75
422.285	558.75
422.507	613.75
422.73	716.75
422.953	706.75
423.175	622.75
423.398	601.75
423.621	596.75
423.843	600.75
424.066	587.75
424.288	592.75
424.511	632.75
424.733	706.75
424.956	746.75
425.178	712.75
425.401	706.75
425.623	786.75
425.846	624.75
426.068	606.75
426.291	602.75
426.513	589.75
426.735	630.75
426.958	644.75
427.18	756.75
427.402	915.75
427.625	983.75
427.847	835.75
428.069	729.75
428.292	671.75
428.514	580.75
428.736	592.75
428.958	588.75
429.181	551.75
429.403	542.75
429.625	584.75
429.847	593.75
430.069	662.75
430.292	684.75
430.514	570.75
430.736	560.75
430.958	536.75
431.18	535.75
431.402	537.75
431.624	541.75
431.846	520.75
432.068	515.75
432.29	535.75
432.512	532.75
432.734	514.75
432.956	546.75
433.178	550.75
433.4	527.75
433.622	524.75
433.844	534.75
434.066	537.75
434.287	529.75
434.509	546.75
434.731	574.75
434.953	576.75
435.175	579.75
435.397	590.75
435.618	605.75
435.84	642.75
436.062	750.75
436.284	840.75
436.505	675.75
436.727	594.75
436.949	593.75
437.17	576.75
437.392	560.75
437.614	570.75
437.835	568.75
438.057	698.75
438.278	807.75
438.5	812.75
438.721	873.75
438.943	873.75
439.165	657.75
439.386	593.75
439.608	603.75
439.829	607.75
440.05	618.75
440.272	659.75
440.493	651.75
440.715	610.75
440.936	585.75
441.158	558.75
441.379	555.75
441.6	558.75
441.822	594.75
442.043	641.75
442.264	723.75
442.486	777.75
442.707	663.75
442.928	612.75
443.149	617.75
443.371	646.75
443.592	662.75
443.813	769.75
444.034	864.75
444.255	684.75
444.476	645.75
444.698	610.75
444.919	605.75
445.14	738.75
445.361	682.75
445.582	655.75
445.803	706.75
446.024	831.75
446.245	843.75
446.466	771.75
446.687	660.75
446.908	605.75
447.129	558.75
447.35	567.75
447.571	570.75
447.792	551.75
448.013	570.75
448.234	549.75
448.455	639.75
448.675	747.75
448.896	890.75
449.117	747.75
449.338	695.75
449.559	810.75
449.779	932.75
450	741.75
450.221	621.75
450.442	569.75
450.662	556.75
450.883	524.75
451.104	542.75
451.324	546.75
451.545	511.75
451.766	498.75
451.986	498.75
452.207	492.75
452.428	498.75
452.648	493.75
452.869	503.75
453.089	519.75
453.31	512.75
453.53	512.75
453.751	515.75
453.971	521.75
454.192	502.75
454.412	490.75
454.633	491.75
454.853	490.75
455.073	518.75
455.294	510.75
455.514	592.75
455.734	578.75
455.955	535.75
456.175	474.75
456.395	493.75
456.616	477.75
456.836	464.75
457.056	476.75
457.276	471.75
457.497	487.75
457.717	455.75
457.937	472.75
458.157	501.75
458.377	492.75
458.598	521.75
458.818	560.75
459.038	638.75
459.258	657.75
459.478	576.75
459.698	541.75
459.918	551.75
460.138	546.75
460.358	555.75
460.578	531.75
460.798	538.75
461.018	545.75
461.238	552.75
461.458	557.75
461.678	546.75
461.898	532.75
462.118	562.75
462.338	541.75
462.558	564.75
462.777	595.75
462.997	584.75
463.217	597.75
463.437	617.75
463.657	590.75
463.876	614.75
464.096	611.75
464.316	581.75
464.536	593.75
464.755	580.75
464.975	596.75
465.195	610.75
465.414	679.75
465.634	605.75
465.854	589.75
466.073	567.75
466.293	533.75
466.512	536.75
466.732	509.75
466.951	519.75
467.171	520.75
467.391	523.75
467.61	513.75
467.829	528.75
468.049	550.75
468.268	537.75
468.488	512.75
468.707	501.75
468.927	522.75
469.146	508.75
469.365	504.75
469.585	496.75
469.804	527.75
470.023	522.75
470.243	537.75
470.462	513.75
470.681	536.75
470.901	532.75
471.12	520.75
471.339	534.75
471.558	522.75
471.777	518.75
471.997	530.75
472.216	530.75
472.435	531.75
472.654	547.75
472.873	535.75
473.092	529.75
473.311	522.75
473.53	532.75
473.749	505.75
473.968	558.75
474.187	661.75
474.406	720.75
474.625	604.75
474.844	541.75
475.063	533.75
475.282	541.75
475.501	543.75
475.72	535.75
475.939	538.75
476.158	544.75
476.377	552.75
476.596	547.75
476.814	558.75
477.033	538.75
477.252	543.75
477.471	562.75
477.69	566.75
477.908	585.75
478.127	590.75
478.346	568.75
478.564	599.75
478.783	603.75
479.002	587.75
479.22	611.75
479.439	615.75
479.658	617.75
479.876	633.75
480.095	630.75
480.313	655.75
480.532	642.75
480.751	633.75
480.969	659.75
481.188	684.75
481.406	709.75
481.624	656.75
481.843	662.75
482.061	622.75
482.28	615.75
482.498	607.75
482.717	616.75
482.935	623.75
483.153	592.75
483.372	614.75
483.59	612.75
483.808	607.75
484.027	612.75
484.245	610.75
484.463	602.75
484.681	630.75
484.9	650.75
485.118	652.75
485.336	649.75
485.554	634.75
485.772	634.75
485.99	636.75
486.209	639.75
486.427	653.75
486.645	646.75
486.863	682.75
487.081	652.75
487.299	659.75
487.517	642.75
487.735	663.75
487.953	644.75
488.171	655.75
488.389	659.75
488.607	653.75
488.825	674.75
489.043	655.75
489.261	642.75
489.479	660.75
489.696	682.75
489.914	675.75
490.132	685.75
490.35	668.75
490.568	681.75
490.786	714.75
491.003	680.75
491.221	707.75
491.439	708.75
491.657	704.75
491.874	715.75
492.092	724.75
492.31	743.75
492.527	744.75
492.745	771.75
492.963	741.75
493.18	724.75
493.398	730.75
493.615	747.75
493.833	734.75
494.05	771.75
494.268	768.75
494.485	756.75
494.703	739.75
494.92	746.75
495.138	749.75
495.355	759.75
495.573	770.75
495.79	760.75
496.008	767.75
496.225	763.75
496.442	750.75
496.66	770.75
496.877	774.75
497.094	775.75
497.312	782.75
497.529	783.75
497.746	806.75
497.963	832.75
498.181	835.75
498.398	869.75
498.615	884.75
498.832	894.75
499.049	889.75
499.267	956.75
499.484	928.75
499.701	959.75
499.918	1026.75
500.135	1078.75
500.352	1107.75
500.569	1141.75
500.786	1122.75
501.003	1162.75
501.22	1091.75
501.437	1054.75
501.654	1034.75
501.871	1007.75
