Data from 1978.PennyLincolnUp.Lamp.En5.5.200Scan.071719.P1_HRD10591_16-14-07-863.txt Node
Date: Thu Jul 18 16:14:07 EDT 2019
User: cochatt
Spectrometer: HR+D1059
Trigger mode: 1
Integration Time (sec): 1.000000E-1
Scans to average: 1
Electric dark correction enabled: true
Nonlinearity correction enabled: false
Boxcar width: 0
XAxis mode: Wavelengths
Number of Pixels in Spectrum: 2048
>>>>>Begin Spectral Data<<<<<
223.165	-22.06
223.4	-22.06
223.635	-22.06
223.869	-27.06
224.104	-13.06
224.338	-17.06
224.573	-10.06
224.808	2.94
225.042	-15.06
225.277	0.94
225.511	4.94
225.746	-4.06
225.98	10.94
226.215	3.94
226.449	11.94
226.683	16.94
226.918	24.94
227.152	30.94
227.387	39.94
227.621	38.94
227.856	38.94
228.09	56.94
228.324	59.94
228.559	41.94
228.793	52.94
229.027	101.94
229.262	107.94
229.496	98.94
229.73	122.94
229.964	138.94
230.199	130.94
230.433	105.94
230.667	105.94
230.901	117.94
231.136	105.94
231.37	102.94
231.604	111.94
231.838	107.94
232.072	116.94
232.306	113.94
232.541	100.94
232.775	110.94
233.009	99.94
233.243	117.94
233.477	110.94
233.711	127.94
233.945	115.94
234.179	119.94
234.413	111.94
234.647	109.94
234.881	112.94
235.115	115.94
235.349	127.94
235.583	119.94
235.817	112.94
236.051	98.94
236.285	122.94
236.519	123.94
236.753	128.94
236.987	133.94
237.221	153.94
237.455	218.94
237.689	174.94
237.922	113.94
238.156	118.94
238.39	126.94
238.624	121.94
238.858	118.94
239.091	133.94
239.325	124.94
239.559	122.94
239.793	111.94
240.027	123.94
240.26	139.94
240.494	130.94
240.728	129.94
240.961	154.94
241.195	132.94
241.429	139.94
241.662	128.94
241.896	136.94
242.13	117.94
242.363	124.94
242.597	116.94
242.83	128.94
243.064	129.94
243.298	114.94
243.531	114.94
243.765	123.94
243.998	124.94
244.232	136.94
244.465	136.94
244.699	139.94
244.932	132.94
245.166	123.94
245.399	132.94
245.633	133.94
245.866	136.94
246.099	132.94
246.333	141.94
246.566	135.94
246.8	162.94
247.033	152.94
247.266	150.94
247.5	164.94
247.733	156.94
247.966	162.94
248.2	147.94
248.433	146.94
248.666	160.94
248.899	165.94
249.133	181.94
249.366	195.94
249.599	185.94
249.832	177.94
250.066	167.94
250.299	154.94
250.532	157.94
250.765	179.94
250.998	202.94
251.231	210.94
251.465	202.94
251.698	196.94
251.931	188.94
252.164	191.94
252.397	169.94
252.63	186.94
252.863	201.94
253.096	187.94
253.329	194.94
253.562	197.94
253.795	198.94
254.028	209.94
254.261	202.94
254.494	195.94
254.727	225.94
254.96	244.94
255.193	249.94
255.426	235.94
255.659	210.94
255.892	211.94
256.124	208.94
256.357	194.94
256.59	188.94
256.823	198.94
257.056	202.94
257.289	194.94
257.521	191.94
257.754	194.94
257.987	187.94
258.22	179.94
258.452	192.94
258.685	193.94
258.918	186.94
259.151	203.94
259.383	207.94
259.616	203.94
259.849	214.94
260.081	207.94
260.314	205.94
260.547	226.94
260.779	217.94
261.012	216.94
261.244	214.94
261.477	214.94
261.71	198.94
261.942	198.94
262.175	191.94
262.407	217.94
262.64	191.94
262.872	217.94
263.105	186.94
263.337	204.94
263.57	186.94
263.802	199.94
264.035	197.94
264.267	205.94
264.499	201.94
264.732	202.94
264.964	194.94
265.197	203.94
265.429	209.94
265.661	217.94
265.894	198.94
266.126	211.94
266.358	202.94
266.591	214.94
266.823	210.94
267.055	212.94
267.287	200.94
267.52	207.94
267.752	184.94
267.984	205.94
268.216	214.94
268.448	206.94
268.681	210.94
268.913	222.94
269.145	232.94
269.377	252.94
269.609	227.94
269.841	245.94
270.073	227.94
270.306	276.94
270.538	289.94
270.77	280.94
271.002	259.94
271.234	260.94
271.466	292.94
271.698	278.94
271.93	288.94
272.162	290.94
272.394	266.94
272.626	279.94
272.858	256.94
273.09	240.94
273.322	240.94
273.553	259.94
273.785	223.94
274.017	233.94
274.249	255.94
274.481	219.94
274.713	240.94
274.945	234.94
275.176	254.94
275.408	241.94
275.64	255.94
275.872	244.94
276.104	233.94
276.335	242.94
276.567	238.94
276.799	257.94
277.031	286.94
277.262	283.94
277.494	290.94
277.726	289.94
277.957	271.94
278.189	251.94
278.421	241.94
278.652	247.94
278.884	255.94
279.115	256.94
279.347	245.94
279.579	244.94
279.81	248.94
280.042	236.94
280.273	258.94
280.505	252.94
280.736	258.94
280.968	260.94
281.199	260.94
281.431	230.94
281.662	263.94
281.894	247.94
282.125	273.94
282.356	258.94
282.588	287.94
282.819	289.94
283.051	246.94
283.282	250.94
283.513	252.94
283.745	250.94
283.976	274.94
284.207	273.94
284.439	266.94
284.67	253.94
284.901	283.94
285.132	267.94
285.364	249.94
285.595	276.94
285.826	247.94
286.057	245.94
286.288	264.94
286.52	274.94
286.751	255.94
286.982	256.94
287.213	266.94
287.444	248.94
287.675	265.94
287.906	281.94
288.138	272.94
288.369	294.94
288.6	269.94
288.831	276.94
289.062	265.94
289.293	268.94
289.524	268.94
289.755	268.94
289.986	284.94
290.217	284.94
290.448	274.94
290.679	261.94
290.91	267.94
291.141	295.94
291.371	284.94
291.602	270.94
291.833	278.94
292.064	282.94
292.295	268.94
292.526	274.94
292.757	282.94
292.987	279.94
293.218	258.94
293.449	277.94
293.68	260.94
293.91	272.94
294.141	265.94
294.372	276.94
294.603	276.94
294.833	300.94
295.064	267.94
295.295	263.94
295.525	272.94
295.756	269.94
295.987	293.94
296.217	315.94
296.448	302.94
296.679	290.94
296.909	281.94
297.14	275.94
297.37	263.94
297.601	288.94
297.831	290.94
298.062	299.94
298.292	286.94
298.523	290.94
298.753	292.94
298.984	291.94
299.214	297.94
299.445	294.94
299.675	298.94
299.905	296.94
300.136	308.94
300.366	274.94
300.597	289.94
300.827	310.94
301.057	295.94
301.288	300.94
301.518	308.94
301.748	298.94
301.979	317.94
302.209	313.94
302.439	304.94
302.669	309.94
302.9	300.94
303.13	307.94
303.36	307.94
303.59	294.94
303.82	309.94
304.051	320.94
304.281	308.94
304.511	294.94
304.741	299.94
304.971	311.94
305.201	314.94
305.431	314.94
305.661	318.94
305.891	302.94
306.121	302.94
306.352	304.94
306.582	306.94
306.812	297.94
307.042	326.94
307.272	305.94
307.502	304.94
307.731	304.94
307.961	328.94
308.191	330.94
308.421	313.94
308.651	319.94
308.881	320.94
309.111	314.94
309.341	318.94
309.571	335.94
309.8	354.94
310.03	355.94
310.26	349.94
310.49	346.94
310.72	343.94
310.949	362.94
311.179	376.94
311.409	352.94
311.639	338.94
311.868	345.94
312.098	360.94
312.328	360.94
312.557	373.94
312.787	378.94
313.017	376.94
313.246	354.94
313.476	358.94
313.706	344.94
313.935	350.94
314.165	360.94
314.394	384.94
314.624	378.94
314.853	359.94
315.083	363.94
315.312	370.94
315.542	340.94
315.771	337.94
316.001	342.94
316.23	339.94
316.46	346.94
316.689	353.94
316.919	353.94
317.148	374.94
317.377	364.94
317.607	345.94
317.836	369.94
318.065	370.94
318.295	341.94
318.524	346.94
318.753	339.94
318.983	369.94
319.212	346.94
319.441	378.94
319.67	387.94
319.9	370.94
320.129	357.94
320.358	366.94
320.587	366.94
320.816	387.94
321.046	386.94
321.275	388.94
321.504	374.94
321.733	400.94
321.962	357.94
322.191	394.94
322.42	398.94
322.649	417.94
322.878	422.94
323.108	410.94
323.337	454.94
323.566	484.94
323.795	507.94
324.024	529.94
324.253	683.94
324.482	969.94
324.71	1513.94
324.939	2282.94
325.168	2004.94
325.397	958.94
325.626	630.94
325.855	530.94
326.084	486.94
326.313	476.94
326.542	495.94
326.77	525.94
326.999	611.94
327.228	879.94
327.457	1353.94
327.686	1716.94
327.914	1090.94
328.143	678.94
328.372	594.94
328.6	543.94
328.829	540.94
329.058	554.94
329.287	558.94
329.515	534.94
329.744	470.94
329.972	477.94
330.201	518.94
330.43	528.94
330.658	555.94
330.887	560.94
331.115	558.94
331.344	489.94
331.572	463.94
331.801	469.94
332.03	478.94
332.258	450.94
332.486	425.94
332.715	432.94
332.943	434.94
333.172	432.94
333.4	450.94
333.629	447.94
333.857	461.94
334.085	463.94
334.314	483.94
334.542	487.94
334.771	521.94
334.999	464.94
335.227	474.94
335.455	444.94
335.684	462.94
335.912	435.94
336.14	422.94
336.369	406.94
336.597	416.94
336.825	440.94
337.053	419.94
337.281	415.94
337.51	431.94
337.738	433.94
337.966	427.94
338.194	435.94
338.422	455.94
338.65	431.94
338.878	423.94
339.106	411.94
339.334	422.94
339.562	409.94
339.79	414.94
340.018	417.94
340.246	412.94
340.474	426.94
340.702	432.94
340.93	402.94
341.158	408.94
341.386	412.94
341.614	438.94
341.842	411.94
342.07	401.94
342.298	426.94
342.526	425.94
342.754	426.94
342.981	388.94
343.209	411.94
343.437	414.94
343.665	412.94
343.893	391.94
344.12	433.94
344.348	427.94
344.576	415.94
344.804	425.94
345.031	438.94
345.259	447.94
345.487	423.94
345.714	416.94
345.942	386.94
346.17	386.94
346.397	414.94
346.625	408.94
346.853	403.94
347.08	406.94
347.308	408.94
347.535	412.94
347.763	418.94
347.99	430.94
348.218	407.94
348.445	424.94
348.673	415.94
348.9	404.94
349.128	395.94
349.355	390.94
349.583	378.94
349.81	386.94
350.037	396.94
350.265	392.94
350.492	393.94
350.72	390.94
350.947	399.94
351.174	423.94
351.402	419.94
351.629	398.94
351.856	415.94
352.083	405.94
352.311	432.94
352.538	425.94
352.765	440.94
352.992	405.94
353.22	415.94
353.447	413.94
353.674	414.94
353.901	383.94
354.128	387.94
354.355	387.94
354.583	382.94
354.81	361.94
355.037	390.94
355.264	390.94
355.491	386.94
355.718	388.94
355.945	381.94
356.172	379.94
356.399	375.94
356.626	376.94
356.853	361.94
357.08	376.94
357.307	380.94
357.534	355.94
357.761	369.94
357.988	382.94
358.215	392.94
358.441	375.94
358.668	391.94
358.895	380.94
359.122	397.94
359.349	412.94
359.576	383.94
359.802	402.94
360.029	452.94
360.256	463.94
360.483	442.94
360.709	404.94
360.936	415.94
361.163	424.94
361.39	433.94
361.616	406.94
361.843	396.94
362.07	418.94
362.296	411.94
362.523	404.94
362.749	411.94
362.976	412.94
363.203	386.94
363.429	390.94
363.656	386.94
363.882	397.94
364.109	396.94
364.335	376.94
364.562	397.94
364.788	402.94
365.015	399.94
365.241	394.94
365.468	398.94
365.694	394.94
365.92	408.94
366.147	398.94
366.373	402.94
366.599	384.94
366.826	386.94
367.052	387.94
367.278	387.94
367.505	388.94
367.731	414.94
367.957	410.94
368.184	404.94
368.41	385.94
368.636	403.94
368.862	405.94
369.089	403.94
369.315	396.94
369.541	393.94
369.767	419.94
369.993	387.94
370.219	392.94
370.445	392.94
370.672	389.94
370.898	415.94
371.124	390.94
371.35	387.94
371.576	397.94
371.802	382.94
372.028	394.94
372.254	408.94
372.48	412.94
372.706	401.94
372.932	371.94
373.158	392.94
373.384	416.94
373.61	397.94
373.835	388.94
374.061	375.94
374.287	393.94
374.513	396.94
374.739	414.94
374.965	405.94
375.191	418.94
375.416	394.94
375.642	400.94
375.868	415.94
376.094	394.94
376.319	384.94
376.545	396.94
376.771	412.94
376.997	400.94
377.222	403.94
377.448	395.94
377.674	391.94
377.899	393.94
378.125	398.94
378.35	377.94
378.576	400.94
378.802	388.94
379.027	391.94
379.253	398.94
379.478	386.94
379.704	402.94
379.929	407.94
380.155	412.94
380.38	378.94
380.606	398.94
380.831	394.94
381.057	421.94
381.282	392.94
381.507	402.94
381.733	401.94
381.958	401.94
382.184	404.94
382.409	410.94
382.634	408.94
382.86	429.94
383.085	410.94
383.31	417.94
383.535	406.94
383.761	430.94
383.986	428.94
384.211	430.94
384.436	419.94
384.662	426.94
384.887	428.94
385.112	432.94
385.337	432.94
385.562	436.94
385.787	415.94
386.013	459.94
386.238	447.94
386.463	446.94
386.688	426.94
386.913	442.94
387.138	455.94
387.363	441.94
387.588	441.94
387.813	436.94
388.038	457.94
388.263	454.94
388.488	424.94
388.713	443.94
388.938	451.94
389.163	466.94
389.387	446.94
389.612	459.94
389.837	438.94
390.062	436.94
390.287	450.94
390.512	441.94
390.736	453.94
390.961	458.94
391.186	456.94
391.411	450.94
391.636	460.94
391.86	460.94
392.085	466.94
392.31	463.94
392.534	457.94
392.759	435.94
392.984	453.94
393.208	446.94
393.433	470.94
393.658	453.94
393.882	452.94
394.107	451.94
394.331	446.94
394.556	465.94
394.78	455.94
395.005	460.94
395.229	449.94
395.454	459.94
395.678	476.94
395.903	472.94
396.127	513.94
396.352	484.94
396.576	475.94
396.801	467.94
397.025	482.94
397.249	472.94
397.474	466.94
397.698	479.94
397.922	514.94
398.147	514.94
398.371	527.94
398.595	516.94
398.82	533.94
399.044	524.94
399.268	539.94
399.492	563.94
399.717	594.94
399.941	608.94
400.165	632.94
400.389	666.94
400.613	598.94
400.837	540.94
401.062	544.94
401.286	545.94
401.51	544.94
401.734	524.94
401.958	515.94
402.182	516.94
402.406	537.94
402.63	556.94
402.854	519.94
403.078	512.94
403.302	531.94
403.526	566.94
403.75	529.94
403.974	544.94
404.198	527.94
404.422	545.94
404.645	547.94
404.869	560.94
405.093	582.94
405.317	607.94
405.541	652.94
405.765	615.94
405.988	579.94
406.212	585.94
406.436	577.94
406.66	608.94
406.883	581.94
407.107	613.94
407.331	656.94
407.555	722.94
407.778	711.94
408.002	651.94
408.226	618.94
408.449	584.94
408.673	594.94
408.896	614.94
409.12	668.94
409.344	647.94
409.567	550.94
409.791	548.94
410.014	556.94
410.238	532.94
410.461	531.94
410.685	553.94
410.908	558.94
411.132	582.94
411.355	651.94
411.578	597.94
411.802	536.94
412.025	543.94
412.249	540.94
412.472	593.94
412.695	596.94
412.919	604.94
413.142	554.94
413.365	528.94
413.589	531.94
413.812	555.94
414.035	508.94
414.258	510.94
414.482	497.94
414.705	533.94
414.928	516.94
415.151	528.94
415.374	494.94
415.597	498.94
415.821	523.94
416.044	512.94
416.267	508.94
416.49	513.94
416.713	524.94
416.936	531.94
417.159	511.94
417.382	505.94
417.605	523.94
417.828	503.94
418.051	534.94
418.274	515.94
418.497	513.94
418.72	500.94
418.943	508.94
419.166	534.94
419.389	564.94
419.611	536.94
419.834	541.94
420.057	547.94
420.28	538.94
420.503	534.94
420.726	540.94
420.948	564.94
421.171	590.94
421.394	622.94
421.617	570.94
421.839	528.94
422.062	541.94
422.285	556.94
422.507	623.94
422.73	686.94
422.953	646.94
423.175	585.94
423.398	565.94
423.621	548.94
423.843	572.94
424.066	565.94
424.288	561.94
424.511	587.94
424.733	632.94
424.956	746.94
425.178	701.94
425.401	690.94
425.623	722.94
425.846	637.94
426.068	561.94
426.291	575.94
426.513	574.94
426.735	567.94
426.958	627.94
427.18	703.94
427.402	837.94
427.625	966.94
427.847	819.94
428.069	679.94
428.292	632.94
428.514	569.94
428.736	542.94
428.958	552.94
429.181	546.94
429.403	527.94
429.625	545.94
429.847	587.94
430.069	630.94
430.292	612.94
430.514	530.94
430.736	514.94
430.958	528.94
431.18	522.94
431.402	503.94
431.624	483.94
431.846	514.94
432.068	511.94
432.29	515.94
432.512	496.94
432.734	518.94
432.956	518.94
433.178	528.94
433.4	516.94
433.622	521.94
433.844	518.94
434.066	529.94
434.287	510.94
434.509	522.94
434.731	530.94
434.953	543.94
435.175	530.94
435.397	565.94
435.618	562.94
435.84	600.94
436.062	727.94
436.284	805.94
436.505	661.94
436.727	619.94
436.949	532.94
437.17	526.94
437.392	546.94
437.614	560.94
437.835	580.94
438.057	676.94
438.278	780.94
438.5	770.94
438.721	851.94
438.943	851.94
439.165	647.94
439.386	588.94
439.608	568.94
439.829	589.94
440.05	601.94
440.272	670.94
440.493	595.94
440.715	562.94
440.936	527.94
441.158	546.94
441.379	545.94
441.6	563.94
441.822	562.94
442.043	600.94
442.264	721.94
442.486	747.94
442.707	646.94
442.928	602.94
443.149	611.94
443.371	624.94
443.592	649.94
443.813	764.94
444.034	853.94
444.255	693.94
444.476	588.94
444.698	584.94
444.919	591.94
445.14	648.94
445.361	633.94
445.582	625.94
445.803	696.94
446.024	816.94
446.245	793.94
446.466	764.94
446.687	618.94
446.908	611.94
447.129	558.94
447.35	553.94
447.571	549.94
447.792	523.94
448.013	546.94
448.234	567.94
448.455	607.94
448.675	729.94
448.896	851.94
449.117	715.94
449.338	648.94
449.559	803.94
449.779	887.94
450	719.94
450.221	600.94
450.442	538.94
450.662	516.94
450.883	510.94
451.104	547.94
451.324	548.94
451.545	520.94
451.766	488.94
451.986	480.94
452.207	495.94
452.428	471.94
452.648	471.94
452.869	483.94
453.089	498.94
453.31	506.94
453.53	513.94
453.751	463.94
453.971	495.94
454.192	482.94
454.412	498.94
454.633	489.94
454.853	492.94
455.073	472.94
455.294	494.94
455.514	570.94
455.734	544.94
455.955	480.94
456.175	463.94
456.395	450.94
456.616	437.94
456.836	464.94
457.056	427.94
457.276	424.94
457.497	470.94
457.717	473.94
457.937	458.94
458.157	442.94
458.377	481.94
458.598	501.94
458.818	556.94
459.038	628.94
459.258	639.94
459.478	539.94
459.698	531.94
459.918	528.94
460.138	534.94
460.358	504.94
460.578	516.94
460.798	552.94
461.018	515.94
461.238	500.94
461.458	528.94
461.678	534.94
461.898	518.94
462.118	514.94
462.338	524.94
462.558	539.94
462.777	563.94
462.997	540.94
463.217	582.94
463.437	569.94
463.657	566.94
463.876	548.94
464.096	539.94
464.316	549.94
464.536	570.94
464.755	564.94
464.975	549.94
465.195	588.94
465.414	668.94
465.634	574.94
465.854	527.94
466.073	529.94
466.293	513.94
466.512	523.94
466.732	491.94
466.951	486.94
467.171	495.94
467.391	496.94
467.61	512.94
467.829	495.94
468.049	485.94
468.268	497.94
468.488	498.94
468.707	497.94
468.927	486.94
469.146	478.94
469.365	512.94
469.585	484.94
469.804	499.94
470.023	490.94
470.243	492.94
470.462	500.94
470.681	500.94
470.901	506.94
471.12	503.94
471.339	487.94
471.558	519.94
471.777	500.94
471.997	479.94
472.216	510.94
472.435	536.94
472.654	510.94
472.873	518.94
473.092	482.94
473.311	498.94
473.53	488.94
473.749	514.94
473.968	541.94
474.187	636.94
474.406	680.94
474.625	555.94
474.844	497.94
475.063	502.94
475.282	491.94
475.501	510.94
475.72	493.94
475.939	508.94
476.158	532.94
476.377	521.94
476.596	516.94
476.814	538.94
477.033	544.94
477.252	542.94
477.471	509.94
477.69	540.94
477.908	534.94
478.127	542.94
478.346	544.94
478.564	562.94
478.783	556.94
479.002	562.94
479.22	593.94
479.439	590.94
479.658	593.94
479.876	602.94
480.095	611.94
480.313	643.94
480.532	605.94
480.751	630.94
480.969	630.94
481.188	648.94
481.406	705.94
481.624	636.94
481.843	616.94
482.061	603.94
482.28	603.94
482.498	586.94
482.717	569.94
482.935	585.94
483.153	602.94
483.372	581.94
483.59	614.94
483.808	583.94
484.027	569.94
484.245	591.94
484.463	569.94
484.681	592.94
484.9	590.94
485.118	578.94
485.336	606.94
485.554	589.94
485.772	610.94
485.99	604.94
486.209	620.94
486.427	618.94
486.645	643.94
486.863	629.94
487.081	647.94
487.299	617.94
487.517	631.94
487.735	640.94
487.953	627.94
488.171	614.94
488.389	624.94
488.607	620.94
488.825	625.94
489.043	619.94
489.261	636.94
489.479	625.94
489.696	609.94
489.914	638.94
490.132	624.94
490.35	652.94
490.568	642.94
490.786	657.94
491.003	646.94
491.221	660.94
491.439	676.94
491.657	690.94
491.874	678.94
492.092	715.94
492.31	715.94
492.527	698.94
492.745	724.94
492.963	696.94
493.18	682.94
493.398	706.94
493.615	724.94
493.833	713.94
494.05	719.94
494.268	718.94
494.485	714.94
494.703	732.94
494.92	736.94
495.138	730.94
495.355	740.94
495.573	731.94
495.79	728.94
496.008	757.94
496.225	724.94
496.442	745.94
496.66	770.94
496.877	743.94
497.094	730.94
497.312	768.94
497.529	758.94
497.746	764.94
497.963	777.94
498.181	800.94
498.398	784.94
498.615	816.94
498.832	828.94
499.049	853.94
499.267	893.94
499.484	886.94
499.701	902.94
499.918	943.94
500.135	1002.94
500.352	1034.94
500.569	1067.94
500.786	1048.94
501.003	1049.94
501.22	1031.94
501.437	970.94
501.654	978.94
501.871	950.94
