Data from 1978.PennyLincolnUp.Lamp.En5.5.200Scan.071719.P1_HRD10591_16-13-50-864.txt Node
Date: Thu Jul 18 16:13:50 EDT 2019
User: cochatt
Spectrometer: HR+D1059
Trigger mode: 1
Integration Time (sec): 1.000000E-1
Scans to average: 1
Electric dark correction enabled: true
Nonlinearity correction enabled: false
Boxcar width: 0
XAxis mode: Wavelengths
Number of Pixels in Spectrum: 2048
>>>>>Begin Spectral Data<<<<<
223.165	-17.19
223.4	-17.19
223.635	-17.19
223.869	-8.19
224.104	-20.19
224.338	-8.19
224.573	-9.19
224.808	-5.19
225.042	-22.19
225.277	-0.19
225.511	3.81
225.746	6.81
225.98	9.81
226.215	0.81
226.449	15.81
226.683	7.81
226.918	23.81
227.152	21.81
227.387	22.81
227.621	44.81
227.856	31.81
228.09	54.81
228.324	43.81
228.559	58.81
228.793	71.81
229.027	99.81
229.262	102.81
229.496	114.81
229.73	124.81
229.964	160.81
230.199	128.81
230.433	109.81
230.667	100.81
230.901	118.81
231.136	112.81
231.37	106.81
231.604	104.81
231.838	111.81
232.072	116.81
232.306	118.81
232.541	107.81
232.775	120.81
233.009	120.81
233.243	100.81
233.477	103.81
233.711	107.81
233.945	118.81
234.179	92.81
234.413	118.81
234.647	108.81
234.881	98.81
235.115	113.81
235.349	106.81
235.583	122.81
235.817	122.81
236.051	126.81
236.285	113.81
236.519	122.81
236.753	136.81
236.987	135.81
237.221	179.81
237.455	234.81
237.689	178.81
237.922	149.81
238.156	138.81
238.39	134.81
238.624	124.81
238.858	118.81
239.091	118.81
239.325	115.81
239.559	127.81
239.793	143.81
240.027	109.81
240.26	140.81
240.494	140.81
240.728	140.81
240.961	132.81
241.195	148.81
241.429	127.81
241.662	129.81
241.896	128.81
242.13	140.81
242.363	131.81
242.597	127.81
242.83	124.81
243.064	124.81
243.298	128.81
243.531	134.81
243.765	125.81
243.998	126.81
244.232	140.81
244.465	154.81
244.699	133.81
244.932	149.81
245.166	124.81
245.399	145.81
245.633	151.81
245.866	134.81
246.099	135.81
246.333	140.81
246.566	139.81
246.8	157.81
247.033	153.81
247.266	150.81
247.5	156.81
247.733	169.81
247.966	146.81
248.2	144.81
248.433	149.81
248.666	168.81
248.899	178.81
249.133	196.81
249.366	202.81
249.599	169.81
249.832	182.81
250.066	166.81
250.299	154.81
250.532	188.81
250.765	186.81
250.998	192.81
251.231	213.81
251.465	198.81
251.698	185.81
251.931	187.81
252.164	192.81
252.397	182.81
252.63	166.81
252.863	190.81
253.096	203.81
253.329	203.81
253.562	197.81
253.795	190.81
254.028	207.81
254.261	205.81
254.494	212.81
254.727	236.81
254.96	235.81
255.193	245.81
255.426	235.81
255.659	214.81
255.892	221.81
256.124	206.81
256.357	196.81
256.59	212.81
256.823	200.81
257.056	192.81
257.289	196.81
257.521	203.81
257.754	195.81
257.987	195.81
258.22	195.81
258.452	209.81
258.685	198.81
258.918	195.81
259.151	201.81
259.383	199.81
259.616	199.81
259.849	219.81
260.081	224.81
260.314	223.81
260.547	244.81
260.779	224.81
261.012	224.81
261.244	211.81
261.477	200.81
261.71	200.81
261.942	214.81
262.175	223.81
262.407	216.81
262.64	201.81
262.872	198.81
263.105	213.81
263.337	198.81
263.57	199.81
263.802	204.81
264.035	224.81
264.267	194.81
264.499	194.81
264.732	203.81
264.964	206.81
265.197	210.81
265.429	202.81
265.661	203.81
265.894	206.81
266.126	196.81
266.358	202.81
266.591	210.81
266.823	207.81
267.055	224.81
267.287	208.81
267.52	206.81
267.752	242.81
267.984	216.81
268.216	214.81
268.448	225.81
268.681	216.81
268.913	230.81
269.145	254.81
269.377	262.81
269.609	242.81
269.841	239.81
270.073	244.81
270.306	244.81
270.538	278.81
270.77	302.81
271.002	257.81
271.234	272.81
271.466	271.81
271.698	298.81
271.93	290.81
272.162	291.81
272.394	282.81
272.626	255.81
272.858	262.81
273.09	291.81
273.322	270.81
273.553	251.81
273.785	244.81
274.017	255.81
274.249	239.81
274.481	246.81
274.713	260.81
274.945	250.81
275.176	242.81
275.408	254.81
275.64	248.81
275.872	255.81
276.104	255.81
276.335	252.81
276.567	265.81
276.799	267.81
277.031	293.81
277.262	292.81
277.494	284.81
277.726	298.81
277.957	260.81
278.189	246.81
278.421	273.81
278.652	259.81
278.884	254.81
279.115	245.81
279.347	267.81
279.579	252.81
279.81	264.81
280.042	241.81
280.273	247.81
280.505	256.81
280.736	258.81
280.968	250.81
281.199	275.81
281.431	269.81
281.662	246.81
281.894	248.81
282.125	258.81
282.356	282.81
282.588	303.81
282.819	296.81
283.051	274.81
283.282	267.81
283.513	256.81
283.745	263.81
283.976	254.81
284.207	272.81
284.439	274.81
284.67	267.81
284.901	253.81
285.132	264.81
285.364	250.81
285.595	255.81
285.826	261.81
286.057	262.81
286.288	262.81
286.52	263.81
286.751	246.81
286.982	264.81
287.213	272.81
287.444	269.81
287.675	275.81
287.906	278.81
288.138	287.81
288.369	270.81
288.6	275.81
288.831	293.81
289.062	282.81
289.293	273.81
289.524	288.81
289.755	273.81
289.986	270.81
290.217	274.81
290.448	267.81
290.679	287.81
290.91	284.81
291.141	275.81
291.371	293.81
291.602	262.81
291.833	272.81
292.064	251.81
292.295	262.81
292.526	260.81
292.757	276.81
292.987	279.81
293.218	271.81
293.449	275.81
293.68	269.81
293.91	272.81
294.141	278.81
294.372	264.81
294.603	282.81
294.833	275.81
295.064	276.81
295.295	291.81
295.525	273.81
295.756	280.81
295.987	291.81
296.217	317.81
296.448	324.81
296.679	287.81
296.909	289.81
297.14	286.81
297.37	286.81
297.601	306.81
297.831	292.81
298.062	296.81
298.292	291.81
298.523	286.81
298.753	297.81
298.984	320.81
299.214	295.81
299.445	314.81
299.675	291.81
299.905	275.81
300.136	300.81
300.366	295.81
300.597	295.81
300.827	298.81
301.057	307.81
301.288	316.81
301.518	303.81
301.748	296.81
301.979	299.81
302.209	320.81
302.439	317.81
302.669	306.81
302.9	319.81
303.13	310.81
303.36	302.81
303.59	324.81
303.82	323.81
304.051	336.81
304.281	317.81
304.511	326.81
304.741	314.81
304.971	301.81
305.201	303.81
305.431	326.81
305.661	308.81
305.891	308.81
306.121	294.81
306.352	342.81
306.582	327.81
306.812	320.81
307.042	322.81
307.272	300.81
307.502	327.81
307.731	327.81
307.961	312.81
308.191	326.81
308.421	318.81
308.651	304.81
308.881	323.81
309.111	321.81
309.341	323.81
309.571	329.81
309.8	343.81
310.03	359.81
310.26	350.81
310.49	355.81
310.72	344.81
310.949	361.81
311.179	388.81
311.409	371.81
311.639	356.81
311.868	338.81
312.098	352.81
312.328	373.81
312.557	361.81
312.787	377.81
313.017	399.81
313.246	362.81
313.476	349.81
313.706	364.81
313.935	362.81
314.165	386.81
314.394	397.81
314.624	371.81
314.853	363.81
315.083	349.81
315.312	372.81
315.542	370.81
315.771	358.81
316.001	364.81
316.23	348.81
316.46	351.81
316.689	375.81
316.919	351.81
317.148	366.81
317.377	364.81
317.607	364.81
317.836	373.81
318.065	356.81
318.295	348.81
318.524	346.81
318.753	351.81
318.983	360.81
319.212	365.81
319.441	357.81
319.67	374.81
319.9	371.81
320.129	376.81
320.358	358.81
320.587	364.81
320.816	382.81
321.046	389.81
321.275	383.81
321.504	373.81
321.733	386.81
321.962	397.81
322.191	418.81
322.42	425.81
322.649	438.81
322.878	444.81
323.108	422.81
323.337	438.81
323.566	479.81
323.795	495.81
324.024	554.81
324.253	638.81
324.482	926.81
324.71	1484.81
324.939	2236.81
325.168	1995.81
325.397	974.81
325.626	647.81
325.855	518.81
326.084	478.81
326.313	467.81
326.542	487.81
326.77	489.81
326.999	626.81
327.228	825.81
327.457	1348.81
327.686	1666.81
327.914	1082.81
328.143	692.81
328.372	585.81
328.6	584.81
328.829	555.81
329.058	534.81
329.287	551.81
329.515	522.81
329.744	479.81
329.972	484.81
330.201	506.81
330.43	546.81
330.658	550.81
330.887	574.81
331.115	570.81
331.344	502.81
331.572	487.81
331.801	470.81
332.03	459.81
332.258	462.81
332.486	455.81
332.715	448.81
332.943	434.81
333.172	421.81
333.4	450.81
333.629	466.81
333.857	456.81
334.085	468.81
334.314	486.81
334.542	474.81
334.771	531.81
334.999	482.81
335.227	457.81
335.455	453.81
335.684	462.81
335.912	427.81
336.14	424.81
336.369	432.81
336.597	451.81
336.825	450.81
337.053	435.81
337.281	414.81
337.51	427.81
337.738	444.81
337.966	430.81
338.194	432.81
338.422	423.81
338.65	452.81
338.878	428.81
339.106	423.81
339.334	418.81
339.562	408.81
339.79	431.81
340.018	423.81
340.246	435.81
340.474	413.81
340.702	411.81
340.93	421.81
341.158	426.81
341.386	421.81
341.614	420.81
341.842	425.81
342.07	418.81
342.298	408.81
342.526	399.81
342.754	428.81
342.981	423.81
343.209	401.81
343.437	411.81
343.665	424.81
343.893	430.81
344.12	438.81
344.348	411.81
344.576	450.81
344.804	455.81
345.031	430.81
345.259	446.81
345.487	428.81
345.714	418.81
345.942	416.81
346.17	406.81
346.397	402.81
346.625	407.81
346.853	436.81
347.08	410.81
347.308	410.81
347.535	401.81
347.763	430.81
347.99	437.81
348.218	408.81
348.445	426.81
348.673	406.81
348.9	427.81
349.128	418.81
349.355	401.81
349.583	386.81
349.81	391.81
350.037	382.81
350.265	390.81
350.492	398.81
350.72	405.81
350.947	397.81
351.174	405.81
351.402	423.81
351.629	427.81
351.856	418.81
352.083	409.81
352.311	395.81
352.538	423.81
352.765	432.81
352.992	423.81
353.22	415.81
353.447	407.81
353.674	412.81
353.901	405.81
354.128	396.81
354.355	394.81
354.583	390.81
354.81	408.81
355.037	386.81
355.264	364.81
355.491	382.81
355.718	375.81
355.945	375.81
356.172	396.81
356.399	377.81
356.626	382.81
356.853	389.81
357.08	373.81
357.307	381.81
357.534	406.81
357.761	394.81
357.988	381.81
358.215	392.81
358.441	389.81
358.668	411.81
358.895	399.81
359.122	393.81
359.349	403.81
359.576	401.81
359.802	433.81
360.029	435.81
360.256	469.81
360.483	443.81
360.709	417.81
360.936	413.81
361.163	412.81
361.39	414.81
361.616	405.81
361.843	419.81
362.07	404.81
362.296	428.81
362.523	413.81
362.749	421.81
362.976	419.81
363.203	415.81
363.429	404.81
363.656	393.81
363.882	393.81
364.109	399.81
364.335	392.81
364.562	408.81
364.788	407.81
365.015	392.81
365.241	383.81
365.468	403.81
365.694	404.81
365.92	391.81
366.147	404.81
366.373	404.81
366.599	391.81
366.826	398.81
367.052	377.81
367.278	412.81
367.505	406.81
367.731	404.81
367.957	406.81
368.184	395.81
368.41	399.81
368.636	404.81
368.862	416.81
369.089	416.81
369.315	387.81
369.541	398.81
369.767	387.81
369.993	403.81
370.219	397.81
370.445	392.81
370.672	384.81
370.898	401.81
371.124	397.81
371.35	408.81
371.576	411.81
371.802	417.81
372.028	381.81
372.254	411.81
372.48	398.81
372.706	391.81
372.932	415.81
373.158	404.81
373.384	405.81
373.61	414.81
373.835	435.81
374.061	398.81
374.287	406.81
374.513	402.81
374.739	395.81
374.965	421.81
375.191	426.81
375.416	423.81
375.642	402.81
375.868	424.81
376.094	396.81
376.319	383.81
376.545	404.81
376.771	390.81
376.997	391.81
377.222	387.81
377.448	400.81
377.674	387.81
377.899	389.81
378.125	400.81
378.35	402.81
378.576	390.81
378.802	392.81
379.027	409.81
379.253	414.81
379.478	413.81
379.704	403.81
379.929	407.81
380.155	397.81
380.38	402.81
380.606	400.81
380.831	421.81
381.057	419.81
381.282	406.81
381.507	404.81
381.733	428.81
381.958	404.81
382.184	416.81
382.409	404.81
382.634	405.81
382.86	425.81
383.085	425.81
383.31	428.81
383.535	432.81
383.761	416.81
383.986	429.81
384.211	438.81
384.436	428.81
384.662	428.81
384.887	432.81
385.112	458.81
385.337	464.81
385.562	451.81
385.787	453.81
386.013	464.81
386.238	452.81
386.463	448.81
386.688	450.81
386.913	429.81
387.138	444.81
387.363	442.81
387.588	436.81
387.813	443.81
388.038	442.81
388.263	460.81
388.488	458.81
388.713	458.81
388.938	449.81
389.163	443.81
389.387	435.81
389.612	448.81
389.837	475.81
390.062	472.81
390.287	455.81
390.512	448.81
390.736	449.81
390.961	420.81
391.186	466.81
391.411	469.81
391.636	476.81
391.86	479.81
392.085	494.81
392.31	474.81
392.534	460.81
392.759	453.81
392.984	464.81
393.208	460.81
393.433	470.81
393.658	462.81
393.882	470.81
394.107	444.81
394.331	454.81
394.556	463.81
394.78	468.81
395.005	462.81
395.229	469.81
395.454	474.81
395.678	491.81
395.903	492.81
396.127	506.81
396.352	504.81
396.576	474.81
396.801	480.81
397.025	469.81
397.249	482.81
397.474	491.81
397.698	498.81
397.922	510.81
398.147	520.81
398.371	514.81
398.595	514.81
398.82	521.81
399.044	527.81
399.268	528.81
399.492	584.81
399.717	620.81
399.941	626.81
400.165	661.81
400.389	655.81
400.613	617.81
400.837	570.81
401.062	525.81
401.286	537.81
401.51	535.81
401.734	511.81
401.958	522.81
402.182	535.81
402.406	543.81
402.63	537.81
402.854	514.81
403.078	545.81
403.302	564.81
403.526	519.81
403.75	535.81
403.974	534.81
404.198	538.81
404.422	578.81
404.645	562.81
404.869	571.81
405.093	595.81
405.317	614.81
405.541	639.81
405.765	617.81
405.988	570.81
406.212	574.81
406.436	582.81
406.66	598.81
406.883	596.81
407.107	617.81
407.331	692.81
407.555	746.81
407.778	703.81
408.002	677.81
408.226	612.81
408.449	611.81
408.673	627.81
408.896	634.81
409.12	668.81
409.344	650.81
409.567	607.81
409.791	582.81
410.014	564.81
410.238	532.81
410.461	578.81
410.685	550.81
410.908	592.81
411.132	606.81
411.355	628.81
411.578	603.81
411.802	582.81
412.025	558.81
412.249	543.81
412.472	573.81
412.695	623.81
412.919	621.81
413.142	560.81
413.365	548.81
413.589	532.81
413.812	548.81
414.035	547.81
414.258	541.81
414.482	528.81
414.705	529.81
414.928	534.81
415.151	518.81
415.374	526.81
415.597	518.81
415.821	504.81
416.044	520.81
416.267	520.81
416.49	504.81
416.713	534.81
416.936	530.81
417.159	547.81
417.382	534.81
417.605	524.81
417.828	542.81
418.051	546.81
418.274	531.81
418.497	498.81
418.72	507.81
418.943	529.81
419.166	544.81
419.389	551.81
419.611	551.81
419.834	564.81
420.057	567.81
420.28	553.81
420.503	545.81
420.726	522.81
420.948	587.81
421.171	585.81
421.394	618.81
421.617	574.81
421.839	549.81
422.062	570.81
422.285	553.81
422.507	644.81
422.73	705.81
422.953	668.81
423.175	581.81
423.398	554.81
423.621	559.81
423.843	583.81
424.066	571.81
424.288	595.81
424.511	590.81
424.733	648.81
424.956	755.81
425.178	709.81
425.401	714.81
425.623	710.81
425.846	630.81
426.068	577.81
426.291	570.81
426.513	585.81
426.735	567.81
426.958	610.81
427.18	710.81
427.402	848.81
427.625	964.81
427.847	813.81
428.069	700.81
428.292	635.81
428.514	572.81
428.736	582.81
428.958	552.81
429.181	547.81
429.403	538.81
429.625	552.81
429.847	589.81
430.069	656.81
430.292	665.81
430.514	574.81
430.736	557.81
430.958	523.81
431.18	522.81
431.402	517.81
431.624	540.81
431.846	504.81
432.068	503.81
432.29	524.81
432.512	493.81
432.734	524.81
432.956	539.81
433.178	513.81
433.4	537.81
433.622	538.81
433.844	533.81
434.066	501.81
434.287	529.81
434.509	522.81
434.731	534.81
434.953	535.81
435.175	542.81
435.397	571.81
435.618	589.81
435.84	629.81
436.062	743.81
436.284	836.81
436.505	653.81
436.727	616.81
436.949	583.81
437.17	529.81
437.392	543.81
437.614	543.81
437.835	577.81
438.057	697.81
438.278	784.81
438.5	767.81
438.721	859.81
438.943	853.81
439.165	663.81
439.386	598.81
439.608	575.81
439.829	568.81
440.05	600.81
440.272	662.81
440.493	601.81
440.715	581.81
440.936	555.81
441.158	555.81
441.379	538.81
441.6	550.81
441.822	568.81
442.043	609.81
442.264	729.81
442.486	766.81
442.707	642.81
442.928	613.81
443.149	610.81
443.371	636.81
443.592	666.81
443.813	772.81
444.034	850.81
444.255	667.81
444.476	615.81
444.698	590.81
444.919	600.81
445.14	674.81
445.361	628.81
445.582	630.81
445.803	704.81
446.024	794.81
446.245	833.81
446.466	740.81
446.687	643.81
446.908	589.81
447.129	557.81
447.35	528.81
447.571	526.81
447.792	521.81
448.013	560.81
448.234	546.81
448.455	595.81
448.675	720.81
448.896	888.81
449.117	724.81
449.338	674.81
449.559	806.81
449.779	934.81
450	707.81
450.221	577.81
450.442	546.81
450.662	522.81
450.883	509.81
451.104	539.81
451.324	550.81
451.545	531.81
451.766	506.81
451.986	484.81
452.207	490.81
452.428	460.81
452.648	488.81
452.869	486.81
453.089	486.81
453.31	508.81
453.53	478.81
453.751	483.81
453.971	484.81
454.192	487.81
454.412	474.81
454.633	467.81
454.853	460.81
455.073	484.81
455.294	506.81
455.514	590.81
455.734	567.81
455.955	495.81
456.175	474.81
456.395	465.81
456.616	433.81
456.836	475.81
457.056	446.81
457.276	438.81
457.497	467.81
457.717	477.81
457.937	483.81
458.157	470.81
458.377	470.81
458.598	479.81
458.818	546.81
459.038	630.81
459.258	675.81
459.478	564.81
459.698	508.81
459.918	512.81
460.138	533.81
460.358	524.81
460.578	534.81
460.798	526.81
461.018	526.81
461.238	524.81
461.458	550.81
461.678	520.81
461.898	522.81
462.118	553.81
462.338	559.81
462.558	548.81
462.777	553.81
462.997	554.81
463.217	569.81
463.437	599.81
463.657	584.81
463.876	564.81
464.096	561.81
464.316	579.81
464.536	571.81
464.755	572.81
464.975	576.81
465.195	593.81
465.414	636.81
465.634	597.81
465.854	560.81
466.073	532.81
466.293	516.81
466.512	503.81
466.732	490.81
466.951	522.81
467.171	493.81
467.391	512.81
467.61	500.81
467.829	528.81
468.049	519.81
468.268	526.81
468.488	488.81
468.707	487.81
468.927	485.81
469.146	484.81
469.365	498.81
469.585	480.81
469.804	479.81
470.023	515.81
470.243	512.81
470.462	525.81
470.681	527.81
470.901	535.81
471.12	494.81
471.339	518.81
471.558	503.81
471.777	510.81
471.997	502.81
472.216	503.81
472.435	521.81
472.654	520.81
472.873	507.81
473.092	534.81
473.311	519.81
473.53	483.81
473.749	510.81
473.968	570.81
474.187	651.81
474.406	666.81
474.625	557.81
474.844	514.81
475.063	521.81
475.282	506.81
475.501	512.81
475.72	520.81
475.939	527.81
476.158	525.81
476.377	544.81
476.596	545.81
476.814	541.81
477.033	529.81
477.252	554.81
477.471	547.81
477.69	530.81
477.908	550.81
478.127	566.81
478.346	527.81
478.564	566.81
478.783	558.81
479.002	604.81
479.22	595.81
479.439	585.81
479.658	612.81
479.876	612.81
480.095	611.81
480.313	647.81
480.532	611.81
480.751	618.81
480.969	630.81
481.188	687.81
481.406	696.81
481.624	649.81
481.843	598.81
482.061	610.81
482.28	595.81
482.498	609.81
482.717	586.81
482.935	582.81
483.153	590.81
483.372	591.81
483.59	581.81
483.808	600.81
484.027	586.81
484.245	590.81
484.463	617.81
484.681	624.81
484.9	591.81
485.118	589.81
485.336	603.81
485.554	590.81
485.772	618.81
485.99	613.81
486.209	605.81
486.427	587.81
486.645	626.81
486.863	648.81
487.081	636.81
487.299	624.81
487.517	614.81
487.735	641.81
487.953	634.81
488.171	619.81
488.389	635.81
488.607	639.81
488.825	630.81
489.043	625.81
489.261	628.81
489.479	642.81
489.696	632.81
489.914	630.81
490.132	655.81
490.35	661.81
490.568	651.81
490.786	662.81
491.003	677.81
491.221	700.81
491.439	698.81
491.657	709.81
491.874	704.81
492.092	696.81
492.31	727.81
492.527	710.81
492.745	708.81
492.963	688.81
493.18	717.81
493.398	725.81
493.615	715.81
493.833	710.81
494.05	738.81
494.268	728.81
494.485	720.81
494.703	729.81
494.92	731.81
495.138	721.81
495.355	741.81
495.573	732.81
495.79	731.81
496.008	756.81
496.225	751.81
496.442	749.81
496.66	741.81
496.877	746.81
497.094	782.81
497.312	741.81
497.529	784.81
497.746	811.81
497.963	834.81
498.181	825.81
498.398	811.81
498.615	849.81
498.832	838.81
499.049	868.81
499.267	864.81
499.484	926.81
499.701	939.81
499.918	977.81
500.135	1029.81
500.352	1078.81
500.569	1104.81
500.786	1078.81
501.003	1082.81
501.22	1055.81
501.437	1006.81
501.654	994.81
501.871	973.81
