Data from 1978.PennyLincolnUp.Lamp.En5.5.200Scan.071719.P1_HRD10591_16-11-42-866.txt Node
Date: Thu Jul 18 16:11:42 EDT 2019
User: cochatt
Spectrometer: HR+D1059
Trigger mode: 1
Integration Time (sec): 1.000000E-1
Scans to average: 1
Electric dark correction enabled: true
Nonlinearity correction enabled: false
Boxcar width: 0
XAxis mode: Wavelengths
Number of Pixels in Spectrum: 2048
>>>>>Begin Spectral Data<<<<<
223.165	-19.5
223.4	-19.5
223.635	-19.5
223.869	-13.5
224.104	-20.5
224.338	-13.5
224.573	-17.5
224.808	-19.5
225.042	-6.5
225.277	-10.5
225.511	-11.5
225.746	-1.5
225.98	5.5
226.215	11.5
226.449	26.5
226.683	33.5
226.918	30.5
227.152	26.5
227.387	27.5
227.621	36.5
227.856	46.5
228.09	38.5
228.324	24.5
228.559	35.5
228.793	65.5
229.027	86.5
229.262	75.5
229.496	93.5
229.73	94.5
229.964	114.5
230.199	88.5
230.433	94.5
230.667	91.5
230.901	90.5
231.136	104.5
231.37	107.5
231.604	98.5
231.838	86.5
232.072	97.5
232.306	114.5
232.541	100.5
232.775	97.5
233.009	114.5
233.243	109.5
233.477	114.5
233.711	117.5
233.945	108.5
234.179	115.5
234.413	97.5
234.647	115.5
234.881	107.5
235.115	112.5
235.349	109.5
235.583	120.5
235.817	102.5
236.051	107.5
236.285	112.5
236.519	111.5
236.753	105.5
236.987	98.5
237.221	133.5
237.455	155.5
237.689	147.5
237.922	134.5
238.156	118.5
238.39	122.5
238.624	106.5
238.858	113.5
239.091	98.5
239.325	107.5
239.559	107.5
239.793	99.5
240.027	128.5
240.26	124.5
240.494	121.5
240.728	123.5
240.961	123.5
241.195	121.5
241.429	122.5
241.662	111.5
241.896	103.5
242.13	122.5
242.363	121.5
242.597	110.5
242.83	118.5
243.064	126.5
243.298	133.5
243.531	119.5
243.765	122.5
243.998	118.5
244.232	127.5
244.465	128.5
244.699	137.5
244.932	124.5
245.166	125.5
245.399	124.5
245.633	136.5
245.866	112.5
246.099	129.5
246.333	125.5
246.566	109.5
246.8	134.5
247.033	125.5
247.266	129.5
247.5	133.5
247.733	153.5
247.966	150.5
248.2	153.5
248.433	145.5
248.666	135.5
248.899	150.5
249.133	144.5
249.366	161.5
249.599	135.5
249.832	155.5
250.066	148.5
250.299	143.5
250.532	150.5
250.765	145.5
250.998	134.5
251.231	176.5
251.465	155.5
251.698	161.5
251.931	148.5
252.164	148.5
252.397	160.5
252.63	178.5
252.863	153.5
253.096	168.5
253.329	173.5
253.562	169.5
253.795	154.5
254.028	165.5
254.261	164.5
254.494	170.5
254.727	192.5
254.96	178.5
255.193	186.5
255.426	166.5
255.659	169.5
255.892	184.5
256.124	188.5
256.357	183.5
256.59	168.5
256.823	166.5
257.056	169.5
257.289	171.5
257.521	168.5
257.754	170.5
257.987	152.5
258.22	169.5
258.452	154.5
258.685	157.5
258.918	163.5
259.151	181.5
259.383	170.5
259.616	179.5
259.849	168.5
260.081	177.5
260.314	174.5
260.547	163.5
260.779	186.5
261.012	188.5
261.244	180.5
261.477	177.5
261.71	166.5
261.942	178.5
262.175	178.5
262.407	177.5
262.64	187.5
262.872	187.5
263.105	170.5
263.337	178.5
263.57	192.5
263.802	187.5
264.035	176.5
264.267	161.5
264.499	174.5
264.732	165.5
264.964	183.5
265.197	191.5
265.429	164.5
265.661	190.5
265.894	168.5
266.126	178.5
266.358	195.5
266.591	182.5
266.823	186.5
267.055	176.5
267.287	155.5
267.52	170.5
267.752	184.5
267.984	172.5
268.216	182.5
268.448	194.5
268.681	200.5
268.913	180.5
269.145	202.5
269.377	213.5
269.609	194.5
269.841	182.5
270.073	200.5
270.306	206.5
270.538	204.5
270.77	227.5
271.002	208.5
271.234	202.5
271.466	207.5
271.698	224.5
271.93	233.5
272.162	212.5
272.394	228.5
272.626	228.5
272.858	221.5
273.09	219.5
273.322	211.5
273.553	201.5
273.785	212.5
274.017	192.5
274.249	204.5
274.481	210.5
274.713	208.5
274.945	217.5
275.176	217.5
275.408	227.5
275.64	206.5
275.872	208.5
276.104	224.5
276.335	211.5
276.567	204.5
276.799	214.5
277.031	235.5
277.262	237.5
277.494	248.5
277.726	228.5
277.957	225.5
278.189	220.5
278.421	226.5
278.652	214.5
278.884	201.5
279.115	227.5
279.347	212.5
279.579	219.5
279.81	217.5
280.042	216.5
280.273	221.5
280.505	213.5
280.736	208.5
280.968	225.5
281.199	212.5
281.431	226.5
281.662	213.5
281.894	227.5
282.125	210.5
282.356	226.5
282.588	225.5
282.819	216.5
283.051	224.5
283.282	239.5
283.513	215.5
283.745	215.5
283.976	232.5
284.207	225.5
284.439	219.5
284.67	234.5
284.901	237.5
285.132	228.5
285.364	234.5
285.595	212.5
285.826	230.5
286.057	232.5
286.288	233.5
286.52	245.5
286.751	226.5
286.982	233.5
287.213	228.5
287.444	245.5
287.675	236.5
287.906	237.5
288.138	242.5
288.369	244.5
288.6	260.5
288.831	253.5
289.062	238.5
289.293	244.5
289.524	242.5
289.755	242.5
289.986	242.5
290.217	244.5
290.448	226.5
290.679	242.5
290.91	229.5
291.141	239.5
291.371	229.5
291.602	258.5
291.833	248.5
292.064	250.5
292.295	241.5
292.526	242.5
292.757	253.5
292.987	244.5
293.218	253.5
293.449	240.5
293.68	246.5
293.91	248.5
294.141	241.5
294.372	245.5
294.603	256.5
294.833	249.5
295.064	244.5
295.295	245.5
295.525	240.5
295.756	240.5
295.987	263.5
296.217	257.5
296.448	242.5
296.679	246.5
296.909	240.5
297.14	252.5
297.37	271.5
297.601	254.5
297.831	246.5
298.062	258.5
298.292	243.5
298.523	270.5
298.753	263.5
298.984	258.5
299.214	255.5
299.445	248.5
299.675	269.5
299.905	258.5
300.136	245.5
300.366	252.5
300.597	255.5
300.827	256.5
301.057	277.5
301.288	285.5
301.518	259.5
301.748	268.5
301.979	277.5
302.209	273.5
302.439	274.5
302.669	263.5
302.9	264.5
303.13	265.5
303.36	290.5
303.59	265.5
303.82	291.5
304.051	271.5
304.281	284.5
304.511	270.5
304.741	274.5
304.971	279.5
305.201	285.5
305.431	282.5
305.661	273.5
305.891	272.5
306.121	257.5
306.352	284.5
306.582	260.5
306.812	267.5
307.042	282.5
307.272	276.5
307.502	271.5
307.731	270.5
307.961	266.5
308.191	271.5
308.421	277.5
308.651	274.5
308.881	265.5
309.111	280.5
309.341	264.5
309.571	292.5
309.8	282.5
310.03	287.5
310.26	294.5
310.49	298.5
310.72	283.5
310.949	286.5
311.179	275.5
311.409	311.5
311.639	277.5
311.868	296.5
312.098	291.5
312.328	308.5
312.557	292.5
312.787	294.5
313.017	315.5
313.246	304.5
313.476	309.5
313.706	301.5
313.935	296.5
314.165	296.5
314.394	337.5
314.624	293.5
314.853	300.5
315.083	312.5
315.312	308.5
315.542	305.5
315.771	300.5
316.001	308.5
316.23	292.5
316.46	305.5
316.689	308.5
316.919	324.5
317.148	314.5
317.377	314.5
317.607	292.5
317.836	293.5
318.065	308.5
318.295	308.5
318.524	305.5
318.753	308.5
318.983	315.5
319.212	331.5
319.441	310.5
319.67	306.5
319.9	278.5
320.129	303.5
320.358	300.5
320.587	324.5
320.816	318.5
321.046	319.5
321.275	315.5
321.504	328.5
321.733	323.5
321.962	333.5
322.191	338.5
322.42	310.5
322.649	342.5
322.878	360.5
323.108	341.5
323.337	340.5
323.566	337.5
323.795	366.5
324.024	378.5
324.253	434.5
324.482	576.5
324.71	840.5
324.939	1224.5
325.168	1059.5
325.397	578.5
325.626	404.5
325.855	368.5
326.084	348.5
326.313	357.5
326.542	355.5
326.77	395.5
326.999	424.5
327.228	530.5
327.457	770.5
327.686	944.5
327.914	637.5
328.143	452.5
328.372	418.5
328.6	393.5
328.829	369.5
329.058	386.5
329.287	377.5
329.515	380.5
329.744	363.5
329.972	345.5
330.201	388.5
330.43	380.5
330.658	401.5
330.887	413.5
331.115	384.5
331.344	367.5
331.572	343.5
331.801	356.5
332.03	371.5
332.258	363.5
332.486	352.5
332.715	356.5
332.943	340.5
333.172	357.5
333.4	354.5
333.629	374.5
333.857	376.5
334.085	405.5
334.314	402.5
334.542	393.5
334.771	423.5
334.999	396.5
335.227	371.5
335.455	377.5
335.684	373.5
335.912	394.5
336.14	379.5
336.369	377.5
336.597	374.5
336.825	384.5
337.053	369.5
337.281	363.5
337.51	334.5
337.738	370.5
337.966	362.5
338.194	372.5
338.422	362.5
338.65	352.5
338.878	366.5
339.106	361.5
339.334	357.5
339.562	354.5
339.79	346.5
340.018	339.5
340.246	359.5
340.474	368.5
340.702	343.5
340.93	351.5
341.158	350.5
341.386	344.5
341.614	357.5
341.842	360.5
342.07	346.5
342.298	345.5
342.526	349.5
342.754	350.5
342.981	361.5
343.209	344.5
343.437	366.5
343.665	364.5
343.893	367.5
344.12	370.5
344.348	369.5
344.576	354.5
344.804	373.5
345.031	353.5
345.259	373.5
345.487	339.5
345.714	347.5
345.942	338.5
346.17	353.5
346.397	358.5
346.625	354.5
346.853	348.5
347.08	340.5
347.308	347.5
347.535	347.5
347.763	344.5
347.99	347.5
348.218	332.5
348.445	343.5
348.673	337.5
348.9	359.5
349.128	327.5
349.355	352.5
349.583	355.5
349.81	347.5
350.037	347.5
350.265	342.5
350.492	335.5
350.72	320.5
350.947	343.5
351.174	333.5
351.402	340.5
351.629	359.5
351.856	362.5
352.083	343.5
352.311	333.5
352.538	331.5
352.765	343.5
352.992	359.5
353.22	331.5
353.447	328.5
353.674	352.5
353.901	363.5
354.128	330.5
354.355	317.5
354.583	314.5
354.81	350.5
355.037	348.5
355.264	341.5
355.491	330.5
355.718	333.5
355.945	330.5
356.172	322.5
356.399	333.5
356.626	330.5
356.853	340.5
357.08	335.5
357.307	337.5
357.534	320.5
357.761	334.5
357.988	328.5
358.215	365.5
358.441	328.5
358.668	339.5
358.895	345.5
359.122	312.5
359.349	344.5
359.576	356.5
359.802	347.5
360.029	349.5
360.256	346.5
360.483	345.5
360.709	341.5
360.936	347.5
361.163	329.5
361.39	337.5
361.616	340.5
361.843	338.5
362.07	350.5
362.296	353.5
362.523	340.5
362.749	351.5
362.976	342.5
363.203	349.5
363.429	354.5
363.656	357.5
363.882	335.5
364.109	365.5
364.335	350.5
364.562	322.5
364.788	336.5
365.015	341.5
365.241	342.5
365.468	353.5
365.694	324.5
365.92	339.5
366.147	320.5
366.373	349.5
366.599	347.5
366.826	333.5
367.052	322.5
367.278	346.5
367.505	346.5
367.731	338.5
367.957	331.5
368.184	328.5
368.41	333.5
368.636	358.5
368.862	355.5
369.089	349.5
369.315	360.5
369.541	355.5
369.767	354.5
369.993	352.5
370.219	349.5
370.445	357.5
370.672	335.5
370.898	356.5
371.124	349.5
371.35	366.5
371.576	374.5
371.802	360.5
372.028	367.5
372.254	356.5
372.48	380.5
372.706	350.5
372.932	364.5
373.158	354.5
373.384	355.5
373.61	362.5
373.835	362.5
374.061	358.5
374.287	378.5
374.513	361.5
374.739	378.5
374.965	382.5
375.191	363.5
375.416	358.5
375.642	374.5
375.868	363.5
376.094	363.5
376.319	369.5
376.545	360.5
376.771	333.5
376.997	347.5
377.222	372.5
377.448	361.5
377.674	360.5
377.899	357.5
378.125	361.5
378.35	358.5
378.576	351.5
378.802	352.5
379.027	373.5
379.253	376.5
379.478	352.5
379.704	371.5
379.929	344.5
380.155	358.5
380.38	372.5
380.606	351.5
380.831	346.5
381.057	380.5
381.282	364.5
381.507	353.5
381.733	375.5
381.958	355.5
382.184	367.5
382.409	361.5
382.634	382.5
382.86	366.5
383.085	372.5
383.31	374.5
383.535	397.5
383.761	394.5
383.986	397.5
384.211	413.5
384.436	385.5
384.662	377.5
384.887	401.5
385.112	380.5
385.337	383.5
385.562	393.5
385.787	389.5
386.013	415.5
386.238	414.5
386.463	409.5
386.688	394.5
386.913	402.5
387.138	401.5
387.363	417.5
387.588	399.5
387.813	399.5
388.038	401.5
388.263	404.5
388.488	417.5
388.713	401.5
388.938	421.5
389.163	402.5
389.387	407.5
389.612	404.5
389.837	418.5
390.062	399.5
390.287	397.5
390.512	418.5
390.736	418.5
390.961	417.5
391.186	421.5
391.411	411.5
391.636	418.5
391.86	426.5
392.085	403.5
392.31	413.5
392.534	428.5
392.759	417.5
392.984	397.5
393.208	438.5
393.433	430.5
393.658	420.5
393.882	426.5
394.107	427.5
394.331	418.5
394.556	417.5
394.78	431.5
395.005	443.5
395.229	418.5
395.454	419.5
395.678	426.5
395.903	432.5
396.127	450.5
396.352	451.5
396.576	432.5
396.801	437.5
397.025	450.5
397.249	452.5
397.474	442.5
397.698	447.5
397.922	451.5
398.147	449.5
398.371	442.5
398.595	466.5
398.82	458.5
399.044	488.5
399.268	510.5
399.492	524.5
399.717	541.5
399.941	562.5
400.165	574.5
400.389	584.5
400.613	534.5
400.837	488.5
401.062	506.5
401.286	482.5
401.51	448.5
401.734	502.5
401.958	478.5
402.182	474.5
402.406	486.5
402.63	470.5
402.854	493.5
403.078	472.5
403.302	473.5
403.526	489.5
403.75	493.5
403.974	501.5
404.198	496.5
404.422	507.5
404.645	491.5
404.869	487.5
405.093	511.5
405.317	552.5
405.541	566.5
405.765	537.5
405.988	482.5
406.212	538.5
406.436	522.5
406.66	514.5
406.883	499.5
407.107	525.5
407.331	557.5
407.555	597.5
407.778	597.5
408.002	566.5
408.226	526.5
408.449	524.5
408.673	545.5
408.896	573.5
409.12	578.5
409.344	566.5
409.567	519.5
409.791	499.5
410.014	500.5
410.238	489.5
410.461	483.5
410.685	506.5
410.908	505.5
411.132	518.5
411.355	538.5
411.578	522.5
411.802	490.5
412.025	501.5
412.249	509.5
412.472	503.5
412.695	517.5
412.919	535.5
413.142	501.5
413.365	498.5
413.589	477.5
413.812	447.5
414.035	470.5
414.258	484.5
414.482	476.5
414.705	476.5
414.928	457.5
415.151	472.5
415.374	474.5
415.597	457.5
415.821	454.5
416.044	452.5
416.267	474.5
416.49	453.5
416.713	450.5
416.936	466.5
417.159	454.5
417.382	476.5
417.605	461.5
417.828	475.5
418.051	478.5
418.274	473.5
418.497	440.5
418.72	477.5
418.943	442.5
419.166	495.5
419.389	499.5
419.611	481.5
419.834	478.5
420.057	492.5
420.28	472.5
420.503	465.5
420.726	455.5
420.948	474.5
421.171	512.5
421.394	534.5
421.617	480.5
421.839	471.5
422.062	471.5
422.285	492.5
422.507	519.5
422.73	589.5
422.953	557.5
423.175	493.5
423.398	477.5
423.621	475.5
423.843	501.5
424.066	475.5
424.288	507.5
424.511	492.5
424.733	536.5
424.956	594.5
425.178	574.5
425.401	582.5
425.623	575.5
425.846	525.5
426.068	499.5
426.291	472.5
426.513	492.5
426.735	498.5
426.958	516.5
427.18	574.5
427.402	658.5
427.625	733.5
427.847	603.5
428.069	548.5
428.292	513.5
428.514	485.5
428.736	466.5
428.958	504.5
429.181	475.5
429.403	468.5
429.625	455.5
429.847	464.5
430.069	526.5
430.292	512.5
430.514	470.5
430.736	472.5
430.958	450.5
431.18	460.5
431.402	434.5
431.624	432.5
431.846	450.5
432.068	449.5
432.29	451.5
432.512	415.5
432.734	449.5
432.956	467.5
433.178	460.5
433.4	463.5
433.622	442.5
433.844	446.5
434.066	458.5
434.287	464.5
434.509	471.5
434.731	451.5
434.953	450.5
435.175	481.5
435.397	501.5
435.618	496.5
435.84	513.5
436.062	575.5
436.284	638.5
436.505	512.5
436.727	478.5
436.949	481.5
437.17	456.5
437.392	488.5
437.614	463.5
437.835	454.5
438.057	524.5
438.278	621.5
438.5	625.5
438.721	681.5
438.943	667.5
439.165	502.5
439.386	488.5
439.608	476.5
439.829	483.5
440.05	492.5
440.272	510.5
440.493	497.5
440.715	465.5
440.936	486.5
441.158	468.5
441.379	456.5
441.6	458.5
441.822	484.5
442.043	525.5
442.264	569.5
442.486	601.5
442.707	533.5
442.928	493.5
443.149	502.5
443.371	494.5
443.592	532.5
443.813	597.5
444.034	654.5
444.255	535.5
444.476	514.5
444.698	504.5
444.919	506.5
445.14	643.5
445.361	560.5
445.582	527.5
445.803	560.5
446.024	613.5
446.245	617.5
446.466	572.5
446.687	516.5
446.908	503.5
447.129	462.5
447.35	481.5
447.571	445.5
447.792	427.5
448.013	451.5
448.234	454.5
448.455	483.5
448.675	585.5
448.896	662.5
449.117	572.5
449.338	540.5
449.559	614.5
449.779	691.5
450	582.5
450.221	482.5
450.442	468.5
450.662	427.5
450.883	440.5
451.104	436.5
451.324	426.5
451.545	404.5
451.766	426.5
451.986	422.5
452.207	433.5
452.428	413.5
452.648	411.5
452.869	406.5
453.089	421.5
453.31	427.5
453.53	413.5
453.751	414.5
453.971	402.5
454.192	416.5
454.412	412.5
454.633	407.5
454.853	408.5
455.073	419.5
455.294	455.5
455.514	458.5
455.734	450.5
455.955	416.5
456.175	410.5
456.395	411.5
456.616	406.5
456.836	425.5
457.056	418.5
457.276	396.5
457.497	408.5
457.717	412.5
457.937	408.5
458.157	404.5
458.377	415.5
458.598	425.5
458.818	479.5
459.038	491.5
459.258	512.5
459.478	468.5
459.698	443.5
459.918	463.5
460.138	464.5
460.358	454.5
460.578	473.5
460.798	443.5
461.018	489.5
461.238	460.5
461.458	478.5
461.678	468.5
461.898	484.5
462.118	484.5
462.338	481.5
462.558	490.5
462.777	519.5
462.997	534.5
463.217	525.5
463.437	540.5
463.657	530.5
463.876	506.5
464.096	500.5
464.316	497.5
464.536	537.5
464.755	499.5
464.975	481.5
465.195	491.5
465.414	520.5
465.634	503.5
465.854	489.5
466.073	464.5
466.293	460.5
466.512	430.5
466.732	446.5
466.951	436.5
467.171	440.5
467.391	426.5
467.61	444.5
467.829	450.5
468.049	448.5
468.268	449.5
468.488	448.5
468.707	419.5
468.927	421.5
469.146	417.5
469.365	423.5
469.585	441.5
469.804	440.5
470.023	451.5
470.243	449.5
470.462	445.5
470.681	465.5
470.901	446.5
471.12	430.5
471.339	444.5
471.558	432.5
471.777	449.5
471.997	429.5
472.216	425.5
472.435	446.5
472.654	452.5
472.873	436.5
473.092	437.5
473.311	433.5
473.53	442.5
473.749	447.5
473.968	477.5
474.187	531.5
474.406	553.5
474.625	477.5
474.844	441.5
475.063	454.5
475.282	437.5
475.501	457.5
475.72	460.5
475.939	435.5
476.158	474.5
476.377	462.5
476.596	480.5
476.814	452.5
477.033	477.5
477.252	491.5
477.471	469.5
477.69	460.5
477.908	481.5
478.127	497.5
478.346	489.5
478.564	510.5
478.783	506.5
479.002	490.5
479.22	510.5
479.439	496.5
479.658	533.5
479.876	514.5
480.095	533.5
480.313	567.5
480.532	544.5
480.751	528.5
480.969	513.5
481.188	557.5
481.406	574.5
481.624	556.5
481.843	521.5
482.061	516.5
482.28	511.5
482.498	529.5
482.717	501.5
482.935	522.5
483.153	511.5
483.372	499.5
483.59	533.5
483.808	527.5
484.027	496.5
484.245	521.5
484.463	524.5
484.681	541.5
484.9	543.5
485.118	528.5
485.336	506.5
485.554	546.5
485.772	524.5
485.99	541.5
486.209	568.5
486.427	545.5
486.645	558.5
486.863	552.5
487.081	532.5
487.299	528.5
487.517	539.5
487.735	547.5
487.953	558.5
488.171	546.5
488.389	545.5
488.607	523.5
488.825	540.5
489.043	551.5
489.261	534.5
489.479	560.5
489.696	557.5
489.914	558.5
490.132	568.5
490.35	578.5
490.568	568.5
490.786	566.5
491.003	585.5
491.221	556.5
491.439	594.5
491.657	580.5
491.874	586.5
492.092	627.5
492.31	594.5
492.527	581.5
492.745	614.5
492.963	607.5
493.18	630.5
493.398	620.5
493.615	624.5
493.833	604.5
494.05	618.5
494.268	622.5
494.485	617.5
494.703	617.5
494.92	612.5
495.138	617.5
495.355	610.5
495.573	617.5
495.79	620.5
496.008	647.5
496.225	658.5
496.442	644.5
496.66	646.5
496.877	656.5
497.094	627.5
497.312	654.5
497.529	670.5
497.746	665.5
497.963	674.5
498.181	686.5
498.398	698.5
498.615	725.5
498.832	726.5
499.049	752.5
499.267	790.5
499.484	816.5
499.701	856.5
499.918	885.5
500.135	936.5
500.352	985.5
500.569	1001.5
500.786	972.5
501.003	971.5
501.22	921.5
501.437	915.5
501.654	859.5
501.871	819.5
502.088	824.5
502.305	797.5
502.522	756.5
502.739	769.5
502.956	718.5
503.172	723.5
503.389	714.5
503.606	670.5
503.823	676.5
504.04	698.5
504.256	654.5
504.473	666.5
504.69	665.5
504.907	639.5
505.123	662.5
505.34	632.5
505.557	628.5
505.773	633.5
505.99	611.5
506.207	611.5
506.423	615.5
506.64	607.5
506.856	584.5
507.073	592.5
507.289	608.5
507.506	578.5
507.722	561.5
507.939	606.5
508.155	553.5
508.372	558.5
508.588	551.5
508.805	567.5
509.021	549.5
509.238	558.5
509.454	552.5
509.67	565.5
509.887	543.5
510.103	537.5
510.319	541.5
510.536	576.5
510.752	782.5
510.968	658.5
511.184	549.5
511.401	550.5
511.617	544.5
511.833	550.5
512.049	526.5
512.265	535.5
512.481	557.5
512.698	529.5
512.914	539.5
513.13	535.5
513.346	539.5
513.562	515.5
513.778	526.5
513.994	524.5
514.21	555.5
514.426	536.5
514.642	558.5
514.858	576.5
515.074	608.5
515.29	635.5
515.506	761.5
515.721	705.5
515.937	598.5
516.153	572.5
516.369	579.5
516.585	547.5
516.801	563.5
517.016	583.5
517.232	572.5
517.448	604.5
517.664	588.5
517.879	562.5
518.095	566.5
518.311	586.5
518.527	579.5
518.742	569.5
518.958	582.5
519.173	590.5
519.389	575.5
519.605	545.5
519.82	556.5
520.036	539.5
