Data from 1978.PennyLincolnUp.Lamp.En5.5.200Scan.071719.P1_HRD10591_16-14-03-865.txt Node
Date: Thu Jul 18 16:14:03 EDT 2019
User: cochatt
Spectrometer: HR+D1059
Trigger mode: 1
Integration Time (sec): 1.000000E-1
Scans to average: 1
Electric dark correction enabled: true
Nonlinearity correction enabled: false
Boxcar width: 0
XAxis mode: Wavelengths
Number of Pixels in Spectrum: 2048
>>>>>Begin Spectral Data<<<<<
223.165	-11.75
223.4	-11.75
223.635	-11.75
223.869	-23.75
224.104	-7.75
224.338	-19.75
224.573	-16.75
224.808	-14.75
225.042	-2.75
225.277	-9.75
225.511	-13.75
225.746	8.25
225.98	15.25
226.215	11.25
226.449	11.25
226.683	20.25
226.918	26.25
227.152	28.25
227.387	33.25
227.621	41.25
227.856	31.25
228.09	50.25
228.324	55.25
228.559	51.25
228.793	71.25
229.027	91.25
229.262	93.25
229.496	103.25
229.73	127.25
229.964	137.25
230.199	151.25
230.433	117.25
230.667	102.25
230.901	101.25
231.136	113.25
231.37	105.25
231.604	107.25
231.838	109.25
232.072	122.25
232.306	104.25
232.541	107.25
232.775	108.25
233.009	108.25
233.243	84.25
233.477	115.25
233.711	95.25
233.945	113.25
234.179	132.25
234.413	115.25
234.647	113.25
234.881	101.25
235.115	111.25
235.349	116.25
235.583	108.25
235.817	116.25
236.051	123.25
236.285	120.25
236.519	120.25
236.753	122.25
236.987	125.25
237.221	144.25
237.455	202.25
237.689	189.25
237.922	137.25
238.156	142.25
238.39	131.25
238.624	115.25
238.858	123.25
239.091	112.25
239.325	124.25
239.559	134.25
239.793	118.25
240.027	143.25
240.26	134.25
240.494	155.25
240.728	144.25
240.961	154.25
241.195	129.25
241.429	125.25
241.662	137.25
241.896	136.25
242.13	142.25
242.363	124.25
242.597	128.25
242.83	130.25
243.064	138.25
243.298	119.25
243.531	129.25
243.765	146.25
243.998	136.25
244.232	141.25
244.465	123.25
244.699	129.25
244.932	137.25
245.166	135.25
245.399	130.25
245.633	143.25
245.866	132.25
246.099	143.25
246.333	139.25
246.566	134.25
246.8	146.25
247.033	134.25
247.266	135.25
247.5	141.25
247.733	165.25
247.966	163.25
248.2	156.25
248.433	158.25
248.666	170.25
248.899	178.25
249.133	187.25
249.366	187.25
249.599	171.25
249.832	170.25
250.066	186.25
250.299	178.25
250.532	163.25
250.765	168.25
250.998	203.25
251.231	192.25
251.465	218.25
251.698	187.25
251.931	201.25
252.164	177.25
252.397	191.25
252.63	179.25
252.863	178.25
253.096	205.25
253.329	215.25
253.562	202.25
253.795	199.25
254.028	202.25
254.261	206.25
254.494	214.25
254.727	232.25
254.96	268.25
255.193	271.25
255.426	206.25
255.659	211.25
255.892	208.25
256.124	197.25
256.357	206.25
256.59	195.25
256.823	186.25
257.056	203.25
257.289	189.25
257.521	200.25
257.754	198.25
257.987	207.25
258.22	197.25
258.452	211.25
258.685	192.25
258.918	201.25
259.151	206.25
259.383	195.25
259.616	219.25
259.849	201.25
260.081	227.25
260.314	223.25
260.547	231.25
260.779	237.25
261.012	226.25
261.244	192.25
261.477	213.25
261.71	213.25
261.942	220.25
262.175	229.25
262.407	218.25
262.64	199.25
262.872	214.25
263.105	209.25
263.337	190.25
263.57	193.25
263.802	192.25
264.035	214.25
264.267	197.25
264.499	208.25
264.732	191.25
264.964	201.25
265.197	203.25
265.429	204.25
265.661	186.25
265.894	208.25
266.126	207.25
266.358	193.25
266.591	203.25
266.823	204.25
267.055	218.25
267.287	212.25
267.52	225.25
267.752	205.25
267.984	214.25
268.216	206.25
268.448	210.25
268.681	220.25
268.913	240.25
269.145	241.25
269.377	244.25
269.609	236.25
269.841	242.25
270.073	247.25
270.306	273.25
270.538	303.25
270.77	283.25
271.002	293.25
271.234	275.25
271.466	275.25
271.698	277.25
271.93	268.25
272.162	292.25
272.394	294.25
272.626	275.25
272.858	279.25
273.09	248.25
273.322	260.25
273.553	257.25
273.785	248.25
274.017	228.25
274.249	247.25
274.481	244.25
274.713	249.25
274.945	244.25
275.176	255.25
275.408	255.25
275.64	243.25
275.872	245.25
276.104	243.25
276.335	248.25
276.567	248.25
276.799	241.25
277.031	271.25
277.262	293.25
277.494	317.25
277.726	283.25
277.957	265.25
278.189	253.25
278.421	242.25
278.652	257.25
278.884	247.25
279.115	265.25
279.347	243.25
279.579	248.25
279.81	267.25
280.042	254.25
280.273	243.25
280.505	256.25
280.736	259.25
280.968	259.25
281.199	237.25
281.431	244.25
281.662	242.25
281.894	270.25
282.125	269.25
282.356	281.25
282.588	284.25
282.819	299.25
283.051	262.25
283.282	248.25
283.513	275.25
283.745	253.25
283.976	260.25
284.207	262.25
284.439	264.25
284.67	265.25
284.901	272.25
285.132	269.25
285.364	258.25
285.595	263.25
285.826	267.25
286.057	265.25
286.288	266.25
286.52	271.25
286.751	269.25
286.982	262.25
287.213	277.25
287.444	277.25
287.675	288.25
287.906	265.25
288.138	295.25
288.369	266.25
288.6	288.25
288.831	276.25
289.062	262.25
289.293	283.25
289.524	289.25
289.755	300.25
289.986	283.25
290.217	265.25
290.448	268.25
290.679	283.25
290.91	299.25
291.141	264.25
291.371	277.25
291.602	283.25
291.833	281.25
292.064	297.25
292.295	280.25
292.526	287.25
292.757	280.25
292.987	291.25
293.218	255.25
293.449	283.25
293.68	281.25
293.91	296.25
294.141	288.25
294.372	275.25
294.603	291.25
294.833	271.25
295.064	280.25
295.295	282.25
295.525	262.25
295.756	291.25
295.987	305.25
296.217	295.25
296.448	339.25
296.679	296.25
296.909	285.25
297.14	276.25
297.37	275.25
297.601	290.25
297.831	270.25
298.062	288.25
298.292	301.25
298.523	301.25
298.753	296.25
298.984	303.25
299.214	287.25
299.445	290.25
299.675	293.25
299.905	308.25
300.136	331.25
300.366	289.25
300.597	303.25
300.827	297.25
301.057	286.25
301.288	338.25
301.518	300.25
301.748	298.25
301.979	299.25
302.209	320.25
302.439	315.25
302.669	309.25
302.9	316.25
303.13	299.25
303.36	313.25
303.59	310.25
303.82	338.25
304.051	325.25
304.281	315.25
304.511	323.25
304.741	313.25
304.971	317.25
305.201	307.25
305.431	337.25
305.661	312.25
305.891	326.25
306.121	311.25
306.352	326.25
306.582	329.25
306.812	320.25
307.042	315.25
307.272	327.25
307.502	308.25
307.731	327.25
307.961	333.25
308.191	316.25
308.421	328.25
308.651	333.25
308.881	304.25
309.111	315.25
309.341	319.25
309.571	328.25
309.8	324.25
310.03	363.25
310.26	359.25
310.49	347.25
310.72	362.25
310.949	375.25
311.179	375.25
311.409	371.25
311.639	358.25
311.868	357.25
312.098	344.25
312.328	381.25
312.557	368.25
312.787	393.25
313.017	380.25
313.246	398.25
313.476	358.25
313.706	360.25
313.935	353.25
314.165	348.25
314.394	374.25
314.624	378.25
314.853	362.25
315.083	371.25
315.312	370.25
315.542	358.25
315.771	362.25
316.001	360.25
316.23	377.25
316.46	368.25
316.689	390.25
316.919	380.25
317.148	363.25
317.377	375.25
317.607	347.25
317.836	378.25
318.065	375.25
318.295	361.25
318.524	373.25
318.753	357.25
318.983	364.25
319.212	359.25
319.441	369.25
319.67	387.25
319.9	361.25
320.129	363.25
320.358	377.25
320.587	363.25
320.816	358.25
321.046	388.25
321.275	393.25
321.504	396.25
321.733	383.25
321.962	420.25
322.191	377.25
322.42	403.25
322.649	422.25
322.878	447.25
323.108	455.25
323.337	460.25
323.566	475.25
323.795	521.25
324.024	549.25
324.253	667.25
324.482	968.25
324.71	1564.25
324.939	2350.25
325.168	2029.25
325.397	965.25
325.626	648.25
325.855	542.25
326.084	496.25
326.313	488.25
326.542	483.25
326.77	528.25
326.999	623.25
327.228	859.25
327.457	1383.25
327.686	1765.25
327.914	1098.25
328.143	699.25
328.372	613.25
328.6	598.25
328.829	543.25
329.058	563.25
329.287	563.25
329.515	543.25
329.744	479.25
329.972	508.25
330.201	502.25
330.43	535.25
330.658	563.25
330.887	565.25
331.115	586.25
331.344	488.25
331.572	483.25
331.801	471.25
332.03	480.25
332.258	450.25
332.486	433.25
332.715	429.25
332.943	437.25
333.172	442.25
333.4	436.25
333.629	451.25
333.857	461.25
334.085	462.25
334.314	498.25
334.542	516.25
334.771	534.25
334.999	492.25
335.227	457.25
335.455	451.25
335.684	438.25
335.912	418.25
336.14	421.25
336.369	441.25
336.597	449.25
336.825	452.25
337.053	437.25
337.281	436.25
337.51	424.25
337.738	446.25
337.966	441.25
338.194	447.25
338.422	431.25
338.65	411.25
338.878	419.25
339.106	407.25
339.334	443.25
339.562	425.25
339.79	408.25
340.018	413.25
340.246	425.25
340.474	428.25
340.702	416.25
340.93	416.25
341.158	447.25
341.386	421.25
341.614	427.25
341.842	427.25
342.07	435.25
342.298	419.25
342.526	439.25
342.754	423.25
342.981	402.25
343.209	420.25
343.437	424.25
343.665	439.25
343.893	423.25
344.12	433.25
344.348	420.25
344.576	423.25
344.804	436.25
345.031	455.25
345.259	456.25
345.487	448.25
345.714	444.25
345.942	416.25
346.17	453.25
346.397	427.25
346.625	433.25
346.853	419.25
347.08	403.25
347.308	412.25
347.535	431.25
347.763	427.25
347.99	429.25
348.218	413.25
348.445	427.25
348.673	417.25
348.9	405.25
349.128	409.25
349.355	402.25
349.583	391.25
349.81	416.25
350.037	413.25
350.265	385.25
350.492	396.25
350.72	406.25
350.947	407.25
351.174	403.25
351.402	426.25
351.629	419.25
351.856	413.25
352.083	401.25
352.311	421.25
352.538	440.25
352.765	427.25
352.992	400.25
353.22	401.25
353.447	427.25
353.674	402.25
353.901	393.25
354.128	419.25
354.355	390.25
354.583	401.25
354.81	423.25
355.037	391.25
355.264	397.25
355.491	409.25
355.718	390.25
355.945	392.25
356.172	387.25
356.399	373.25
356.626	381.25
356.853	382.25
357.08	396.25
357.307	395.25
357.534	378.25
357.761	368.25
357.988	392.25
358.215	400.25
358.441	395.25
358.668	381.25
358.895	382.25
359.122	395.25
359.349	414.25
359.576	419.25
359.802	451.25
360.029	460.25
360.256	476.25
360.483	442.25
360.709	416.25
360.936	419.25
361.163	409.25
361.39	435.25
361.616	424.25
361.843	397.25
362.07	425.25
362.296	416.25
362.523	426.25
362.749	417.25
362.976	399.25
363.203	412.25
363.429	396.25
363.656	404.25
363.882	409.25
364.109	397.25
364.335	391.25
364.562	412.25
364.788	390.25
365.015	411.25
365.241	394.25
365.468	396.25
365.694	422.25
365.92	410.25
366.147	392.25
366.373	423.25
366.599	397.25
366.826	409.25
367.052	389.25
367.278	398.25
367.505	391.25
367.731	423.25
367.957	402.25
368.184	398.25
368.41	410.25
368.636	428.25
368.862	402.25
369.089	403.25
369.315	426.25
369.541	397.25
369.767	411.25
369.993	413.25
370.219	405.25
370.445	417.25
370.672	389.25
370.898	388.25
371.124	411.25
371.35	433.25
371.576	396.25
371.802	390.25
372.028	396.25
372.254	418.25
372.48	405.25
372.706	415.25
372.932	419.25
373.158	414.25
373.384	400.25
373.61	406.25
373.835	404.25
374.061	415.25
374.287	415.25
374.513	416.25
374.739	424.25
374.965	408.25
375.191	414.25
375.416	417.25
375.642	412.25
375.868	424.25
376.094	404.25
376.319	419.25
376.545	397.25
376.771	411.25
376.997	420.25
377.222	407.25
377.448	393.25
377.674	407.25
377.899	409.25
378.125	401.25
378.35	402.25
378.576	395.25
378.802	392.25
379.027	391.25
379.253	425.25
379.478	398.25
379.704	391.25
379.929	412.25
380.155	407.25
380.38	408.25
380.606	412.25
380.831	388.25
381.057	415.25
381.282	413.25
381.507	416.25
381.733	431.25
381.958	417.25
382.184	395.25
382.409	403.25
382.634	419.25
382.86	403.25
383.085	405.25
383.31	408.25
383.535	426.25
383.761	415.25
383.986	422.25
384.211	437.25
384.436	447.25
384.662	431.25
384.887	435.25
385.112	447.25
385.337	433.25
385.562	466.25
385.787	436.25
386.013	442.25
386.238	447.25
386.463	460.25
386.688	439.25
386.913	449.25
387.138	433.25
387.363	441.25
387.588	440.25
387.813	433.25
388.038	432.25
388.263	459.25
388.488	463.25
388.713	454.25
388.938	447.25
389.163	428.25
389.387	448.25
389.612	455.25
389.837	452.25
390.062	448.25
390.287	440.25
390.512	468.25
390.736	442.25
390.961	470.25
391.186	456.25
391.411	464.25
391.636	446.25
391.86	473.25
392.085	461.25
392.31	473.25
392.534	479.25
392.759	482.25
392.984	453.25
393.208	473.25
393.433	454.25
393.658	465.25
393.882	453.25
394.107	467.25
394.331	459.25
394.556	453.25
394.78	469.25
395.005	449.25
395.229	467.25
395.454	489.25
395.678	472.25
395.903	503.25
396.127	522.25
396.352	515.25
396.576	468.25
396.801	479.25
397.025	493.25
397.249	512.25
397.474	499.25
397.698	488.25
397.922	517.25
398.147	541.25
398.371	523.25
398.595	501.25
398.82	513.25
399.044	548.25
399.268	564.25
399.492	575.25
399.717	602.25
399.941	629.25
400.165	659.25
400.389	660.25
400.613	596.25
400.837	580.25
401.062	567.25
401.286	555.25
401.51	547.25
401.734	540.25
401.958	527.25
402.182	527.25
402.406	568.25
402.63	548.25
402.854	552.25
403.078	523.25
403.302	543.25
403.526	561.25
403.75	557.25
403.974	547.25
404.198	565.25
404.422	553.25
404.645	534.25
404.869	565.25
405.093	596.25
405.317	641.25
405.541	677.25
405.765	606.25
405.988	604.25
406.212	573.25
406.436	599.25
406.66	603.25
406.883	608.25
407.107	616.25
407.331	657.25
407.555	739.25
407.778	712.25
408.002	675.25
408.226	633.25
408.449	628.25
408.673	610.25
408.896	633.25
409.12	692.25
409.344	652.25
409.567	573.25
409.791	570.25
410.014	579.25
410.238	551.25
410.461	539.25
410.685	562.25
410.908	599.25
411.132	636.25
411.355	648.25
411.578	627.25
411.802	603.25
412.025	567.25
412.249	544.25
412.472	576.25
412.695	641.25
412.919	631.25
413.142	582.25
413.365	544.25
413.589	556.25
413.812	534.25
414.035	550.25
414.258	508.25
414.482	534.25
414.705	532.25
414.928	517.25
415.151	517.25
415.374	531.25
415.597	513.25
415.821	539.25
416.044	511.25
416.267	541.25
416.49	531.25
416.713	523.25
416.936	539.25
417.159	526.25
417.382	534.25
417.605	536.25
417.828	548.25
418.051	545.25
418.274	556.25
418.497	507.25
418.72	522.25
418.943	499.25
419.166	535.25
419.389	585.25
419.611	549.25
419.834	562.25
420.057	569.25
420.28	536.25
420.503	539.25
420.726	528.25
420.948	573.25
421.171	611.25
421.394	645.25
421.617	563.25
421.839	551.25
422.062	537.25
422.285	546.25
422.507	614.25
422.73	707.25
422.953	663.25
423.175	589.25
423.398	563.25
423.621	563.25
423.843	600.25
424.066	604.25
424.288	594.25
424.511	598.25
424.733	664.25
424.956	744.25
425.178	714.25
425.401	715.25
425.623	737.25
425.846	649.25
426.068	584.25
426.291	587.25
426.513	567.25
426.735	601.25
426.958	638.25
427.18	735.25
427.402	860.25
427.625	960.25
427.847	792.25
428.069	697.25
428.292	628.25
428.514	605.25
428.736	592.25
428.958	560.25
429.181	546.25
429.403	518.25
429.625	524.25
429.847	588.25
430.069	667.25
430.292	641.25
430.514	559.25
430.736	525.25
430.958	520.25
431.18	528.25
431.402	528.25
431.624	532.25
431.846	504.25
432.068	509.25
432.29	506.25
432.512	531.25
432.734	529.25
432.956	521.25
433.178	531.25
433.4	535.25
433.622	533.25
433.844	532.25
434.066	517.25
434.287	522.25
434.509	515.25
434.731	527.25
434.953	552.25
435.175	579.25
435.397	587.25
435.618	607.25
435.84	627.25
436.062	730.25
436.284	837.25
436.505	664.25
436.727	604.25
436.949	557.25
437.17	553.25
437.392	547.25
437.614	549.25
437.835	592.25
438.057	685.25
438.278	815.25
438.5	819.25
438.721	885.25
438.943	873.25
439.165	677.25
439.386	613.25
439.608	601.25
439.829	601.25
440.05	625.25
440.272	647.25
440.493	651.25
440.715	615.25
440.936	546.25
441.158	563.25
441.379	548.25
441.6	563.25
441.822	579.25
442.043	634.25
442.264	714.25
442.486	768.25
442.707	669.25
442.928	595.25
443.149	613.25
443.371	632.25
443.592	667.25
443.813	793.25
444.034	844.25
444.255	684.25
444.476	629.25
444.698	602.25
444.919	599.25
445.14	661.25
445.361	618.25
445.582	633.25
445.803	702.25
446.024	820.25
446.245	821.25
446.466	785.25
446.687	624.25
446.908	599.25
447.129	569.25
447.35	545.25
447.571	560.25
447.792	544.25
448.013	542.25
448.234	560.25
448.455	613.25
448.675	748.25
448.896	882.25
449.117	742.25
449.338	675.25
449.559	805.25
449.779	951.25
450	705.25
450.221	597.25
450.442	540.25
450.662	545.25
450.883	559.25
451.104	536.25
451.324	520.25
451.545	513.25
451.766	513.25
451.986	483.25
452.207	503.25
452.428	476.25
452.648	483.25
452.869	487.25
453.089	482.25
453.31	496.25
453.53	497.25
453.751	481.25
453.971	500.25
454.192	495.25
454.412	472.25
454.633	489.25
454.853	505.25
455.073	467.25
455.294	521.25
455.514	565.25
455.734	578.25
455.955	488.25
456.175	476.25
456.395	455.25
456.616	469.25
456.836	459.25
457.056	462.25
457.276	461.25
457.497	465.25
457.717	458.25
457.937	467.25
458.157	464.25
458.377	475.25
458.598	525.25
458.818	534.25
459.038	636.25
459.258	677.25
459.478	563.25
459.698	525.25
459.918	511.25
460.138	521.25
460.358	516.25
460.578	522.25
460.798	554.25
461.018	541.25
461.238	537.25
461.458	535.25
461.678	526.25
461.898	545.25
462.118	518.25
462.338	557.25
462.558	543.25
462.777	548.25
462.997	583.25
463.217	563.25
463.437	599.25
463.657	596.25
463.876	568.25
464.096	575.25
464.316	576.25
464.536	577.25
464.755	564.25
464.975	588.25
465.195	593.25
465.414	677.25
465.634	596.25
465.854	556.25
466.073	532.25
466.293	533.25
466.512	504.25
466.732	504.25
466.951	507.25
467.171	485.25
467.391	519.25
467.61	513.25
467.829	513.25
468.049	513.25
468.268	509.25
468.488	520.25
468.707	479.25
468.927	481.25
469.146	494.25
469.365	488.25
469.585	515.25
469.804	504.25
470.023	507.25
470.243	514.25
470.462	499.25
470.681	529.25
470.901	505.25
471.12	514.25
471.339	513.25
471.558	535.25
471.777	492.25
471.997	500.25
472.216	502.25
472.435	525.25
472.654	512.25
472.873	491.25
473.092	491.25
473.311	487.25
473.53	498.25
473.749	517.25
473.968	562.25
474.187	669.25
474.406	693.25
474.625	581.25
474.844	541.25
475.063	526.25
475.282	514.25
475.501	503.25
475.72	528.25
475.939	516.25
476.158	526.25
476.377	520.25
476.596	538.25
476.814	527.25
477.033	544.25
477.252	551.25
477.471	561.25
477.69	566.25
477.908	557.25
478.127	536.25
478.346	549.25
478.564	583.25
478.783	585.25
479.002	592.25
479.22	578.25
479.439	593.25
479.658	625.25
479.876	611.25
480.095	635.25
480.313	637.25
480.532	648.25
480.751	631.25
480.969	628.25
481.188	681.25
481.406	708.25
481.624	653.25
481.843	605.25
482.061	604.25
482.28	605.25
482.498	625.25
482.717	583.25
482.935	611.25
483.153	616.25
483.372	581.25
483.59	599.25
483.808	599.25
484.027	589.25
484.245	602.25
484.463	600.25
484.681	612.25
484.9	602.25
485.118	617.25
485.336	599.25
485.554	605.25
485.772	639.25
485.99	615.25
486.209	629.25
486.427	639.25
486.645	640.25
486.863	646.25
487.081	630.25
487.299	637.25
487.517	635.25
487.735	629.25
487.953	637.25
488.171	646.25
488.389	637.25
488.607	641.25
488.825	643.25
489.043	640.25
489.261	635.25
489.479	653.25
489.696	644.25
489.914	678.25
490.132	660.25
490.35	651.25
490.568	674.25
490.786	663.25
491.003	692.25
491.221	689.25
491.439	675.25
491.657	717.25
491.874	698.25
492.092	705.25
492.31	715.25
492.527	722.25
492.745	736.25
492.963	723.25
493.18	726.25
493.398	743.25
493.615	744.25
493.833	715.25
494.05	715.25
494.268	755.25
494.485	729.25
494.703	741.25
494.92	739.25
495.138	729.25
495.355	725.25
495.573	720.25
495.79	725.25
496.008	755.25
496.225	746.25
496.442	770.25
496.66	756.25
496.877	761.25
497.094	752.25
497.312	766.25
497.529	787.25
497.746	812.25
497.963	793.25
498.181	834.25
498.398	835.25
498.615	841.25
498.832	888.25
499.049	888.25
499.267	902.25
499.484	922.25
499.701	943.25
499.918	992.25
500.135	1033.25
500.352	1056.25
500.569	1101.25
500.786	1101.25
501.003	1098.25
501.22	1024.25
501.437	1004.25
501.654	1007.25
501.871	953.25
