Data from 1978.PennyLincolnUp.Lamp.En5.5.200Scan.071719.P1_HRD10591_16-13-59-863.txt Node
Date: Thu Jul 18 16:13:59 EDT 2019
User: cochatt
Spectrometer: HR+D1059
Trigger mode: 1
Integration Time (sec): 1.000000E-1
Scans to average: 1
Electric dark correction enabled: true
Nonlinearity correction enabled: false
Boxcar width: 0
XAxis mode: Wavelengths
Number of Pixels in Spectrum: 2048
>>>>>Begin Spectral Data<<<<<
223.165	-25.56
223.4	-25.56
223.635	-25.56
223.869	-16.56
224.104	-21.56
224.338	-26.56
224.573	-12.56
224.808	-24.56
225.042	-10.56
225.277	-7.56
225.511	-13.56
225.746	4.44
225.98	20.44
226.215	20.44
226.449	34.44
226.683	17.44
226.918	25.44
227.152	36.44
227.387	19.44
227.621	42.44
227.856	41.44
228.09	51.44
228.324	49.44
228.559	53.44
228.793	53.44
229.027	94.44
229.262	105.44
229.496	100.44
229.73	134.44
229.964	163.44
230.199	124.44
230.433	116.44
230.667	122.44
230.901	92.44
231.136	103.44
231.37	109.44
231.604	111.44
231.838	115.44
232.072	109.44
232.306	113.44
232.541	103.44
232.775	111.44
233.009	113.44
233.243	101.44
233.477	112.44
233.711	117.44
233.945	119.44
234.179	121.44
234.413	114.44
234.647	115.44
234.881	110.44
235.115	111.44
235.349	108.44
235.583	123.44
235.817	111.44
236.051	113.44
236.285	139.44
236.519	118.44
236.753	147.44
236.987	140.44
237.221	168.44
237.455	224.44
237.689	163.44
237.922	148.44
238.156	136.44
238.39	128.44
238.624	121.44
238.858	106.44
239.091	112.44
239.325	131.44
239.559	107.44
239.793	131.44
240.027	123.44
240.26	127.44
240.494	136.44
240.728	147.44
240.961	129.44
241.195	142.44
241.429	135.44
241.662	131.44
241.896	131.44
242.13	122.44
242.363	138.44
242.597	132.44
242.83	128.44
243.064	141.44
243.298	130.44
243.531	127.44
243.765	128.44
243.998	135.44
244.232	119.44
244.465	143.44
244.699	148.44
244.932	145.44
245.166	123.44
245.399	144.44
245.633	139.44
245.866	129.44
246.099	140.44
246.333	140.44
246.566	137.44
246.8	150.44
247.033	138.44
247.266	156.44
247.5	147.44
247.733	154.44
247.966	166.44
248.2	148.44
248.433	159.44
248.666	165.44
248.899	155.44
249.133	189.44
249.366	183.44
249.599	175.44
249.832	173.44
250.066	179.44
250.299	176.44
250.532	177.44
250.765	167.44
250.998	189.44
251.231	213.44
251.465	193.44
251.698	189.44
251.931	186.44
252.164	180.44
252.397	183.44
252.63	194.44
252.863	169.44
253.096	196.44
253.329	207.44
253.562	226.44
253.795	200.44
254.028	183.44
254.261	188.44
254.494	216.44
254.727	222.44
254.96	248.44
255.193	233.44
255.426	214.44
255.659	223.44
255.892	223.44
256.124	205.44
256.357	199.44
256.59	197.44
256.823	197.44
257.056	194.44
257.289	198.44
257.521	187.44
257.754	195.44
257.987	169.44
258.22	180.44
258.452	193.44
258.685	191.44
258.918	186.44
259.151	197.44
259.383	202.44
259.616	220.44
259.849	210.44
260.081	224.44
260.314	234.44
260.547	236.44
260.779	235.44
261.012	227.44
261.244	210.44
261.477	213.44
261.71	193.44
261.942	207.44
262.175	223.44
262.407	215.44
262.64	203.44
262.872	196.44
263.105	203.44
263.337	192.44
263.57	181.44
263.802	199.44
264.035	197.44
264.267	201.44
264.499	199.44
264.732	185.44
264.964	202.44
265.197	214.44
265.429	194.44
265.661	213.44
265.894	213.44
266.126	214.44
266.358	203.44
266.591	204.44
266.823	210.44
267.055	203.44
267.287	219.44
267.52	198.44
267.752	217.44
267.984	207.44
268.216	216.44
268.448	227.44
268.681	194.44
268.913	204.44
269.145	232.44
269.377	267.44
269.609	249.44
269.841	241.44
270.073	259.44
270.306	268.44
270.538	296.44
270.77	287.44
271.002	240.44
271.234	265.44
271.466	275.44
271.698	281.44
271.93	277.44
272.162	283.44
272.394	289.44
272.626	273.44
272.858	280.44
273.09	248.44
273.322	249.44
273.553	243.44
273.785	257.44
274.017	252.44
274.249	237.44
274.481	237.44
274.713	256.44
274.945	239.44
275.176	253.44
275.408	260.44
275.64	253.44
275.872	248.44
276.104	259.44
276.335	231.44
276.567	270.44
276.799	260.44
277.031	277.44
277.262	293.44
277.494	304.44
277.726	291.44
277.957	273.44
278.189	265.44
278.421	267.44
278.652	248.44
278.884	264.44
279.115	262.44
279.347	259.44
279.579	248.44
279.81	240.44
280.042	249.44
280.273	246.44
280.505	253.44
280.736	241.44
280.968	241.44
281.199	268.44
281.431	239.44
281.662	251.44
281.894	244.44
282.125	274.44
282.356	281.44
282.588	289.44
282.819	298.44
283.051	249.44
283.282	261.44
283.513	264.44
283.745	273.44
283.976	291.44
284.207	257.44
284.439	266.44
284.67	244.44
284.901	259.44
285.132	245.44
285.364	259.44
285.595	250.44
285.826	282.44
286.057	261.44
286.288	262.44
286.52	264.44
286.751	268.44
286.982	262.44
287.213	274.44
287.444	261.44
287.675	262.44
287.906	268.44
288.138	273.44
288.369	287.44
288.6	304.44
288.831	278.44
289.062	301.44
289.293	285.44
289.524	289.44
289.755	259.44
289.986	262.44
290.217	277.44
290.448	277.44
290.679	285.44
290.91	265.44
291.141	256.44
291.371	286.44
291.602	272.44
291.833	289.44
292.064	283.44
292.295	271.44
292.526	278.44
292.757	269.44
292.987	277.44
293.218	270.44
293.449	259.44
293.68	276.44
293.91	286.44
294.141	292.44
294.372	258.44
294.603	288.44
294.833	275.44
295.064	275.44
295.295	291.44
295.525	260.44
295.756	287.44
295.987	291.44
296.217	310.44
296.448	312.44
296.679	292.44
296.909	291.44
297.14	280.44
297.37	300.44
297.601	277.44
297.831	274.44
298.062	269.44
298.292	284.44
298.523	291.44
298.753	296.44
298.984	295.44
299.214	303.44
299.445	288.44
299.675	293.44
299.905	292.44
300.136	294.44
300.366	283.44
300.597	303.44
300.827	289.44
301.057	289.44
301.288	291.44
301.518	313.44
301.748	315.44
301.979	313.44
302.209	325.44
302.439	309.44
302.669	312.44
302.9	324.44
303.13	319.44
303.36	310.44
303.59	307.44
303.82	319.44
304.051	323.44
304.281	322.44
304.511	305.44
304.741	297.44
304.971	303.44
305.201	326.44
305.431	319.44
305.661	330.44
305.891	311.44
306.121	309.44
306.352	304.44
306.582	322.44
306.812	307.44
307.042	325.44
307.272	308.44
307.502	321.44
307.731	317.44
307.961	314.44
308.191	313.44
308.421	315.44
308.651	319.44
308.881	330.44
309.111	333.44
309.341	332.44
309.571	328.44
309.8	346.44
310.03	346.44
310.26	358.44
310.49	353.44
310.72	361.44
310.949	374.44
311.179	373.44
311.409	371.44
311.639	345.44
311.868	349.44
312.098	354.44
312.328	375.44
312.557	370.44
312.787	395.44
313.017	380.44
313.246	367.44
313.476	360.44
313.706	358.44
313.935	356.44
314.165	362.44
314.394	403.44
314.624	377.44
314.853	383.44
315.083	368.44
315.312	364.44
315.542	358.44
315.771	366.44
316.001	345.44
316.23	356.44
316.46	373.44
316.689	368.44
316.919	359.44
317.148	381.44
317.377	384.44
317.607	371.44
317.836	367.44
318.065	345.44
318.295	361.44
318.524	362.44
318.753	350.44
318.983	356.44
319.212	360.44
319.441	380.44
319.67	381.44
319.9	355.44
320.129	343.44
320.358	370.44
320.587	366.44
320.816	368.44
321.046	371.44
321.275	381.44
321.504	395.44
321.733	387.44
321.962	363.44
322.191	385.44
322.42	395.44
322.649	459.44
322.878	447.44
323.108	436.44
323.337	465.44
323.566	496.44
323.795	499.44
324.024	545.44
324.253	643.44
324.482	952.44
324.71	1515.44
324.939	2323.44
325.168	1939.44
325.397	954.44
325.626	632.44
325.855	544.44
326.084	507.44
326.313	486.44
326.542	489.44
326.77	546.44
326.999	631.44
327.228	842.44
327.457	1358.44
327.686	1677.44
327.914	1087.44
328.143	677.44
328.372	609.44
328.6	569.44
328.829	541.44
329.058	524.44
329.287	563.44
329.515	504.44
329.744	495.44
329.972	511.44
330.201	498.44
330.43	547.44
330.658	573.44
330.887	577.44
331.115	576.44
331.344	486.44
331.572	472.44
331.801	458.44
332.03	443.44
332.258	458.44
332.486	443.44
332.715	422.44
332.943	436.44
333.172	436.44
333.4	442.44
333.629	458.44
333.857	455.44
334.085	479.44
334.314	479.44
334.542	503.44
334.771	521.44
334.999	501.44
335.227	483.44
335.455	433.44
335.684	437.44
335.912	422.44
336.14	422.44
336.369	414.44
336.597	442.44
336.825	446.44
337.053	443.44
337.281	440.44
337.51	418.44
337.738	417.44
337.966	429.44
338.194	426.44
338.422	429.44
338.65	425.44
338.878	419.44
339.106	434.44
339.334	425.44
339.562	438.44
339.79	415.44
340.018	417.44
340.246	434.44
340.474	413.44
340.702	426.44
340.93	410.44
341.158	420.44
341.386	442.44
341.614	419.44
341.842	419.44
342.07	411.44
342.298	419.44
342.526	401.44
342.754	396.44
342.981	393.44
343.209	400.44
343.437	413.44
343.665	420.44
343.893	421.44
344.12	439.44
344.348	451.44
344.576	429.44
344.804	440.44
345.031	423.44
345.259	429.44
345.487	419.44
345.714	419.44
345.942	421.44
346.17	414.44
346.397	424.44
346.625	421.44
346.853	401.44
347.08	393.44
347.308	416.44
347.535	397.44
347.763	408.44
347.99	416.44
348.218	430.44
348.445	437.44
348.673	418.44
348.9	420.44
349.128	409.44
349.355	416.44
349.583	404.44
349.81	404.44
350.037	370.44
350.265	396.44
350.492	397.44
350.72	387.44
350.947	413.44
351.174	401.44
351.402	417.44
351.629	399.44
351.856	401.44
352.083	413.44
352.311	431.44
352.538	418.44
352.765	425.44
352.992	440.44
353.22	408.44
353.447	401.44
353.674	401.44
353.901	393.44
354.128	400.44
354.355	396.44
354.583	378.44
354.81	383.44
355.037	401.44
355.264	393.44
355.491	378.44
355.718	395.44
355.945	390.44
356.172	368.44
356.399	383.44
356.626	400.44
356.853	375.44
357.08	373.44
357.307	377.44
357.534	383.44
357.761	389.44
357.988	385.44
358.215	388.44
358.441	403.44
358.668	364.44
358.895	379.44
359.122	390.44
359.349	415.44
359.576	407.44
359.802	433.44
360.029	452.44
360.256	488.44
360.483	425.44
360.709	423.44
360.936	414.44
361.163	397.44
361.39	419.44
361.616	417.44
361.843	416.44
362.07	404.44
362.296	419.44
362.523	417.44
362.749	417.44
362.976	404.44
363.203	407.44
363.429	396.44
363.656	381.44
363.882	385.44
364.109	392.44
364.335	401.44
364.562	415.44
364.788	402.44
365.015	384.44
365.241	401.44
365.468	404.44
365.694	410.44
365.92	389.44
366.147	410.44
366.373	404.44
366.599	408.44
366.826	402.44
367.052	384.44
367.278	398.44
367.505	396.44
367.731	413.44
367.957	407.44
368.184	414.44
368.41	416.44
368.636	417.44
368.862	433.44
369.089	402.44
369.315	403.44
369.541	382.44
369.767	396.44
369.993	378.44
370.219	396.44
370.445	386.44
370.672	408.44
370.898	397.44
371.124	395.44
371.35	403.44
371.576	382.44
371.802	403.44
372.028	389.44
372.254	388.44
372.48	403.44
372.706	415.44
372.932	420.44
373.158	409.44
373.384	406.44
373.61	411.44
373.835	398.44
374.061	389.44
374.287	429.44
374.513	421.44
374.739	437.44
374.965	423.44
375.191	415.44
375.416	417.44
375.642	408.44
375.868	391.44
376.094	392.44
376.319	404.44
376.545	406.44
376.771	399.44
376.997	418.44
377.222	400.44
377.448	413.44
377.674	395.44
377.899	402.44
378.125	396.44
378.35	401.44
378.576	399.44
378.802	411.44
379.027	394.44
379.253	392.44
379.478	413.44
379.704	402.44
379.929	395.44
380.155	406.44
380.38	405.44
380.606	414.44
380.831	406.44
381.057	412.44
381.282	405.44
381.507	400.44
381.733	413.44
381.958	415.44
382.184	421.44
382.409	420.44
382.634	444.44
382.86	414.44
383.085	417.44
383.31	418.44
383.535	424.44
383.761	421.44
383.986	424.44
384.211	422.44
384.436	428.44
384.662	424.44
384.887	424.44
385.112	445.44
385.337	441.44
385.562	456.44
385.787	449.44
386.013	445.44
386.238	439.44
386.463	441.44
386.688	457.44
386.913	460.44
387.138	429.44
387.363	453.44
387.588	439.44
387.813	439.44
388.038	428.44
388.263	448.44
388.488	447.44
388.713	435.44
388.938	439.44
389.163	443.44
389.387	475.44
389.612	460.44
389.837	461.44
390.062	473.44
390.287	450.44
390.512	453.44
390.736	442.44
390.961	461.44
391.186	438.44
391.411	461.44
391.636	447.44
391.86	456.44
392.085	453.44
392.31	475.44
392.534	458.44
392.759	461.44
392.984	454.44
393.208	456.44
393.433	465.44
393.658	470.44
393.882	479.44
394.107	436.44
394.331	456.44
394.556	443.44
394.78	469.44
395.005	482.44
395.229	468.44
395.454	469.44
395.678	457.44
395.903	493.44
396.127	471.44
396.352	513.44
396.576	495.44
396.801	503.44
397.025	464.44
397.249	487.44
397.474	484.44
397.698	489.44
397.922	492.44
398.147	497.44
398.371	513.44
398.595	510.44
398.82	520.44
399.044	563.44
399.268	532.44
399.492	586.44
399.717	601.44
399.941	617.44
400.165	653.44
400.389	657.44
400.613	616.44
400.837	565.44
401.062	561.44
401.286	548.44
401.51	524.44
401.734	525.44
401.958	540.44
402.182	552.44
402.406	549.44
402.63	534.44
402.854	531.44
403.078	546.44
403.302	564.44
403.526	537.44
403.75	538.44
403.974	568.44
404.198	536.44
404.422	553.44
404.645	570.44
404.869	561.44
405.093	600.44
405.317	637.44
405.541	675.44
405.765	627.44
405.988	596.44
406.212	591.44
406.436	592.44
406.66	615.44
406.883	587.44
407.107	618.44
407.331	652.44
407.555	743.44
407.778	754.44
408.002	663.44
408.226	628.44
408.449	611.44
408.673	603.44
408.896	656.44
409.12	672.44
409.344	637.44
409.567	587.44
409.791	577.44
410.014	561.44
410.238	553.44
410.461	560.44
410.685	574.44
410.908	572.44
411.132	601.44
411.355	636.44
411.578	600.44
411.802	549.44
412.025	541.44
412.249	578.44
412.472	591.44
412.695	633.44
412.919	611.44
413.142	557.44
413.365	542.44
413.589	563.44
413.812	550.44
414.035	517.44
414.258	516.44
414.482	524.44
414.705	534.44
414.928	505.44
415.151	522.44
415.374	521.44
415.597	513.44
415.821	493.44
416.044	501.44
416.267	519.44
416.49	524.44
416.713	516.44
416.936	522.44
417.159	507.44
417.382	532.44
417.605	560.44
417.828	553.44
418.051	543.44
418.274	528.44
418.497	528.44
418.72	499.44
418.943	505.44
419.166	528.44
419.389	552.44
419.611	572.44
419.834	556.44
420.057	547.44
420.28	524.44
420.503	535.44
420.726	535.44
420.948	536.44
421.171	592.44
421.394	630.44
421.617	549.44
421.839	543.44
422.062	553.44
422.285	540.44
422.507	608.44
422.73	705.44
422.953	701.44
423.175	583.44
423.398	581.44
423.621	569.44
423.843	580.44
424.066	567.44
424.288	564.44
424.511	608.44
424.733	662.44
424.956	760.44
425.178	709.44
425.401	697.44
425.623	749.44
425.846	628.44
426.068	595.44
426.291	584.44
426.513	588.44
426.735	589.44
426.958	613.44
427.18	717.44
427.402	852.44
427.625	915.44
427.847	779.44
428.069	711.44
428.292	632.44
428.514	583.44
428.736	562.44
428.958	555.44
429.181	522.44
429.403	549.44
429.625	540.44
429.847	561.44
430.069	657.44
430.292	640.44
430.514	577.44
430.736	547.44
430.958	535.44
431.18	513.44
431.402	533.44
431.624	506.44
431.846	495.44
432.068	519.44
432.29	519.44
432.512	523.44
432.734	534.44
432.956	532.44
433.178	542.44
433.4	524.44
433.622	534.44
433.844	514.44
434.066	508.44
434.287	532.44
434.509	521.44
434.731	519.44
434.953	524.44
435.175	556.44
435.397	566.44
435.618	539.44
435.84	627.44
436.062	722.44
436.284	804.44
436.505	679.44
436.727	587.44
436.949	563.44
437.17	545.44
437.392	543.44
437.614	566.44
437.835	600.44
438.057	709.44
438.278	800.44
438.5	794.44
438.721	893.44
438.943	846.44
439.165	676.44
439.386	607.44
439.608	575.44
439.829	604.44
440.05	597.44
440.272	680.44
440.493	619.44
440.715	583.44
440.936	554.44
441.158	552.44
441.379	542.44
441.6	581.44
441.822	569.44
442.043	627.44
442.264	692.44
442.486	757.44
442.707	645.44
442.928	602.44
443.149	621.44
443.371	620.44
443.592	667.44
443.813	782.44
444.034	852.44
444.255	693.44
444.476	604.44
444.698	595.44
444.919	585.44
445.14	653.44
445.361	631.44
445.582	636.44
445.803	723.44
446.024	797.44
446.245	825.44
446.466	748.44
446.687	618.44
446.908	603.44
447.129	576.44
447.35	559.44
447.571	550.44
447.792	531.44
448.013	544.44
448.234	561.44
448.455	613.44
448.675	728.44
448.896	862.44
449.117	736.44
449.338	679.44
449.559	782.44
449.779	906.44
450	711.44
450.221	581.44
450.442	543.44
450.662	517.44
450.883	522.44
451.104	551.44
451.324	534.44
451.545	499.44
451.766	483.44
451.986	506.44
452.207	462.44
452.428	469.44
452.648	485.44
452.869	456.44
453.089	496.44
453.31	504.44
453.53	493.44
453.751	468.44
453.971	492.44
454.192	474.44
454.412	475.44
454.633	486.44
454.853	487.44
455.073	484.44
455.294	492.44
455.514	571.44
455.734	572.44
455.955	480.44
456.175	463.44
456.395	473.44
456.616	443.44
456.836	477.44
457.056	465.44
457.276	443.44
457.497	457.44
457.717	434.44
457.937	448.44
458.157	485.44
458.377	482.44
458.598	503.44
458.818	539.44
459.038	635.44
459.258	635.44
459.478	586.44
459.698	503.44
459.918	514.44
460.138	499.44
460.358	524.44
460.578	519.44
460.798	529.44
461.018	541.44
461.238	528.44
461.458	537.44
461.678	512.44
461.898	549.44
462.118	531.44
462.338	561.44
462.558	548.44
462.777	551.44
462.997	546.44
463.217	572.44
463.437	599.44
463.657	554.44
463.876	579.44
464.096	564.44
464.316	567.44
464.536	591.44
464.755	559.44
464.975	591.44
465.195	592.44
465.414	660.44
465.634	586.44
465.854	558.44
466.073	550.44
466.293	493.44
466.512	496.44
466.732	500.44
466.951	487.44
467.171	492.44
467.391	493.44
467.61	511.44
467.829	513.44
468.049	514.44
468.268	483.44
468.488	480.44
468.707	483.44
468.927	503.44
469.146	471.44
469.365	490.44
469.585	500.44
469.804	488.44
470.023	530.44
470.243	504.44
470.462	491.44
470.681	539.44
470.901	493.44
471.12	498.44
471.339	495.44
471.558	517.44
471.777	500.44
471.997	526.44
472.216	505.44
472.435	541.44
472.654	524.44
472.873	514.44
473.092	545.44
473.311	516.44
473.53	487.44
473.749	533.44
473.968	533.44
474.187	654.44
474.406	667.44
474.625	554.44
474.844	528.44
475.063	514.44
475.282	511.44
475.501	500.44
475.72	517.44
475.939	520.44
476.158	509.44
476.377	533.44
476.596	526.44
476.814	520.44
477.033	545.44
477.252	540.44
477.471	540.44
477.69	544.44
477.908	573.44
478.127	559.44
478.346	564.44
478.564	581.44
478.783	561.44
479.002	567.44
479.22	556.44
479.439	593.44
479.658	607.44
479.876	611.44
480.095	626.44
480.313	652.44
480.532	643.44
480.751	639.44
480.969	638.44
481.188	682.44
481.406	702.44
481.624	647.44
481.843	611.44
482.061	616.44
482.28	589.44
482.498	585.44
482.717	574.44
482.935	601.44
483.153	572.44
483.372	602.44
483.59	606.44
483.808	607.44
484.027	585.44
484.245	586.44
484.463	608.44
484.681	618.44
484.9	624.44
485.118	589.44
485.336	606.44
485.554	611.44
485.772	607.44
485.99	623.44
486.209	623.44
486.427	610.44
486.645	624.44
486.863	627.44
487.081	616.44
487.299	633.44
487.517	645.44
487.735	618.44
487.953	616.44
488.171	618.44
488.389	614.44
488.607	637.44
488.825	636.44
489.043	633.44
489.261	639.44
489.479	662.44
489.696	635.44
489.914	661.44
490.132	655.44
490.35	671.44
490.568	656.44
490.786	657.44
491.003	663.44
491.221	684.44
491.439	709.44
491.657	675.44
491.874	677.44
492.092	713.44
492.31	715.44
492.527	723.44
492.745	706.44
492.963	710.44
493.18	712.44
493.398	717.44
493.615	712.44
493.833	715.44
494.05	727.44
494.268	719.44
494.485	740.44
494.703	729.44
494.92	755.44
495.138	741.44
495.355	742.44
495.573	754.44
495.79	752.44
496.008	767.44
496.225	744.44
496.442	758.44
496.66	755.44
496.877	751.44
497.094	763.44
497.312	760.44
497.529	795.44
497.746	768.44
497.963	783.44
498.181	808.44
498.398	845.44
498.615	853.44
498.832	881.44
499.049	862.44
499.267	910.44
499.484	913.44
499.701	935.44
499.918	987.44
500.135	1022.44
500.352	1064.44
500.569	1062.44
500.786	1110.44
501.003	1079.44
501.22	1017.44
501.437	999.44
501.654	966.44
501.871	973.44
