Data from 1978.PennyLincolnUp.Lamp.En5.5.200Scan.071719.P1_HRD10591_16-14-32-863.txt Node
Date: Thu Jul 18 16:14:32 EDT 2019
User: cochatt
Spectrometer: HR+D1059
Trigger mode: 1
Integration Time (sec): 1.000000E-1
Scans to average: 1
Electric dark correction enabled: true
Nonlinearity correction enabled: false
Boxcar width: 0
XAxis mode: Wavelengths
Number of Pixels in Spectrum: 2048
>>>>>Begin Spectral Data<<<<<
223.165	-10.56
223.4	-10.56
223.635	-10.56
223.869	-19.56
224.104	-18.56
224.338	-14.56
224.573	-17.56
224.808	-19.56
225.042	-12.56
225.277	-4.56
225.511	4.44
225.746	5.44
225.98	4.44
226.215	15.44
226.449	17.44
226.683	26.44
226.918	22.44
227.152	21.44
227.387	36.44
227.621	29.44
227.856	43.44
228.09	41.44
228.324	49.44
228.559	41.44
228.793	65.44
229.027	84.44
229.262	118.44
229.496	112.44
229.73	141.44
229.964	159.44
230.199	133.44
230.433	127.44
230.667	125.44
230.901	110.44
231.136	117.44
231.37	117.44
231.604	113.44
231.838	108.44
232.072	100.44
232.306	124.44
232.541	121.44
232.775	123.44
233.009	109.44
233.243	119.44
233.477	126.44
233.711	120.44
233.945	106.44
234.179	116.44
234.413	124.44
234.647	122.44
234.881	119.44
235.115	115.44
235.349	116.44
235.583	120.44
235.817	113.44
236.051	124.44
236.285	116.44
236.519	121.44
236.753	124.44
236.987	142.44
237.221	195.44
237.455	242.44
237.689	191.44
237.922	140.44
238.156	138.44
238.39	114.44
238.624	133.44
238.858	130.44
239.091	126.44
239.325	118.44
239.559	117.44
239.793	137.44
240.027	129.44
240.26	152.44
240.494	151.44
240.728	140.44
240.961	142.44
241.195	142.44
241.429	134.44
241.662	138.44
241.896	129.44
242.13	140.44
242.363	131.44
242.597	119.44
242.83	137.44
243.064	151.44
243.298	133.44
243.531	142.44
243.765	142.44
243.998	149.44
244.232	130.44
244.465	147.44
244.699	151.44
244.932	147.44
245.166	143.44
245.399	129.44
245.633	153.44
245.866	141.44
246.099	146.44
246.333	141.44
246.566	139.44
246.8	152.44
247.033	141.44
247.266	166.44
247.5	158.44
247.733	146.44
247.966	165.44
248.2	154.44
248.433	149.44
248.666	169.44
248.899	181.44
249.133	195.44
249.366	217.44
249.599	180.44
249.832	185.44
250.066	163.44
250.299	175.44
250.532	197.44
250.765	190.44
250.998	207.44
251.231	221.44
251.465	219.44
251.698	185.44
251.931	191.44
252.164	183.44
252.397	198.44
252.63	191.44
252.863	199.44
253.096	204.44
253.329	222.44
253.562	233.44
253.795	214.44
254.028	204.44
254.261	210.44
254.494	205.44
254.727	235.44
254.96	285.44
255.193	266.44
255.426	245.44
255.659	221.44
255.892	217.44
256.124	219.44
256.357	222.44
256.59	210.44
256.823	200.44
257.056	205.44
257.289	206.44
257.521	198.44
257.754	204.44
257.987	209.44
258.22	203.44
258.452	189.44
258.685	213.44
258.918	208.44
259.151	200.44
259.383	210.44
259.616	217.44
259.849	214.44
260.081	232.44
260.314	247.44
260.547	251.44
260.779	246.44
261.012	238.44
261.244	234.44
261.477	215.44
261.71	207.44
261.942	222.44
262.175	230.44
262.407	213.44
262.64	211.44
262.872	223.44
263.105	222.44
263.337	201.44
263.57	198.44
263.802	191.44
264.035	226.44
264.267	217.44
264.499	208.44
264.732	203.44
264.964	210.44
265.197	191.44
265.429	215.44
265.661	207.44
265.894	218.44
266.126	206.44
266.358	220.44
266.591	225.44
266.823	214.44
267.055	224.44
267.287	233.44
267.52	225.44
267.752	218.44
267.984	228.44
268.216	220.44
268.448	232.44
268.681	249.44
268.913	236.44
269.145	236.44
269.377	267.44
269.609	256.44
269.841	266.44
270.073	247.44
270.306	261.44
270.538	300.44
270.77	303.44
271.002	307.44
271.234	277.44
271.466	284.44
271.698	294.44
271.93	304.44
272.162	301.44
272.394	307.44
272.626	284.44
272.858	261.44
273.09	261.44
273.322	272.44
273.553	270.44
273.785	262.44
274.017	271.44
274.249	254.44
274.481	277.44
274.713	250.44
274.945	269.44
275.176	275.44
275.408	236.44
275.64	263.44
275.872	279.44
276.104	257.44
276.335	274.44
276.567	266.44
276.799	281.44
277.031	288.44
277.262	319.44
277.494	316.44
277.726	286.44
277.957	284.44
278.189	279.44
278.421	268.44
278.652	279.44
278.884	275.44
279.115	274.44
279.347	268.44
279.579	260.44
279.81	271.44
280.042	274.44
280.273	263.44
280.505	273.44
280.736	257.44
280.968	253.44
281.199	271.44
281.431	276.44
281.662	273.44
281.894	263.44
282.125	290.44
282.356	275.44
282.588	321.44
282.819	313.44
283.051	278.44
283.282	281.44
283.513	287.44
283.745	270.44
283.976	278.44
284.207	277.44
284.439	267.44
284.67	283.44
284.901	277.44
285.132	272.44
285.364	285.44
285.595	262.44
285.826	285.44
286.057	278.44
286.288	279.44
286.52	265.44
286.751	287.44
286.982	283.44
287.213	288.44
287.444	290.44
287.675	288.44
287.906	294.44
288.138	307.44
288.369	293.44
288.6	303.44
288.831	284.44
289.062	302.44
289.293	311.44
289.524	293.44
289.755	292.44
289.986	296.44
290.217	285.44
290.448	291.44
290.679	297.44
290.91	297.44
291.141	278.44
291.371	305.44
291.602	287.44
291.833	298.44
292.064	301.44
292.295	312.44
292.526	283.44
292.757	299.44
292.987	282.44
293.218	273.44
293.449	295.44
293.68	316.44
293.91	314.44
294.141	298.44
294.372	276.44
294.603	309.44
294.833	283.44
295.064	296.44
295.295	287.44
295.525	302.44
295.756	298.44
295.987	298.44
296.217	341.44
296.448	345.44
296.679	301.44
296.909	302.44
297.14	292.44
297.37	291.44
297.601	291.44
297.831	302.44
298.062	293.44
298.292	293.44
298.523	311.44
298.753	317.44
298.984	315.44
299.214	319.44
299.445	313.44
299.675	305.44
299.905	317.44
300.136	333.44
300.366	319.44
300.597	318.44
300.827	324.44
301.057	314.44
301.288	318.44
301.518	329.44
301.748	317.44
301.979	341.44
302.209	319.44
302.439	329.44
302.669	334.44
302.9	320.44
303.13	331.44
303.36	344.44
303.59	332.44
303.82	348.44
304.051	358.44
304.281	343.44
304.511	322.44
304.741	332.44
304.971	312.44
305.201	334.44
305.431	333.44
305.661	324.44
305.891	305.44
306.121	314.44
306.352	336.44
306.582	329.44
306.812	341.44
307.042	355.44
307.272	327.44
307.502	326.44
307.731	361.44
307.961	346.44
308.191	326.44
308.421	333.44
308.651	362.44
308.881	342.44
309.111	342.44
309.341	348.44
309.571	358.44
309.8	347.44
310.03	364.44
310.26	356.44
310.49	380.44
310.72	397.44
310.949	395.44
311.179	413.44
311.409	377.44
311.639	383.44
311.868	374.44
312.098	382.44
312.328	389.44
312.557	390.44
312.787	402.44
313.017	404.44
313.246	397.44
313.476	372.44
313.706	379.44
313.935	362.44
314.165	392.44
314.394	417.44
314.624	415.44
314.853	406.44
315.083	375.44
315.312	397.44
315.542	373.44
315.771	378.44
316.001	383.44
316.23	378.44
316.46	385.44
316.689	387.44
316.919	370.44
317.148	394.44
317.377	378.44
317.607	391.44
317.836	391.44
318.065	396.44
318.295	382.44
318.524	380.44
318.753	397.44
318.983	392.44
319.212	400.44
319.441	390.44
319.67	407.44
319.9	366.44
320.129	397.44
320.358	399.44
320.587	395.44
320.816	385.44
321.046	409.44
321.275	403.44
321.504	408.44
321.733	384.44
321.962	402.44
322.191	413.44
322.42	431.44
322.649	441.44
322.878	452.44
323.108	473.44
323.337	461.44
323.566	518.44
323.795	536.44
324.024	589.44
324.253	714.44
324.482	1037.44
324.71	1651.44
324.939	2582.44
325.168	2199.44
325.397	1068.44
325.626	695.44
325.855	544.44
326.084	524.44
326.313	523.44
326.542	510.44
326.77	567.44
326.999	661.44
327.228	923.44
327.457	1478.44
327.686	1898.44
327.914	1185.44
328.143	729.44
328.372	650.44
328.6	610.44
328.829	573.44
329.058	591.44
329.287	619.44
329.515	574.44
329.744	535.44
329.972	538.44
330.201	533.44
330.43	574.44
330.658	583.44
330.887	602.44
331.115	604.44
331.344	522.44
331.572	494.44
331.801	484.44
332.03	524.44
332.258	474.44
332.486	434.44
332.715	472.44
332.943	479.44
333.172	485.44
333.4	460.44
333.629	482.44
333.857	477.44
334.085	516.44
334.314	539.44
334.542	546.44
334.771	565.44
334.999	509.44
335.227	499.44
335.455	485.44
335.684	478.44
335.912	486.44
336.14	468.44
336.369	450.44
336.597	480.44
336.825	461.44
337.053	485.44
337.281	436.44
337.51	465.44
337.738	446.44
337.966	446.44
338.194	476.44
338.422	468.44
338.65	472.44
338.878	449.44
339.106	471.44
339.334	444.44
339.562	433.44
339.79	445.44
340.018	437.44
340.246	444.44
340.474	444.44
340.702	449.44
340.93	447.44
341.158	451.44
341.386	450.44
341.614	437.44
341.842	428.44
342.07	432.44
342.298	449.44
342.526	441.44
342.754	411.44
342.981	417.44
343.209	421.44
343.437	435.44
343.665	455.44
343.893	473.44
344.12	457.44
344.348	452.44
344.576	458.44
344.804	469.44
345.031	471.44
345.259	486.44
345.487	446.44
345.714	435.44
345.942	443.44
346.17	461.44
346.397	412.44
346.625	440.44
346.853	425.44
347.08	428.44
347.308	415.44
347.535	447.44
347.763	455.44
347.99	445.44
348.218	450.44
348.445	441.44
348.673	444.44
348.9	435.44
349.128	433.44
349.355	405.44
349.583	406.44
349.81	422.44
350.037	419.44
350.265	428.44
350.492	435.44
350.72	433.44
350.947	432.44
351.174	431.44
351.402	435.44
351.629	449.44
351.856	436.44
352.083	439.44
352.311	439.44
352.538	458.44
352.765	445.44
352.992	426.44
353.22	436.44
353.447	430.44
353.674	442.44
353.901	433.44
354.128	417.44
354.355	416.44
354.583	424.44
354.81	419.44
355.037	415.44
355.264	395.44
355.491	409.44
355.718	406.44
355.945	417.44
356.172	398.44
356.399	409.44
356.626	403.44
356.853	393.44
357.08	402.44
357.307	372.44
357.534	392.44
357.761	395.44
357.988	406.44
358.215	401.44
358.441	398.44
358.668	415.44
358.895	417.44
359.122	428.44
359.349	446.44
359.576	437.44
359.802	462.44
360.029	481.44
360.256	478.44
360.483	441.44
360.709	446.44
360.936	452.44
361.163	430.44
361.39	451.44
361.616	460.44
361.843	419.44
362.07	424.44
362.296	422.44
362.523	445.44
362.749	435.44
362.976	419.44
363.203	429.44
363.429	429.44
363.656	426.44
363.882	421.44
364.109	433.44
364.335	420.44
364.562	430.44
364.788	453.44
365.015	422.44
365.241	414.44
365.468	425.44
365.694	428.44
365.92	428.44
366.147	402.44
366.373	428.44
366.599	406.44
366.826	429.44
367.052	413.44
367.278	434.44
367.505	413.44
367.731	426.44
367.957	433.44
368.184	446.44
368.41	428.44
368.636	444.44
368.862	439.44
369.089	400.44
369.315	433.44
369.541	438.44
369.767	425.44
369.993	440.44
370.219	420.44
370.445	443.44
370.672	421.44
370.898	439.44
371.124	413.44
371.35	423.44
371.576	417.44
371.802	409.44
372.028	409.44
372.254	427.44
372.48	405.44
372.706	447.44
372.932	434.44
373.158	445.44
373.384	435.44
373.61	438.44
373.835	430.44
374.061	431.44
374.287	429.44
374.513	426.44
374.739	435.44
374.965	433.44
375.191	434.44
375.416	465.44
375.642	438.44
375.868	446.44
376.094	435.44
376.319	428.44
376.545	412.44
376.771	435.44
376.997	430.44
377.222	424.44
377.448	433.44
377.674	446.44
377.899	424.44
378.125	436.44
378.35	430.44
378.576	424.44
378.802	425.44
379.027	441.44
379.253	418.44
379.478	426.44
379.704	427.44
379.929	433.44
380.155	418.44
380.38	424.44
380.606	434.44
380.831	416.44
381.057	428.44
381.282	439.44
381.507	420.44
381.733	437.44
381.958	415.44
382.184	447.44
382.409	442.44
382.634	436.44
382.86	422.44
383.085	434.44
383.31	440.44
383.535	453.44
383.761	429.44
383.986	464.44
384.211	446.44
384.436	458.44
384.662	473.44
384.887	447.44
385.112	453.44
385.337	470.44
385.562	470.44
385.787	473.44
386.013	486.44
386.238	484.44
386.463	473.44
386.688	459.44
386.913	461.44
387.138	471.44
387.363	471.44
387.588	487.44
387.813	466.44
388.038	484.44
388.263	449.44
388.488	453.44
388.713	460.44
388.938	474.44
389.163	492.44
389.387	474.44
389.612	476.44
389.837	472.44
390.062	478.44
390.287	472.44
390.512	489.44
390.736	488.44
390.961	474.44
391.186	476.44
391.411	482.44
391.636	499.44
391.86	519.44
392.085	505.44
392.31	463.44
392.534	501.44
392.759	497.44
392.984	484.44
393.208	498.44
393.433	499.44
393.658	494.44
393.882	477.44
394.107	478.44
394.331	501.44
394.556	483.44
394.78	478.44
395.005	504.44
395.229	500.44
395.454	507.44
395.678	520.44
395.903	506.44
396.127	534.44
396.352	524.44
396.576	517.44
396.801	509.44
397.025	505.44
397.249	507.44
397.474	506.44
397.698	528.44
397.922	514.44
398.147	556.44
398.371	543.44
398.595	559.44
398.82	541.44
399.044	566.44
399.268	581.44
399.492	603.44
399.717	632.44
399.941	661.44
400.165	680.44
400.389	698.44
400.613	636.44
400.837	595.44
401.062	579.44
401.286	579.44
401.51	572.44
401.734	553.44
401.958	555.44
402.182	570.44
402.406	597.44
402.63	577.44
402.854	565.44
403.078	570.44
403.302	573.44
403.526	587.44
403.75	587.44
403.974	572.44
404.198	564.44
404.422	572.44
404.645	595.44
404.869	590.44
405.093	616.44
405.317	694.44
405.541	731.44
405.765	652.44
405.988	617.44
406.212	629.44
406.436	628.44
406.66	649.44
406.883	656.44
407.107	643.44
407.331	682.44
407.555	771.44
407.778	779.44
408.002	706.44
408.226	633.44
408.449	636.44
408.673	626.44
408.896	691.44
409.12	761.44
409.344	685.44
409.567	617.44
409.791	633.44
410.014	588.44
410.238	600.44
410.461	574.44
410.685	591.44
410.908	614.44
411.132	636.44
411.355	674.44
411.578	638.44
411.802	591.44
412.025	586.44
412.249	584.44
412.472	606.44
412.695	663.44
412.919	650.44
413.142	594.44
413.365	563.44
413.589	571.44
413.812	578.44
414.035	578.44
414.258	560.44
414.482	561.44
414.705	583.44
414.928	556.44
415.151	545.44
415.374	545.44
415.597	564.44
415.821	538.44
416.044	559.44
416.267	531.44
416.49	534.44
416.713	567.44
416.936	554.44
417.159	534.44
417.382	541.44
417.605	547.44
417.828	573.44
418.051	586.44
418.274	564.44
418.497	545.44
418.72	577.44
418.943	567.44
419.166	577.44
419.389	599.44
419.611	590.44
419.834	584.44
420.057	578.44
420.28	571.44
420.503	555.44
420.726	554.44
420.948	589.44
421.171	658.44
421.394	671.44
421.617	589.44
421.839	580.44
422.062	564.44
422.285	597.44
422.507	636.44
422.73	741.44
422.953	699.44
423.175	622.44
423.398	586.44
423.621	591.44
423.843	601.44
424.066	634.44
424.288	639.44
424.511	636.44
424.733	690.44
424.956	790.44
425.178	761.44
425.401	726.44
425.623	796.44
425.846	669.44
426.068	640.44
426.291	633.44
426.513	610.44
426.735	641.44
426.958	673.44
427.18	765.44
427.402	934.44
427.625	1038.44
427.847	891.44
428.069	782.44
428.292	688.44
428.514	611.44
428.736	612.44
428.958	570.44
429.181	571.44
429.403	538.44
429.625	596.44
429.847	641.44
430.069	704.44
430.292	702.44
430.514	591.44
430.736	575.44
430.958	549.44
431.18	559.44
431.402	515.44
431.624	545.44
431.846	546.44
432.068	544.44
432.29	540.44
432.512	542.44
432.734	554.44
432.956	527.44
433.178	553.44
433.4	535.44
433.622	547.44
433.844	555.44
434.066	533.44
434.287	561.44
434.509	551.44
434.731	561.44
434.953	589.44
435.175	589.44
435.397	586.44
435.618	631.44
435.84	669.44
436.062	782.44
436.284	860.44
436.505	729.44
436.727	620.44
436.949	617.44
437.17	567.44
437.392	563.44
437.614	558.44
437.835	617.44
438.057	746.44
438.278	873.44
438.5	841.44
438.721	947.44
438.943	881.44
439.165	692.44
439.386	639.44
439.608	631.44
439.829	630.44
440.05	674.44
440.272	755.44
440.493	659.44
440.715	630.44
440.936	581.44
441.158	582.44
441.379	588.44
441.6	576.44
441.822	612.44
442.043	640.44
442.264	755.44
442.486	817.44
442.707	693.44
442.928	643.44
443.149	643.44
443.371	652.44
443.592	709.44
443.813	828.44
444.034	866.44
444.255	723.44
444.476	655.44
444.698	638.44
444.919	619.44
445.14	711.44
445.361	659.44
445.582	662.44
445.803	735.44
446.024	895.44
446.245	877.44
446.466	775.44
446.687	653.44
446.908	613.44
447.129	573.44
447.35	582.44
447.571	564.44
447.792	595.44
448.013	602.44
448.234	611.44
448.455	665.44
448.675	802.44
448.896	933.44
449.117	765.44
449.338	728.44
449.559	855.44
449.779	991.44
450	780.44
450.221	634.44
450.442	591.44
450.662	561.44
450.883	578.44
451.104	575.44
451.324	572.44
451.545	558.44
451.766	532.44
451.986	524.44
452.207	507.44
452.428	515.44
452.648	504.44
452.869	526.44
453.089	548.44
453.31	537.44
453.53	526.44
453.751	519.44
453.971	500.44
454.192	526.44
454.412	518.44
454.633	486.44
454.853	508.44
455.073	522.44
455.294	534.44
455.514	630.44
455.734	601.44
455.955	507.44
456.175	490.44
456.395	510.44
456.616	469.44
456.836	477.44
457.056	482.44
457.276	480.44
457.497	482.44
457.717	493.44
457.937	499.44
458.157	480.44
458.377	519.44
458.598	543.44
458.818	603.44
459.038	655.44
459.258	703.44
459.478	591.44
459.698	564.44
459.918	562.44
460.138	520.44
460.358	565.44
460.578	561.44
460.798	572.44
461.018	556.44
461.238	573.44
461.458	557.44
461.678	550.44
461.898	575.44
462.118	551.44
462.338	571.44
462.558	569.44
462.777	583.44
462.997	595.44
463.217	608.44
463.437	622.44
463.657	630.44
463.876	612.44
464.096	600.44
464.316	587.44
464.536	645.44
464.755	606.44
464.975	582.44
465.195	646.44
465.414	691.44
465.634	621.44
465.854	606.44
466.073	556.44
466.293	547.44
466.512	533.44
466.732	534.44
466.951	512.44
467.171	521.44
467.391	519.44
467.61	561.44
467.829	530.44
468.049	546.44
468.268	542.44
468.488	530.44
468.707	491.44
468.927	524.44
469.146	502.44
469.365	515.44
469.585	495.44
469.804	505.44
470.023	539.44
470.243	514.44
470.462	508.44
470.681	548.44
470.901	546.44
471.12	542.44
471.339	543.44
471.558	536.44
471.777	561.44
471.997	517.44
472.216	541.44
472.435	586.44
472.654	549.44
472.873	532.44
473.092	513.44
473.311	526.44
473.53	533.44
473.749	541.44
473.968	592.44
474.187	706.44
474.406	705.44
474.625	600.44
474.844	547.44
475.063	533.44
475.282	547.44
475.501	564.44
475.72	525.44
475.939	543.44
476.158	545.44
476.377	568.44
476.596	541.44
476.814	573.44
477.033	585.44
477.252	577.44
477.471	574.44
477.69	577.44
477.908	601.44
478.127	606.44
478.346	581.44
478.564	588.44
478.783	597.44
479.002	592.44
479.22	622.44
479.439	617.44
479.658	651.44
479.876	636.44
480.095	666.44
480.313	667.44
480.532	642.44
480.751	656.44
480.969	675.44
481.188	710.44
481.406	748.44
481.624	660.44
481.843	654.44
482.061	650.44
482.28	632.44
482.498	628.44
482.717	606.44
482.935	639.44
483.153	631.44
483.372	635.44
483.59	636.44
483.808	634.44
484.027	603.44
484.245	627.44
484.463	623.44
484.681	635.44
484.9	644.44
485.118	635.44
485.336	650.44
485.554	648.44
485.772	659.44
485.99	660.44
486.209	659.44
486.427	659.44
486.645	667.44
486.863	682.44
487.081	674.44
487.299	656.44
487.517	662.44
487.735	667.44
487.953	658.44
488.171	681.44
488.389	661.44
488.607	661.44
488.825	680.44
489.043	643.44
489.261	681.44
489.479	692.44
489.696	691.44
489.914	672.44
490.132	708.44
490.35	702.44
490.568	695.44
490.786	692.44
491.003	695.44
491.221	719.44
491.439	724.44
491.657	722.44
491.874	745.44
492.092	757.44
492.31	725.44
492.527	749.44
492.745	788.44
492.963	758.44
493.18	763.44
493.398	757.44
493.615	783.44
493.833	773.44
494.05	765.44
494.268	782.44
494.485	744.44
494.703	795.44
494.92	802.44
495.138	811.44
495.355	777.44
495.573	789.44
495.79	774.44
496.008	790.44
496.225	803.44
496.442	775.44
496.66	781.44
496.877	792.44
497.094	794.44
497.312	852.44
497.529	794.44
497.746	824.44
497.963	852.44
498.181	869.44
498.398	878.44
498.615	873.44
498.832	918.44
499.049	947.44
499.267	951.44
499.484	956.44
499.701	1004.44
499.918	1017.44
500.135	1099.44
500.352	1133.44
500.569	1124.44
500.786	1123.44
501.003	1127.44
501.22	1113.44
501.437	1077.44
501.654	1037.44
