Data from 1978.PennyLincolnUp.Lamp.En5.5.200Scan.071719.P1_HRD10591_16-13-28-864.txt Node
Date: Thu Jul 18 16:13:28 EDT 2019
User: cochatt
Spectrometer: HR+D1059
Trigger mode: 1
Integration Time (sec): 1.000000E-1
Scans to average: 1
Electric dark correction enabled: true
Nonlinearity correction enabled: false
Boxcar width: 0
XAxis mode: Wavelengths
Number of Pixels in Spectrum: 2048
>>>>>Begin Spectral Data<<<<<
223.165	-22.62
223.4	-22.62
223.635	-22.62
223.869	-25.62
224.104	-19.62
224.338	-20.62
224.573	-3.62
224.808	-0.62
225.042	-1.62
225.277	-5.62
225.511	-0.62
225.746	5.38
225.98	8.38
226.215	4.38
226.449	12.38
226.683	20.38
226.918	27.38
227.152	22.38
227.387	43.38
227.621	41.38
227.856	30.38
228.09	43.38
228.324	58.38
228.559	65.38
228.793	73.38
229.027	95.38
229.262	103.38
229.496	119.38
229.73	118.38
229.964	157.38
230.199	124.38
230.433	107.38
230.667	103.38
230.901	118.38
231.136	109.38
231.37	118.38
231.604	121.38
231.838	111.38
232.072	119.38
232.306	113.38
232.541	108.38
232.775	118.38
233.009	107.38
233.243	104.38
233.477	103.38
233.711	117.38
233.945	131.38
234.179	101.38
234.413	128.38
234.647	109.38
234.881	115.38
235.115	110.38
235.349	125.38
235.583	127.38
235.817	126.38
236.051	127.38
236.285	108.38
236.519	122.38
236.753	127.38
236.987	132.38
237.221	184.38
237.455	223.38
237.689	190.38
237.922	136.38
238.156	138.38
238.39	130.38
238.624	132.38
238.858	122.38
239.091	125.38
239.325	120.38
239.559	126.38
239.793	122.38
240.027	123.38
240.26	134.38
240.494	143.38
240.728	151.38
240.961	154.38
241.195	125.38
241.429	146.38
241.662	140.38
241.896	126.38
242.13	124.38
242.363	124.38
242.597	141.38
242.83	145.38
243.064	140.38
243.298	133.38
243.531	140.38
243.765	130.38
243.998	124.38
244.232	136.38
244.465	147.38
244.699	140.38
244.932	137.38
245.166	144.38
245.399	148.38
245.633	141.38
245.866	141.38
246.099	157.38
246.333	155.38
246.566	153.38
246.8	135.38
247.033	152.38
247.266	154.38
247.5	148.38
247.733	159.38
247.966	159.38
248.2	164.38
248.433	153.38
248.666	176.38
248.899	164.38
249.133	182.38
249.366	186.38
249.599	195.38
249.832	177.38
250.066	186.38
250.299	179.38
250.532	184.38
250.765	176.38
250.998	197.38
251.231	214.38
251.465	199.38
251.698	194.38
251.931	186.38
252.164	193.38
252.397	193.38
252.63	201.38
252.863	199.38
253.096	186.38
253.329	219.38
253.562	211.38
253.795	196.38
254.028	201.38
254.261	210.38
254.494	213.38
254.727	216.38
254.96	244.38
255.193	235.38
255.426	221.38
255.659	211.38
255.892	208.38
256.124	213.38
256.357	208.38
256.59	213.38
256.823	200.38
257.056	224.38
257.289	203.38
257.521	197.38
257.754	206.38
257.987	200.38
258.22	203.38
258.452	197.38
258.685	203.38
258.918	201.38
259.151	208.38
259.383	209.38
259.616	204.38
259.849	200.38
260.081	225.38
260.314	211.38
260.547	240.38
260.779	233.38
261.012	225.38
261.244	215.38
261.477	217.38
261.71	216.38
261.942	231.38
262.175	212.38
262.407	228.38
262.64	204.38
262.872	209.38
263.105	202.38
263.337	200.38
263.57	211.38
263.802	206.38
264.035	191.38
264.267	204.38
264.499	218.38
264.732	206.38
264.964	215.38
265.197	215.38
265.429	206.38
265.661	199.38
265.894	196.38
266.126	215.38
266.358	204.38
266.591	208.38
266.823	219.38
267.055	219.38
267.287	224.38
267.52	215.38
267.752	198.38
267.984	209.38
268.216	240.38
268.448	232.38
268.681	222.38
268.913	224.38
269.145	236.38
269.377	260.38
269.609	243.38
269.841	240.38
270.073	238.38
270.306	281.38
270.538	279.38
270.77	277.38
271.002	284.38
271.234	270.38
271.466	272.38
271.698	292.38
271.93	288.38
272.162	295.38
272.394	291.38
272.626	280.38
272.858	272.38
273.09	253.38
273.322	271.38
273.553	262.38
273.785	244.38
274.017	252.38
274.249	252.38
274.481	256.38
274.713	238.38
274.945	251.38
275.176	264.38
275.408	253.38
275.64	240.38
275.872	263.38
276.104	261.38
276.335	244.38
276.567	260.38
276.799	252.38
277.031	264.38
277.262	295.38
277.494	295.38
277.726	283.38
277.957	292.38
278.189	286.38
278.421	255.38
278.652	264.38
278.884	253.38
279.115	263.38
279.347	264.38
279.579	253.38
279.81	252.38
280.042	243.38
280.273	254.38
280.505	259.38
280.736	270.38
280.968	246.38
281.199	255.38
281.431	265.38
281.662	250.38
281.894	232.38
282.125	266.38
282.356	273.38
282.588	292.38
282.819	297.38
283.051	285.38
283.282	269.38
283.513	279.38
283.745	282.38
283.976	272.38
284.207	278.38
284.439	278.38
284.67	268.38
284.901	274.38
285.132	283.38
285.364	275.38
285.595	247.38
285.826	277.38
286.057	277.38
286.288	280.38
286.52	292.38
286.751	268.38
286.982	277.38
287.213	283.38
287.444	296.38
287.675	273.38
287.906	285.38
288.138	293.38
288.369	299.38
288.6	287.38
288.831	278.38
289.062	273.38
289.293	260.38
289.524	287.38
289.755	290.38
289.986	283.38
290.217	282.38
290.448	295.38
290.679	279.38
290.91	292.38
291.141	283.38
291.371	287.38
291.602	284.38
291.833	277.38
292.064	284.38
292.295	281.38
292.526	270.38
292.757	293.38
292.987	289.38
293.218	261.38
293.449	274.38
293.68	281.38
293.91	280.38
294.141	287.38
294.372	295.38
294.603	288.38
294.833	271.38
295.064	294.38
295.295	289.38
295.525	298.38
295.756	294.38
295.987	303.38
296.217	333.38
296.448	317.38
296.679	300.38
296.909	297.38
297.14	283.38
297.37	299.38
297.601	284.38
297.831	299.38
298.062	300.38
298.292	296.38
298.523	311.38
298.753	305.38
298.984	297.38
299.214	295.38
299.445	294.38
299.675	315.38
299.905	311.38
300.136	303.38
300.366	312.38
300.597	305.38
300.827	315.38
301.057	307.38
301.288	313.38
301.518	308.38
301.748	289.38
301.979	315.38
302.209	322.38
302.439	317.38
302.669	307.38
302.9	327.38
303.13	328.38
303.36	336.38
303.59	331.38
303.82	316.38
304.051	348.38
304.281	326.38
304.511	325.38
304.741	310.38
304.971	346.38
305.201	335.38
305.431	321.38
305.661	327.38
305.891	326.38
306.121	331.38
306.352	331.38
306.582	333.38
306.812	334.38
307.042	327.38
307.272	321.38
307.502	325.38
307.731	329.38
307.961	320.38
308.191	328.38
308.421	337.38
308.651	351.38
308.881	315.38
309.111	327.38
309.341	346.38
309.571	332.38
309.8	350.38
310.03	351.38
310.26	347.38
310.49	353.38
310.72	367.38
310.949	381.38
311.179	382.38
311.409	372.38
311.639	360.38
311.868	366.38
312.098	364.38
312.328	369.38
312.557	382.38
312.787	394.38
313.017	393.38
313.246	377.38
313.476	386.38
313.706	379.38
313.935	376.38
314.165	381.38
314.394	403.38
314.624	374.38
314.853	374.38
315.083	346.38
315.312	368.38
315.542	364.38
315.771	361.38
316.001	351.38
316.23	344.38
316.46	371.38
316.689	363.38
316.919	381.38
317.148	363.38
317.377	365.38
317.607	376.38
317.836	379.38
318.065	383.38
318.295	365.38
318.524	373.38
318.753	345.38
318.983	368.38
319.212	364.38
319.441	395.38
319.67	385.38
319.9	376.38
320.129	371.38
320.358	375.38
320.587	381.38
320.816	372.38
321.046	384.38
321.275	379.38
321.504	406.38
321.733	385.38
321.962	399.38
322.191	396.38
322.42	432.38
322.649	432.38
322.878	422.38
323.108	435.38
323.337	460.38
323.566	489.38
323.795	509.38
324.024	551.38
324.253	660.38
324.482	934.38
324.71	1457.38
324.939	2163.38
325.168	1909.38
325.397	942.38
325.626	623.38
325.855	541.38
326.084	500.38
326.313	507.38
326.542	506.38
326.77	530.38
326.999	615.38
327.228	863.38
327.457	1332.38
327.686	1641.38
327.914	1084.38
328.143	724.38
328.372	595.38
328.6	578.38
328.829	521.38
329.058	539.38
329.287	539.38
329.515	531.38
329.744	484.38
329.972	481.38
330.201	510.38
330.43	553.38
330.658	565.38
330.887	578.38
331.115	552.38
331.344	499.38
331.572	491.38
331.801	493.38
332.03	483.38
332.258	461.38
332.486	448.38
332.715	461.38
332.943	430.38
333.172	426.38
333.4	479.38
333.629	443.38
333.857	457.38
334.085	462.38
334.314	494.38
334.542	516.38
334.771	524.38
334.999	500.38
335.227	471.38
335.455	466.38
335.684	451.38
335.912	448.38
336.14	437.38
336.369	459.38
336.597	431.38
336.825	458.38
337.053	454.38
337.281	435.38
337.51	430.38
337.738	435.38
337.966	452.38
338.194	454.38
338.422	452.38
338.65	433.38
338.878	441.38
339.106	415.38
339.334	431.38
339.562	423.38
339.79	425.38
340.018	421.38
340.246	445.38
340.474	436.38
340.702	438.38
340.93	435.38
341.158	420.38
341.386	428.38
341.614	420.38
341.842	425.38
342.07	439.38
342.298	432.38
342.526	425.38
342.754	409.38
342.981	417.38
343.209	426.38
343.437	420.38
343.665	430.38
343.893	433.38
344.12	438.38
344.348	428.38
344.576	427.38
344.804	446.38
345.031	453.38
345.259	446.38
345.487	438.38
345.714	419.38
345.942	426.38
346.17	425.38
346.397	417.38
346.625	424.38
346.853	423.38
347.08	413.38
347.308	420.38
347.535	438.38
347.763	421.38
347.99	442.38
348.218	440.38
348.445	441.38
348.673	439.38
348.9	432.38
349.128	418.38
349.355	387.38
349.583	401.38
349.81	385.38
350.037	401.38
350.265	399.38
350.492	423.38
350.72	414.38
350.947	438.38
351.174	430.38
351.402	442.38
351.629	422.38
351.856	423.38
352.083	421.38
352.311	427.38
352.538	428.38
352.765	428.38
352.992	419.38
353.22	420.38
353.447	419.38
353.674	401.38
353.901	415.38
354.128	422.38
354.355	409.38
354.583	407.38
354.81	391.38
355.037	414.38
355.264	397.38
355.491	382.38
355.718	392.38
355.945	411.38
356.172	378.38
356.399	393.38
356.626	380.38
356.853	356.38
357.08	392.38
357.307	393.38
357.534	388.38
357.761	390.38
357.988	403.38
358.215	392.38
358.441	404.38
358.668	419.38
358.895	399.38
359.122	407.38
359.349	414.38
359.576	397.38
359.802	445.38
360.029	469.38
360.256	478.38
360.483	459.38
360.709	429.38
360.936	406.38
361.163	411.38
361.39	430.38
361.616	447.38
361.843	437.38
362.07	432.38
362.296	405.38
362.523	432.38
362.749	402.38
362.976	407.38
363.203	427.38
363.429	384.38
363.656	411.38
363.882	417.38
364.109	410.38
364.335	408.38
364.562	428.38
364.788	395.38
365.015	402.38
365.241	406.38
365.468	428.38
365.694	411.38
365.92	396.38
366.147	397.38
366.373	414.38
366.599	399.38
366.826	392.38
367.052	411.38
367.278	402.38
367.505	410.38
367.731	430.38
367.957	419.38
368.184	418.38
368.41	402.38
368.636	454.38
368.862	426.38
369.089	403.38
369.315	417.38
369.541	401.38
369.767	406.38
369.993	406.38
370.219	418.38
370.445	412.38
370.672	400.38
370.898	375.38
371.124	407.38
371.35	406.38
371.576	413.38
371.802	421.38
372.028	428.38
372.254	409.38
372.48	416.38
372.706	420.38
372.932	419.38
373.158	398.38
373.384	419.38
373.61	414.38
373.835	413.38
374.061	406.38
374.287	431.38
374.513	415.38
374.739	435.38
374.965	414.38
375.191	418.38
375.416	410.38
375.642	432.38
375.868	438.38
376.094	422.38
376.319	415.38
376.545	408.38
376.771	409.38
376.997	421.38
377.222	413.38
377.448	413.38
377.674	421.38
377.899	415.38
378.125	385.38
378.35	403.38
378.576	394.38
378.802	400.38
379.027	387.38
379.253	413.38
379.478	438.38
379.704	413.38
379.929	395.38
380.155	421.38
380.38	430.38
380.606	426.38
380.831	420.38
381.057	431.38
381.282	427.38
381.507	415.38
381.733	435.38
381.958	419.38
382.184	428.38
382.409	414.38
382.634	414.38
382.86	430.38
383.085	435.38
383.31	431.38
383.535	425.38
383.761	416.38
383.986	420.38
384.211	428.38
384.436	439.38
384.662	447.38
384.887	448.38
385.112	438.38
385.337	446.38
385.562	442.38
385.787	436.38
386.013	467.38
386.238	455.38
386.463	438.38
386.688	465.38
386.913	447.38
387.138	451.38
387.363	439.38
387.588	464.38
387.813	452.38
388.038	450.38
388.263	462.38
388.488	464.38
388.713	451.38
388.938	471.38
389.163	467.38
389.387	463.38
389.612	471.38
389.837	457.38
390.062	464.38
390.287	455.38
390.512	455.38
390.736	463.38
390.961	463.38
391.186	458.38
391.411	475.38
391.636	475.38
391.86	479.38
392.085	474.38
392.31	464.38
392.534	459.38
392.759	461.38
392.984	467.38
393.208	473.38
393.433	495.38
393.658	468.38
393.882	475.38
394.107	483.38
394.331	467.38
394.556	484.38
394.78	477.38
395.005	480.38
395.229	464.38
395.454	479.38
395.678	502.38
395.903	497.38
396.127	507.38
396.352	512.38
396.576	497.38
396.801	486.38
397.025	476.38
397.249	499.38
397.474	501.38
397.698	493.38
397.922	485.38
398.147	523.38
398.371	552.38
398.595	528.38
398.82	532.38
399.044	545.38
399.268	550.38
399.492	597.38
399.717	616.38
399.941	632.38
400.165	652.38
400.389	673.38
400.613	605.38
400.837	565.38
401.062	572.38
401.286	542.38
401.51	551.38
401.734	546.38
401.958	525.38
402.182	560.38
402.406	554.38
402.63	545.38
402.854	552.38
403.078	549.38
403.302	567.38
403.526	553.38
403.75	535.38
403.974	547.38
404.198	541.38
404.422	576.38
404.645	577.38
404.869	570.38
405.093	612.38
405.317	654.38
405.541	670.38
405.765	632.38
405.988	571.38
406.212	571.38
406.436	610.38
406.66	611.38
406.883	600.38
407.107	624.38
407.331	651.38
407.555	745.38
407.778	744.38
408.002	675.38
408.226	633.38
408.449	626.38
408.673	621.38
408.896	635.38
409.12	688.38
409.344	655.38
409.567	589.38
409.791	591.38
410.014	558.38
410.238	558.38
410.461	557.38
410.685	567.38
410.908	588.38
411.132	627.38
411.355	643.38
411.578	631.38
411.802	566.38
412.025	572.38
412.249	560.38
412.472	583.38
412.695	641.38
412.919	610.38
413.142	554.38
413.365	541.38
413.589	549.38
413.812	521.38
414.035	536.38
414.258	541.38
414.482	505.38
414.705	531.38
414.928	526.38
415.151	551.38
415.374	551.38
415.597	547.38
415.821	525.38
416.044	561.38
416.267	535.38
416.49	507.38
416.713	544.38
416.936	525.38
417.159	547.38
417.382	526.38
417.605	515.38
417.828	553.38
418.051	556.38
418.274	542.38
418.497	528.38
418.72	528.38
418.943	508.38
419.166	538.38
419.389	566.38
419.611	577.38
419.834	554.38
420.057	555.38
420.28	563.38
420.503	555.38
420.726	555.38
420.948	583.38
421.171	604.38
421.394	629.38
421.617	570.38
421.839	550.38
422.062	539.38
422.285	567.38
422.507	611.38
422.73	707.38
422.953	679.38
423.175	587.38
423.398	567.38
423.621	583.38
423.843	588.38
424.066	589.38
424.288	581.38
424.511	589.38
424.733	658.38
424.956	764.38
425.178	741.38
425.401	710.38
425.623	744.38
425.846	629.38
426.068	579.38
426.291	555.38
426.513	564.38
426.735	599.38
426.958	652.38
427.18	714.38
427.402	853.38
427.625	953.38
427.847	840.38
428.069	729.38
428.292	639.38
428.514	567.38
428.736	550.38
428.958	568.38
429.181	541.38
429.403	527.38
429.625	543.38
429.847	611.38
430.069	675.38
430.292	647.38
430.514	568.38
430.736	552.38
430.958	547.38
431.18	535.38
431.402	527.38
431.624	491.38
431.846	524.38
432.068	503.38
432.29	523.38
432.512	521.38
432.734	528.38
432.956	534.38
433.178	529.38
433.4	548.38
433.622	520.38
433.844	525.38
434.066	498.38
434.287	535.38
434.509	528.38
434.731	527.38
434.953	535.38
435.175	558.38
435.397	560.38
435.618	589.38
435.84	645.38
436.062	732.38
436.284	820.38
436.505	648.38
436.727	617.38
436.949	571.38
437.17	551.38
437.392	517.38
437.614	561.38
437.835	603.38
438.057	691.38
438.278	803.38
438.5	786.38
438.721	902.38
438.943	835.38
439.165	640.38
439.386	612.38
439.608	591.38
439.829	582.38
440.05	614.38
440.272	660.38
440.493	637.38
440.715	569.38
440.936	570.38
441.158	547.38
441.379	555.38
441.6	548.38
441.822	583.38
442.043	635.38
442.264	707.38
442.486	770.38
442.707	642.38
442.928	616.38
443.149	602.38
443.371	637.38
443.592	668.38
443.813	779.38
444.034	847.38
444.255	680.38
444.476	611.38
444.698	603.38
444.919	578.38
445.14	725.38
445.361	645.38
445.582	650.38
445.803	705.38
446.024	841.38
446.245	830.38
446.466	720.38
446.687	639.38
446.908	607.38
447.129	563.38
447.35	543.38
447.571	557.38
447.792	555.38
448.013	537.38
448.234	548.38
448.455	622.38
448.675	727.38
448.896	854.38
449.117	729.38
449.338	686.38
449.559	804.38
449.779	945.38
450	733.38
450.221	575.38
450.442	565.38
450.662	547.38
450.883	540.38
451.104	553.38
451.324	537.38
451.545	519.38
451.766	497.38
451.986	491.38
452.207	499.38
452.428	473.38
452.648	495.38
452.869	484.38
453.089	492.38
453.31	512.38
453.53	486.38
453.751	491.38
453.971	489.38
454.192	504.38
454.412	502.38
454.633	488.38
454.853	493.38
455.073	474.38
455.294	512.38
455.514	590.38
455.734	565.38
455.955	512.38
456.175	461.38
456.395	466.38
456.616	479.38
456.836	480.38
457.056	463.38
457.276	460.38
457.497	467.38
457.717	480.38
457.937	477.38
458.157	485.38
458.377	480.38
458.598	511.38
458.818	574.38
459.038	641.38
459.258	666.38
459.478	576.38
459.698	530.38
459.918	527.38
460.138	503.38
460.358	526.38
460.578	536.38
460.798	552.38
461.018	566.38
461.238	539.38
461.458	557.38
461.678	523.38
461.898	518.38
462.118	553.38
462.338	570.38
462.558	595.38
462.777	567.38
462.997	587.38
463.217	591.38
463.437	592.38
463.657	569.38
463.876	565.38
464.096	563.38
464.316	565.38
464.536	581.38
464.755	584.38
464.975	588.38
465.195	623.38
465.414	653.38
465.634	622.38
465.854	583.38
466.073	557.38
466.293	527.38
466.512	513.38
466.732	524.38
466.951	533.38
467.171	495.38
467.391	520.38
467.61	515.38
467.829	496.38
468.049	515.38
468.268	509.38
468.488	512.38
468.707	505.38
468.927	496.38
469.146	486.38
469.365	509.38
469.585	487.38
469.804	501.38
470.023	529.38
470.243	512.38
470.462	522.38
470.681	522.38
470.901	504.38
471.12	524.38
471.339	512.38
471.558	516.38
471.777	496.38
471.997	487.38
472.216	504.38
472.435	538.38
472.654	535.38
472.873	501.38
473.092	523.38
473.311	526.38
473.53	525.38
473.749	517.38
473.968	554.38
474.187	680.38
474.406	664.38
474.625	580.38
474.844	521.38
475.063	513.38
475.282	513.38
475.501	526.38
475.72	532.38
475.939	521.38
476.158	543.38
476.377	545.38
476.596	520.38
476.814	546.38
477.033	563.38
477.252	583.38
477.471	576.38
477.69	543.38
477.908	547.38
478.127	570.38
478.346	557.38
478.564	576.38
478.783	571.38
479.002	568.38
479.22	565.38
479.439	611.38
479.658	623.38
479.876	633.38
480.095	622.38
480.313	651.38
480.532	618.38
480.751	636.38
480.969	637.38
481.188	678.38
481.406	697.38
481.624	636.38
481.843	655.38
482.061	620.38
482.28	631.38
482.498	599.38
482.717	592.38
482.935	584.38
483.153	618.38
483.372	615.38
483.59	602.38
483.808	601.38
484.027	621.38
484.245	619.38
484.463	600.38
484.681	623.38
484.9	604.38
485.118	604.38
485.336	614.38
485.554	631.38
485.772	605.38
485.99	633.38
486.209	629.38
486.427	629.38
486.645	619.38
486.863	643.38
487.081	658.38
487.299	627.38
487.517	613.38
487.735	655.38
487.953	625.38
488.171	655.38
488.389	629.38
488.607	629.38
488.825	627.38
489.043	621.38
489.261	659.38
489.479	649.38
489.696	667.38
489.914	656.38
490.132	679.38
490.35	650.38
490.568	673.38
490.786	684.38
491.003	664.38
491.221	704.38
491.439	686.38
491.657	698.38
491.874	690.38
492.092	700.38
492.31	737.38
492.527	730.38
492.745	723.38
492.963	723.38
493.18	724.38
493.398	732.38
493.615	759.38
493.833	731.38
494.05	736.38
494.268	728.38
494.485	733.38
494.703	724.38
494.92	740.38
495.138	742.38
495.355	738.38
495.573	742.38
495.79	766.38
496.008	745.38
496.225	748.38
496.442	761.38
496.66	755.38
496.877	766.38
497.094	750.38
497.312	782.38
497.529	762.38
497.746	804.38
497.963	813.38
498.181	828.38
498.398	846.38
498.615	895.38
498.832	871.38
499.049	893.38
499.267	913.38
499.484	921.38
499.701	970.38
499.918	998.38
500.135	1060.38
500.352	1063.38
500.569	1098.38
500.786	1078.38
501.003	1056.38
501.22	1039.38
501.437	1033.38
501.654	1014.38
501.871	980.38
