Data from 1978.PennyLincolnUp.Lamp.En5.5.200Scan.071719.P1_HRD10591_16-12-54-864.txt Node
Date: Thu Jul 18 16:12:54 EDT 2019
User: cochatt
Spectrometer: HR+D1059
Trigger mode: 1
Integration Time (sec): 1.000000E-1
Scans to average: 1
Electric dark correction enabled: true
Nonlinearity correction enabled: false
Boxcar width: 0
XAxis mode: Wavelengths
Number of Pixels in Spectrum: 2048
>>>>>Begin Spectral Data<<<<<
223.165	-5.5
223.4	-5.5
223.635	-5.5
223.869	-18.5
224.104	-17.5
224.338	-14.5
224.573	-20.5
224.808	-13.5
225.042	-9.5
225.277	-12.5
225.511	-5.5
225.746	3.5
225.98	13.5
226.215	5.5
226.449	25.5
226.683	25.5
226.918	17.5
227.152	26.5
227.387	40.5
227.621	34.5
227.856	45.5
228.09	52.5
228.324	64.5
228.559	59.5
228.793	67.5
229.027	93.5
229.262	120.5
229.496	124.5
229.73	139.5
229.964	160.5
230.199	139.5
230.433	119.5
230.667	118.5
230.901	124.5
231.136	114.5
231.37	111.5
231.604	112.5
231.838	114.5
232.072	119.5
232.306	126.5
232.541	121.5
232.775	119.5
233.009	118.5
233.243	131.5
233.477	131.5
233.711	123.5
233.945	109.5
234.179	123.5
234.413	121.5
234.647	117.5
234.881	117.5
235.115	112.5
235.349	108.5
235.583	126.5
235.817	124.5
236.051	139.5
236.285	123.5
236.519	123.5
236.753	124.5
236.987	152.5
237.221	170.5
237.455	220.5
237.689	194.5
237.922	142.5
238.156	125.5
238.39	138.5
238.624	135.5
238.858	135.5
239.091	125.5
239.325	115.5
239.559	127.5
239.793	111.5
240.027	131.5
240.26	143.5
240.494	152.5
240.728	151.5
240.961	152.5
241.195	142.5
241.429	155.5
241.662	139.5
241.896	139.5
242.13	150.5
242.363	141.5
242.597	131.5
242.83	132.5
243.064	129.5
243.298	139.5
243.531	135.5
243.765	136.5
243.998	125.5
244.232	135.5
244.465	143.5
244.699	135.5
244.932	135.5
245.166	156.5
245.399	157.5
245.633	142.5
245.866	142.5
246.099	138.5
246.333	144.5
246.566	161.5
246.8	158.5
247.033	145.5
247.266	150.5
247.5	156.5
247.733	167.5
247.966	161.5
248.2	166.5
248.433	171.5
248.666	169.5
248.899	174.5
249.133	190.5
249.366	201.5
249.599	180.5
249.832	160.5
250.066	191.5
250.299	185.5
250.532	176.5
250.765	200.5
250.998	196.5
251.231	196.5
251.465	191.5
251.698	191.5
251.931	202.5
252.164	177.5
252.397	184.5
252.63	190.5
252.863	200.5
253.096	201.5
253.329	199.5
253.562	223.5
253.795	203.5
254.028	196.5
254.261	208.5
254.494	203.5
254.727	223.5
254.96	247.5
255.193	248.5
255.426	220.5
255.659	217.5
255.892	208.5
256.124	214.5
256.357	221.5
256.59	231.5
256.823	224.5
257.056	219.5
257.289	205.5
257.521	199.5
257.754	199.5
257.987	207.5
258.22	213.5
258.452	196.5
258.685	196.5
258.918	200.5
259.151	199.5
259.383	194.5
259.616	208.5
259.849	219.5
260.081	227.5
260.314	232.5
260.547	242.5
260.779	221.5
261.012	226.5
261.244	229.5
261.477	214.5
261.71	217.5
261.942	211.5
262.175	210.5
262.407	213.5
262.64	220.5
262.872	216.5
263.105	203.5
263.337	216.5
263.57	192.5
263.802	199.5
264.035	205.5
264.267	196.5
264.499	202.5
264.732	209.5
264.964	224.5
265.197	220.5
265.429	210.5
265.661	216.5
265.894	209.5
266.126	217.5
266.358	222.5
266.591	221.5
266.823	218.5
267.055	228.5
267.287	222.5
267.52	240.5
267.752	228.5
267.984	235.5
268.216	226.5
268.448	218.5
268.681	232.5
268.913	235.5
269.145	228.5
269.377	277.5
269.609	232.5
269.841	239.5
270.073	238.5
270.306	283.5
270.538	276.5
270.77	285.5
271.002	303.5
271.234	266.5
271.466	278.5
271.698	292.5
271.93	286.5
272.162	275.5
272.394	277.5
272.626	292.5
272.858	260.5
273.09	253.5
273.322	251.5
273.553	263.5
273.785	253.5
274.017	252.5
274.249	252.5
274.481	260.5
274.713	247.5
274.945	275.5
275.176	283.5
275.408	255.5
275.64	266.5
275.872	251.5
276.104	253.5
276.335	236.5
276.567	267.5
276.799	265.5
277.031	283.5
277.262	295.5
277.494	322.5
277.726	282.5
277.957	276.5
278.189	285.5
278.421	263.5
278.652	244.5
278.884	261.5
279.115	263.5
279.347	272.5
279.579	278.5
279.81	259.5
280.042	268.5
280.273	266.5
280.505	247.5
280.736	249.5
280.968	265.5
281.199	260.5
281.431	277.5
281.662	261.5
281.894	272.5
282.125	263.5
282.356	299.5
282.588	305.5
282.819	285.5
283.051	287.5
283.282	278.5
283.513	260.5
283.745	257.5
283.976	280.5
284.207	274.5
284.439	280.5
284.67	283.5
284.901	267.5
285.132	275.5
285.364	272.5
285.595	281.5
285.826	279.5
286.057	293.5
286.288	287.5
286.52	272.5
286.751	274.5
286.982	272.5
287.213	283.5
287.444	284.5
287.675	275.5
287.906	280.5
288.138	301.5
288.369	293.5
288.6	278.5
288.831	291.5
289.062	277.5
289.293	293.5
289.524	276.5
289.755	292.5
289.986	280.5
290.217	269.5
290.448	281.5
290.679	276.5
290.91	297.5
291.141	299.5
291.371	289.5
291.602	296.5
291.833	293.5
292.064	291.5
292.295	291.5
292.526	285.5
292.757	298.5
292.987	302.5
293.218	285.5
293.449	289.5
293.68	289.5
293.91	293.5
294.141	302.5
294.372	279.5
294.603	292.5
294.833	297.5
295.064	303.5
295.295	274.5
295.525	303.5
295.756	313.5
295.987	306.5
296.217	322.5
296.448	319.5
296.679	290.5
296.909	300.5
297.14	297.5
297.37	294.5
297.601	296.5
297.831	292.5
298.062	314.5
298.292	314.5
298.523	317.5
298.753	316.5
298.984	320.5
299.214	317.5
299.445	291.5
299.675	322.5
299.905	304.5
300.136	312.5
300.366	297.5
300.597	317.5
300.827	321.5
301.057	312.5
301.288	317.5
301.518	334.5
301.748	325.5
301.979	332.5
302.209	305.5
302.439	313.5
302.669	306.5
302.9	329.5
303.13	315.5
303.36	319.5
303.59	327.5
303.82	310.5
304.051	338.5
304.281	342.5
304.511	326.5
304.741	332.5
304.971	324.5
305.201	320.5
305.431	341.5
305.661	318.5
305.891	329.5
306.121	328.5
306.352	333.5
306.582	334.5
306.812	333.5
307.042	330.5
307.272	318.5
307.502	335.5
307.731	328.5
307.961	337.5
308.191	330.5
308.421	316.5
308.651	331.5
308.881	330.5
309.111	316.5
309.341	333.5
309.571	344.5
309.8	355.5
310.03	355.5
310.26	371.5
310.49	355.5
310.72	369.5
310.949	369.5
311.179	400.5
311.409	359.5
311.639	348.5
311.868	369.5
312.098	364.5
312.328	364.5
312.557	410.5
312.787	377.5
313.017	392.5
313.246	377.5
313.476	355.5
313.706	361.5
313.935	371.5
314.165	381.5
314.394	395.5
314.624	406.5
314.853	394.5
315.083	384.5
315.312	377.5
315.542	396.5
315.771	386.5
316.001	368.5
316.23	387.5
316.46	377.5
316.689	378.5
316.919	376.5
317.148	385.5
317.377	395.5
317.607	383.5
317.836	380.5
318.065	387.5
318.295	359.5
318.524	382.5
318.753	363.5
318.983	385.5
319.212	368.5
319.441	373.5
319.67	383.5
319.9	367.5
320.129	391.5
320.358	366.5
320.587	377.5
320.816	379.5
321.046	386.5
321.275	382.5
321.504	391.5
321.733	378.5
321.962	396.5
322.191	401.5
322.42	424.5
322.649	427.5
322.878	451.5
323.108	448.5
323.337	463.5
323.566	492.5
323.795	499.5
324.024	543.5
324.253	655.5
324.482	935.5
324.71	1441.5
324.939	2189.5
325.168	1909.5
325.397	951.5
325.626	622.5
325.855	537.5
326.084	497.5
326.313	466.5
326.542	489.5
326.77	534.5
326.999	623.5
327.228	835.5
327.457	1313.5
327.686	1633.5
327.914	1075.5
328.143	685.5
328.372	580.5
328.6	558.5
328.829	547.5
329.058	548.5
329.287	560.5
329.515	515.5
329.744	479.5
329.972	498.5
330.201	506.5
330.43	547.5
330.658	551.5
330.887	600.5
331.115	549.5
331.344	512.5
331.572	463.5
331.801	483.5
332.03	464.5
332.258	477.5
332.486	451.5
332.715	427.5
332.943	436.5
333.172	430.5
333.4	464.5
333.629	456.5
333.857	491.5
334.085	481.5
334.314	480.5
334.542	499.5
334.771	523.5
334.999	513.5
335.227	487.5
335.455	477.5
335.684	467.5
335.912	444.5
336.14	448.5
336.369	436.5
336.597	460.5
336.825	473.5
337.053	440.5
337.281	458.5
337.51	449.5
337.738	448.5
337.966	439.5
338.194	465.5
338.422	435.5
338.65	435.5
338.878	443.5
339.106	441.5
339.334	443.5
339.562	417.5
339.79	421.5
340.018	436.5
340.246	428.5
340.474	463.5
340.702	445.5
340.93	435.5
341.158	451.5
341.386	428.5
341.614	411.5
341.842	432.5
342.07	419.5
342.298	433.5
342.526	414.5
342.754	415.5
342.981	423.5
343.209	422.5
343.437	449.5
343.665	440.5
343.893	441.5
344.12	464.5
344.348	461.5
344.576	449.5
344.804	456.5
345.031	461.5
345.259	459.5
345.487	449.5
345.714	428.5
345.942	436.5
346.17	412.5
346.397	402.5
346.625	426.5
346.853	434.5
347.08	426.5
347.308	430.5
347.535	444.5
347.763	439.5
347.99	416.5
348.218	440.5
348.445	438.5
348.673	453.5
348.9	425.5
349.128	435.5
349.355	407.5
349.583	404.5
349.81	408.5
350.037	410.5
350.265	416.5
350.492	413.5
350.72	401.5
350.947	410.5
351.174	441.5
351.402	451.5
351.629	420.5
351.856	424.5
352.083	416.5
352.311	430.5
352.538	435.5
352.765	427.5
352.992	420.5
353.22	423.5
353.447	436.5
353.674	430.5
353.901	395.5
354.128	405.5
354.355	400.5
354.583	401.5
354.81	391.5
355.037	401.5
355.264	378.5
355.491	397.5
355.718	402.5
355.945	392.5
356.172	402.5
356.399	397.5
356.626	396.5
356.853	399.5
357.08	400.5
357.307	407.5
357.534	403.5
357.761	385.5
357.988	408.5
358.215	416.5
358.441	396.5
358.668	409.5
358.895	409.5
359.122	432.5
359.349	411.5
359.576	453.5
359.802	457.5
360.029	460.5
360.256	462.5
360.483	469.5
360.709	427.5
360.936	431.5
361.163	434.5
361.39	411.5
361.616	418.5
361.843	420.5
362.07	450.5
362.296	404.5
362.523	422.5
362.749	420.5
362.976	411.5
363.203	424.5
363.429	405.5
363.656	404.5
363.882	419.5
364.109	404.5
364.335	412.5
364.562	408.5
364.788	415.5
365.015	421.5
365.241	404.5
365.468	436.5
365.694	409.5
365.92	441.5
366.147	409.5
366.373	408.5
366.599	425.5
366.826	417.5
367.052	410.5
367.278	412.5
367.505	399.5
367.731	416.5
367.957	435.5
368.184	422.5
368.41	414.5
368.636	425.5
368.862	426.5
369.089	443.5
369.315	423.5
369.541	396.5
369.767	418.5
369.993	426.5
370.219	419.5
370.445	394.5
370.672	429.5
370.898	426.5
371.124	389.5
371.35	405.5
371.576	425.5
371.802	423.5
372.028	405.5
372.254	416.5
372.48	415.5
372.706	416.5
372.932	421.5
373.158	441.5
373.384	422.5
373.61	426.5
373.835	406.5
374.061	423.5
374.287	455.5
374.513	440.5
374.739	444.5
374.965	440.5
375.191	411.5
375.416	419.5
375.642	415.5
375.868	421.5
376.094	420.5
376.319	433.5
376.545	398.5
376.771	435.5
376.997	421.5
377.222	414.5
377.448	422.5
377.674	426.5
377.899	424.5
378.125	407.5
378.35	419.5
378.576	410.5
378.802	420.5
379.027	426.5
379.253	425.5
379.478	429.5
379.704	430.5
379.929	406.5
380.155	393.5
380.38	418.5
380.606	417.5
380.831	440.5
381.057	448.5
381.282	410.5
381.507	403.5
381.733	418.5
381.958	415.5
382.184	425.5
382.409	429.5
382.634	431.5
382.86	431.5
383.085	425.5
383.31	431.5
383.535	438.5
383.761	436.5
383.986	437.5
384.211	446.5
384.436	432.5
384.662	431.5
384.887	463.5
385.112	440.5
385.337	454.5
385.562	451.5
385.787	476.5
386.013	472.5
386.238	474.5
386.463	469.5
386.688	487.5
386.913	484.5
387.138	475.5
387.363	460.5
387.588	449.5
387.813	462.5
388.038	472.5
388.263	464.5
388.488	461.5
388.713	456.5
388.938	469.5
389.163	464.5
389.387	478.5
389.612	477.5
389.837	478.5
390.062	481.5
390.287	495.5
390.512	490.5
390.736	463.5
390.961	482.5
391.186	466.5
391.411	479.5
391.636	489.5
391.86	491.5
392.085	508.5
392.31	494.5
392.534	472.5
392.759	492.5
392.984	482.5
393.208	488.5
393.433	482.5
393.658	475.5
393.882	482.5
394.107	461.5
394.331	461.5
394.556	481.5
394.78	476.5
395.005	487.5
395.229	490.5
395.454	487.5
395.678	489.5
395.903	527.5
396.127	507.5
396.352	561.5
396.576	514.5
396.801	486.5
397.025	491.5
397.249	519.5
397.474	517.5
397.698	509.5
397.922	547.5
398.147	537.5
398.371	547.5
398.595	520.5
398.82	544.5
399.044	541.5
399.268	578.5
399.492	577.5
399.717	626.5
399.941	639.5
400.165	679.5
400.389	658.5
400.613	639.5
400.837	581.5
401.062	580.5
401.286	570.5
401.51	578.5
401.734	536.5
401.958	575.5
402.182	565.5
402.406	567.5
402.63	563.5
402.854	565.5
403.078	551.5
403.302	571.5
403.526	562.5
403.75	577.5
403.974	559.5
404.198	574.5
404.422	569.5
404.645	577.5
404.869	576.5
405.093	598.5
405.317	661.5
405.541	661.5
405.765	643.5
405.988	611.5
406.212	636.5
406.436	633.5
406.66	639.5
406.883	617.5
407.107	633.5
407.331	683.5
407.555	732.5
407.778	745.5
408.002	678.5
408.226	649.5
408.449	655.5
408.673	633.5
408.896	671.5
409.12	692.5
409.344	653.5
409.567	602.5
409.791	609.5
410.014	563.5
410.238	568.5
410.461	578.5
410.685	581.5
410.908	585.5
411.132	622.5
411.355	671.5
411.578	636.5
411.802	602.5
412.025	564.5
412.249	577.5
412.472	597.5
412.695	636.5
412.919	617.5
413.142	574.5
413.365	559.5
413.589	563.5
413.812	548.5
414.035	555.5
414.258	552.5
414.482	556.5
414.705	528.5
414.928	549.5
415.151	540.5
415.374	529.5
415.597	541.5
415.821	548.5
416.044	540.5
416.267	542.5
416.49	541.5
416.713	519.5
416.936	559.5
417.159	534.5
417.382	545.5
417.605	519.5
417.828	545.5
418.051	567.5
418.274	529.5
418.497	532.5
418.72	533.5
418.943	554.5
419.166	551.5
419.389	581.5
419.611	599.5
419.834	575.5
420.057	581.5
420.28	553.5
420.503	553.5
420.726	558.5
420.948	575.5
421.171	613.5
421.394	619.5
421.617	605.5
421.839	541.5
422.062	559.5
422.285	572.5
422.507	628.5
422.73	718.5
422.953	677.5
423.175	615.5
423.398	569.5
423.621	596.5
423.843	605.5
424.066	596.5
424.288	598.5
424.511	595.5
424.733	661.5
424.956	757.5
425.178	719.5
425.401	718.5
425.623	762.5
425.846	649.5
426.068	595.5
426.291	606.5
426.513	598.5
426.735	587.5
426.958	626.5
427.18	717.5
427.402	866.5
427.625	947.5
427.847	811.5
428.069	738.5
428.292	645.5
428.514	587.5
428.736	565.5
428.958	573.5
429.181	557.5
429.403	551.5
429.625	567.5
429.847	601.5
430.069	675.5
430.292	670.5
430.514	575.5
430.736	563.5
430.958	557.5
431.18	530.5
431.402	516.5
431.624	519.5
431.846	509.5
432.068	529.5
432.29	511.5
432.512	514.5
432.734	526.5
432.956	526.5
433.178	564.5
433.4	570.5
433.622	573.5
433.844	530.5
434.066	533.5
434.287	542.5
434.509	529.5
434.731	547.5
434.953	554.5
435.175	541.5
435.397	602.5
435.618	588.5
435.84	617.5
436.062	740.5
436.284	808.5
436.505	647.5
436.727	610.5
436.949	587.5
437.17	557.5
437.392	557.5
437.614	572.5
437.835	602.5
438.057	709.5
438.278	797.5
438.5	809.5
438.721	884.5
438.943	853.5
439.165	666.5
439.386	633.5
439.608	608.5
439.829	598.5
440.05	641.5
440.272	647.5
440.493	624.5
440.715	579.5
440.936	553.5
441.158	548.5
441.379	562.5
441.6	555.5
441.822	593.5
442.043	615.5
442.264	731.5
442.486	780.5
442.707	652.5
442.928	599.5
443.149	602.5
443.371	647.5
443.592	675.5
443.813	797.5
444.034	850.5
444.255	702.5
444.476	638.5
444.698	617.5
444.919	609.5
445.14	755.5
445.361	676.5
445.582	661.5
445.803	701.5
446.024	804.5
446.245	837.5
446.466	761.5
446.687	626.5
446.908	596.5
447.129	558.5
447.35	540.5
447.571	550.5
447.792	557.5
448.013	545.5
448.234	549.5
448.455	606.5
448.675	741.5
448.896	887.5
449.117	723.5
449.338	688.5
449.559	801.5
449.779	905.5
450	712.5
450.221	605.5
450.442	549.5
450.662	554.5
450.883	529.5
451.104	553.5
451.324	559.5
451.545	519.5
451.766	531.5
451.986	499.5
452.207	488.5
452.428	492.5
452.648	489.5
452.869	499.5
453.089	508.5
453.31	518.5
453.53	506.5
453.751	494.5
453.971	481.5
454.192	539.5
454.412	500.5
454.633	477.5
454.853	485.5
455.073	498.5
455.294	533.5
455.514	567.5
455.734	567.5
455.955	480.5
456.175	486.5
456.395	488.5
456.616	465.5
456.836	470.5
457.056	463.5
457.276	479.5
457.497	473.5
457.717	455.5
457.937	490.5
458.157	474.5
458.377	504.5
458.598	496.5
458.818	561.5
459.038	650.5
459.258	669.5
459.478	577.5
459.698	536.5
459.918	536.5
460.138	544.5
460.358	576.5
460.578	546.5
460.798	571.5
461.018	562.5
461.238	550.5
461.458	556.5
461.678	528.5
461.898	563.5
462.118	572.5
462.338	567.5
462.558	578.5
462.777	574.5
462.997	598.5
463.217	623.5
463.437	628.5
463.657	606.5
463.876	584.5
464.096	593.5
464.316	574.5
464.536	589.5
464.755	581.5
464.975	569.5
465.195	606.5
465.414	667.5
465.634	611.5
465.854	571.5
466.073	526.5
466.293	545.5
466.512	525.5
466.732	490.5
466.951	526.5
467.171	521.5
467.391	540.5
467.61	532.5
467.829	515.5
468.049	525.5
468.268	523.5
468.488	507.5
468.707	506.5
468.927	511.5
469.146	493.5
469.365	519.5
469.585	489.5
469.804	530.5
470.023	539.5
470.243	527.5
470.462	515.5
470.681	553.5
470.901	559.5
471.12	529.5
471.339	515.5
471.558	533.5
471.777	527.5
471.997	509.5
472.216	520.5
472.435	559.5
472.654	543.5
472.873	501.5
473.092	516.5
473.311	520.5
473.53	507.5
473.749	536.5
473.968	567.5
474.187	653.5
474.406	675.5
474.625	597.5
474.844	545.5
475.063	533.5
475.282	527.5
475.501	525.5
475.72	525.5
475.939	540.5
476.158	538.5
476.377	543.5
476.596	524.5
476.814	546.5
477.033	551.5
477.252	551.5
477.471	541.5
477.69	553.5
477.908	560.5
478.127	589.5
478.346	571.5
478.564	580.5
478.783	597.5
479.002	596.5
479.22	598.5
479.439	614.5
479.658	628.5
479.876	634.5
480.095	637.5
480.313	671.5
480.532	661.5
480.751	652.5
480.969	650.5
481.188	672.5
481.406	725.5
481.624	657.5
481.843	596.5
482.061	613.5
482.28	621.5
482.498	625.5
482.717	598.5
482.935	619.5
483.153	603.5
483.372	626.5
483.59	613.5
483.808	588.5
484.027	601.5
484.245	613.5
484.463	615.5
484.681	616.5
484.9	624.5
485.118	614.5
485.336	608.5
485.554	633.5
485.772	637.5
485.99	620.5
486.209	619.5
486.427	645.5
486.645	653.5
486.863	647.5
487.081	678.5
487.299	664.5
487.517	634.5
487.735	641.5
487.953	653.5
488.171	647.5
488.389	652.5
488.607	634.5
488.825	662.5
489.043	637.5
489.261	668.5
489.479	657.5
489.696	654.5
489.914	661.5
490.132	656.5
490.35	668.5
490.568	663.5
490.786	685.5
491.003	719.5
491.221	715.5
491.439	720.5
491.657	700.5
491.874	733.5
492.092	736.5
492.31	737.5
492.527	730.5
492.745	753.5
492.963	698.5
493.18	761.5
493.398	725.5
493.615	738.5
493.833	721.5
494.05	752.5
494.268	741.5
494.485	731.5
494.703	738.5
494.92	732.5
495.138	765.5
495.355	754.5
495.573	754.5
495.79	766.5
496.008	765.5
496.225	750.5
496.442	765.5
496.66	781.5
496.877	762.5
497.094	768.5
497.312	756.5
497.529	801.5
497.746	816.5
497.963	807.5
498.181	835.5
498.398	858.5
498.615	864.5
498.832	888.5
499.049	907.5
499.267	913.5
499.484	956.5
499.701	959.5
499.918	1025.5
500.135	1060.5
500.352	1106.5
500.569	1108.5
500.786	1117.5
501.003	1097.5
501.22	1085.5
501.437	1043.5
501.654	1002.5
501.871	1000.5
502.088	964.5
502.305	909.5
502.522	898.5
502.739	880.5
502.956	862.5
503.172	836.5
503.389	813.5
503.606	831.5
503.823	804.5
504.04	787.5
504.256	805.5
504.473	783.5
504.69	777.5
504.907	792.5
505.123	774.5
505.34	742.5
505.557	733.5
505.773	746.5
505.99	732.5
506.207	704.5
506.423	716.5
506.64	728.5
506.856	701.5
507.073	697.5
507.289	730.5
507.506	697.5
507.722	741.5
507.939	723.5
508.155	708.5
508.372	700.5
508.588	667.5
508.805	673.5
509.021	673.5
509.238	684.5
509.454	698.5
509.67	696.5
509.887	695.5
510.103	689.5
510.319	700.5
510.536	755.5
510.752	1183.5
510.968	989.5
511.184	706.5
511.401	653.5
511.617	640.5
511.833	625.5
512.049	650.5
512.265	637.5
512.481	656.5
512.698	641.5
512.914	645.5
513.13	631.5
513.346	640.5
513.562	649.5
513.778	645.5
513.994	678.5
514.21	648.5
514.426	690.5
514.642	709.5
514.858	747.5
515.074	756.5
515.29	885.5
515.506	1228.5
515.721	1037.5
515.937	773.5
516.153	707.5
516.369	688.5
516.585	699.5
516.801	678.5
517.016	691.5
517.232	704.5
517.448	684.5
517.664	721.5
517.879	684.5
518.095	699.5
518.311	698.5
518.527	681.5
518.742	667.5
518.958	668.5
519.173	672.5
519.389	651.5
519.605	667.5
