Data from 1978.PennyLincolnUp.Lamp.En5.5.200Scan.071719.P1_HRD10591_16-13-26-864.txt Node
Date: Thu Jul 18 16:13:26 EDT 2019
User: cochatt
Spectrometer: HR+D1059
Trigger mode: 1
Integration Time (sec): 1.000000E-1
Scans to average: 1
Electric dark correction enabled: true
Nonlinearity correction enabled: false
Boxcar width: 0
XAxis mode: Wavelengths
Number of Pixels in Spectrum: 2048
>>>>>Begin Spectral Data<<<<<
223.165	-16.56
223.4	-16.56
223.635	-16.56
223.869	-21.56
224.104	-20.56
224.338	-32.56
224.573	-14.56
224.808	2.44
225.042	-11.56
225.277	1.44
225.511	-11.56
225.746	-6.56
225.98	11.44
226.215	8.44
226.449	33.44
226.683	21.44
226.918	29.44
227.152	27.44
227.387	32.44
227.621	27.44
227.856	40.44
228.09	38.44
228.324	54.44
228.559	52.44
228.793	79.44
229.027	91.44
229.262	118.44
229.496	119.44
229.73	138.44
229.964	139.44
230.199	120.44
230.433	97.44
230.667	118.44
230.901	115.44
231.136	120.44
231.37	91.44
231.604	105.44
231.838	119.44
232.072	97.44
232.306	93.44
232.541	119.44
232.775	102.44
233.009	111.44
233.243	111.44
233.477	116.44
233.711	116.44
233.945	103.44
234.179	101.44
234.413	104.44
234.647	113.44
234.881	119.44
235.115	120.44
235.349	123.44
235.583	125.44
235.817	126.44
236.051	127.44
236.285	128.44
236.519	117.44
236.753	122.44
236.987	134.44
237.221	183.44
237.455	220.44
237.689	187.44
237.922	130.44
238.156	135.44
238.39	125.44
238.624	121.44
238.858	124.44
239.091	101.44
239.325	118.44
239.559	118.44
239.793	129.44
240.027	114.44
240.26	125.44
240.494	146.44
240.728	147.44
240.961	142.44
241.195	121.44
241.429	124.44
241.662	115.44
241.896	130.44
242.13	121.44
242.363	111.44
242.597	138.44
242.83	149.44
243.064	135.44
243.298	127.44
243.531	124.44
243.765	129.44
243.998	138.44
244.232	135.44
244.465	140.44
244.699	137.44
244.932	137.44
245.166	137.44
245.399	135.44
245.633	136.44
245.866	139.44
246.099	144.44
246.333	135.44
246.566	146.44
246.8	136.44
247.033	146.44
247.266	148.44
247.5	151.44
247.733	144.44
247.966	162.44
248.2	161.44
248.433	146.44
248.666	165.44
248.899	177.44
249.133	191.44
249.366	181.44
249.599	186.44
249.832	161.44
250.066	173.44
250.299	171.44
250.532	186.44
250.765	200.44
250.998	187.44
251.231	194.44
251.465	185.44
251.698	177.44
251.931	163.44
252.164	191.44
252.397	193.44
252.63	187.44
252.863	183.44
253.096	193.44
253.329	204.44
253.562	216.44
253.795	210.44
254.028	216.44
254.261	202.44
254.494	207.44
254.727	232.44
254.96	268.44
255.193	242.44
255.426	219.44
255.659	204.44
255.892	210.44
256.124	211.44
256.357	225.44
256.59	202.44
256.823	202.44
257.056	195.44
257.289	204.44
257.521	202.44
257.754	188.44
257.987	191.44
258.22	196.44
258.452	207.44
258.685	202.44
258.918	197.44
259.151	187.44
259.383	201.44
259.616	198.44
259.849	207.44
260.081	221.44
260.314	225.44
260.547	235.44
260.779	237.44
261.012	205.44
261.244	203.44
261.477	204.44
261.71	198.44
261.942	212.44
262.175	213.44
262.407	226.44
262.64	205.44
262.872	226.44
263.105	209.44
263.337	192.44
263.57	204.44
263.802	186.44
264.035	191.44
264.267	196.44
264.499	194.44
264.732	209.44
264.964	202.44
265.197	216.44
265.429	198.44
265.661	198.44
265.894	195.44
266.126	213.44
266.358	199.44
266.591	198.44
266.823	223.44
267.055	217.44
267.287	218.44
267.52	221.44
267.752	204.44
267.984	204.44
268.216	215.44
268.448	219.44
268.681	213.44
268.913	222.44
269.145	250.44
269.377	245.44
269.609	256.44
269.841	255.44
270.073	252.44
270.306	257.44
270.538	293.44
270.77	296.44
271.002	267.44
271.234	262.44
271.466	291.44
271.698	280.44
271.93	308.44
272.162	291.44
272.394	283.44
272.626	288.44
272.858	274.44
273.09	274.44
273.322	261.44
273.553	249.44
273.785	235.44
274.017	250.44
274.249	240.44
274.481	267.44
274.713	243.44
274.945	256.44
275.176	262.44
275.408	247.44
275.64	249.44
275.872	217.44
276.104	256.44
276.335	253.44
276.567	229.44
276.799	268.44
277.031	290.44
277.262	305.44
277.494	305.44
277.726	279.44
277.957	256.44
278.189	267.44
278.421	244.44
278.652	264.44
278.884	248.44
279.115	251.44
279.347	255.44
279.579	244.44
279.81	235.44
280.042	254.44
280.273	267.44
280.505	251.44
280.736	252.44
280.968	258.44
281.199	258.44
281.431	261.44
281.662	242.44
281.894	256.44
282.125	267.44
282.356	274.44
282.588	289.44
282.819	284.44
283.051	261.44
283.282	257.44
283.513	256.44
283.745	292.44
283.976	275.44
284.207	286.44
284.439	276.44
284.67	268.44
284.901	280.44
285.132	275.44
285.364	269.44
285.595	269.44
285.826	250.44
286.057	273.44
286.288	269.44
286.52	259.44
286.751	272.44
286.982	276.44
287.213	263.44
287.444	273.44
287.675	278.44
287.906	289.44
288.138	293.44
288.369	304.44
288.6	293.44
288.831	287.44
289.062	280.44
289.293	288.44
289.524	259.44
289.755	278.44
289.986	265.44
290.217	287.44
290.448	269.44
290.679	286.44
290.91	281.44
291.141	280.44
291.371	287.44
291.602	259.44
291.833	279.44
292.064	263.44
292.295	287.44
292.526	289.44
292.757	293.44
292.987	281.44
293.218	279.44
293.449	284.44
293.68	261.44
293.91	279.44
294.141	291.44
294.372	289.44
294.603	280.44
294.833	281.44
295.064	273.44
295.295	280.44
295.525	275.44
295.756	279.44
295.987	291.44
296.217	297.44
296.448	310.44
296.679	293.44
296.909	281.44
297.14	278.44
297.37	293.44
297.601	282.44
297.831	274.44
298.062	281.44
298.292	291.44
298.523	297.44
298.753	297.44
298.984	292.44
299.214	289.44
299.445	287.44
299.675	311.44
299.905	293.44
300.136	317.44
300.366	301.44
300.597	308.44
300.827	308.44
301.057	309.44
301.288	312.44
301.518	320.44
301.748	320.44
301.979	317.44
302.209	320.44
302.439	311.44
302.669	296.44
302.9	298.44
303.13	311.44
303.36	331.44
303.59	306.44
303.82	327.44
304.051	332.44
304.281	321.44
304.511	310.44
304.741	316.44
304.971	308.44
305.201	308.44
305.431	317.44
305.661	317.44
305.891	306.44
306.121	322.44
306.352	309.44
306.582	323.44
306.812	327.44
307.042	317.44
307.272	321.44
307.502	295.44
307.731	307.44
307.961	312.44
308.191	329.44
308.421	314.44
308.651	309.44
308.881	317.44
309.111	312.44
309.341	312.44
309.571	314.44
309.8	335.44
310.03	360.44
310.26	351.44
310.49	339.44
310.72	377.44
310.949	367.44
311.179	379.44
311.409	362.44
311.639	373.44
311.868	369.44
312.098	380.44
312.328	367.44
312.557	379.44
312.787	381.44
313.017	380.44
313.246	350.44
313.476	367.44
313.706	343.44
313.935	375.44
314.165	377.44
314.394	368.44
314.624	372.44
314.853	377.44
315.083	378.44
315.312	356.44
315.542	359.44
315.771	365.44
316.001	363.44
316.23	351.44
316.46	368.44
316.689	366.44
316.919	370.44
317.148	380.44
317.377	377.44
317.607	368.44
317.836	375.44
318.065	356.44
318.295	362.44
318.524	355.44
318.753	367.44
318.983	369.44
319.212	357.44
319.441	385.44
319.67	387.44
319.9	375.44
320.129	377.44
320.358	359.44
320.587	361.44
320.816	376.44
321.046	372.44
321.275	379.44
321.504	392.44
321.733	388.44
321.962	369.44
322.191	410.44
322.42	423.44
322.649	425.44
322.878	415.44
323.108	436.44
323.337	473.44
323.566	472.44
323.795	515.44
324.024	527.44
324.253	669.44
324.482	959.44
324.71	1504.44
324.939	2267.44
325.168	1951.44
325.397	968.44
325.626	639.44
325.855	548.44
326.084	512.44
326.313	495.44
326.542	480.44
326.77	556.44
326.999	626.44
327.228	853.44
327.457	1384.44
327.686	1713.44
327.914	1079.44
328.143	696.44
328.372	606.44
328.6	555.44
328.829	532.44
329.058	548.44
329.287	571.44
329.515	510.44
329.744	483.44
329.972	496.44
330.201	499.44
330.43	515.44
330.658	542.44
330.887	587.44
331.115	582.44
331.344	506.44
331.572	465.44
331.801	457.44
332.03	487.44
332.258	470.44
332.486	449.44
332.715	425.44
332.943	441.44
333.172	457.44
333.4	475.44
333.629	460.44
333.857	453.44
334.085	476.44
334.314	496.44
334.542	508.44
334.771	518.44
334.999	482.44
335.227	465.44
335.455	453.44
335.684	451.44
335.912	444.44
336.14	434.44
336.369	406.44
336.597	433.44
336.825	451.44
337.053	451.44
337.281	427.44
337.51	439.44
337.738	428.44
337.966	435.44
338.194	428.44
338.422	414.44
338.65	440.44
338.878	433.44
339.106	440.44
339.334	418.44
339.562	429.44
339.79	412.44
340.018	445.44
340.246	442.44
340.474	426.44
340.702	439.44
340.93	417.44
341.158	413.44
341.386	416.44
341.614	440.44
341.842	427.44
342.07	424.44
342.298	404.44
342.526	411.44
342.754	418.44
342.981	419.44
343.209	418.44
343.437	406.44
343.665	411.44
343.893	418.44
344.12	449.44
344.348	431.44
344.576	444.44
344.804	441.44
345.031	441.44
345.259	450.44
345.487	448.44
345.714	440.44
345.942	409.44
346.17	406.44
346.397	403.44
346.625	401.44
346.853	418.44
347.08	405.44
347.308	409.44
347.535	426.44
347.763	419.44
347.99	443.44
348.218	426.44
348.445	425.44
348.673	439.44
348.9	417.44
349.128	416.44
349.355	415.44
349.583	393.44
349.81	395.44
350.037	388.44
350.265	376.44
350.492	401.44
350.72	411.44
350.947	392.44
351.174	416.44
351.402	427.44
351.629	421.44
351.856	421.44
352.083	420.44
352.311	433.44
352.538	439.44
352.765	434.44
352.992	403.44
353.22	411.44
353.447	409.44
353.674	407.44
353.901	422.44
354.128	402.44
354.355	391.44
354.583	401.44
354.81	374.44
355.037	385.44
355.264	390.44
355.491	379.44
355.718	397.44
355.945	391.44
356.172	391.44
356.399	397.44
356.626	380.44
356.853	372.44
357.08	360.44
357.307	393.44
357.534	388.44
357.761	391.44
357.988	388.44
358.215	409.44
358.441	390.44
358.668	398.44
358.895	418.44
359.122	400.44
359.349	399.44
359.576	432.44
359.802	422.44
360.029	462.44
360.256	470.44
360.483	448.44
360.709	426.44
360.936	449.44
361.163	428.44
361.39	419.44
361.616	425.44
361.843	403.44
362.07	407.44
362.296	418.44
362.523	418.44
362.749	424.44
362.976	406.44
363.203	403.44
363.429	387.44
363.656	403.44
363.882	402.44
364.109	391.44
364.335	395.44
364.562	380.44
364.788	393.44
365.015	407.44
365.241	404.44
365.468	401.44
365.694	428.44
365.92	424.44
366.147	411.44
366.373	409.44
366.599	403.44
366.826	407.44
367.052	405.44
367.278	403.44
367.505	382.44
367.731	418.44
367.957	408.44
368.184	399.44
368.41	421.44
368.636	422.44
368.862	413.44
369.089	409.44
369.315	417.44
369.541	422.44
369.767	413.44
369.993	395.44
370.219	399.44
370.445	404.44
370.672	410.44
370.898	417.44
371.124	404.44
371.35	393.44
371.576	420.44
371.802	384.44
372.028	417.44
372.254	393.44
372.48	403.44
372.706	413.44
372.932	409.44
373.158	412.44
373.384	427.44
373.61	416.44
373.835	417.44
374.061	412.44
374.287	408.44
374.513	398.44
374.739	417.44
374.965	405.44
375.191	418.44
375.416	406.44
375.642	412.44
375.868	422.44
376.094	415.44
376.319	401.44
376.545	423.44
376.771	425.44
376.997	405.44
377.222	403.44
377.448	405.44
377.674	414.44
377.899	391.44
378.125	398.44
378.35	424.44
378.576	410.44
378.802	407.44
379.027	392.44
379.253	409.44
379.478	394.44
379.704	388.44
379.929	387.44
380.155	399.44
380.38	434.44
380.606	418.44
380.831	425.44
381.057	414.44
381.282	396.44
381.507	425.44
381.733	423.44
381.958	426.44
382.184	408.44
382.409	426.44
382.634	433.44
382.86	391.44
383.085	432.44
383.31	428.44
383.535	437.44
383.761	409.44
383.986	409.44
384.211	442.44
384.436	427.44
384.662	435.44
384.887	441.44
385.112	446.44
385.337	461.44
385.562	449.44
385.787	435.44
386.013	476.44
386.238	451.44
386.463	445.44
386.688	444.44
386.913	444.44
387.138	466.44
387.363	430.44
387.588	458.44
387.813	448.44
388.038	458.44
388.263	461.44
388.488	495.44
388.713	446.44
388.938	467.44
389.163	452.44
389.387	443.44
389.612	460.44
389.837	469.44
390.062	455.44
390.287	473.44
390.512	449.44
390.736	447.44
390.961	476.44
391.186	458.44
391.411	466.44
391.636	475.44
391.86	485.44
392.085	484.44
392.31	480.44
392.534	453.44
392.759	472.44
392.984	441.44
393.208	477.44
393.433	487.44
393.658	474.44
393.882	455.44
394.107	460.44
394.331	473.44
394.556	457.44
394.78	473.44
395.005	488.44
395.229	484.44
395.454	452.44
395.678	485.44
395.903	489.44
396.127	523.44
396.352	481.44
396.576	506.44
396.801	482.44
397.025	479.44
397.249	482.44
397.474	486.44
397.698	485.44
397.922	508.44
398.147	523.44
398.371	522.44
398.595	526.44
398.82	548.44
399.044	543.44
399.268	556.44
399.492	590.44
399.717	611.44
399.941	641.44
400.165	642.44
400.389	666.44
400.613	607.44
400.837	572.44
401.062	559.44
401.286	538.44
401.51	525.44
401.734	543.44
401.958	526.44
402.182	571.44
402.406	552.44
402.63	539.44
402.854	540.44
403.078	551.44
403.302	533.44
403.526	557.44
403.75	551.44
403.974	548.44
404.198	527.44
404.422	537.44
404.645	574.44
404.869	572.44
405.093	618.44
405.317	646.44
405.541	658.44
405.765	608.44
405.988	599.44
406.212	615.44
406.436	602.44
406.66	640.44
406.883	617.44
407.107	639.44
407.331	669.44
407.555	754.44
407.778	746.44
408.002	678.44
408.226	639.44
408.449	616.44
408.673	602.44
408.896	649.44
409.12	709.44
409.344	642.44
409.567	585.44
409.791	581.44
410.014	602.44
410.238	588.44
410.461	554.44
410.685	593.44
410.908	582.44
411.132	634.44
411.355	645.44
411.578	598.44
411.802	571.44
412.025	554.44
412.249	571.44
412.472	584.44
412.695	620.44
412.919	611.44
413.142	572.44
413.365	553.44
413.589	548.44
413.812	535.44
414.035	540.44
414.258	529.44
414.482	535.44
414.705	531.44
414.928	536.44
415.151	540.44
415.374	544.44
415.597	532.44
415.821	513.44
416.044	524.44
416.267	522.44
416.49	522.44
416.713	521.44
416.936	513.44
417.159	515.44
417.382	512.44
417.605	532.44
417.828	530.44
418.051	568.44
418.274	564.44
418.497	511.44
418.72	525.44
418.943	532.44
419.166	544.44
419.389	552.44
419.611	571.44
419.834	552.44
420.057	560.44
420.28	555.44
420.503	544.44
420.726	556.44
420.948	570.44
421.171	593.44
421.394	630.44
421.617	563.44
421.839	547.44
422.062	557.44
422.285	553.44
422.507	613.44
422.73	695.44
422.953	677.44
423.175	594.44
423.398	579.44
423.621	565.44
423.843	586.44
424.066	587.44
424.288	600.44
424.511	596.44
424.733	656.44
424.956	748.44
425.178	724.44
425.401	715.44
425.623	724.44
425.846	635.44
426.068	606.44
426.291	597.44
426.513	566.44
426.735	593.44
426.958	648.44
427.18	743.44
427.402	884.44
427.625	949.44
427.847	804.44
428.069	718.44
428.292	644.44
428.514	602.44
428.736	582.44
428.958	557.44
429.181	546.44
429.403	537.44
429.625	565.44
429.847	590.44
430.069	672.44
430.292	662.44
430.514	569.44
430.736	563.44
430.958	535.44
431.18	546.44
431.402	513.44
431.624	520.44
431.846	499.44
432.068	502.44
432.29	507.44
432.512	520.44
432.734	519.44
432.956	535.44
433.178	521.44
433.4	536.44
433.622	527.44
433.844	532.44
434.066	527.44
434.287	517.44
434.509	554.44
434.731	502.44
434.953	548.44
435.175	552.44
435.397	594.44
435.618	573.44
435.84	641.44
436.062	735.44
436.284	830.44
436.505	678.44
436.727	608.44
436.949	581.44
437.17	537.44
437.392	547.44
437.614	548.44
437.835	580.44
438.057	695.44
438.278	817.44
438.5	797.44
438.721	882.44
438.943	860.44
439.165	665.44
439.386	611.44
439.608	597.44
439.829	611.44
440.05	620.44
440.272	669.44
440.493	631.44
440.715	585.44
440.936	549.44
441.158	555.44
441.379	538.44
441.6	575.44
441.822	603.44
442.043	630.44
442.264	713.44
442.486	755.44
442.707	663.44
442.928	611.44
443.149	617.44
443.371	632.44
443.592	683.44
443.813	761.44
444.034	837.44
444.255	684.44
444.476	623.44
444.698	599.44
444.919	602.44
445.14	710.44
445.361	669.44
445.582	626.44
445.803	707.44
446.024	808.44
446.245	839.44
446.466	731.44
446.687	636.44
446.908	575.44
447.129	583.44
447.35	531.44
447.571	540.44
447.792	529.44
448.013	536.44
448.234	570.44
448.455	608.44
448.675	710.44
448.896	860.44
449.117	719.44
449.338	675.44
449.559	818.44
449.779	900.44
450	695.44
450.221	588.44
450.442	547.44
450.662	535.44
450.883	544.44
451.104	567.44
451.324	532.44
451.545	502.44
451.766	501.44
451.986	511.44
452.207	495.44
452.428	490.44
452.648	489.44
452.869	488.44
453.089	496.44
453.31	511.44
453.53	487.44
453.751	480.44
453.971	484.44
454.192	488.44
454.412	486.44
454.633	495.44
454.853	499.44
455.073	488.44
455.294	501.44
455.514	587.44
455.734	561.44
455.955	477.44
456.175	451.44
456.395	463.44
456.616	477.44
456.836	466.44
457.056	473.44
457.276	446.44
457.497	461.44
457.717	453.44
457.937	482.44
458.157	470.44
458.377	475.44
458.598	488.44
458.818	556.44
459.038	632.44
459.258	647.44
459.478	594.44
459.698	539.44
459.918	527.44
460.138	537.44
460.358	554.44
460.578	526.44
460.798	531.44
461.018	543.44
461.238	516.44
461.458	548.44
461.678	555.44
461.898	535.44
462.118	523.44
462.338	542.44
462.558	576.44
462.777	546.44
462.997	590.44
463.217	586.44
463.437	602.44
463.657	571.44
463.876	578.44
464.096	587.44
464.316	575.44
464.536	591.44
464.755	584.44
464.975	570.44
465.195	593.44
465.414	671.44
465.634	602.44
465.854	538.44
466.073	549.44
466.293	557.44
466.512	508.44
466.732	507.44
466.951	506.44
467.171	518.44
467.391	516.44
467.61	515.44
467.829	516.44
468.049	515.44
468.268	524.44
468.488	513.44
468.707	504.44
468.927	495.44
469.146	487.44
469.365	484.44
469.585	480.44
469.804	472.44
470.023	492.44
470.243	506.44
470.462	537.44
470.681	517.44
470.901	538.44
471.12	502.44
471.339	514.44
471.558	512.44
471.777	513.44
471.997	508.44
472.216	525.44
472.435	542.44
472.654	543.44
472.873	502.44
473.092	493.44
473.311	492.44
473.53	530.44
473.749	534.44
473.968	568.44
474.187	643.44
474.406	654.44
474.625	559.44
474.844	526.44
475.063	505.44
475.282	509.44
475.501	515.44
475.72	515.44
475.939	535.44
476.158	521.44
476.377	527.44
476.596	535.44
476.814	526.44
477.033	547.44
477.252	525.44
477.471	521.44
477.69	562.44
477.908	561.44
478.127	572.44
478.346	551.44
478.564	563.44
478.783	571.44
479.002	587.44
479.22	597.44
479.439	613.44
479.658	627.44
479.876	608.44
480.095	623.44
480.313	634.44
480.532	635.44
480.751	616.44
480.969	642.44
481.188	664.44
481.406	717.44
481.624	640.44
481.843	617.44
482.061	616.44
482.28	634.44
482.498	601.44
482.717	610.44
482.935	617.44
483.153	601.44
483.372	601.44
483.59	587.44
483.808	608.44
484.027	589.44
484.245	601.44
484.463	619.44
484.681	598.44
484.9	628.44
485.118	614.44
485.336	637.44
485.554	589.44
485.772	619.44
485.99	615.44
486.209	630.44
486.427	627.44
486.645	659.44
486.863	624.44
487.081	667.44
487.299	639.44
487.517	629.44
487.735	616.44
487.953	619.44
488.171	634.44
488.389	657.44
488.607	647.44
488.825	657.44
489.043	635.44
489.261	639.44
489.479	657.44
489.696	654.44
489.914	650.44
490.132	652.44
490.35	656.44
490.568	671.44
490.786	665.44
491.003	697.44
491.221	686.44
491.439	695.44
491.657	702.44
491.874	704.44
492.092	735.44
492.31	732.44
492.527	695.44
492.745	708.44
492.963	734.44
493.18	722.44
493.398	731.44
493.615	743.44
493.833	731.44
494.05	754.44
494.268	738.44
494.485	733.44
494.703	717.44
494.92	745.44
495.138	724.44
495.355	755.44
495.573	769.44
495.79	744.44
496.008	774.44
496.225	720.44
496.442	741.44
496.66	790.44
496.877	773.44
497.094	751.44
497.312	751.44
497.529	776.44
497.746	802.44
497.963	819.44
498.181	826.44
498.398	852.44
498.615	844.44
498.832	832.44
499.049	876.44
499.267	908.44
499.484	920.44
499.701	967.44
499.918	986.44
500.135	1024.44
500.352	1063.44
500.569	1073.44
500.786	1097.44
501.003	1074.44
501.22	1055.44
501.437	1029.44
501.654	1019.44
501.871	964.44
