Data from 1978.PennyLincolnUp.Lamp.En5.5.200Scan.071719.P1_HRD10591_16-14-06-866.txt Node
Date: Thu Jul 18 16:14:06 EDT 2019
User: cochatt
Spectrometer: HR+D1059
Trigger mode: 1
Integration Time (sec): 1.000000E-1
Scans to average: 1
Electric dark correction enabled: true
Nonlinearity correction enabled: false
Boxcar width: 0
XAxis mode: Wavelengths
Number of Pixels in Spectrum: 2048
>>>>>Begin Spectral Data<<<<<
223.165	-8.5
223.4	-8.5
223.635	-8.5
223.869	-18.5
224.104	-21.5
224.338	-14.5
224.573	-6.5
224.808	-9.5
225.042	-6.5
225.277	-2.5
225.511	-3.5
225.746	5.5
225.98	17.5
226.215	6.5
226.449	9.5
226.683	15.5
226.918	15.5
227.152	21.5
227.387	35.5
227.621	29.5
227.856	43.5
228.09	40.5
228.324	51.5
228.559	39.5
228.793	64.5
229.027	117.5
229.262	100.5
229.496	107.5
229.73	126.5
229.964	161.5
230.199	131.5
230.433	97.5
230.667	115.5
230.901	121.5
231.136	97.5
231.37	103.5
231.604	116.5
231.838	109.5
232.072	111.5
232.306	113.5
232.541	117.5
232.775	123.5
233.009	110.5
233.243	110.5
233.477	106.5
233.711	125.5
233.945	123.5
234.179	109.5
234.413	113.5
234.647	115.5
234.881	107.5
235.115	117.5
235.349	121.5
235.583	114.5
235.817	117.5
236.051	130.5
236.285	115.5
236.519	125.5
236.753	113.5
236.987	132.5
237.221	184.5
237.455	254.5
237.689	206.5
237.922	141.5
238.156	136.5
238.39	109.5
238.624	122.5
238.858	127.5
239.091	131.5
239.325	137.5
239.559	125.5
239.793	129.5
240.027	130.5
240.26	145.5
240.494	155.5
240.728	163.5
240.961	146.5
241.195	132.5
241.429	138.5
241.662	121.5
241.896	138.5
242.13	142.5
242.363	121.5
242.597	134.5
242.83	137.5
243.064	134.5
243.298	151.5
243.531	130.5
243.765	127.5
243.998	144.5
244.232	132.5
244.465	151.5
244.699	147.5
244.932	138.5
245.166	138.5
245.399	136.5
245.633	147.5
245.866	146.5
246.099	137.5
246.333	154.5
246.566	145.5
246.8	156.5
247.033	159.5
247.266	155.5
247.5	162.5
247.733	164.5
247.966	167.5
248.2	156.5
248.433	157.5
248.666	170.5
248.899	180.5
249.133	193.5
249.366	187.5
249.599	195.5
249.832	184.5
250.066	179.5
250.299	181.5
250.532	182.5
250.765	196.5
250.998	218.5
251.231	218.5
251.465	206.5
251.698	190.5
251.931	191.5
252.164	195.5
252.397	190.5
252.63	201.5
252.863	195.5
253.096	200.5
253.329	197.5
253.562	198.5
253.795	202.5
254.028	190.5
254.261	199.5
254.494	225.5
254.727	246.5
254.96	261.5
255.193	261.5
255.426	223.5
255.659	213.5
255.892	198.5
256.124	212.5
256.357	214.5
256.59	211.5
256.823	214.5
257.056	205.5
257.289	189.5
257.521	206.5
257.754	198.5
257.987	204.5
258.22	199.5
258.452	188.5
258.685	199.5
258.918	190.5
259.151	190.5
259.383	206.5
259.616	194.5
259.849	208.5
260.081	234.5
260.314	245.5
260.547	234.5
260.779	230.5
261.012	229.5
261.244	229.5
261.477	199.5
261.71	221.5
261.942	225.5
262.175	218.5
262.407	218.5
262.64	219.5
262.872	189.5
263.105	216.5
263.337	203.5
263.57	218.5
263.802	211.5
264.035	203.5
264.267	203.5
264.499	207.5
264.732	211.5
264.964	200.5
265.197	211.5
265.429	201.5
265.661	207.5
265.894	223.5
266.126	210.5
266.358	201.5
266.591	208.5
266.823	211.5
267.055	210.5
267.287	227.5
267.52	211.5
267.752	224.5
267.984	217.5
268.216	210.5
268.448	222.5
268.681	223.5
268.913	230.5
269.145	246.5
269.377	247.5
269.609	237.5
269.841	247.5
270.073	260.5
270.306	271.5
270.538	317.5
270.77	294.5
271.002	276.5
271.234	285.5
271.466	269.5
271.698	284.5
271.93	293.5
272.162	292.5
272.394	302.5
272.626	288.5
272.858	278.5
273.09	258.5
273.322	264.5
273.553	255.5
273.785	250.5
274.017	250.5
274.249	239.5
274.481	251.5
274.713	265.5
274.945	269.5
275.176	245.5
275.408	249.5
275.64	273.5
275.872	250.5
276.104	251.5
276.335	261.5
276.567	259.5
276.799	282.5
277.031	291.5
277.262	289.5
277.494	308.5
277.726	277.5
277.957	277.5
278.189	252.5
278.421	265.5
278.652	246.5
278.884	245.5
279.115	251.5
279.347	253.5
279.579	261.5
279.81	258.5
280.042	264.5
280.273	257.5
280.505	263.5
280.736	261.5
280.968	255.5
281.199	269.5
281.431	274.5
281.662	264.5
281.894	259.5
282.125	265.5
282.356	253.5
282.588	295.5
282.819	299.5
283.051	262.5
283.282	261.5
283.513	269.5
283.745	253.5
283.976	289.5
284.207	276.5
284.439	285.5
284.67	272.5
284.901	272.5
285.132	258.5
285.364	259.5
285.595	275.5
285.826	270.5
286.057	274.5
286.288	265.5
286.52	283.5
286.751	269.5
286.982	277.5
287.213	296.5
287.444	302.5
287.675	271.5
287.906	290.5
288.138	284.5
288.369	291.5
288.6	286.5
288.831	281.5
289.062	289.5
289.293	299.5
289.524	286.5
289.755	275.5
289.986	282.5
290.217	269.5
290.448	285.5
290.679	268.5
290.91	295.5
291.141	279.5
291.371	280.5
291.602	279.5
291.833	268.5
292.064	277.5
292.295	276.5
292.526	289.5
292.757	263.5
292.987	284.5
293.218	272.5
293.449	290.5
293.68	287.5
293.91	284.5
294.141	278.5
294.372	286.5
294.603	297.5
294.833	268.5
295.064	283.5
295.295	296.5
295.525	277.5
295.756	293.5
295.987	277.5
296.217	331.5
296.448	313.5
296.679	297.5
296.909	284.5
297.14	285.5
297.37	278.5
297.601	300.5
297.831	293.5
298.062	308.5
298.292	306.5
298.523	310.5
298.753	301.5
298.984	286.5
299.214	318.5
299.445	303.5
299.675	295.5
299.905	289.5
300.136	298.5
300.366	291.5
300.597	306.5
300.827	317.5
301.057	322.5
301.288	346.5
301.518	326.5
301.748	317.5
301.979	325.5
302.209	319.5
302.439	340.5
302.669	334.5
302.9	322.5
303.13	296.5
303.36	301.5
303.59	328.5
303.82	339.5
304.051	331.5
304.281	327.5
304.511	322.5
304.741	300.5
304.971	317.5
305.201	331.5
305.431	340.5
305.661	321.5
305.891	326.5
306.121	303.5
306.352	325.5
306.582	326.5
306.812	325.5
307.042	320.5
307.272	342.5
307.502	315.5
307.731	329.5
307.961	329.5
308.191	326.5
308.421	311.5
308.651	318.5
308.881	329.5
309.111	340.5
309.341	323.5
309.571	324.5
309.8	355.5
310.03	349.5
310.26	377.5
310.49	361.5
310.72	369.5
310.949	380.5
311.179	378.5
311.409	358.5
311.639	362.5
311.868	352.5
312.098	370.5
312.328	394.5
312.557	385.5
312.787	413.5
313.017	410.5
313.246	385.5
313.476	366.5
313.706	364.5
313.935	371.5
314.165	374.5
314.394	402.5
314.624	387.5
314.853	399.5
315.083	389.5
315.312	387.5
315.542	357.5
315.771	367.5
316.001	355.5
316.23	355.5
316.46	355.5
316.689	371.5
316.919	355.5
317.148	377.5
317.377	383.5
317.607	370.5
317.836	384.5
318.065	385.5
318.295	384.5
318.524	371.5
318.753	367.5
318.983	379.5
319.212	358.5
319.441	403.5
319.67	387.5
319.9	364.5
320.129	363.5
320.358	377.5
320.587	366.5
320.816	390.5
321.046	383.5
321.275	381.5
321.504	404.5
321.733	390.5
321.962	394.5
322.191	413.5
322.42	420.5
322.649	455.5
322.878	442.5
323.108	449.5
323.337	488.5
323.566	486.5
323.795	517.5
324.024	545.5
324.253	669.5
324.482	987.5
324.71	1579.5
324.939	2449.5
325.168	2068.5
325.397	1002.5
325.626	654.5
325.855	554.5
326.084	493.5
326.313	497.5
326.542	487.5
326.77	565.5
326.999	626.5
327.228	915.5
327.457	1420.5
327.686	1836.5
327.914	1140.5
328.143	706.5
328.372	630.5
328.6	583.5
328.829	547.5
329.058	566.5
329.287	565.5
329.515	550.5
329.744	493.5
329.972	515.5
330.201	513.5
330.43	551.5
330.658	581.5
330.887	595.5
331.115	595.5
331.344	510.5
331.572	490.5
331.801	501.5
332.03	507.5
332.258	459.5
332.486	446.5
332.715	456.5
332.943	434.5
333.172	465.5
333.4	450.5
333.629	463.5
333.857	466.5
334.085	488.5
334.314	481.5
334.542	521.5
334.771	543.5
334.999	497.5
335.227	486.5
335.455	461.5
335.684	459.5
335.912	453.5
336.14	459.5
336.369	421.5
336.597	453.5
336.825	474.5
337.053	435.5
337.281	439.5
337.51	437.5
337.738	450.5
337.966	432.5
338.194	451.5
338.422	464.5
338.65	456.5
338.878	446.5
339.106	423.5
339.334	445.5
339.562	421.5
339.79	428.5
340.018	425.5
340.246	436.5
340.474	439.5
340.702	444.5
340.93	425.5
341.158	430.5
341.386	430.5
341.614	423.5
341.842	404.5
342.07	443.5
342.298	427.5
342.526	421.5
342.754	399.5
342.981	407.5
343.209	420.5
343.437	450.5
343.665	411.5
343.893	423.5
344.12	450.5
344.348	435.5
344.576	434.5
344.804	446.5
345.031	449.5
345.259	453.5
345.487	434.5
345.714	445.5
345.942	424.5
346.17	423.5
346.397	433.5
346.625	420.5
346.853	422.5
347.08	427.5
347.308	421.5
347.535	447.5
347.763	438.5
347.99	444.5
348.218	434.5
348.445	449.5
348.673	435.5
348.9	422.5
349.128	447.5
349.355	411.5
349.583	421.5
349.81	422.5
350.037	418.5
350.265	416.5
350.492	396.5
350.72	384.5
350.947	411.5
351.174	423.5
351.402	423.5
351.629	426.5
351.856	434.5
352.083	430.5
352.311	428.5
352.538	436.5
352.765	435.5
352.992	428.5
353.22	393.5
353.447	404.5
353.674	423.5
353.901	393.5
354.128	409.5
354.355	419.5
354.583	406.5
354.81	396.5
355.037	393.5
355.264	413.5
355.491	389.5
355.718	381.5
355.945	381.5
356.172	379.5
356.399	381.5
356.626	396.5
356.853	396.5
357.08	395.5
357.307	381.5
357.534	404.5
357.761	388.5
357.988	411.5
358.215	398.5
358.441	390.5
358.668	398.5
358.895	388.5
359.122	415.5
359.349	405.5
359.576	420.5
359.802	429.5
360.029	461.5
360.256	484.5
360.483	463.5
360.709	417.5
360.936	419.5
361.163	419.5
361.39	438.5
361.616	422.5
361.843	441.5
362.07	455.5
362.296	435.5
362.523	423.5
362.749	428.5
362.976	441.5
363.203	410.5
363.429	411.5
363.656	409.5
363.882	396.5
364.109	397.5
364.335	412.5
364.562	406.5
364.788	407.5
365.015	411.5
365.241	411.5
365.468	434.5
365.694	435.5
365.92	420.5
366.147	413.5
366.373	411.5
366.599	403.5
366.826	378.5
367.052	403.5
367.278	421.5
367.505	395.5
367.731	413.5
367.957	415.5
368.184	421.5
368.41	426.5
368.636	422.5
368.862	434.5
369.089	427.5
369.315	405.5
369.541	422.5
369.767	417.5
369.993	408.5
370.219	405.5
370.445	399.5
370.672	421.5
370.898	397.5
371.124	416.5
371.35	395.5
371.576	396.5
371.802	410.5
372.028	405.5
372.254	411.5
372.48	401.5
372.706	409.5
372.932	413.5
373.158	413.5
373.384	436.5
373.61	419.5
373.835	419.5
374.061	390.5
374.287	428.5
374.513	423.5
374.739	410.5
374.965	440.5
375.191	420.5
375.416	409.5
375.642	404.5
375.868	440.5
376.094	438.5
376.319	406.5
376.545	397.5
376.771	409.5
376.997	382.5
377.222	387.5
377.448	411.5
377.674	437.5
377.899	437.5
378.125	413.5
378.35	415.5
378.576	398.5
378.802	411.5
379.027	401.5
379.253	403.5
379.478	409.5
379.704	416.5
379.929	408.5
380.155	419.5
380.38	443.5
380.606	415.5
380.831	424.5
381.057	414.5
381.282	393.5
381.507	408.5
381.733	414.5
381.958	430.5
382.184	437.5
382.409	430.5
382.634	422.5
382.86	452.5
383.085	427.5
383.31	395.5
383.535	439.5
383.761	444.5
383.986	453.5
384.211	457.5
384.436	455.5
384.662	417.5
384.887	437.5
385.112	446.5
385.337	450.5
385.562	461.5
385.787	444.5
386.013	465.5
386.238	479.5
386.463	459.5
386.688	445.5
386.913	453.5
387.138	466.5
387.363	420.5
387.588	443.5
387.813	440.5
388.038	460.5
388.263	463.5
388.488	455.5
388.713	475.5
388.938	467.5
389.163	464.5
389.387	450.5
389.612	476.5
389.837	465.5
390.062	470.5
390.287	465.5
390.512	477.5
390.736	446.5
390.961	464.5
391.186	466.5
391.411	489.5
391.636	490.5
391.86	486.5
392.085	498.5
392.31	481.5
392.534	480.5
392.759	483.5
392.984	478.5
393.208	480.5
393.433	475.5
393.658	471.5
393.882	468.5
394.107	474.5
394.331	490.5
394.556	478.5
394.78	476.5
395.005	486.5
395.229	493.5
395.454	487.5
395.678	512.5
395.903	492.5
396.127	525.5
396.352	503.5
396.576	506.5
396.801	483.5
397.025	490.5
397.249	506.5
397.474	497.5
397.698	486.5
397.922	537.5
398.147	525.5
398.371	530.5
398.595	524.5
398.82	500.5
399.044	543.5
399.268	558.5
399.492	579.5
399.717	628.5
399.941	653.5
400.165	667.5
400.389	705.5
400.613	622.5
400.837	592.5
401.062	571.5
401.286	536.5
401.51	565.5
401.734	547.5
401.958	547.5
402.182	546.5
402.406	559.5
402.63	559.5
402.854	554.5
403.078	553.5
403.302	557.5
403.526	579.5
403.75	569.5
403.974	565.5
404.198	564.5
404.422	565.5
404.645	575.5
404.869	567.5
405.093	610.5
405.317	663.5
405.541	683.5
405.765	618.5
405.988	597.5
406.212	633.5
406.436	593.5
406.66	625.5
406.883	616.5
407.107	622.5
407.331	701.5
407.555	738.5
407.778	751.5
408.002	699.5
408.226	643.5
408.449	628.5
408.673	629.5
408.896	674.5
409.12	714.5
409.344	644.5
409.567	606.5
409.791	577.5
410.014	575.5
410.238	554.5
410.461	556.5
410.685	582.5
410.908	590.5
411.132	640.5
411.355	674.5
411.578	638.5
411.802	576.5
412.025	578.5
412.249	584.5
412.472	610.5
412.695	644.5
412.919	649.5
413.142	594.5
413.365	579.5
413.589	554.5
413.812	561.5
414.035	553.5
414.258	558.5
414.482	525.5
414.705	541.5
414.928	518.5
415.151	535.5
415.374	546.5
415.597	539.5
415.821	518.5
416.044	527.5
416.267	545.5
416.49	506.5
416.713	528.5
416.936	524.5
417.159	519.5
417.382	541.5
417.605	552.5
417.828	557.5
418.051	555.5
418.274	550.5
418.497	530.5
418.72	527.5
418.943	514.5
419.166	540.5
419.389	569.5
419.611	575.5
419.834	573.5
420.057	572.5
420.28	559.5
420.503	563.5
420.726	558.5
420.948	575.5
421.171	595.5
421.394	666.5
421.617	581.5
421.839	533.5
422.062	549.5
422.285	562.5
422.507	639.5
422.73	739.5
422.953	695.5
423.175	621.5
423.398	581.5
423.621	586.5
423.843	593.5
424.066	611.5
424.288	585.5
424.511	619.5
424.733	644.5
424.956	750.5
425.178	733.5
425.401	714.5
425.623	747.5
425.846	664.5
426.068	573.5
426.291	605.5
426.513	589.5
426.735	599.5
426.958	630.5
427.18	748.5
427.402	902.5
427.625	984.5
427.847	839.5
428.069	750.5
428.292	628.5
428.514	566.5
428.736	572.5
428.958	557.5
429.181	568.5
429.403	551.5
429.625	577.5
429.847	609.5
430.069	691.5
430.292	660.5
430.514	557.5
430.736	554.5
430.958	545.5
431.18	545.5
431.402	519.5
431.624	516.5
431.846	532.5
432.068	530.5
432.29	534.5
432.512	535.5
432.734	540.5
432.956	549.5
433.178	544.5
433.4	550.5
433.622	526.5
433.844	539.5
434.066	551.5
434.287	531.5
434.509	514.5
434.731	544.5
434.953	557.5
435.175	574.5
435.397	601.5
435.618	595.5
435.84	664.5
436.062	753.5
436.284	830.5
436.505	701.5
436.727	630.5
436.949	565.5
437.17	558.5
437.392	556.5
437.614	574.5
437.835	598.5
438.057	701.5
438.278	835.5
438.5	823.5
438.721	893.5
438.943	867.5
439.165	675.5
439.386	630.5
439.608	611.5
439.829	602.5
440.05	645.5
440.272	711.5
440.493	653.5
440.715	601.5
440.936	565.5
441.158	572.5
441.379	580.5
441.6	578.5
441.822	621.5
442.043	636.5
442.264	721.5
442.486	785.5
442.707	653.5
442.928	615.5
443.149	626.5
443.371	661.5
443.592	666.5
443.813	797.5
444.034	874.5
444.255	694.5
444.476	648.5
444.698	626.5
444.919	586.5
445.14	696.5
445.361	666.5
445.582	646.5
445.803	723.5
446.024	840.5
446.245	836.5
446.466	778.5
446.687	644.5
446.908	593.5
447.129	565.5
447.35	579.5
447.571	544.5
447.792	533.5
448.013	573.5
448.234	571.5
448.455	627.5
448.675	772.5
448.896	891.5
449.117	739.5
449.338	699.5
449.559	835.5
449.779	952.5
450	746.5
450.221	612.5
450.442	531.5
450.662	553.5
450.883	539.5
451.104	549.5
451.324	540.5
451.545	526.5
451.766	512.5
451.986	511.5
452.207	484.5
452.428	489.5
452.648	463.5
452.869	503.5
453.089	504.5
453.31	521.5
453.53	486.5
453.751	504.5
453.971	497.5
454.192	508.5
454.412	502.5
454.633	476.5
454.853	473.5
455.073	466.5
455.294	516.5
455.514	603.5
455.734	595.5
455.955	502.5
456.175	458.5
456.395	467.5
456.616	471.5
456.836	458.5
457.056	479.5
457.276	477.5
457.497	498.5
457.717	474.5
457.937	500.5
458.157	498.5
458.377	494.5
458.598	514.5
458.818	557.5
459.038	640.5
459.258	684.5
459.478	592.5
459.698	537.5
459.918	533.5
460.138	534.5
460.358	546.5
460.578	541.5
460.798	548.5
461.018	546.5
461.238	544.5
461.458	541.5
461.678	560.5
461.898	551.5
462.118	558.5
462.338	567.5
462.558	555.5
462.777	575.5
462.997	574.5
463.217	588.5
463.437	607.5
463.657	590.5
463.876	602.5
464.096	605.5
464.316	573.5
464.536	602.5
464.755	589.5
464.975	582.5
465.195	613.5
465.414	678.5
465.634	610.5
465.854	575.5
466.073	539.5
466.293	539.5
466.512	521.5
466.732	532.5
466.951	519.5
467.171	494.5
467.391	519.5
467.61	530.5
467.829	536.5
468.049	531.5
468.268	525.5
468.488	531.5
468.707	492.5
468.927	483.5
469.146	492.5
469.365	497.5
469.585	487.5
469.804	530.5
470.023	539.5
470.243	513.5
470.462	522.5
470.681	539.5
470.901	525.5
471.12	528.5
471.339	493.5
471.558	520.5
471.777	509.5
471.997	534.5
472.216	538.5
472.435	554.5
472.654	538.5
472.873	516.5
473.092	523.5
473.311	513.5
473.53	521.5
473.749	505.5
473.968	557.5
474.187	660.5
474.406	689.5
474.625	586.5
474.844	553.5
475.063	514.5
475.282	533.5
475.501	536.5
475.72	533.5
475.939	525.5
476.158	544.5
476.377	527.5
476.596	547.5
476.814	556.5
477.033	557.5
477.252	575.5
477.471	542.5
477.69	565.5
477.908	574.5
478.127	577.5
478.346	550.5
478.564	573.5
478.783	565.5
479.002	602.5
479.22	599.5
479.439	629.5
479.658	617.5
479.876	627.5
480.095	627.5
480.313	658.5
480.532	649.5
480.751	651.5
480.969	645.5
481.188	702.5
481.406	718.5
481.624	680.5
481.843	641.5
482.061	597.5
482.28	609.5
482.498	613.5
482.717	616.5
482.935	611.5
483.153	611.5
483.372	613.5
483.59	619.5
483.808	618.5
484.027	597.5
484.245	599.5
484.463	607.5
484.681	604.5
484.9	602.5
485.118	626.5
485.336	632.5
485.554	630.5
485.772	635.5
485.99	644.5
486.209	626.5
486.427	659.5
486.645	648.5
486.863	653.5
487.081	646.5
487.299	636.5
487.517	651.5
487.735	656.5
487.953	661.5
488.171	645.5
488.389	654.5
488.607	666.5
488.825	663.5
489.043	655.5
489.261	665.5
489.479	646.5
489.696	646.5
489.914	657.5
490.132	667.5
490.35	679.5
490.568	676.5
490.786	675.5
491.003	696.5
491.221	699.5
491.439	710.5
491.657	715.5
491.874	729.5
492.092	725.5
492.31	741.5
492.527	731.5
492.745	741.5
492.963	767.5
493.18	716.5
493.398	734.5
493.615	746.5
493.833	776.5
494.05	723.5
494.268	775.5
494.485	750.5
494.703	733.5
494.92	759.5
495.138	763.5
495.355	767.5
495.573	770.5
495.79	790.5
496.008	769.5
496.225	730.5
496.442	786.5
496.66	768.5
496.877	775.5
497.094	755.5
497.312	803.5
497.529	788.5
497.746	793.5
497.963	834.5
498.181	833.5
498.398	875.5
498.615	868.5
498.832	861.5
499.049	889.5
499.267	923.5
499.484	958.5
499.701	981.5
499.918	994.5
500.135	1057.5
500.352	1089.5
500.569	1095.5
500.786	1095.5
501.003	1078.5
501.22	1075.5
501.437	1036.5
501.654	1005.5
501.871	983.5
502.088	979.5
502.305	912.5
502.522	895.5
502.739	877.5
502.956	831.5
503.172	879.5
503.389	812.5
503.606	826.5
503.823	814.5
504.04	829.5
504.256	795.5
504.473	797.5
504.69	777.5
504.907	775.5
505.123	771.5
505.34	774.5
505.557	734.5
505.773	750.5
505.99	756.5
506.207	756.5
506.423	730.5
506.64	738.5
506.856	709.5
507.073	718.5
507.289	706.5
507.506	699.5
507.722	727.5
507.939	727.5
508.155	708.5
508.372	705.5
508.588	667.5
508.805	677.5
509.021	669.5
509.238	666.5
509.454	696.5
509.67	690.5
509.887	683.5
510.103	667.5
510.319	709.5
510.536	782.5
510.752	1203.5
510.968	1020.5
511.184	714.5
511.401	677.5
511.617	653.5
511.833	641.5
512.049	646.5
512.265	656.5
512.481	675.5
512.698	659.5
512.914	659.5
513.13	679.5
513.346	633.5
513.562	639.5
513.778	653.5
513.994	651.5
514.21	689.5
514.426	685.5
514.642	715.5
514.858	749.5
515.074	774.5
515.29	891.5
515.506	1269.5
515.721	1087.5
515.937	775.5
516.153	726.5
516.369	702.5
516.585	689.5
516.801	665.5
517.016	718.5
517.232	669.5
517.448	705.5
517.664	693.5
517.879	668.5
518.095	712.5
518.311	699.5
518.527	671.5
518.742	664.5
518.958	669.5
519.173	667.5
519.389	678.5
519.605	659.5
519.82	656.5
