Data from 1978.PennyLincolnUp.Lamp.En5.5.200Scan.071719.P1_HRD10591_16-12-42-865.txt Node
Date: Thu Jul 18 16:12:42 EDT 2019
User: cochatt
Spectrometer: HR+D1059
Trigger mode: 1
Integration Time (sec): 1.000000E-1
Scans to average: 1
Electric dark correction enabled: true
Nonlinearity correction enabled: false
Boxcar width: 0
XAxis mode: Wavelengths
Number of Pixels in Spectrum: 2048
>>>>>Begin Spectral Data<<<<<
223.165	-20.56
223.4	-20.56
223.635	-20.56
223.869	-14.56
224.104	-18.56
224.338	-16.56
224.573	-15.56
224.808	-6.56
225.042	-3.56
225.277	-15.56
225.511	-5.56
225.746	-1.56
225.98	20.44
226.215	10.44
226.449	5.44
226.683	17.44
226.918	29.44
227.152	35.44
227.387	41.44
227.621	39.44
227.856	42.44
228.09	65.44
228.324	43.44
228.559	59.44
228.793	66.44
229.027	119.44
229.262	96.44
229.496	121.44
229.73	118.44
229.964	144.44
230.199	135.44
230.433	111.44
230.667	122.44
230.901	102.44
231.136	107.44
231.37	124.44
231.604	113.44
231.838	123.44
232.072	113.44
232.306	124.44
232.541	111.44
232.775	113.44
233.009	111.44
233.243	122.44
233.477	124.44
233.711	131.44
233.945	124.44
234.179	115.44
234.413	116.44
234.647	115.44
234.881	111.44
235.115	113.44
235.349	104.44
235.583	127.44
235.817	110.44
236.051	112.44
236.285	124.44
236.519	138.44
236.753	129.44
236.987	138.44
237.221	165.44
237.455	212.44
237.689	189.44
237.922	147.44
238.156	135.44
238.39	135.44
238.624	118.44
238.858	120.44
239.091	130.44
239.325	117.44
239.559	130.44
239.793	149.44
240.027	127.44
240.26	157.44
240.494	150.44
240.728	142.44
240.961	151.44
241.195	135.44
241.429	127.44
241.662	141.44
241.896	131.44
242.13	126.44
242.363	132.44
242.597	134.44
242.83	140.44
243.064	140.44
243.298	133.44
243.531	136.44
243.765	125.44
243.998	151.44
244.232	139.44
244.465	147.44
244.699	150.44
244.932	143.44
245.166	145.44
245.399	144.44
245.633	156.44
245.866	147.44
246.099	142.44
246.333	135.44
246.566	160.44
246.8	141.44
247.033	143.44
247.266	153.44
247.5	153.44
247.733	173.44
247.966	172.44
248.2	169.44
248.433	156.44
248.666	155.44
248.899	179.44
249.133	187.44
249.366	202.44
249.599	201.44
249.832	177.44
250.066	173.44
250.299	181.44
250.532	185.44
250.765	161.44
250.998	187.44
251.231	201.44
251.465	208.44
251.698	199.44
251.931	204.44
252.164	169.44
252.397	198.44
252.63	183.44
252.863	193.44
253.096	193.44
253.329	184.44
253.562	199.44
253.795	199.44
254.028	197.44
254.261	213.44
254.494	219.44
254.727	221.44
254.96	262.44
255.193	239.44
255.426	227.44
255.659	220.44
255.892	217.44
256.124	228.44
256.357	214.44
256.59	210.44
256.823	207.44
257.056	190.44
257.289	199.44
257.521	194.44
257.754	200.44
257.987	192.44
258.22	212.44
258.452	209.44
258.685	206.44
258.918	193.44
259.151	190.44
259.383	219.44
259.616	203.44
259.849	203.44
260.081	216.44
260.314	242.44
260.547	226.44
260.779	228.44
261.012	227.44
261.244	220.44
261.477	208.44
261.71	204.44
261.942	217.44
262.175	227.44
262.407	223.44
262.64	198.44
262.872	201.44
263.105	212.44
263.337	207.44
263.57	210.44
263.802	212.44
264.035	197.44
264.267	208.44
264.499	189.44
264.732	212.44
264.964	219.44
265.197	222.44
265.429	216.44
265.661	210.44
265.894	212.44
266.126	212.44
266.358	224.44
266.591	201.44
266.823	220.44
267.055	237.44
267.287	221.44
267.52	221.44
267.752	210.44
267.984	215.44
268.216	218.44
268.448	220.44
268.681	225.44
268.913	228.44
269.145	237.44
269.377	247.44
269.609	251.44
269.841	241.44
270.073	240.44
270.306	279.44
270.538	296.44
270.77	251.44
271.002	274.44
271.234	264.44
271.466	263.44
271.698	281.44
271.93	277.44
272.162	282.44
272.394	288.44
272.626	288.44
272.858	272.44
273.09	261.44
273.322	262.44
273.553	248.44
273.785	253.44
274.017	250.44
274.249	250.44
274.481	251.44
274.713	253.44
274.945	257.44
275.176	244.44
275.408	253.44
275.64	251.44
275.872	252.44
276.104	237.44
276.335	248.44
276.567	242.44
276.799	263.44
277.031	285.44
277.262	296.44
277.494	297.44
277.726	283.44
277.957	271.44
278.189	260.44
278.421	248.44
278.652	260.44
278.884	259.44
279.115	271.44
279.347	252.44
279.579	261.44
279.81	243.44
280.042	245.44
280.273	247.44
280.505	255.44
280.736	251.44
280.968	272.44
281.199	241.44
281.431	263.44
281.662	250.44
281.894	265.44
282.125	260.44
282.356	274.44
282.588	291.44
282.819	298.44
283.051	270.44
283.282	261.44
283.513	277.44
283.745	240.44
283.976	271.44
284.207	280.44
284.439	273.44
284.67	274.44
284.901	270.44
285.132	283.44
285.364	251.44
285.595	264.44
285.826	265.44
286.057	287.44
286.288	268.44
286.52	256.44
286.751	299.44
286.982	281.44
287.213	287.44
287.444	281.44
287.675	283.44
287.906	281.44
288.138	275.44
288.369	279.44
288.6	276.44
288.831	287.44
289.062	305.44
289.293	285.44
289.524	283.44
289.755	277.44
289.986	292.44
290.217	288.44
290.448	288.44
290.679	284.44
290.91	272.44
291.141	293.44
291.371	287.44
291.602	270.44
291.833	286.44
292.064	288.44
292.295	271.44
292.526	299.44
292.757	279.44
292.987	281.44
293.218	275.44
293.449	294.44
293.68	301.44
293.91	277.44
294.141	269.44
294.372	299.44
294.603	284.44
294.833	282.44
295.064	284.44
295.295	278.44
295.525	272.44
295.756	295.44
295.987	313.44
296.217	327.44
296.448	323.44
296.679	294.44
296.909	305.44
297.14	288.44
297.37	298.44
297.601	304.44
297.831	323.44
298.062	295.44
298.292	297.44
298.523	314.44
298.753	303.44
298.984	302.44
299.214	313.44
299.445	321.44
299.675	300.44
299.905	310.44
300.136	315.44
300.366	301.44
300.597	302.44
300.827	332.44
301.057	323.44
301.288	324.44
301.518	305.44
301.748	313.44
301.979	325.44
302.209	343.44
302.439	324.44
302.669	316.44
302.9	305.44
303.13	324.44
303.36	321.44
303.59	339.44
303.82	328.44
304.051	322.44
304.281	323.44
304.511	339.44
304.741	311.44
304.971	320.44
305.201	335.44
305.431	308.44
305.661	302.44
305.891	321.44
306.121	320.44
306.352	323.44
306.582	322.44
306.812	317.44
307.042	331.44
307.272	333.44
307.502	317.44
307.731	325.44
307.961	334.44
308.191	341.44
308.421	320.44
308.651	336.44
308.881	329.44
309.111	338.44
309.341	338.44
309.571	345.44
309.8	346.44
310.03	346.44
310.26	354.44
310.49	369.44
310.72	345.44
310.949	364.44
311.179	383.44
311.409	356.44
311.639	351.44
311.868	351.44
312.098	380.44
312.328	359.44
312.557	395.44
312.787	404.44
313.017	379.44
313.246	395.44
313.476	353.44
313.706	361.44
313.935	391.44
314.165	387.44
314.394	390.44
314.624	377.44
314.853	377.44
315.083	379.44
315.312	370.44
315.542	384.44
315.771	354.44
316.001	364.44
316.23	363.44
316.46	367.44
316.689	365.44
316.919	382.44
317.148	375.44
317.377	385.44
317.607	377.44
317.836	363.44
318.065	385.44
318.295	370.44
318.524	368.44
318.753	345.44
318.983	360.44
319.212	363.44
319.441	369.44
319.67	371.44
319.9	363.44
320.129	363.44
320.358	358.44
320.587	370.44
320.816	372.44
321.046	397.44
321.275	401.44
321.504	389.44
321.733	350.44
321.962	402.44
322.191	395.44
322.42	420.44
322.649	425.44
322.878	425.44
323.108	448.44
323.337	458.44
323.566	458.44
323.795	492.44
324.024	514.44
324.253	639.44
324.482	877.44
324.71	1410.44
324.939	2103.44
325.168	1857.44
325.397	892.44
325.626	610.44
325.855	508.44
326.084	490.44
326.313	459.44
326.542	482.44
326.77	505.44
326.999	612.44
327.228	815.44
327.457	1242.44
327.686	1543.44
327.914	1017.44
328.143	673.44
328.372	571.44
328.6	567.44
328.829	553.44
329.058	522.44
329.287	544.44
329.515	529.44
329.744	481.44
329.972	488.44
330.201	483.44
330.43	504.44
330.658	547.44
330.887	557.44
331.115	547.44
331.344	494.44
331.572	476.44
331.801	447.44
332.03	470.44
332.258	464.44
332.486	447.44
332.715	446.44
332.943	445.44
333.172	439.44
333.4	429.44
333.629	457.44
333.857	473.44
334.085	446.44
334.314	495.44
334.542	483.44
334.771	478.44
334.999	482.44
335.227	494.44
335.455	448.44
335.684	457.44
335.912	432.44
336.14	436.44
336.369	440.44
336.597	454.44
336.825	444.44
337.053	435.44
337.281	431.44
337.51	452.44
337.738	441.44
337.966	436.44
338.194	432.44
338.422	431.44
338.65	443.44
338.878	445.44
339.106	424.44
339.334	443.44
339.562	433.44
339.79	441.44
340.018	431.44
340.246	418.44
340.474	434.44
340.702	434.44
340.93	425.44
341.158	417.44
341.386	434.44
341.614	430.44
341.842	432.44
342.07	413.44
342.298	424.44
342.526	418.44
342.754	397.44
342.981	402.44
343.209	415.44
343.437	421.44
343.665	428.44
343.893	430.44
344.12	440.44
344.348	440.44
344.576	448.44
344.804	453.44
345.031	432.44
345.259	432.44
345.487	431.44
345.714	438.44
345.942	419.44
346.17	421.44
346.397	422.44
346.625	397.44
346.853	417.44
347.08	419.44
347.308	409.44
347.535	410.44
347.763	414.44
347.99	411.44
348.218	413.44
348.445	426.44
348.673	434.44
348.9	413.44
349.128	415.44
349.355	407.44
349.583	403.44
349.81	412.44
350.037	405.44
350.265	389.44
350.492	402.44
350.72	397.44
350.947	404.44
351.174	423.44
351.402	402.44
351.629	423.44
351.856	423.44
352.083	423.44
352.311	419.44
352.538	415.44
352.765	415.44
352.992	417.44
353.22	412.44
353.447	424.44
353.674	417.44
353.901	393.44
354.128	413.44
354.355	388.44
354.583	398.44
354.81	411.44
355.037	395.44
355.264	392.44
355.491	373.44
355.718	381.44
355.945	399.44
356.172	394.44
356.399	396.44
356.626	398.44
356.853	385.44
357.08	376.44
357.307	388.44
357.534	384.44
357.761	394.44
357.988	406.44
358.215	389.44
358.441	412.44
358.668	399.44
358.895	399.44
359.122	393.44
359.349	413.44
359.576	422.44
359.802	440.44
360.029	455.44
360.256	451.44
360.483	457.44
360.709	415.44
360.936	419.44
361.163	426.44
361.39	418.44
361.616	433.44
361.843	419.44
362.07	408.44
362.296	401.44
362.523	421.44
362.749	406.44
362.976	415.44
363.203	405.44
363.429	430.44
363.656	420.44
363.882	401.44
364.109	413.44
364.335	402.44
364.562	391.44
364.788	408.44
365.015	423.44
365.241	413.44
365.468	410.44
365.694	394.44
365.92	398.44
366.147	403.44
366.373	399.44
366.599	403.44
366.826	384.44
367.052	402.44
367.278	440.44
367.505	415.44
367.731	409.44
367.957	405.44
368.184	407.44
368.41	414.44
368.636	419.44
368.862	432.44
369.089	424.44
369.315	417.44
369.541	425.44
369.767	433.44
369.993	415.44
370.219	413.44
370.445	414.44
370.672	419.44
370.898	413.44
371.124	418.44
371.35	425.44
371.576	414.44
371.802	415.44
372.028	395.44
372.254	433.44
372.48	401.44
372.706	396.44
372.932	417.44
373.158	411.44
373.384	410.44
373.61	396.44
373.835	413.44
374.061	429.44
374.287	419.44
374.513	423.44
374.739	423.44
374.965	447.44
375.191	426.44
375.416	413.44
375.642	423.44
375.868	433.44
376.094	415.44
376.319	399.44
376.545	416.44
376.771	413.44
376.997	418.44
377.222	410.44
377.448	419.44
377.674	427.44
377.899	403.44
378.125	417.44
378.35	405.44
378.576	401.44
378.802	404.44
379.027	402.44
379.253	399.44
379.478	394.44
379.704	404.44
379.929	418.44
380.155	419.44
380.38	430.44
380.606	411.44
380.831	420.44
381.057	433.44
381.282	423.44
381.507	412.44
381.733	407.44
381.958	418.44
382.184	411.44
382.409	432.44
382.634	417.44
382.86	417.44
383.085	447.44
383.31	461.44
383.535	447.44
383.761	434.44
383.986	441.44
384.211	460.44
384.436	445.44
384.662	461.44
384.887	427.44
385.112	440.44
385.337	471.44
385.562	463.44
385.787	470.44
386.013	469.44
386.238	461.44
386.463	481.44
386.688	444.44
386.913	450.44
387.138	445.44
387.363	452.44
387.588	458.44
387.813	464.44
388.038	475.44
388.263	458.44
388.488	464.44
388.713	460.44
388.938	465.44
389.163	476.44
389.387	473.44
389.612	441.44
389.837	449.44
390.062	462.44
390.287	477.44
390.512	466.44
390.736	458.44
390.961	459.44
391.186	469.44
391.411	492.44
391.636	484.44
391.86	482.44
392.085	486.44
392.31	484.44
392.534	470.44
392.759	476.44
392.984	473.44
393.208	468.44
393.433	476.44
393.658	448.44
393.882	481.44
394.107	478.44
394.331	465.44
394.556	478.44
394.78	469.44
395.005	467.44
395.229	482.44
395.454	487.44
395.678	472.44
395.903	499.44
396.127	527.44
396.352	526.44
396.576	497.44
396.801	470.44
397.025	481.44
397.249	495.44
397.474	517.44
397.698	521.44
397.922	521.44
398.147	531.44
398.371	519.44
398.595	530.44
398.82	543.44
399.044	530.44
399.268	563.44
399.492	604.44
399.717	622.44
399.941	627.44
400.165	652.44
400.389	685.44
400.613	620.44
400.837	546.44
401.062	578.44
401.286	556.44
401.51	565.44
401.734	554.44
401.958	553.44
402.182	572.44
402.406	561.44
402.63	543.44
402.854	563.44
403.078	540.44
403.302	549.44
403.526	560.44
403.75	556.44
403.974	571.44
404.198	563.44
404.422	564.44
404.645	574.44
404.869	548.44
405.093	614.44
405.317	632.44
405.541	671.44
405.765	609.44
405.988	606.44
406.212	615.44
406.436	605.44
406.66	629.44
406.883	634.44
407.107	631.44
407.331	656.44
407.555	730.44
407.778	732.44
408.002	648.44
408.226	639.44
408.449	603.44
408.673	624.44
408.896	656.44
409.12	701.44
409.344	651.44
409.567	604.44
409.791	600.44
410.014	579.44
410.238	579.44
410.461	589.44
410.685	591.44
410.908	583.44
411.132	613.44
411.355	644.44
411.578	625.44
411.802	553.44
412.025	552.44
412.249	581.44
412.472	594.44
412.695	609.44
412.919	636.44
413.142	583.44
413.365	572.44
413.589	529.44
413.812	547.44
414.035	548.44
414.258	527.44
414.482	544.44
414.705	515.44
414.928	519.44
415.151	540.44
415.374	517.44
415.597	529.44
415.821	537.44
416.044	530.44
416.267	509.44
416.49	513.44
416.713	546.44
416.936	524.44
417.159	520.44
417.382	553.44
417.605	545.44
417.828	549.44
418.051	557.44
418.274	533.44
418.497	547.44
418.72	532.44
418.943	527.44
419.166	545.44
419.389	567.44
419.611	584.44
419.834	569.44
420.057	567.44
420.28	540.44
420.503	552.44
420.726	541.44
420.948	565.44
421.171	597.44
421.394	618.44
421.617	552.44
421.839	549.44
422.062	549.44
422.285	581.44
422.507	618.44
422.73	711.44
422.953	683.44
423.175	604.44
423.398	580.44
423.621	568.44
423.843	564.44
424.066	571.44
424.288	570.44
424.511	587.44
424.733	680.44
424.956	739.44
425.178	695.44
425.401	709.44
425.623	736.44
425.846	645.44
426.068	595.44
426.291	599.44
426.513	597.44
426.735	583.44
426.958	651.44
427.18	695.44
427.402	855.44
427.625	956.44
427.847	839.44
428.069	715.44
428.292	647.44
428.514	577.44
428.736	563.44
428.958	573.44
429.181	543.44
429.403	539.44
429.625	551.44
429.847	569.44
430.069	629.44
430.292	646.44
430.514	575.44
430.736	554.44
430.958	544.44
431.18	549.44
431.402	542.44
431.624	533.44
431.846	539.44
432.068	524.44
432.29	525.44
432.512	507.44
432.734	533.44
432.956	525.44
433.178	555.44
433.4	539.44
433.622	546.44
433.844	538.44
434.066	530.44
434.287	552.44
434.509	517.44
434.731	545.44
434.953	557.44
435.175	564.44
435.397	576.44
435.618	569.44
435.84	640.44
436.062	706.44
436.284	790.44
436.505	673.44
436.727	583.44
436.949	569.44
437.17	555.44
437.392	557.44
437.614	559.44
437.835	578.44
438.057	685.44
438.278	781.44
438.5	796.44
438.721	847.44
438.943	836.44
439.165	669.44
439.386	610.44
439.608	594.44
439.829	586.44
440.05	605.44
440.272	673.44
440.493	624.44
440.715	579.44
440.936	575.44
441.158	561.44
441.379	568.44
441.6	573.44
441.822	566.44
442.043	644.44
442.264	713.44
442.486	767.44
442.707	638.44
442.928	610.44
443.149	601.44
443.371	615.44
443.592	674.44
443.813	774.44
444.034	810.44
444.255	685.44
444.476	614.44
444.698	595.44
444.919	575.44
445.14	689.44
445.361	644.44
445.582	619.44
445.803	703.44
446.024	783.44
446.245	793.44
446.466	752.44
446.687	605.44
446.908	600.44
447.129	576.44
447.35	553.44
447.571	562.44
447.792	536.44
448.013	530.44
448.234	551.44
448.455	626.44
448.675	732.44
448.896	856.44
449.117	743.44
449.338	666.44
449.559	748.44
449.779	917.44
450	714.44
450.221	609.44
450.442	569.44
450.662	537.44
450.883	541.44
451.104	545.44
451.324	530.44
451.545	515.44
451.766	492.44
451.986	504.44
452.207	491.44
452.428	497.44
452.648	505.44
452.869	493.44
453.089	476.44
453.31	512.44
453.53	503.44
453.751	481.44
453.971	522.44
454.192	505.44
454.412	491.44
454.633	512.44
454.853	463.44
455.073	483.44
455.294	519.44
455.514	583.44
455.734	570.44
455.955	503.44
456.175	487.44
456.395	471.44
456.616	459.44
456.836	471.44
457.056	463.44
457.276	473.44
457.497	453.44
457.717	465.44
457.937	484.44
458.157	474.44
458.377	479.44
458.598	488.44
458.818	553.44
459.038	636.44
459.258	641.44
459.478	584.44
459.698	543.44
459.918	520.44
460.138	537.44
460.358	542.44
460.578	543.44
460.798	546.44
461.018	545.44
461.238	540.44
461.458	567.44
461.678	549.44
461.898	549.44
462.118	561.44
462.338	542.44
462.558	568.44
462.777	548.44
462.997	586.44
463.217	627.44
463.437	595.44
463.657	594.44
463.876	595.44
464.096	594.44
464.316	557.44
464.536	557.44
464.755	588.44
464.975	583.44
465.195	611.44
465.414	690.44
465.634	594.44
465.854	554.44
466.073	539.44
466.293	523.44
466.512	513.44
466.732	497.44
466.951	497.44
467.171	523.44
467.391	543.44
467.61	499.44
467.829	527.44
468.049	512.44
468.268	517.44
468.488	480.44
468.707	491.44
468.927	505.44
469.146	488.44
469.365	467.44
469.585	503.44
469.804	506.44
470.023	529.44
470.243	521.44
470.462	512.44
470.681	533.44
470.901	529.44
471.12	532.44
471.339	520.44
471.558	507.44
471.777	529.44
471.997	514.44
472.216	500.44
472.435	534.44
472.654	554.44
472.873	511.44
473.092	497.44
473.311	528.44
473.53	523.44
473.749	513.44
473.968	561.44
474.187	645.44
474.406	676.44
474.625	585.44
474.844	539.44
475.063	520.44
475.282	514.44
475.501	509.44
475.72	543.44
475.939	522.44
476.158	535.44
476.377	505.44
476.596	525.44
476.814	539.44
477.033	539.44
477.252	545.44
477.471	558.44
477.69	567.44
477.908	554.44
478.127	559.44
478.346	558.44
478.564	582.44
478.783	565.44
479.002	564.44
479.22	585.44
479.439	605.44
479.658	624.44
479.876	613.44
480.095	624.44
480.313	656.44
480.532	619.44
480.751	636.44
480.969	641.44
481.188	661.44
481.406	690.44
481.624	638.44
481.843	620.44
482.061	616.44
482.28	594.44
482.498	596.44
482.717	604.44
482.935	602.44
483.153	615.44
483.372	601.44
483.59	608.44
483.808	588.44
484.027	607.44
484.245	593.44
484.463	605.44
484.681	604.44
484.9	623.44
485.118	608.44
485.336	616.44
485.554	606.44
485.772	611.44
485.99	617.44
486.209	628.44
486.427	620.44
486.645	611.44
486.863	643.44
487.081	623.44
487.299	652.44
487.517	632.44
487.735	648.44
487.953	633.44
488.171	641.44
488.389	618.44
488.607	645.44
488.825	659.44
489.043	625.44
489.261	623.44
489.479	642.44
489.696	634.44
489.914	652.44
490.132	661.44
490.35	689.44
490.568	679.44
490.786	666.44
491.003	684.44
491.221	688.44
491.439	690.44
491.657	672.44
491.874	673.44
492.092	710.44
492.31	708.44
492.527	700.44
492.745	712.44
492.963	731.44
493.18	702.44
493.398	716.44
493.615	728.44
493.833	716.44
494.05	744.44
494.268	727.44
494.485	738.44
494.703	745.44
494.92	726.44
495.138	746.44
495.355	732.44
495.573	736.44
495.79	756.44
496.008	768.44
496.225	759.44
496.442	759.44
496.66	736.44
496.877	764.44
497.094	755.44
497.312	781.44
497.529	769.44
497.746	773.44
497.963	801.44
498.181	841.44
498.398	835.44
498.615	845.44
498.832	850.44
499.049	897.44
499.267	875.44
499.484	957.44
499.701	1004.44
499.918	1035.44
500.135	1076.44
500.352	1070.44
500.569	1097.44
500.786	1093.44
501.003	1090.44
501.22	1058.44
501.437	1040.44
501.654	1000.44
501.871	988.44
