Data from 1978.PennyLincolnUp.Lamp.En5.5.200Scan.071719.P1_HRD10591_16-12-14-864.txt Node
Date: Thu Jul 18 16:12:14 EDT 2019
User: cochatt
Spectrometer: HR+D1059
Trigger mode: 1
Integration Time (sec): 1.000000E-1
Scans to average: 1
Electric dark correction enabled: true
Nonlinearity correction enabled: false
Boxcar width: 0
XAxis mode: Wavelengths
Number of Pixels in Spectrum: 2048
>>>>>Begin Spectral Data<<<<<
223.165	-11.19
223.4	-11.19
223.635	-11.19
223.869	-4.19
224.104	-16.19
224.338	-11.19
224.573	-20.19
224.808	-24.19
225.042	-1.19
225.277	-10.19
225.511	0.81
225.746	4.81
225.98	4.81
226.215	18.81
226.449	9.81
226.683	13.81
226.918	9.81
227.152	35.81
227.387	33.81
227.621	30.81
227.856	37.81
228.09	33.81
228.324	58.81
228.559	53.81
228.793	75.81
229.027	92.81
229.262	99.81
229.496	91.81
229.73	112.81
229.964	133.81
230.199	125.81
230.433	106.81
230.667	110.81
230.901	126.81
231.136	90.81
231.37	98.81
231.604	107.81
231.838	111.81
232.072	111.81
232.306	97.81
232.541	90.81
232.775	103.81
233.009	115.81
233.243	104.81
233.477	113.81
233.711	89.81
233.945	102.81
234.179	100.81
234.413	106.81
234.647	110.81
234.881	112.81
235.115	112.81
235.349	105.81
235.583	121.81
235.817	117.81
236.051	123.81
236.285	108.81
236.519	115.81
236.753	108.81
236.987	132.81
237.221	165.81
237.455	191.81
237.689	164.81
237.922	132.81
238.156	118.81
238.39	123.81
238.624	116.81
238.858	103.81
239.091	113.81
239.325	115.81
239.559	117.81
239.793	104.81
240.027	129.81
240.26	122.81
240.494	135.81
240.728	123.81
240.961	118.81
241.195	124.81
241.429	125.81
241.662	120.81
241.896	116.81
242.13	124.81
242.363	116.81
242.597	122.81
242.83	114.81
243.064	124.81
243.298	142.81
243.531	123.81
243.765	125.81
243.998	125.81
244.232	140.81
244.465	132.81
244.699	138.81
244.932	129.81
245.166	146.81
245.399	127.81
245.633	140.81
245.866	123.81
246.099	135.81
246.333	129.81
246.566	139.81
246.8	138.81
247.033	149.81
247.266	137.81
247.5	136.81
247.733	145.81
247.966	151.81
248.2	152.81
248.433	147.81
248.666	147.81
248.899	168.81
249.133	149.81
249.366	168.81
249.599	175.81
249.832	157.81
250.066	146.81
250.299	147.81
250.532	172.81
250.765	170.81
250.998	184.81
251.231	191.81
251.465	160.81
251.698	182.81
251.931	165.81
252.164	171.81
252.397	171.81
252.63	175.81
252.863	178.81
253.096	175.81
253.329	201.81
253.562	194.81
253.795	191.81
254.028	192.81
254.261	172.81
254.494	167.81
254.727	209.81
254.96	219.81
255.193	196.81
255.426	201.81
255.659	205.81
255.892	192.81
256.124	193.81
256.357	192.81
256.59	198.81
256.823	178.81
257.056	182.81
257.289	171.81
257.521	187.81
257.754	184.81
257.987	170.81
258.22	189.81
258.452	175.81
258.685	173.81
258.918	187.81
259.151	188.81
259.383	187.81
259.616	186.81
259.849	202.81
260.081	200.81
260.314	207.81
260.547	218.81
260.779	193.81
261.012	198.81
261.244	200.81
261.477	203.81
261.71	193.81
261.942	180.81
262.175	215.81
262.407	191.81
262.64	191.81
262.872	186.81
263.105	184.81
263.337	214.81
263.57	196.81
263.802	193.81
264.035	179.81
264.267	176.81
264.499	210.81
264.732	185.81
264.964	200.81
265.197	202.81
265.429	202.81
265.661	181.81
265.894	209.81
266.126	219.81
266.358	207.81
266.591	183.81
266.823	207.81
267.055	192.81
267.287	206.81
267.52	196.81
267.752	195.81
267.984	198.81
268.216	193.81
268.448	197.81
268.681	212.81
268.913	204.81
269.145	239.81
269.377	239.81
269.609	225.81
269.841	223.81
270.073	245.81
270.306	247.81
270.538	266.81
270.77	241.81
271.002	250.81
271.234	253.81
271.466	225.81
271.698	257.81
271.93	275.81
272.162	247.81
272.394	262.81
272.626	250.81
272.858	257.81
273.09	242.81
273.322	238.81
273.553	205.81
273.785	242.81
274.017	236.81
274.249	230.81
274.481	216.81
274.713	236.81
274.945	232.81
275.176	218.81
275.408	246.81
275.64	234.81
275.872	243.81
276.104	228.81
276.335	235.81
276.567	242.81
276.799	245.81
277.031	266.81
277.262	267.81
277.494	267.81
277.726	254.81
277.957	252.81
278.189	238.81
278.421	243.81
278.652	230.81
278.884	251.81
279.115	219.81
279.347	239.81
279.579	238.81
279.81	257.81
280.042	259.81
280.273	225.81
280.505	236.81
280.736	245.81
280.968	237.81
281.199	239.81
281.431	247.81
281.662	248.81
281.894	251.81
282.125	248.81
282.356	257.81
282.588	259.81
282.819	280.81
283.051	261.81
283.282	251.81
283.513	242.81
283.745	255.81
283.976	247.81
284.207	242.81
284.439	263.81
284.67	250.81
284.901	245.81
285.132	246.81
285.364	241.81
285.595	263.81
285.826	250.81
286.057	253.81
286.288	251.81
286.52	257.81
286.751	263.81
286.982	242.81
287.213	257.81
287.444	263.81
287.675	276.81
287.906	256.81
288.138	284.81
288.369	277.81
288.6	273.81
288.831	253.81
289.062	269.81
289.293	254.81
289.524	260.81
289.755	275.81
289.986	257.81
290.217	252.81
290.448	262.81
290.679	281.81
290.91	255.81
291.141	246.81
291.371	270.81
291.602	289.81
291.833	285.81
292.064	276.81
292.295	251.81
292.526	282.81
292.757	259.81
292.987	274.81
293.218	284.81
293.449	274.81
293.68	267.81
293.91	257.81
294.141	257.81
294.372	256.81
294.603	275.81
294.833	276.81
295.064	274.81
295.295	273.81
295.525	296.81
295.756	275.81
295.987	261.81
296.217	297.81
296.448	297.81
296.679	280.81
296.909	277.81
297.14	287.81
297.37	267.81
297.601	272.81
297.831	278.81
298.062	272.81
298.292	274.81
298.523	286.81
298.753	270.81
298.984	274.81
299.214	264.81
299.445	269.81
299.675	277.81
299.905	283.81
300.136	295.81
300.366	286.81
300.597	299.81
300.827	286.81
301.057	290.81
301.288	282.81
301.518	298.81
301.748	301.81
301.979	299.81
302.209	289.81
302.439	296.81
302.669	294.81
302.9	295.81
303.13	294.81
303.36	296.81
303.59	305.81
303.82	291.81
304.051	319.81
304.281	287.81
304.511	283.81
304.741	292.81
304.971	293.81
305.201	298.81
305.431	293.81
305.661	315.81
305.891	298.81
306.121	284.81
306.352	295.81
306.582	319.81
306.812	309.81
307.042	305.81
307.272	318.81
307.502	296.81
307.731	297.81
307.961	308.81
308.191	291.81
308.421	312.81
308.651	319.81
308.881	319.81
309.111	326.81
309.341	322.81
309.571	321.81
309.8	331.81
310.03	337.81
310.26	348.81
310.49	314.81
310.72	330.81
310.949	330.81
311.179	346.81
311.409	344.81
311.639	326.81
311.868	336.81
312.098	329.81
312.328	349.81
312.557	359.81
312.787	357.81
313.017	346.81
313.246	337.81
313.476	333.81
313.706	362.81
313.935	340.81
314.165	353.81
314.394	368.81
314.624	363.81
314.853	341.81
315.083	352.81
315.312	326.81
315.542	338.81
315.771	331.81
316.001	344.81
316.23	315.81
316.46	353.81
316.689	334.81
316.919	351.81
317.148	357.81
317.377	351.81
317.607	353.81
317.836	350.81
318.065	335.81
318.295	341.81
318.524	343.81
318.753	347.81
318.983	346.81
319.212	351.81
319.441	346.81
319.67	368.81
319.9	349.81
320.129	363.81
320.358	326.81
320.587	352.81
320.816	364.81
321.046	343.81
321.275	340.81
321.504	363.81
321.733	367.81
321.962	368.81
322.191	363.81
322.42	394.81
322.649	380.81
322.878	396.81
323.108	411.81
323.337	434.81
323.566	426.81
323.795	436.81
324.024	470.81
324.253	559.81
324.482	773.81
324.71	1235.81
324.939	1797.81
325.168	1585.81
325.397	803.81
325.626	547.81
325.855	465.81
326.084	435.81
326.313	448.81
326.542	441.81
326.77	476.81
326.999	544.81
327.228	719.81
327.457	1105.81
327.686	1388.81
327.914	897.81
328.143	604.81
328.372	507.81
328.6	470.81
328.829	485.81
329.058	471.81
329.287	503.81
329.515	463.81
329.744	437.81
329.972	458.81
330.201	459.81
330.43	460.81
330.658	479.81
330.887	507.81
331.115	496.81
331.344	462.81
331.572	423.81
331.801	440.81
332.03	431.81
332.258	422.81
332.486	409.81
332.715	434.81
332.943	392.81
333.172	428.81
333.4	416.81
333.629	414.81
333.857	429.81
334.085	448.81
334.314	448.81
334.542	474.81
334.771	460.81
334.999	466.81
335.227	445.81
335.455	424.81
335.684	423.81
335.912	435.81
336.14	415.81
336.369	415.81
336.597	410.81
336.825	411.81
337.053	427.81
337.281	405.81
337.51	399.81
337.738	401.81
337.966	393.81
338.194	406.81
338.422	404.81
338.65	411.81
338.878	404.81
339.106	411.81
339.334	379.81
339.562	398.81
339.79	404.81
340.018	404.81
340.246	374.81
340.474	401.81
340.702	407.81
340.93	400.81
341.158	401.81
341.386	404.81
341.614	406.81
341.842	377.81
342.07	390.81
342.298	401.81
342.526	383.81
342.754	380.81
342.981	403.81
343.209	367.81
343.437	386.81
343.665	389.81
343.893	413.81
344.12	418.81
344.348	421.81
344.576	400.81
344.804	413.81
345.031	422.81
345.259	394.81
345.487	394.81
345.714	407.81
345.942	397.81
346.17	391.81
346.397	388.81
346.625	401.81
346.853	388.81
347.08	402.81
347.308	408.81
347.535	401.81
347.763	405.81
347.99	411.81
348.218	398.81
348.445	391.81
348.673	401.81
348.9	391.81
349.128	392.81
349.355	374.81
349.583	394.81
349.81	395.81
350.037	360.81
350.265	386.81
350.492	387.81
350.72	373.81
350.947	376.81
351.174	386.81
351.402	384.81
351.629	385.81
351.856	395.81
352.083	392.81
352.311	404.81
352.538	405.81
352.765	411.81
352.992	392.81
353.22	396.81
353.447	400.81
353.674	390.81
353.901	372.81
354.128	377.81
354.355	367.81
354.583	386.81
354.81	399.81
355.037	377.81
355.264	365.81
355.491	368.81
355.718	371.81
355.945	372.81
356.172	361.81
356.399	359.81
356.626	371.81
356.853	367.81
357.08	365.81
357.307	364.81
357.534	365.81
357.761	340.81
357.988	384.81
358.215	383.81
358.441	386.81
358.668	375.81
358.895	367.81
359.122	363.81
359.349	388.81
359.576	393.81
359.802	401.81
360.029	431.81
360.256	424.81
360.483	423.81
360.709	386.81
360.936	393.81
361.163	385.81
361.39	389.81
361.616	369.81
361.843	390.81
362.07	385.81
362.296	413.81
362.523	379.81
362.749	388.81
362.976	397.81
363.203	391.81
363.429	388.81
363.656	399.81
363.882	387.81
364.109	386.81
364.335	393.81
364.562	353.81
364.788	393.81
365.015	395.81
365.241	382.81
365.468	384.81
365.694	377.81
365.92	379.81
366.147	375.81
366.373	376.81
366.599	384.81
366.826	385.81
367.052	369.81
367.278	355.81
367.505	378.81
367.731	361.81
367.957	386.81
368.184	381.81
368.41	377.81
368.636	408.81
368.862	405.81
369.089	397.81
369.315	378.81
369.541	405.81
369.767	383.81
369.993	382.81
370.219	379.81
370.445	394.81
370.672	394.81
370.898	374.81
371.124	377.81
371.35	379.81
371.576	370.81
371.802	394.81
372.028	398.81
372.254	401.81
372.48	389.81
372.706	393.81
372.932	405.81
373.158	385.81
373.384	409.81
373.61	385.81
373.835	391.81
374.061	393.81
374.287	401.81
374.513	407.81
374.739	416.81
374.965	402.81
375.191	400.81
375.416	396.81
375.642	397.81
375.868	400.81
376.094	385.81
376.319	404.81
376.545	406.81
376.771	395.81
376.997	398.81
377.222	393.81
377.448	392.81
377.674	384.81
377.899	400.81
378.125	390.81
378.35	387.81
378.576	383.81
378.802	392.81
379.027	403.81
379.253	388.81
379.478	395.81
379.704	386.81
379.929	383.81
380.155	377.81
380.38	387.81
380.606	407.81
380.831	421.81
381.057	396.81
381.282	373.81
381.507	405.81
381.733	387.81
381.958	410.81
382.184	383.81
382.409	398.81
382.634	410.81
382.86	417.81
383.085	404.81
383.31	409.81
383.535	433.81
383.761	414.81
383.986	423.81
384.211	425.81
384.436	433.81
384.662	410.81
384.887	419.81
385.112	448.81
385.337	419.81
385.562	435.81
385.787	409.81
386.013	455.81
386.238	443.81
386.463	431.81
386.688	459.81
386.913	425.81
387.138	447.81
387.363	435.81
387.588	428.81
387.813	445.81
388.038	449.81
388.263	436.81
388.488	415.81
388.713	425.81
388.938	434.81
389.163	441.81
389.387	449.81
389.612	463.81
389.837	457.81
390.062	447.81
390.287	461.81
390.512	450.81
390.736	425.81
390.961	445.81
391.186	432.81
391.411	437.81
391.636	456.81
391.86	469.81
392.085	470.81
392.31	455.81
392.534	459.81
392.759	445.81
392.984	465.81
393.208	461.81
393.433	447.81
393.658	443.81
393.882	453.81
394.107	449.81
394.331	440.81
394.556	443.81
394.78	451.81
395.005	457.81
395.229	442.81
395.454	477.81
395.678	458.81
395.903	467.81
396.127	478.81
396.352	480.81
396.576	465.81
396.801	469.81
397.025	475.81
397.249	481.81
397.474	468.81
397.698	482.81
397.922	491.81
398.147	495.81
398.371	499.81
398.595	519.81
398.82	502.81
399.044	534.81
399.268	536.81
399.492	565.81
399.717	585.81
399.941	625.81
400.165	639.81
400.389	636.81
400.613	597.81
400.837	550.81
401.062	556.81
401.286	545.81
401.51	499.81
401.734	516.81
401.958	502.81
402.182	514.81
402.406	498.81
402.63	508.81
402.854	528.81
403.078	537.81
403.302	516.81
403.526	531.81
403.75	543.81
403.974	539.81
404.198	519.81
404.422	555.81
404.645	530.81
404.869	527.81
405.093	569.81
405.317	596.81
405.541	611.81
405.765	602.81
405.988	559.81
406.212	555.81
406.436	552.81
406.66	576.81
406.883	548.81
407.107	596.81
407.331	613.81
407.555	682.81
407.778	700.81
408.002	635.81
408.226	604.81
408.449	599.81
408.673	580.81
408.896	606.81
409.12	644.81
409.344	621.81
409.567	565.81
409.791	541.81
410.014	525.81
410.238	530.81
410.461	543.81
410.685	531.81
410.908	563.81
411.132	576.81
411.355	617.81
411.578	592.81
411.802	536.81
412.025	536.81
412.249	541.81
412.472	545.81
412.695	593.81
412.919	593.81
413.142	517.81
413.365	515.81
413.589	524.81
413.812	503.81
414.035	512.81
414.258	517.81
414.482	482.81
414.705	499.81
414.928	506.81
415.151	498.81
415.374	520.81
415.597	499.81
415.821	482.81
416.044	499.81
416.267	503.81
416.49	510.81
416.713	507.81
416.936	518.81
417.159	490.81
417.382	520.81
417.605	513.81
417.828	529.81
418.051	511.81
418.274	501.81
418.497	521.81
418.72	524.81
418.943	507.81
419.166	533.81
419.389	550.81
419.611	541.81
419.834	559.81
420.057	537.81
420.28	525.81
420.503	512.81
420.726	544.81
420.948	511.81
421.171	584.81
421.394	591.81
421.617	550.81
421.839	535.81
422.062	518.81
422.285	531.81
422.507	569.81
422.73	652.81
422.953	645.81
423.175	552.81
423.398	517.81
423.621	528.81
423.843	542.81
424.066	567.81
424.288	551.81
424.511	544.81
424.733	625.81
424.956	700.81
425.178	648.81
425.401	646.81
425.623	678.81
425.846	614.81
426.068	576.81
426.291	540.81
426.513	536.81
426.735	549.81
426.958	583.81
427.18	647.81
427.402	789.81
427.625	875.81
427.847	742.81
428.069	623.81
428.292	577.81
428.514	532.81
428.736	526.81
428.958	529.81
429.181	505.81
429.403	502.81
429.625	528.81
429.847	539.81
430.069	604.81
430.292	598.81
430.514	546.81
430.736	514.81
430.958	496.81
431.18	497.81
431.402	508.81
431.624	497.81
431.846	500.81
432.068	484.81
432.29	495.81
432.512	492.81
432.734	513.81
432.956	493.81
433.178	483.81
433.4	519.81
433.622	490.81
433.844	490.81
434.066	464.81
434.287	494.81
434.509	490.81
434.731	501.81
434.953	488.81
435.175	509.81
435.397	544.81
435.618	546.81
435.84	594.81
436.062	689.81
436.284	755.81
436.505	613.81
436.727	543.81
436.949	543.81
437.17	512.81
437.392	527.81
437.614	528.81
437.835	575.81
438.057	589.81
438.278	748.81
438.5	727.81
438.721	777.81
438.943	787.81
439.165	609.81
439.386	568.81
439.608	572.81
439.829	559.81
440.05	580.81
440.272	635.81
440.493	584.81
440.715	550.81
440.936	524.81
441.158	533.81
441.379	529.81
441.6	534.81
441.822	556.81
442.043	557.81
442.264	651.81
442.486	712.81
442.707	601.81
442.928	557.81
443.149	574.81
443.371	584.81
443.592	615.81
443.813	702.81
444.034	784.81
444.255	641.81
444.476	565.81
444.698	571.81
444.919	560.81
445.14	654.81
445.361	616.81
445.582	608.81
445.803	661.81
446.024	738.81
446.245	767.81
446.466	677.81
446.687	598.81
446.908	586.81
447.129	518.81
447.35	524.81
447.571	495.81
447.792	497.81
448.013	509.81
448.234	514.81
448.455	563.81
448.675	658.81
448.896	770.81
449.117	646.81
449.338	616.81
449.559	739.81
449.779	843.81
450	667.81
450.221	544.81
450.442	518.81
450.662	528.81
450.883	505.81
451.104	491.81
451.324	498.81
451.545	466.81
451.766	484.81
451.986	470.81
452.207	450.81
452.428	447.81
452.648	452.81
452.869	463.81
453.089	458.81
453.31	477.81
453.53	459.81
453.751	456.81
453.971	446.81
454.192	492.81
454.412	476.81
454.633	477.81
454.853	459.81
455.073	461.81
455.294	468.81
455.514	517.81
455.734	534.81
455.955	462.81
456.175	466.81
456.395	436.81
456.616	434.81
456.836	434.81
457.056	442.81
457.276	456.81
457.497	437.81
457.717	459.81
457.937	445.81
458.157	448.81
458.377	465.81
458.598	472.81
458.818	515.81
459.038	580.81
459.258	595.81
459.478	537.81
459.698	496.81
459.918	492.81
460.138	512.81
460.358	499.81
460.578	522.81
460.798	523.81
461.018	541.81
461.238	507.81
461.458	531.81
461.678	519.81
461.898	526.81
462.118	522.81
462.338	545.81
462.558	520.81
462.777	546.81
462.997	549.81
463.217	564.81
463.437	567.81
463.657	565.81
463.876	572.81
464.096	551.81
464.316	559.81
464.536	539.81
464.755	552.81
464.975	557.81
465.195	594.81
465.414	600.81
465.634	569.81
465.854	502.81
466.073	512.81
466.293	503.81
466.512	485.81
466.732	474.81
466.951	476.81
467.171	480.81
467.391	509.81
467.61	485.81
467.829	501.81
468.049	502.81
468.268	477.81
468.488	480.81
468.707	469.81
468.927	458.81
469.146	458.81
469.365	493.81
469.585	484.81
469.804	476.81
470.023	486.81
470.243	478.81
470.462	492.81
470.681	531.81
470.901	505.81
471.12	489.81
471.339	483.81
471.558	495.81
471.777	481.81
471.997	505.81
472.216	488.81
472.435	525.81
472.654	502.81
472.873	485.81
473.092	479.81
473.311	474.81
473.53	485.81
473.749	496.81
473.968	519.81
474.187	612.81
474.406	633.81
474.625	532.81
474.844	511.81
475.063	481.81
475.282	490.81
475.501	480.81
475.72	486.81
475.939	488.81
476.158	500.81
476.377	500.81
476.596	503.81
476.814	518.81
477.033	518.81
477.252	511.81
477.471	538.81
477.69	537.81
477.908	536.81
478.127	522.81
478.346	526.81
478.564	547.81
478.783	548.81
479.002	545.81
479.22	562.81
479.439	565.81
479.658	578.81
479.876	597.81
480.095	596.81
480.313	595.81
480.532	598.81
480.751	595.81
480.969	585.81
481.188	628.81
481.406	657.81
481.624	595.81
481.843	579.81
482.061	568.81
482.28	562.81
482.498	585.81
482.717	569.81
482.935	584.81
483.153	578.81
483.372	577.81
483.59	545.81
483.808	580.81
484.027	559.81
484.245	572.81
484.463	571.81
484.681	585.81
484.9	578.81
485.118	577.81
485.336	574.81
485.554	582.81
485.772	572.81
485.99	589.81
486.209	586.81
486.427	590.81
486.645	601.81
486.863	607.81
487.081	622.81
487.299	611.81
487.517	612.81
487.735	603.81
487.953	597.81
488.171	590.81
488.389	599.81
488.607	610.81
488.825	606.81
489.043	611.81
489.261	620.81
489.479	617.81
489.696	615.81
489.914	623.81
490.132	615.81
490.35	627.81
490.568	624.81
490.786	637.81
491.003	648.81
491.221	657.81
491.439	657.81
491.657	667.81
491.874	676.81
492.092	646.81
492.31	660.81
492.527	645.81
492.745	669.81
492.963	677.81
493.18	700.81
493.398	683.81
493.615	677.81
493.833	682.81
494.05	684.81
494.268	696.81
494.485	699.81
494.703	694.81
494.92	673.81
495.138	703.81
495.355	721.81
495.573	705.81
495.79	702.81
496.008	701.81
496.225	708.81
496.442	695.81
496.66	708.81
496.877	695.81
497.094	740.81
497.312	739.81
497.529	727.81
497.746	770.81
497.963	740.81
498.181	783.81
498.398	791.81
498.615	770.81
498.832	799.81
499.049	829.81
499.267	867.81
499.484	895.81
499.701	924.81
499.918	969.81
500.135	987.81
500.352	1033.81
500.569	1062.81
500.786	1073.81
501.003	1016.81
501.22	1032.81
501.437	982.81
501.654	946.81
501.871	928.81
502.088	880.81
