Data from 1978.PennyLincolnUp.Lamp.En5.5.200Scan.071719.P1_HRD10591_16-13-31-864.txt Node
Date: Thu Jul 18 16:13:31 EDT 2019
User: cochatt
Spectrometer: HR+D1059
Trigger mode: 1
Integration Time (sec): 1.000000E-1
Scans to average: 1
Electric dark correction enabled: true
Nonlinearity correction enabled: false
Boxcar width: 0
XAxis mode: Wavelengths
Number of Pixels in Spectrum: 2048
>>>>>Begin Spectral Data<<<<<
223.165	-5.31
223.4	-5.31
223.635	-5.31
223.869	-27.31
224.104	-24.31
224.338	-17.31
224.573	-18.31
224.808	-11.31
225.042	-8.31
225.277	-1.31
225.511	2.69
225.746	-0.31
225.98	11.69
226.215	6.69
226.449	19.69
226.683	6.69
226.918	21.69
227.152	44.69
227.387	41.69
227.621	32.69
227.856	35.69
228.09	40.69
228.324	52.69
228.559	63.69
228.793	51.69
229.027	99.69
229.262	110.69
229.496	120.69
229.73	130.69
229.964	154.69
230.199	125.69
230.433	107.69
230.667	121.69
230.901	123.69
231.136	110.69
231.37	93.69
231.604	94.69
231.838	105.69
232.072	100.69
232.306	105.69
232.541	102.69
232.775	107.69
233.009	123.69
233.243	104.69
233.477	103.69
233.711	116.69
233.945	110.69
234.179	107.69
234.413	111.69
234.647	111.69
234.881	107.69
235.115	135.69
235.349	128.69
235.583	114.69
235.817	109.69
236.051	123.69
236.285	117.69
236.519	124.69
236.753	120.69
236.987	138.69
237.221	183.69
237.455	238.69
237.689	180.69
237.922	142.69
238.156	122.69
238.39	115.69
238.624	116.69
238.858	110.69
239.091	123.69
239.325	103.69
239.559	126.69
239.793	128.69
240.027	114.69
240.26	147.69
240.494	152.69
240.728	139.69
240.961	130.69
241.195	150.69
241.429	150.69
241.662	130.69
241.896	130.69
242.13	137.69
242.363	138.69
242.597	137.69
242.83	147.69
243.064	131.69
243.298	135.69
243.531	131.69
243.765	119.69
243.998	138.69
244.232	132.69
244.465	126.69
244.699	126.69
244.932	127.69
245.166	156.69
245.399	142.69
245.633	152.69
245.866	142.69
246.099	135.69
246.333	136.69
246.566	151.69
246.8	152.69
247.033	137.69
247.266	145.69
247.5	151.69
247.733	148.69
247.966	154.69
248.2	174.69
248.433	162.69
248.666	164.69
248.899	166.69
249.133	174.69
249.366	191.69
249.599	180.69
249.832	163.69
250.066	166.69
250.299	165.69
250.532	168.69
250.765	182.69
250.998	196.69
251.231	212.69
251.465	179.69
251.698	198.69
251.931	194.69
252.164	159.69
252.397	184.69
252.63	169.69
252.863	190.69
253.096	210.69
253.329	211.69
253.562	201.69
253.795	197.69
254.028	211.69
254.261	206.69
254.494	218.69
254.727	227.69
254.96	252.69
255.193	269.69
255.426	234.69
255.659	222.69
255.892	214.69
256.124	207.69
256.357	211.69
256.59	210.69
256.823	201.69
257.056	204.69
257.289	189.69
257.521	190.69
257.754	208.69
257.987	197.69
258.22	196.69
258.452	201.69
258.685	194.69
258.918	193.69
259.151	196.69
259.383	211.69
259.616	214.69
259.849	199.69
260.081	228.69
260.314	219.69
260.547	260.69
260.779	244.69
261.012	222.69
261.244	208.69
261.477	193.69
261.71	212.69
261.942	219.69
262.175	226.69
262.407	228.69
262.64	206.69
262.872	197.69
263.105	203.69
263.337	208.69
263.57	211.69
263.802	226.69
264.035	218.69
264.267	198.69
264.499	205.69
264.732	204.69
264.964	208.69
265.197	211.69
265.429	219.69
265.661	209.69
265.894	195.69
266.126	205.69
266.358	210.69
266.591	209.69
266.823	220.69
267.055	214.69
267.287	235.69
267.52	243.69
267.752	208.69
267.984	218.69
268.216	218.69
268.448	247.69
268.681	233.69
268.913	245.69
269.145	243.69
269.377	254.69
269.609	263.69
269.841	246.69
270.073	267.69
270.306	289.69
270.538	286.69
270.77	309.69
271.002	280.69
271.234	268.69
271.466	268.69
271.698	274.69
271.93	283.69
272.162	301.69
272.394	313.69
272.626	295.69
272.858	276.69
273.09	254.69
273.322	258.69
273.553	230.69
273.785	264.69
274.017	240.69
274.249	263.69
274.481	249.69
274.713	252.69
274.945	268.69
275.176	267.69
275.408	247.69
275.64	256.69
275.872	255.69
276.104	246.69
276.335	234.69
276.567	256.69
276.799	270.69
277.031	305.69
277.262	306.69
277.494	318.69
277.726	282.69
277.957	263.69
278.189	276.69
278.421	260.69
278.652	271.69
278.884	258.69
279.115	258.69
279.347	256.69
279.579	261.69
279.81	239.69
280.042	248.69
280.273	266.69
280.505	252.69
280.736	266.69
280.968	266.69
281.199	265.69
281.431	252.69
281.662	266.69
281.894	268.69
282.125	273.69
282.356	283.69
282.588	315.69
282.819	291.69
283.051	294.69
283.282	257.69
283.513	280.69
283.745	274.69
283.976	259.69
284.207	265.69
284.439	261.69
284.67	273.69
284.901	271.69
285.132	279.69
285.364	261.69
285.595	272.69
285.826	279.69
286.057	272.69
286.288	258.69
286.52	273.69
286.751	271.69
286.982	271.69
287.213	287.69
287.444	268.69
287.675	290.69
287.906	290.69
288.138	314.69
288.369	288.69
288.6	290.69
288.831	276.69
289.062	295.69
289.293	293.69
289.524	282.69
289.755	278.69
289.986	289.69
290.217	291.69
290.448	269.69
290.679	275.69
290.91	290.69
291.141	287.69
291.371	298.69
291.602	282.69
291.833	278.69
292.064	289.69
292.295	274.69
292.526	292.69
292.757	288.69
292.987	283.69
293.218	290.69
293.449	291.69
293.68	295.69
293.91	274.69
294.141	280.69
294.372	281.69
294.603	288.69
294.833	308.69
295.064	279.69
295.295	298.69
295.525	295.69
295.756	293.69
295.987	300.69
296.217	315.69
296.448	342.69
296.679	318.69
296.909	322.69
297.14	293.69
297.37	315.69
297.601	296.69
297.831	313.69
298.062	304.69
298.292	308.69
298.523	296.69
298.753	299.69
298.984	296.69
299.214	312.69
299.445	312.69
299.675	310.69
299.905	314.69
300.136	308.69
300.366	294.69
300.597	316.69
300.827	314.69
301.057	325.69
301.288	326.69
301.518	335.69
301.748	329.69
301.979	322.69
302.209	331.69
302.439	318.69
302.669	315.69
302.9	324.69
303.13	334.69
303.36	324.69
303.59	333.69
303.82	321.69
304.051	324.69
304.281	338.69
304.511	326.69
304.741	316.69
304.971	326.69
305.201	330.69
305.431	329.69
305.661	327.69
305.891	330.69
306.121	335.69
306.352	338.69
306.582	338.69
306.812	317.69
307.042	347.69
307.272	336.69
307.502	331.69
307.731	335.69
307.961	325.69
308.191	325.69
308.421	344.69
308.651	334.69
308.881	345.69
309.111	327.69
309.341	348.69
309.571	360.69
309.8	379.69
310.03	356.69
310.26	362.69
310.49	366.69
310.72	379.69
310.949	404.69
311.179	396.69
311.409	388.69
311.639	361.69
311.868	378.69
312.098	374.69
312.328	369.69
312.557	394.69
312.787	420.69
313.017	390.69
313.246	395.69
313.476	384.69
313.706	366.69
313.935	389.69
314.165	379.69
314.394	398.69
314.624	399.69
314.853	379.69
315.083	370.69
315.312	374.69
315.542	391.69
315.771	377.69
316.001	346.69
316.23	368.69
316.46	366.69
316.689	371.69
316.919	382.69
317.148	381.69
317.377	405.69
317.607	387.69
317.836	375.69
318.065	373.69
318.295	375.69
318.524	359.69
318.753	362.69
318.983	379.69
319.212	380.69
319.441	390.69
319.67	385.69
319.9	382.69
320.129	393.69
320.358	391.69
320.587	391.69
320.816	389.69
321.046	392.69
321.275	413.69
321.504	404.69
321.733	416.69
321.962	425.69
322.191	422.69
322.42	440.69
322.649	438.69
322.878	468.69
323.108	474.69
323.337	499.69
323.566	504.69
323.795	534.69
324.024	585.69
324.253	673.69
324.482	967.69
324.71	1582.69
324.939	2365.69
325.168	2071.69
325.397	1001.69
325.626	683.69
325.855	565.69
326.084	496.69
326.313	484.69
326.542	514.69
326.77	551.69
326.999	660.69
327.228	920.69
327.457	1414.69
327.686	1759.69
327.914	1144.69
328.143	722.69
328.372	614.69
328.6	609.69
328.829	537.69
329.058	556.69
329.287	574.69
329.515	566.69
329.744	503.69
329.972	514.69
330.201	507.69
330.43	551.69
330.658	574.69
330.887	592.69
331.115	576.69
331.344	527.69
331.572	484.69
331.801	506.69
332.03	509.69
332.258	483.69
332.486	455.69
332.715	449.69
332.943	471.69
333.172	485.69
333.4	467.69
333.629	486.69
333.857	481.69
334.085	489.69
334.314	520.69
334.542	532.69
334.771	550.69
334.999	520.69
335.227	491.69
335.455	460.69
335.684	472.69
335.912	446.69
336.14	461.69
336.369	460.69
336.597	436.69
336.825	454.69
337.053	455.69
337.281	474.69
337.51	440.69
337.738	451.69
337.966	456.69
338.194	470.69
338.422	451.69
338.65	458.69
338.878	450.69
339.106	441.69
339.334	460.69
339.562	432.69
339.79	430.69
340.018	427.69
340.246	459.69
340.474	447.69
340.702	443.69
340.93	430.69
341.158	434.69
341.386	448.69
341.614	433.69
341.842	436.69
342.07	437.69
342.298	438.69
342.526	451.69
342.754	426.69
342.981	420.69
343.209	423.69
343.437	430.69
343.665	445.69
343.893	441.69
344.12	469.69
344.348	451.69
344.576	434.69
344.804	464.69
345.031	451.69
345.259	459.69
345.487	450.69
345.714	450.69
345.942	454.69
346.17	432.69
346.397	426.69
346.625	423.69
346.853	449.69
347.08	424.69
347.308	432.69
347.535	433.69
347.763	460.69
347.99	441.69
348.218	436.69
348.445	442.69
348.673	456.69
348.9	418.69
349.128	428.69
349.355	416.69
349.583	410.69
349.81	420.69
350.037	423.69
350.265	410.69
350.492	417.69
350.72	411.69
350.947	433.69
351.174	417.69
351.402	438.69
351.629	442.69
351.856	433.69
352.083	439.69
352.311	450.69
352.538	434.69
352.765	461.69
352.992	438.69
353.22	438.69
353.447	425.69
353.674	423.69
353.901	407.69
354.128	396.69
354.355	411.69
354.583	410.69
354.81	391.69
355.037	400.69
355.264	411.69
355.491	376.69
355.718	401.69
355.945	391.69
356.172	400.69
356.399	408.69
356.626	393.69
356.853	407.69
357.08	398.69
357.307	415.69
357.534	408.69
357.761	407.69
357.988	399.69
358.215	397.69
358.441	402.69
358.668	403.69
358.895	409.69
359.122	414.69
359.349	404.69
359.576	432.69
359.802	447.69
360.029	467.69
360.256	478.69
360.483	446.69
360.709	446.69
360.936	437.69
361.163	412.69
361.39	424.69
361.616	406.69
361.843	438.69
362.07	447.69
362.296	444.69
362.523	420.69
362.749	436.69
362.976	422.69
363.203	440.69
363.429	420.69
363.656	407.69
363.882	418.69
364.109	395.69
364.335	418.69
364.562	404.69
364.788	415.69
365.015	424.69
365.241	405.69
365.468	437.69
365.694	436.69
365.92	431.69
366.147	414.69
366.373	418.69
366.599	415.69
366.826	402.69
367.052	406.69
367.278	420.69
367.505	392.69
367.731	427.69
367.957	420.69
368.184	408.69
368.41	439.69
368.636	447.69
368.862	439.69
369.089	453.69
369.315	423.69
369.541	419.69
369.767	396.69
369.993	409.69
370.219	413.69
370.445	398.69
370.672	422.69
370.898	398.69
371.124	407.69
371.35	419.69
371.576	408.69
371.802	423.69
372.028	419.69
372.254	434.69
372.48	425.69
372.706	426.69
372.932	427.69
373.158	419.69
373.384	421.69
373.61	433.69
373.835	427.69
374.061	422.69
374.287	430.69
374.513	434.69
374.739	436.69
374.965	431.69
375.191	430.69
375.416	431.69
375.642	446.69
375.868	433.69
376.094	432.69
376.319	423.69
376.545	418.69
376.771	425.69
376.997	425.69
377.222	427.69
377.448	416.69
377.674	442.69
377.899	428.69
378.125	407.69
378.35	421.69
378.576	415.69
378.802	424.69
379.027	443.69
379.253	428.69
379.478	414.69
379.704	411.69
379.929	426.69
380.155	426.69
380.38	415.69
380.606	424.69
380.831	432.69
381.057	423.69
381.282	434.69
381.507	450.69
381.733	424.69
381.958	439.69
382.184	438.69
382.409	434.69
382.634	437.69
382.86	444.69
383.085	426.69
383.31	445.69
383.535	426.69
383.761	451.69
383.986	452.69
384.211	427.69
384.436	449.69
384.662	426.69
384.887	465.69
385.112	448.69
385.337	457.69
385.562	446.69
385.787	456.69
386.013	464.69
386.238	469.69
386.463	468.69
386.688	459.69
386.913	443.69
387.138	464.69
387.363	474.69
387.588	460.69
387.813	477.69
388.038	485.69
388.263	471.69
388.488	471.69
388.713	460.69
388.938	455.69
389.163	471.69
389.387	486.69
389.612	492.69
389.837	486.69
390.062	475.69
390.287	470.69
390.512	481.69
390.736	469.69
390.961	463.69
391.186	469.69
391.411	482.69
391.636	486.69
391.86	489.69
392.085	524.69
392.31	496.69
392.534	480.69
392.759	480.69
392.984	475.69
393.208	498.69
393.433	475.69
393.658	480.69
393.882	463.69
394.107	500.69
394.331	483.69
394.556	466.69
394.78	467.69
395.005	472.69
395.229	484.69
395.454	491.69
395.678	508.69
395.903	529.69
396.127	529.69
396.352	544.69
396.576	525.69
396.801	494.69
397.025	498.69
397.249	507.69
397.474	512.69
397.698	520.69
397.922	531.69
398.147	546.69
398.371	538.69
398.595	532.69
398.82	562.69
399.044	570.69
399.268	600.69
399.492	611.69
399.717	634.69
399.941	664.69
400.165	686.69
400.389	697.69
400.613	634.69
400.837	601.69
401.062	572.69
401.286	568.69
401.51	571.69
401.734	558.69
401.958	564.69
402.182	579.69
402.406	581.69
402.63	579.69
402.854	547.69
403.078	556.69
403.302	577.69
403.526	585.69
403.75	582.69
403.974	566.69
404.198	543.69
404.422	592.69
404.645	575.69
404.869	572.69
405.093	619.69
405.317	653.69
405.541	694.69
405.765	632.69
405.988	609.69
406.212	639.69
406.436	630.69
406.66	656.69
406.883	617.69
407.107	631.69
407.331	709.69
407.555	779.69
407.778	783.69
408.002	694.69
408.226	652.69
408.449	662.69
408.673	630.69
408.896	658.69
409.12	732.69
409.344	674.69
409.567	623.69
409.791	588.69
410.014	583.69
410.238	597.69
410.461	578.69
410.685	589.69
410.908	616.69
411.132	653.69
411.355	675.69
411.578	640.69
411.802	600.69
412.025	565.69
412.249	591.69
412.472	630.69
412.695	638.69
412.919	626.69
413.142	575.69
413.365	558.69
413.589	564.69
413.812	554.69
414.035	554.69
414.258	541.69
414.482	552.69
414.705	563.69
414.928	534.69
415.151	566.69
415.374	540.69
415.597	545.69
415.821	506.69
416.044	534.69
416.267	551.69
416.49	532.69
416.713	538.69
416.936	535.69
417.159	543.69
417.382	555.69
417.605	550.69
417.828	538.69
418.051	585.69
418.274	558.69
418.497	531.69
418.72	528.69
418.943	543.69
419.166	564.69
419.389	610.69
419.611	591.69
419.834	545.69
420.057	587.69
420.28	582.69
420.503	568.69
420.726	563.69
420.948	563.69
421.171	622.69
421.394	670.69
421.617	579.69
421.839	558.69
422.062	564.69
422.285	592.69
422.507	647.69
422.73	754.69
422.953	708.69
423.175	611.69
423.398	599.69
423.621	600.69
423.843	623.69
424.066	592.69
424.288	609.69
424.511	619.69
424.733	670.69
424.956	766.69
425.178	763.69
425.401	752.69
425.623	775.69
425.846	651.69
426.068	597.69
426.291	604.69
426.513	591.69
426.735	591.69
426.958	664.69
427.18	742.69
427.402	888.69
427.625	998.69
427.847	867.69
428.069	746.69
428.292	671.69
428.514	562.69
428.736	601.69
428.958	575.69
429.181	574.69
429.403	544.69
429.625	565.69
429.847	600.69
430.069	682.69
430.292	674.69
430.514	586.69
430.736	574.69
430.958	549.69
431.18	558.69
431.402	548.69
431.624	528.69
431.846	539.69
432.068	532.69
432.29	512.69
432.512	546.69
432.734	536.69
432.956	533.69
433.178	576.69
433.4	570.69
433.622	544.69
433.844	540.69
434.066	524.69
434.287	547.69
434.509	560.69
434.731	534.69
434.953	558.69
435.175	578.69
435.397	591.69
435.618	594.69
435.84	626.69
436.062	765.69
436.284	838.69
436.505	704.69
436.727	633.69
436.949	581.69
437.17	555.69
437.392	546.69
437.614	571.69
437.835	606.69
438.057	708.69
438.278	838.69
438.5	848.69
438.721	908.69
438.943	869.69
439.165	692.69
439.386	628.69
439.608	617.69
439.829	606.69
440.05	651.69
440.272	706.69
440.493	656.69
440.715	595.69
440.936	590.69
441.158	574.69
441.379	575.69
441.6	603.69
441.822	596.69
442.043	657.69
442.264	728.69
442.486	776.69
442.707	662.69
442.928	618.69
443.149	622.69
443.371	653.69
443.592	688.69
443.813	781.69
444.034	890.69
444.255	726.69
444.476	632.69
444.698	611.69
444.919	617.69
445.14	718.69
445.361	697.69
445.582	657.69
445.803	714.69
446.024	857.69
446.245	862.69
446.466	788.69
446.687	649.69
446.908	595.69
447.129	566.69
447.35	564.69
447.571	567.69
447.792	547.69
448.013	565.69
448.234	577.69
448.455	605.69
448.675	761.69
448.896	882.69
449.117	781.69
449.338	714.69
449.559	820.69
449.779	966.69
450	766.69
450.221	612.69
450.442	563.69
450.662	552.69
450.883	551.69
451.104	555.69
451.324	555.69
451.545	564.69
451.766	507.69
451.986	506.69
452.207	514.69
452.428	491.69
452.648	505.69
452.869	521.69
453.089	495.69
453.31	507.69
453.53	522.69
453.751	494.69
453.971	501.69
454.192	539.69
454.412	518.69
454.633	485.69
454.853	487.69
455.073	491.69
455.294	514.69
455.514	598.69
455.734	581.69
455.955	486.69
456.175	476.69
456.395	456.69
456.616	494.69
456.836	473.69
457.056	479.69
457.276	482.69
457.497	459.69
457.717	480.69
457.937	482.69
458.157	492.69
458.377	515.69
458.598	534.69
458.818	570.69
459.038	650.69
459.258	691.69
459.478	578.69
459.698	544.69
459.918	551.69
460.138	536.69
460.358	551.69
460.578	537.69
460.798	549.69
461.018	563.69
461.238	539.69
461.458	548.69
461.678	545.69
461.898	550.69
462.118	568.69
462.338	570.69
462.558	579.69
462.777	582.69
462.997	624.69
463.217	604.69
463.437	597.69
463.657	614.69
463.876	583.69
464.096	593.69
464.316	580.69
464.536	587.69
464.755	599.69
464.975	599.69
465.195	642.69
465.414	696.69
465.634	626.69
465.854	583.69
466.073	549.69
466.293	551.69
466.512	543.69
466.732	512.69
466.951	518.69
467.171	535.69
467.391	548.69
467.61	515.69
467.829	536.69
468.049	538.69
468.268	529.69
468.488	514.69
468.707	513.69
468.927	488.69
469.146	481.69
469.365	494.69
469.585	516.69
469.804	514.69
470.023	539.69
470.243	525.69
470.462	544.69
470.681	555.69
470.901	548.69
471.12	521.69
471.339	532.69
471.558	534.69
471.777	534.69
471.997	514.69
472.216	537.69
472.435	564.69
472.654	553.69
472.873	540.69
473.092	546.69
473.311	512.69
473.53	518.69
473.749	531.69
473.968	564.69
474.187	676.69
474.406	706.69
474.625	605.69
474.844	547.69
475.063	518.69
475.282	540.69
475.501	522.69
475.72	534.69
475.939	526.69
476.158	529.69
476.377	518.69
476.596	530.69
476.814	572.69
477.033	568.69
477.252	565.69
477.471	553.69
477.69	560.69
477.908	585.69
478.127	563.69
478.346	568.69
478.564	598.69
478.783	570.69
479.002	599.69
479.22	623.69
479.439	606.69
479.658	656.69
479.876	637.69
480.095	636.69
480.313	662.69
480.532	668.69
480.751	632.69
480.969	634.69
481.188	689.69
481.406	748.69
481.624	684.69
481.843	654.69
482.061	623.69
482.28	635.69
482.498	640.69
482.717	619.69
482.935	638.69
483.153	633.69
483.372	607.69
483.59	614.69
483.808	606.69
484.027	631.69
484.245	593.69
484.463	640.69
484.681	609.69
484.9	606.69
485.118	629.69
485.336	632.69
485.554	641.69
485.772	630.69
485.99	630.69
486.209	661.69
486.427	632.69
486.645	640.69
486.863	666.69
487.081	672.69
487.299	657.69
487.517	656.69
487.735	658.69
487.953	652.69
488.171	646.69
488.389	677.69
488.607	649.69
488.825	673.69
489.043	662.69
489.261	675.69
489.479	652.69
489.696	660.69
489.914	691.69
490.132	676.69
490.35	691.69
490.568	716.69
490.786	690.69
491.003	693.69
491.221	709.69
491.439	714.69
491.657	716.69
491.874	756.69
492.092	734.69
492.31	732.69
492.527	770.69
492.745	754.69
492.963	744.69
493.18	743.69
493.398	736.69
493.615	750.69
493.833	776.69
494.05	774.69
494.268	753.69
494.485	752.69
494.703	751.69
494.92	769.69
495.138	792.69
495.355	764.69
495.573	787.69
495.79	770.69
496.008	786.69
496.225	776.69
496.442	780.69
496.66	790.69
496.877	778.69
497.094	788.69
497.312	834.69
497.529	836.69
497.746	852.69
497.963	792.69
498.181	826.69
498.398	858.69
498.615	883.69
498.832	922.69
499.049	923.69
499.267	940.69
499.484	991.69
499.701	1048.69
499.918	1002.69
500.135	1067.69
500.352	1121.69
500.569	1136.69
500.786	1160.69
501.003	1119.69
501.22	1110.69
501.437	1020.69
501.654	1033.69
501.871	1030.69
