Data from 1978.PennyLincolnUp.Lamp.En5.5.200Scan.071719.P1_HRD10591_16-13-22-863.txt Node
Date: Thu Jul 18 16:13:22 EDT 2019
User: cochatt
Spectrometer: HR+D1059
Trigger mode: 1
Integration Time (sec): 1.000000E-1
Scans to average: 1
Electric dark correction enabled: true
Nonlinearity correction enabled: false
Boxcar width: 0
XAxis mode: Wavelengths
Number of Pixels in Spectrum: 2048
>>>>>Begin Spectral Data<<<<<
223.165	-19.56
223.4	-19.56
223.635	-19.56
223.869	-3.56
224.104	-23.56
224.338	-14.56
224.573	-18.56
224.808	0.44
225.042	-3.56
225.277	-16.56
225.511	-1.56
225.746	-0.56
225.98	12.44
226.215	20.44
226.449	5.44
226.683	22.44
226.918	19.44
227.152	21.44
227.387	12.44
227.621	31.44
227.856	35.44
228.09	43.44
228.324	35.44
228.559	51.44
228.793	77.44
229.027	96.44
229.262	90.44
229.496	108.44
229.73	121.44
229.964	148.44
230.199	122.44
230.433	102.44
230.667	119.44
230.901	120.44
231.136	103.44
231.37	111.44
231.604	119.44
231.838	101.44
232.072	108.44
232.306	106.44
232.541	117.44
232.775	103.44
233.009	120.44
233.243	128.44
233.477	124.44
233.711	111.44
233.945	106.44
234.179	115.44
234.413	111.44
234.647	118.44
234.881	114.44
235.115	118.44
235.349	111.44
235.583	114.44
235.817	126.44
236.051	128.44
236.285	115.44
236.519	119.44
236.753	123.44
236.987	125.44
237.221	159.44
237.455	227.44
237.689	185.44
237.922	146.44
238.156	133.44
238.39	136.44
238.624	118.44
238.858	125.44
239.091	121.44
239.325	103.44
239.559	125.44
239.793	106.44
240.027	129.44
240.26	148.44
240.494	139.44
240.728	132.44
240.961	128.44
241.195	131.44
241.429	135.44
241.662	130.44
241.896	136.44
242.13	123.44
242.363	108.44
242.597	127.44
242.83	130.44
243.064	133.44
243.298	134.44
243.531	133.44
243.765	127.44
243.998	123.44
244.232	143.44
244.465	130.44
244.699	140.44
244.932	132.44
245.166	144.44
245.399	130.44
245.633	141.44
245.866	141.44
246.099	136.44
246.333	128.44
246.566	142.44
246.8	143.44
247.033	141.44
247.266	145.44
247.5	156.44
247.733	164.44
247.966	155.44
248.2	161.44
248.433	149.44
248.666	169.44
248.899	179.44
249.133	174.44
249.366	193.44
249.599	197.44
249.832	168.44
250.066	171.44
250.299	158.44
250.532	186.44
250.765	183.44
250.998	203.44
251.231	196.44
251.465	201.44
251.698	194.44
251.931	195.44
252.164	195.44
252.397	188.44
252.63	197.44
252.863	207.44
253.096	194.44
253.329	217.44
253.562	197.44
253.795	191.44
254.028	192.44
254.261	204.44
254.494	225.44
254.727	223.44
254.96	255.44
255.193	240.44
255.426	218.44
255.659	208.44
255.892	210.44
256.124	202.44
256.357	200.44
256.59	203.44
256.823	195.44
257.056	185.44
257.289	191.44
257.521	190.44
257.754	193.44
257.987	192.44
258.22	212.44
258.452	191.44
258.685	195.44
258.918	205.44
259.151	217.44
259.383	209.44
259.616	200.44
259.849	208.44
260.081	216.44
260.314	234.44
260.547	244.44
260.779	216.44
261.012	210.44
261.244	222.44
261.477	227.44
261.71	201.44
261.942	205.44
262.175	219.44
262.407	211.44
262.64	200.44
262.872	207.44
263.105	194.44
263.337	195.44
263.57	199.44
263.802	198.44
264.035	207.44
264.267	190.44
264.499	211.44
264.732	207.44
264.964	188.44
265.197	192.44
265.429	201.44
265.661	201.44
265.894	189.44
266.126	218.44
266.358	201.44
266.591	211.44
266.823	224.44
267.055	215.44
267.287	218.44
267.52	204.44
267.752	212.44
267.984	219.44
268.216	202.44
268.448	223.44
268.681	219.44
268.913	227.44
269.145	241.44
269.377	255.44
269.609	254.44
269.841	238.44
270.073	233.44
270.306	255.44
270.538	290.44
270.77	291.44
271.002	265.44
271.234	273.44
271.466	258.44
271.698	279.44
271.93	286.44
272.162	260.44
272.394	282.44
272.626	285.44
272.858	264.44
273.09	258.44
273.322	267.44
273.553	255.44
273.785	247.44
274.017	231.44
274.249	247.44
274.481	232.44
274.713	248.44
274.945	244.44
275.176	255.44
275.408	259.44
275.64	259.44
275.872	247.44
276.104	240.44
276.335	258.44
276.567	254.44
276.799	268.44
277.031	283.44
277.262	284.44
277.494	280.44
277.726	274.44
277.957	257.44
278.189	269.44
278.421	256.44
278.652	246.44
278.884	245.44
279.115	265.44
279.347	233.44
279.579	251.44
279.81	262.44
280.042	257.44
280.273	251.44
280.505	255.44
280.736	256.44
280.968	252.44
281.199	250.44
281.431	246.44
281.662	251.44
281.894	241.44
282.125	270.44
282.356	279.44
282.588	303.44
282.819	307.44
283.051	283.44
283.282	275.44
283.513	242.44
283.745	256.44
283.976	275.44
284.207	268.44
284.439	267.44
284.67	261.44
284.901	280.44
285.132	239.44
285.364	269.44
285.595	277.44
285.826	288.44
286.057	274.44
286.288	271.44
286.52	275.44
286.751	271.44
286.982	271.44
287.213	263.44
287.444	275.44
287.675	282.44
287.906	248.44
288.138	289.44
288.369	266.44
288.6	272.44
288.831	281.44
289.062	283.44
289.293	285.44
289.524	252.44
289.755	277.44
289.986	278.44
290.217	283.44
290.448	280.44
290.679	293.44
290.91	278.44
291.141	272.44
291.371	275.44
291.602	273.44
291.833	272.44
292.064	284.44
292.295	293.44
292.526	281.44
292.757	295.44
292.987	271.44
293.218	293.44
293.449	295.44
293.68	267.44
293.91	278.44
294.141	273.44
294.372	279.44
294.603	289.44
294.833	272.44
295.064	284.44
295.295	305.44
295.525	281.44
295.756	309.44
295.987	291.44
296.217	314.44
296.448	324.44
296.679	266.44
296.909	261.44
297.14	282.44
297.37	292.44
297.601	285.44
297.831	311.44
298.062	307.44
298.292	279.44
298.523	299.44
298.753	302.44
298.984	297.44
299.214	305.44
299.445	305.44
299.675	303.44
299.905	305.44
300.136	292.44
300.366	308.44
300.597	308.44
300.827	325.44
301.057	305.44
301.288	322.44
301.518	323.44
301.748	325.44
301.979	323.44
302.209	332.44
302.439	320.44
302.669	311.44
302.9	315.44
303.13	299.44
303.36	311.44
303.59	300.44
303.82	312.44
304.051	320.44
304.281	309.44
304.511	334.44
304.741	322.44
304.971	314.44
305.201	331.44
305.431	308.44
305.661	304.44
305.891	311.44
306.121	316.44
306.352	319.44
306.582	333.44
306.812	313.44
307.042	309.44
307.272	326.44
307.502	319.44
307.731	321.44
307.961	329.44
308.191	340.44
308.421	316.44
308.651	333.44
308.881	325.44
309.111	330.44
309.341	328.44
309.571	337.44
309.8	351.44
310.03	361.44
310.26	353.44
310.49	355.44
310.72	385.44
310.949	361.44
311.179	373.44
311.409	343.44
311.639	364.44
311.868	362.44
312.098	363.44
312.328	373.44
312.557	374.44
312.787	394.44
313.017	404.44
313.246	363.44
313.476	354.44
313.706	372.44
313.935	360.44
314.165	357.44
314.394	390.44
314.624	374.44
314.853	385.44
315.083	373.44
315.312	361.44
315.542	370.44
315.771	350.44
316.001	349.44
316.23	355.44
316.46	379.44
316.689	363.44
316.919	369.44
317.148	375.44
317.377	379.44
317.607	373.44
317.836	386.44
318.065	370.44
318.295	388.44
318.524	371.44
318.753	387.44
318.983	360.44
319.212	357.44
319.441	370.44
319.67	361.44
319.9	365.44
320.129	380.44
320.358	372.44
320.587	368.44
320.816	368.44
321.046	385.44
321.275	377.44
321.504	349.44
321.733	367.44
321.962	403.44
322.191	398.44
322.42	407.44
322.649	428.44
322.878	425.44
323.108	440.44
323.337	481.44
323.566	503.44
323.795	519.44
324.024	546.44
324.253	660.44
324.482	934.44
324.71	1510.44
324.939	2235.44
325.168	1953.44
325.397	947.44
325.626	650.44
325.855	547.44
326.084	514.44
326.313	493.44
326.542	496.44
326.77	530.44
326.999	620.44
327.228	867.44
327.457	1335.44
327.686	1705.44
327.914	1093.44
328.143	704.44
328.372	607.44
328.6	572.44
328.829	535.44
329.058	531.44
329.287	551.44
329.515	523.44
329.744	518.44
329.972	496.44
330.201	486.44
330.43	536.44
330.658	550.44
330.887	570.44
331.115	579.44
331.344	509.44
331.572	476.44
331.801	481.44
332.03	488.44
332.258	463.44
332.486	466.44
332.715	445.44
332.943	457.44
333.172	448.44
333.4	443.44
333.629	435.44
333.857	460.44
334.085	472.44
334.314	467.44
334.542	505.44
334.771	519.44
334.999	491.44
335.227	489.44
335.455	459.44
335.684	437.44
335.912	448.44
336.14	442.44
336.369	477.44
336.597	442.44
336.825	454.44
337.053	444.44
337.281	419.44
337.51	433.44
337.738	449.44
337.966	417.44
338.194	433.44
338.422	449.44
338.65	454.44
338.878	409.44
339.106	416.44
339.334	419.44
339.562	419.44
339.79	389.44
340.018	423.44
340.246	430.44
340.474	418.44
340.702	427.44
340.93	429.44
341.158	425.44
341.386	434.44
341.614	419.44
341.842	444.44
342.07	424.44
342.298	439.44
342.526	409.44
342.754	405.44
342.981	435.44
343.209	421.44
343.437	414.44
343.665	434.44
343.893	427.44
344.12	440.44
344.348	439.44
344.576	423.44
344.804	443.44
345.031	457.44
345.259	459.44
345.487	452.44
345.714	432.44
345.942	434.44
346.17	425.44
346.397	409.44
346.625	411.44
346.853	398.44
347.08	399.44
347.308	408.44
347.535	417.44
347.763	409.44
347.99	421.44
348.218	418.44
348.445	451.44
348.673	425.44
348.9	413.44
349.128	406.44
349.355	421.44
349.583	391.44
349.81	403.44
350.037	397.44
350.265	420.44
350.492	402.44
350.72	394.44
350.947	406.44
351.174	404.44
351.402	415.44
351.629	428.44
351.856	414.44
352.083	423.44
352.311	424.44
352.538	415.44
352.765	435.44
352.992	438.44
353.22	421.44
353.447	405.44
353.674	379.44
353.901	421.44
354.128	398.44
354.355	398.44
354.583	390.44
354.81	400.44
355.037	400.44
355.264	403.44
355.491	399.44
355.718	379.44
355.945	401.44
356.172	405.44
356.399	422.44
356.626	393.44
356.853	394.44
357.08	396.44
357.307	397.44
357.534	413.44
357.761	394.44
357.988	391.44
358.215	382.44
358.441	380.44
358.668	393.44
358.895	389.44
359.122	407.44
359.349	411.44
359.576	409.44
359.802	449.44
360.029	451.44
360.256	452.44
360.483	448.44
360.709	430.44
360.936	415.44
361.163	415.44
361.39	431.44
361.616	436.44
361.843	426.44
362.07	429.44
362.296	420.44
362.523	426.44
362.749	409.44
362.976	397.44
363.203	417.44
363.429	406.44
363.656	400.44
363.882	397.44
364.109	408.44
364.335	408.44
364.562	413.44
364.788	413.44
365.015	395.44
365.241	396.44
365.468	412.44
365.694	413.44
365.92	417.44
366.147	420.44
366.373	412.44
366.599	397.44
366.826	399.44
367.052	417.44
367.278	430.44
367.505	407.44
367.731	405.44
367.957	409.44
368.184	410.44
368.41	429.44
368.636	433.44
368.862	430.44
369.089	425.44
369.315	424.44
369.541	407.44
369.767	401.44
369.993	403.44
370.219	417.44
370.445	424.44
370.672	417.44
370.898	396.44
371.124	385.44
371.35	407.44
371.576	410.44
371.802	401.44
372.028	421.44
372.254	405.44
372.48	417.44
372.706	405.44
372.932	414.44
373.158	408.44
373.384	413.44
373.61	428.44
373.835	418.44
374.061	404.44
374.287	438.44
374.513	419.44
374.739	415.44
374.965	417.44
375.191	410.44
375.416	438.44
375.642	411.44
375.868	425.44
376.094	431.44
376.319	423.44
376.545	431.44
376.771	413.44
376.997	397.44
377.222	399.44
377.448	405.44
377.674	421.44
377.899	390.44
378.125	396.44
378.35	406.44
378.576	405.44
378.802	383.44
379.027	387.44
379.253	419.44
379.478	418.44
379.704	425.44
379.929	424.44
380.155	429.44
380.38	401.44
380.606	415.44
380.831	400.44
381.057	412.44
381.282	413.44
381.507	419.44
381.733	422.44
381.958	399.44
382.184	409.44
382.409	407.44
382.634	436.44
382.86	427.44
383.085	443.44
383.31	437.44
383.535	428.44
383.761	432.44
383.986	441.44
384.211	420.44
384.436	447.44
384.662	436.44
384.887	465.44
385.112	446.44
385.337	449.44
385.562	460.44
385.787	464.44
386.013	444.44
386.238	453.44
386.463	473.44
386.688	470.44
386.913	456.44
387.138	446.44
387.363	461.44
387.588	468.44
387.813	472.44
388.038	450.44
388.263	449.44
388.488	457.44
388.713	480.44
388.938	459.44
389.163	473.44
389.387	444.44
389.612	445.44
389.837	454.44
390.062	458.44
390.287	450.44
390.512	451.44
390.736	467.44
390.961	452.44
391.186	452.44
391.411	458.44
391.636	480.44
391.86	472.44
392.085	471.44
392.31	480.44
392.534	484.44
392.759	481.44
392.984	480.44
393.208	455.44
393.433	465.44
393.658	469.44
393.882	468.44
394.107	462.44
394.331	465.44
394.556	462.44
394.78	473.44
395.005	484.44
395.229	480.44
395.454	487.44
395.678	481.44
395.903	518.44
396.127	533.44
396.352	520.44
396.576	496.44
396.801	480.44
397.025	483.44
397.249	490.44
397.474	528.44
397.698	497.44
397.922	504.44
398.147	539.44
398.371	515.44
398.595	525.44
398.82	538.44
399.044	552.44
399.268	577.44
399.492	563.44
399.717	608.44
399.941	629.44
400.165	668.44
400.389	654.44
400.613	620.44
400.837	582.44
401.062	576.44
401.286	549.44
401.51	551.44
401.734	544.44
401.958	534.44
402.182	538.44
402.406	575.44
402.63	551.44
402.854	547.44
403.078	524.44
403.302	545.44
403.526	559.44
403.75	541.44
403.974	554.44
404.198	534.44
404.422	577.44
404.645	564.44
404.869	567.44
405.093	608.44
405.317	628.44
405.541	692.44
405.765	626.44
405.988	599.44
406.212	571.44
406.436	600.44
406.66	615.44
406.883	599.44
407.107	642.44
407.331	675.44
407.555	740.44
407.778	747.44
408.002	679.44
408.226	641.44
408.449	607.44
408.673	610.44
408.896	650.44
409.12	692.44
409.344	657.44
409.567	611.44
409.791	596.44
410.014	577.44
410.238	565.44
410.461	573.44
410.685	569.44
410.908	595.44
411.132	629.44
411.355	625.44
411.578	613.44
411.802	567.44
412.025	551.44
412.249	582.44
412.472	563.44
412.695	636.44
412.919	603.44
413.142	564.44
413.365	544.44
413.589	541.44
413.812	531.44
414.035	523.44
414.258	535.44
414.482	561.44
414.705	544.44
414.928	544.44
415.151	543.44
415.374	546.44
415.597	533.44
415.821	525.44
416.044	575.44
416.267	524.44
416.49	527.44
416.713	526.44
416.936	509.44
417.159	512.44
417.382	534.44
417.605	526.44
417.828	540.44
418.051	556.44
418.274	535.44
418.497	529.44
418.72	525.44
418.943	539.44
419.166	558.44
419.389	569.44
419.611	555.44
419.834	556.44
420.057	555.44
420.28	573.44
420.503	533.44
420.726	549.44
420.948	570.44
421.171	601.44
421.394	636.44
421.617	588.44
421.839	537.44
422.062	557.44
422.285	559.44
422.507	611.44
422.73	703.44
422.953	663.44
423.175	602.44
423.398	556.44
423.621	585.44
423.843	580.44
424.066	595.44
424.288	580.44
424.511	595.44
424.733	661.44
424.956	744.44
425.178	699.44
425.401	710.44
425.623	769.44
425.846	649.44
426.068	589.44
426.291	567.44
426.513	573.44
426.735	592.44
426.958	619.44
427.18	724.44
427.402	856.44
427.625	952.44
427.847	828.44
428.069	706.44
428.292	649.44
428.514	587.44
428.736	588.44
428.958	550.44
429.181	524.44
429.403	543.44
429.625	551.44
429.847	596.44
430.069	649.44
430.292	660.44
430.514	552.44
430.736	543.44
430.958	550.44
431.18	515.44
431.402	521.44
431.624	504.44
431.846	505.44
432.068	520.44
432.29	511.44
432.512	507.44
432.734	551.44
432.956	516.44
433.178	538.44
433.4	553.44
433.622	514.44
433.844	523.44
434.066	501.44
434.287	523.44
434.509	541.44
434.731	531.44
434.953	536.44
435.175	571.44
435.397	579.44
435.618	591.44
435.84	638.44
436.062	721.44
436.284	817.44
436.505	664.44
436.727	595.44
436.949	577.44
437.17	552.44
437.392	559.44
437.614	562.44
437.835	609.44
438.057	672.44
438.278	785.44
438.5	794.44
438.721	894.44
438.943	841.44
439.165	677.44
439.386	604.44
439.608	591.44
439.829	609.44
440.05	622.44
440.272	671.44
440.493	635.44
440.715	581.44
440.936	571.44
441.158	549.44
441.379	577.44
441.6	566.44
441.822	595.44
442.043	623.44
442.264	721.44
442.486	734.44
442.707	650.44
442.928	592.44
443.149	617.44
443.371	626.44
443.592	669.44
443.813	786.44
444.034	857.44
444.255	728.44
444.476	598.44
444.698	627.44
444.919	590.44
445.14	694.44
445.361	649.44
445.582	631.44
445.803	717.44
446.024	827.44
446.245	823.44
446.466	752.44
446.687	636.44
446.908	568.44
447.129	559.44
447.35	548.44
447.571	554.44
447.792	549.44
448.013	534.44
448.234	549.44
448.455	623.44
448.675	731.44
448.896	868.44
449.117	733.44
449.338	673.44
449.559	838.44
449.779	903.44
450	744.44
450.221	602.44
450.442	564.44
450.662	538.44
450.883	532.44
451.104	554.44
451.324	531.44
451.545	513.44
451.766	503.44
451.986	507.44
452.207	469.44
452.428	491.44
452.648	500.44
452.869	486.44
453.089	481.44
453.31	500.44
453.53	479.44
453.751	491.44
453.971	485.44
454.192	497.44
454.412	506.44
454.633	496.44
454.853	491.44
455.073	484.44
455.294	484.44
455.514	576.44
455.734	560.44
455.955	492.44
456.175	475.44
456.395	447.44
456.616	458.44
456.836	486.44
457.056	468.44
457.276	451.44
457.497	471.44
457.717	484.44
457.937	468.44
458.157	463.44
458.377	481.44
458.598	512.44
458.818	555.44
459.038	635.44
459.258	655.44
459.478	572.44
459.698	535.44
459.918	533.44
460.138	544.44
460.358	530.44
460.578	519.44
460.798	536.44
461.018	559.44
461.238	545.44
461.458	542.44
461.678	543.44
461.898	545.44
462.118	531.44
462.338	553.44
462.558	554.44
462.777	547.44
462.997	561.44
463.217	598.44
463.437	603.44
463.657	593.44
463.876	581.44
464.096	599.44
464.316	569.44
464.536	573.44
464.755	564.44
464.975	578.44
465.195	601.44
465.414	657.44
465.634	648.44
465.854	557.44
466.073	545.44
466.293	524.44
466.512	526.44
466.732	524.44
466.951	516.44
467.171	504.44
467.391	515.44
467.61	521.44
467.829	546.44
468.049	531.44
468.268	532.44
468.488	507.44
468.707	515.44
468.927	530.44
469.146	495.44
469.365	513.44
469.585	503.44
469.804	507.44
470.023	512.44
470.243	495.44
470.462	523.44
470.681	531.44
470.901	518.44
471.12	553.44
471.339	512.44
471.558	511.44
471.777	523.44
471.997	530.44
472.216	507.44
472.435	538.44
472.654	543.44
472.873	515.44
473.092	514.44
473.311	520.44
473.53	509.44
473.749	516.44
473.968	556.44
474.187	657.44
474.406	705.44
474.625	593.44
474.844	536.44
475.063	531.44
475.282	516.44
475.501	533.44
475.72	521.44
475.939	523.44
476.158	533.44
476.377	529.44
476.596	523.44
476.814	556.44
477.033	561.44
477.252	527.44
477.471	560.44
477.69	548.44
477.908	569.44
478.127	555.44
478.346	553.44
478.564	588.44
478.783	558.44
479.002	587.44
479.22	583.44
479.439	587.44
479.658	612.44
479.876	598.44
480.095	600.44
480.313	644.44
480.532	624.44
480.751	617.44
480.969	639.44
481.188	679.44
481.406	712.44
481.624	654.44
481.843	645.44
482.061	625.44
482.28	629.44
482.498	620.44
482.717	602.44
482.935	599.44
483.153	607.44
483.372	603.44
483.59	601.44
483.808	585.44
484.027	598.44
484.245	600.44
484.463	609.44
484.681	637.44
484.9	596.44
485.118	611.44
485.336	615.44
485.554	634.44
485.772	616.44
485.99	620.44
486.209	604.44
486.427	597.44
486.645	664.44
486.863	635.44
487.081	633.44
487.299	641.44
487.517	649.44
487.735	660.44
487.953	641.44
488.171	627.44
488.389	627.44
488.607	640.44
488.825	645.44
489.043	659.44
489.261	660.44
489.479	680.44
489.696	651.44
489.914	674.44
490.132	673.44
490.35	661.44
490.568	667.44
490.786	638.44
491.003	681.44
491.221	715.44
491.439	674.44
491.657	691.44
491.874	700.44
492.092	703.44
492.31	681.44
492.527	724.44
492.745	713.44
492.963	706.44
493.18	721.44
493.398	715.44
493.615	717.44
493.833	760.44
494.05	729.44
494.268	764.44
494.485	746.44
494.703	713.44
494.92	756.44
495.138	748.44
495.355	737.44
495.573	741.44
495.79	737.44
496.008	771.44
496.225	752.44
496.442	754.44
496.66	760.44
496.877	773.44
497.094	772.44
497.312	777.44
497.529	799.44
497.746	791.44
497.963	832.44
498.181	841.44
498.398	822.44
498.615	853.44
498.832	920.44
499.049	896.44
499.267	902.44
499.484	920.44
499.701	988.44
499.918	993.44
500.135	1045.44
500.352	1089.44
500.569	1113.44
500.786	1092.44
501.003	1083.44
501.22	1085.44
501.437	1025.44
501.654	1019.44
501.871	1005.44
