Data from 1978.PennyLincolnUp.Lamp.En5.5.200Scan.071719.P1_HRD10591_16-14-40-865.txt Node
Date: Thu Jul 18 16:14:40 EDT 2019
User: cochatt
Spectrometer: HR+D1059
Trigger mode: 1
Integration Time (sec): 1.000000E-1
Scans to average: 1
Electric dark correction enabled: true
Nonlinearity correction enabled: false
Boxcar width: 0
XAxis mode: Wavelengths
Number of Pixels in Spectrum: 2048
>>>>>Begin Spectral Data<<<<<
223.165	-3.38
223.4	-3.38
223.635	-3.38
223.869	-20.38
224.104	-17.38
224.338	-23.38
224.573	-15.38
224.808	-20.38
225.042	-21.38
225.277	-20.38
225.511	-7.38
225.746	13.62
225.98	14.62
226.215	22.62
226.449	9.62
226.683	30.62
226.918	25.62
227.152	32.62
227.387	32.62
227.621	45.62
227.856	43.62
228.09	61.62
228.324	64.62
228.559	66.62
228.793	65.62
229.027	84.62
229.262	112.62
229.496	108.62
229.73	146.62
229.964	160.62
230.199	125.62
230.433	103.62
230.667	111.62
230.901	115.62
231.136	100.62
231.37	113.62
231.604	111.62
231.838	108.62
232.072	109.62
232.306	115.62
232.541	108.62
232.775	119.62
233.009	116.62
233.243	117.62
233.477	119.62
233.711	116.62
233.945	106.62
234.179	112.62
234.413	126.62
234.647	129.62
234.881	123.62
235.115	139.62
235.349	118.62
235.583	118.62
235.817	123.62
236.051	124.62
236.285	118.62
236.519	135.62
236.753	127.62
236.987	159.62
237.221	158.62
237.455	232.62
237.689	178.62
237.922	145.62
238.156	157.62
238.39	131.62
238.624	121.62
238.858	125.62
239.091	125.62
239.325	125.62
239.559	128.62
239.793	132.62
240.027	135.62
240.26	143.62
240.494	173.62
240.728	153.62
240.961	137.62
241.195	143.62
241.429	138.62
241.662	142.62
241.896	144.62
242.13	130.62
242.363	135.62
242.597	130.62
242.83	147.62
243.064	141.62
243.298	141.62
243.531	139.62
243.765	142.62
243.998	146.62
244.232	138.62
244.465	157.62
244.699	135.62
244.932	140.62
245.166	134.62
245.399	149.62
245.633	143.62
245.866	148.62
246.099	147.62
246.333	139.62
246.566	133.62
246.8	144.62
247.033	136.62
247.266	148.62
247.5	149.62
247.733	175.62
247.966	179.62
248.2	167.62
248.433	164.62
248.666	168.62
248.899	189.62
249.133	182.62
249.366	198.62
249.599	202.62
249.832	187.62
250.066	183.62
250.299	183.62
250.532	192.62
250.765	207.62
250.998	201.62
251.231	221.62
251.465	223.62
251.698	194.62
251.931	188.62
252.164	186.62
252.397	199.62
252.63	190.62
252.863	198.62
253.096	203.62
253.329	217.62
253.562	207.62
253.795	212.62
254.028	217.62
254.261	214.62
254.494	206.62
254.727	225.62
254.96	284.62
255.193	251.62
255.426	247.62
255.659	228.62
255.892	230.62
256.124	228.62
256.357	232.62
256.59	221.62
256.823	203.62
257.056	204.62
257.289	218.62
257.521	212.62
257.754	219.62
257.987	211.62
258.22	214.62
258.452	213.62
258.685	213.62
258.918	186.62
259.151	194.62
259.383	221.62
259.616	228.62
259.849	215.62
260.081	249.62
260.314	248.62
260.547	247.62
260.779	236.62
261.012	221.62
261.244	216.62
261.477	224.62
261.71	209.62
261.942	235.62
262.175	223.62
262.407	245.62
262.64	212.62
262.872	205.62
263.105	208.62
263.337	216.62
263.57	207.62
263.802	215.62
264.035	193.62
264.267	223.62
264.499	204.62
264.732	207.62
264.964	228.62
265.197	216.62
265.429	204.62
265.661	209.62
265.894	213.62
266.126	223.62
266.358	204.62
266.591	222.62
266.823	218.62
267.055	218.62
267.287	212.62
267.52	220.62
267.752	232.62
267.984	234.62
268.216	214.62
268.448	238.62
268.681	237.62
268.913	232.62
269.145	252.62
269.377	269.62
269.609	259.62
269.841	264.62
270.073	263.62
270.306	285.62
270.538	291.62
270.77	302.62
271.002	293.62
271.234	279.62
271.466	296.62
271.698	301.62
271.93	307.62
272.162	328.62
272.394	309.62
272.626	312.62
272.858	278.62
273.09	268.62
273.322	267.62
273.553	249.62
273.785	259.62
274.017	257.62
274.249	252.62
274.481	259.62
274.713	272.62
274.945	285.62
275.176	272.62
275.408	241.62
275.64	271.62
275.872	268.62
276.104	254.62
276.335	272.62
276.567	274.62
276.799	287.62
277.031	307.62
277.262	314.62
277.494	310.62
277.726	300.62
277.957	287.62
278.189	280.62
278.421	239.62
278.652	266.62
278.884	281.62
279.115	256.62
279.347	274.62
279.579	281.62
279.81	264.62
280.042	256.62
280.273	271.62
280.505	292.62
280.736	265.62
280.968	249.62
281.199	246.62
281.431	248.62
281.662	251.62
281.894	276.62
282.125	277.62
282.356	272.62
282.588	291.62
282.819	296.62
283.051	285.62
283.282	270.62
283.513	265.62
283.745	263.62
283.976	273.62
284.207	280.62
284.439	291.62
284.67	277.62
284.901	257.62
285.132	285.62
285.364	292.62
285.595	272.62
285.826	271.62
286.057	280.62
286.288	289.62
286.52	277.62
286.751	272.62
286.982	288.62
287.213	269.62
287.444	282.62
287.675	274.62
287.906	289.62
288.138	277.62
288.369	304.62
288.6	293.62
288.831	298.62
289.062	291.62
289.293	286.62
289.524	292.62
289.755	288.62
289.986	293.62
290.217	286.62
290.448	288.62
290.679	301.62
290.91	293.62
291.141	278.62
291.371	297.62
291.602	301.62
291.833	274.62
292.064	276.62
292.295	289.62
292.526	296.62
292.757	293.62
292.987	294.62
293.218	294.62
293.449	302.62
293.68	287.62
293.91	295.62
294.141	284.62
294.372	299.62
294.603	296.62
294.833	299.62
295.064	300.62
295.295	297.62
295.525	290.62
295.756	311.62
295.987	301.62
296.217	328.62
296.448	348.62
296.679	333.62
296.909	303.62
297.14	307.62
297.37	304.62
297.601	303.62
297.831	283.62
298.062	304.62
298.292	303.62
298.523	295.62
298.753	310.62
298.984	303.62
299.214	323.62
299.445	304.62
299.675	294.62
299.905	322.62
300.136	297.62
300.366	319.62
300.597	301.62
300.827	315.62
301.057	334.62
301.288	347.62
301.518	333.62
301.748	330.62
301.979	330.62
302.209	333.62
302.439	345.62
302.669	323.62
302.9	321.62
303.13	327.62
303.36	335.62
303.59	343.62
303.82	349.62
304.051	333.62
304.281	342.62
304.511	333.62
304.741	341.62
304.971	302.62
305.201	321.62
305.431	323.62
305.661	324.62
305.891	320.62
306.121	318.62
306.352	316.62
306.582	343.62
306.812	333.62
307.042	349.62
307.272	345.62
307.502	326.62
307.731	332.62
307.961	317.62
308.191	332.62
308.421	338.62
308.651	331.62
308.881	329.62
309.111	329.62
309.341	340.62
309.571	363.62
309.8	359.62
310.03	380.62
310.26	397.62
310.49	366.62
310.72	381.62
310.949	424.62
311.179	395.62
311.409	393.62
311.639	382.62
311.868	356.62
312.098	397.62
312.328	366.62
312.557	384.62
312.787	421.62
313.017	408.62
313.246	387.62
313.476	380.62
313.706	375.62
313.935	365.62
314.165	399.62
314.394	395.62
314.624	417.62
314.853	405.62
315.083	362.62
315.312	389.62
315.542	363.62
315.771	375.62
316.001	369.62
316.23	381.62
316.46	380.62
316.689	385.62
316.919	377.62
317.148	390.62
317.377	384.62
317.607	377.62
317.836	400.62
318.065	396.62
318.295	382.62
318.524	368.62
318.753	371.62
318.983	375.62
319.212	381.62
319.441	394.62
319.67	399.62
319.9	397.62
320.129	384.62
320.358	379.62
320.587	381.62
320.816	398.62
321.046	407.62
321.275	395.62
321.504	407.62
321.733	404.62
321.962	416.62
322.191	426.62
322.42	439.62
322.649	461.62
322.878	464.62
323.108	450.62
323.337	478.62
323.566	516.62
323.795	524.62
324.024	566.62
324.253	705.62
324.482	1031.62
324.71	1635.62
324.939	2495.62
325.168	2144.62
325.397	1033.62
325.626	661.62
325.855	565.62
326.084	519.62
326.313	501.62
326.542	518.62
326.77	576.62
326.999	671.62
327.228	936.62
327.457	1479.62
327.686	1871.62
327.914	1184.62
328.143	726.62
328.372	637.62
328.6	607.62
328.829	592.62
329.058	594.62
329.287	583.62
329.515	559.62
329.744	510.62
329.972	527.62
330.201	524.62
330.43	557.62
330.658	599.62
330.887	593.62
331.115	589.62
331.344	536.62
331.572	486.62
331.801	481.62
332.03	493.62
332.258	470.62
332.486	457.62
332.715	462.62
332.943	467.62
333.172	464.62
333.4	475.62
333.629	483.62
333.857	469.62
334.085	489.62
334.314	521.62
334.542	526.62
334.771	560.62
334.999	535.62
335.227	493.62
335.455	476.62
335.684	484.62
335.912	462.62
336.14	463.62
336.369	450.62
336.597	460.62
336.825	474.62
337.053	479.62
337.281	463.62
337.51	472.62
337.738	454.62
337.966	452.62
338.194	456.62
338.422	478.62
338.65	472.62
338.878	455.62
339.106	437.62
339.334	453.62
339.562	423.62
339.79	443.62
340.018	464.62
340.246	428.62
340.474	446.62
340.702	441.62
340.93	422.62
341.158	451.62
341.386	432.62
341.614	440.62
341.842	450.62
342.07	426.62
342.298	423.62
342.526	427.62
342.754	408.62
342.981	439.62
343.209	432.62
343.437	437.62
343.665	440.62
343.893	444.62
344.12	460.62
344.348	470.62
344.576	472.62
344.804	469.62
345.031	450.62
345.259	461.62
345.487	469.62
345.714	460.62
345.942	434.62
346.17	425.62
346.397	419.62
346.625	438.62
346.853	437.62
347.08	414.62
347.308	437.62
347.535	409.62
347.763	456.62
347.99	441.62
348.218	454.62
348.445	444.62
348.673	447.62
348.9	446.62
349.128	444.62
349.355	401.62
349.583	403.62
349.81	417.62
350.037	423.62
350.265	416.62
350.492	429.62
350.72	433.62
350.947	420.62
351.174	453.62
351.402	433.62
351.629	427.62
351.856	423.62
352.083	447.62
352.311	439.62
352.538	431.62
352.765	443.62
352.992	427.62
353.22	429.62
353.447	428.62
353.674	428.62
353.901	412.62
354.128	408.62
354.355	399.62
354.583	407.62
354.81	415.62
355.037	402.62
355.264	412.62
355.491	407.62
355.718	402.62
355.945	398.62
356.172	403.62
356.399	411.62
356.626	416.62
356.853	402.62
357.08	405.62
357.307	395.62
357.534	401.62
357.761	402.62
357.988	409.62
358.215	410.62
358.441	399.62
358.668	416.62
358.895	411.62
359.122	426.62
359.349	432.62
359.576	411.62
359.802	430.62
360.029	486.62
360.256	510.62
360.483	475.62
360.709	451.62
360.936	454.62
361.163	445.62
361.39	432.62
361.616	444.62
361.843	429.62
362.07	441.62
362.296	455.62
362.523	425.62
362.749	430.62
362.976	433.62
363.203	427.62
363.429	414.62
363.656	421.62
363.882	417.62
364.109	403.62
364.335	413.62
364.562	416.62
364.788	432.62
365.015	421.62
365.241	401.62
365.468	436.62
365.694	411.62
365.92	421.62
366.147	436.62
366.373	423.62
366.599	424.62
366.826	416.62
367.052	419.62
367.278	407.62
367.505	413.62
367.731	413.62
367.957	436.62
368.184	408.62
368.41	430.62
368.636	425.62
368.862	431.62
369.089	443.62
369.315	432.62
369.541	411.62
369.767	411.62
369.993	426.62
370.219	422.62
370.445	421.62
370.672	448.62
370.898	439.62
371.124	402.62
371.35	413.62
371.576	419.62
371.802	430.62
372.028	427.62
372.254	402.62
372.48	426.62
372.706	402.62
372.932	433.62
373.158	437.62
373.384	431.62
373.61	422.62
373.835	427.62
374.061	437.62
374.287	425.62
374.513	439.62
374.739	414.62
374.965	425.62
375.191	452.62
375.416	427.62
375.642	442.62
375.868	443.62
376.094	432.62
376.319	441.62
376.545	421.62
376.771	430.62
376.997	428.62
377.222	420.62
377.448	425.62
377.674	413.62
377.899	420.62
378.125	406.62
378.35	417.62
378.576	429.62
378.802	416.62
379.027	428.62
379.253	420.62
379.478	413.62
379.704	423.62
379.929	428.62
380.155	395.62
380.38	406.62
380.606	443.62
380.831	425.62
381.057	425.62
381.282	428.62
381.507	441.62
381.733	439.62
381.958	444.62
382.184	422.62
382.409	435.62
382.634	429.62
382.86	439.62
383.085	429.62
383.31	437.62
383.535	441.62
383.761	443.62
383.986	453.62
384.211	449.62
384.436	448.62
384.662	455.62
384.887	459.62
385.112	436.62
385.337	485.62
385.562	447.62
385.787	463.62
386.013	473.62
386.238	465.62
386.463	467.62
386.688	475.62
386.913	459.62
387.138	471.62
387.363	452.62
387.588	479.62
387.813	455.62
388.038	455.62
388.263	465.62
388.488	465.62
388.713	475.62
388.938	488.62
389.163	478.62
389.387	476.62
389.612	488.62
389.837	477.62
390.062	453.62
390.287	468.62
390.512	475.62
390.736	484.62
390.961	481.62
391.186	476.62
391.411	475.62
391.636	489.62
391.86	496.62
392.085	478.62
392.31	503.62
392.534	486.62
392.759	488.62
392.984	521.62
393.208	479.62
393.433	489.62
393.658	465.62
393.882	469.62
394.107	455.62
394.331	486.62
394.556	508.62
394.78	472.62
395.005	484.62
395.229	491.62
395.454	503.62
395.678	521.62
395.903	529.62
396.127	546.62
396.352	549.62
396.576	496.62
396.801	499.62
397.025	479.62
397.249	500.62
397.474	533.62
397.698	526.62
397.922	515.62
398.147	553.62
398.371	555.62
398.595	587.62
398.82	541.62
399.044	553.62
399.268	551.62
399.492	588.62
399.717	624.62
399.941	673.62
400.165	691.62
400.389	681.62
400.613	645.62
400.837	599.62
401.062	585.62
401.286	560.62
401.51	553.62
401.734	549.62
401.958	553.62
402.182	557.62
402.406	571.62
402.63	561.62
402.854	553.62
403.078	576.62
403.302	582.62
403.526	579.62
403.75	579.62
403.974	560.62
404.198	578.62
404.422	581.62
404.645	592.62
404.869	590.62
405.093	620.62
405.317	658.62
405.541	699.62
405.765	663.62
405.988	619.62
406.212	615.62
406.436	633.62
406.66	630.62
406.883	646.62
407.107	680.62
407.331	709.62
407.555	771.62
407.778	799.62
408.002	695.62
408.226	631.62
408.449	639.62
408.673	665.62
408.896	678.62
409.12	720.62
409.344	671.62
409.567	635.62
409.791	598.62
410.014	571.62
410.238	604.62
410.461	588.62
410.685	591.62
410.908	618.62
411.132	619.62
411.355	664.62
411.578	648.62
411.802	589.62
412.025	579.62
412.249	610.62
412.472	624.62
412.695	642.62
412.919	651.62
413.142	579.62
413.365	559.62
413.589	556.62
413.812	559.62
414.035	560.62
414.258	553.62
414.482	553.62
414.705	569.62
414.928	558.62
415.151	553.62
415.374	545.62
415.597	510.62
415.821	521.62
416.044	557.62
416.267	547.62
416.49	539.62
416.713	533.62
416.936	568.62
417.159	574.62
417.382	557.62
417.605	550.62
417.828	564.62
418.051	575.62
418.274	564.62
418.497	542.62
418.72	540.62
418.943	575.62
419.166	558.62
419.389	615.62
419.611	592.62
419.834	573.62
420.057	569.62
420.28	563.62
420.503	550.62
420.726	555.62
420.948	603.62
421.171	631.62
421.394	675.62
421.617	599.62
421.839	582.62
422.062	579.62
422.285	560.62
422.507	641.62
422.73	746.62
422.953	716.62
423.175	619.62
423.398	597.62
423.621	587.62
423.843	591.62
424.066	627.62
424.288	589.62
424.511	637.62
424.733	689.62
424.956	784.62
425.178	759.62
425.401	732.62
425.623	767.62
425.846	667.62
426.068	633.62
426.291	595.62
426.513	604.62
426.735	619.62
426.958	658.62
427.18	748.62
427.402	907.62
427.625	1009.62
427.847	873.62
428.069	738.62
428.292	663.62
428.514	588.62
428.736	590.62
428.958	568.62
429.181	560.62
429.403	550.62
429.625	582.62
429.847	621.62
430.069	689.62
430.292	676.62
430.514	597.62
430.736	586.62
430.958	544.62
431.18	523.62
431.402	547.62
431.624	534.62
431.846	543.62
432.068	530.62
432.29	543.62
432.512	541.62
432.734	551.62
432.956	555.62
433.178	547.62
433.4	568.62
433.622	538.62
433.844	551.62
434.066	537.62
434.287	535.62
434.509	534.62
434.731	544.62
434.953	559.62
435.175	586.62
435.397	611.62
435.618	621.62
435.84	635.62
436.062	777.62
436.284	858.62
436.505	713.62
436.727	635.62
436.949	607.62
437.17	568.62
437.392	585.62
437.614	591.62
437.835	627.62
438.057	735.62
438.278	829.62
438.5	860.62
438.721	928.62
438.943	877.62
439.165	708.62
439.386	636.62
439.608	604.62
439.829	619.62
440.05	652.62
440.272	718.62
440.493	661.62
440.715	612.62
440.936	610.62
441.158	570.62
441.379	561.62
441.6	575.62
441.822	605.62
442.043	649.62
442.264	742.62
442.486	801.62
442.707	701.62
442.928	629.62
443.149	632.62
443.371	659.62
443.592	691.62
443.813	812.62
444.034	886.62
444.255	739.62
444.476	649.62
444.698	641.62
444.919	649.62
445.14	728.62
445.361	675.62
445.582	659.62
445.803	733.62
446.024	864.62
446.245	864.62
446.466	767.62
446.687	675.62
446.908	606.62
447.129	573.62
447.35	559.62
447.571	545.62
447.792	552.62
448.013	581.62
448.234	560.62
448.455	635.62
448.675	756.62
448.896	935.62
449.117	765.62
449.338	716.62
449.559	840.62
449.779	964.62
450	753.62
450.221	629.62
450.442	580.62
450.662	589.62
450.883	533.62
451.104	567.62
451.324	563.62
451.545	545.62
451.766	524.62
451.986	514.62
452.207	498.62
452.428	526.62
452.648	501.62
452.869	512.62
453.089	535.62
453.31	533.62
453.53	548.62
453.751	519.62
453.971	521.62
454.192	543.62
454.412	511.62
454.633	521.62
454.853	477.62
455.073	517.62
455.294	532.62
455.514	604.62
455.734	582.62
455.955	508.62
456.175	515.62
456.395	493.62
456.616	486.62
456.836	474.62
457.056	499.62
457.276	468.62
457.497	487.62
457.717	463.62
457.937	492.62
458.157	476.62
458.377	479.62
458.598	533.62
458.818	597.62
459.038	652.62
459.258	684.62
459.478	612.62
459.698	555.62
459.918	537.62
460.138	530.62
460.358	553.62
460.578	535.62
460.798	547.62
461.018	561.62
461.238	552.62
461.458	536.62
461.678	585.62
461.898	554.62
462.118	543.62
462.338	587.62
462.558	594.62
462.777	563.62
462.997	591.62
463.217	605.62
463.437	639.62
463.657	614.62
463.876	607.62
464.096	573.62
464.316	587.62
464.536	598.62
464.755	586.62
464.975	584.62
465.195	594.62
465.414	688.62
465.634	632.62
465.854	560.62
466.073	529.62
466.293	554.62
466.512	526.62
466.732	540.62
466.951	540.62
467.171	530.62
467.391	534.62
467.61	534.62
467.829	528.62
468.049	527.62
468.268	533.62
468.488	517.62
468.707	500.62
468.927	516.62
469.146	511.62
469.365	510.62
469.585	525.62
469.804	518.62
470.023	527.62
470.243	515.62
470.462	536.62
470.681	542.62
470.901	552.62
471.12	525.62
471.339	521.62
471.558	523.62
471.777	532.62
471.997	513.62
472.216	529.62
472.435	579.62
472.654	551.62
472.873	525.62
473.092	535.62
473.311	526.62
473.53	517.62
473.749	557.62
473.968	570.62
474.187	703.62
474.406	718.62
474.625	596.62
474.844	549.62
475.063	527.62
475.282	529.62
475.501	533.62
475.72	533.62
475.939	544.62
476.158	545.62
476.377	551.62
476.596	543.62
476.814	567.62
477.033	588.62
477.252	599.62
477.471	592.62
477.69	591.62
477.908	569.62
478.127	618.62
478.346	566.62
478.564	591.62
478.783	569.62
479.002	586.62
479.22	606.62
479.439	628.62
479.658	669.62
479.876	656.62
480.095	657.62
480.313	663.62
480.532	660.62
480.751	653.62
480.969	657.62
481.188	728.62
481.406	724.62
481.624	682.62
481.843	653.62
482.061	630.62
482.28	642.62
482.498	637.62
482.717	628.62
482.935	617.62
483.153	615.62
483.372	620.62
483.59	613.62
483.808	603.62
484.027	633.62
484.245	623.62
484.463	619.62
484.681	620.62
484.9	633.62
485.118	654.62
485.336	626.62
485.554	634.62
485.772	651.62
485.99	630.62
486.209	659.62
486.427	669.62
486.645	667.62
486.863	707.62
487.081	661.62
487.299	644.62
487.517	669.62
487.735	667.62
487.953	632.62
488.171	668.62
488.389	669.62
488.607	676.62
488.825	671.62
489.043	668.62
489.261	674.62
489.479	684.62
489.696	685.62
489.914	671.62
490.132	700.62
490.35	694.62
490.568	689.62
490.786	699.62
491.003	699.62
491.221	699.62
491.439	727.62
491.657	734.62
491.874	750.62
492.092	737.62
492.31	733.62
492.527	762.62
492.745	753.62
492.963	757.62
493.18	758.62
493.398	781.62
493.615	777.62
493.833	775.62
494.05	765.62
494.268	768.62
494.485	773.62
494.703	795.62
494.92	781.62
495.138	785.62
495.355	781.62
495.573	772.62
495.79	787.62
496.008	782.62
496.225	784.62
496.442	795.62
496.66	793.62
496.877	782.62
497.094	793.62
497.312	775.62
497.529	802.62
497.746	811.62
497.963	832.62
498.181	849.62
498.398	877.62
498.615	878.62
498.832	907.62
499.049	923.62
499.267	958.62
499.484	965.62
499.701	1004.62
499.918	1004.62
500.135	1063.62
500.352	1124.62
500.569	1142.62
500.786	1143.62
501.003	1120.62
501.22	1101.62
501.437	1070.62
501.654	1053.62
