Data from 1978.PennyLincolnUp.Lamp.En5.5.200Scan.071719.P1_HRD10591_16-12-58-864.txt Node
Date: Thu Jul 18 16:12:58 EDT 2019
User: cochatt
Spectrometer: HR+D1059
Trigger mode: 1
Integration Time (sec): 1.000000E-1
Scans to average: 1
Electric dark correction enabled: true
Nonlinearity correction enabled: false
Boxcar width: 0
XAxis mode: Wavelengths
Number of Pixels in Spectrum: 2048
>>>>>Begin Spectral Data<<<<<
223.165	-14.19
223.4	-14.19
223.635	-14.19
223.869	-20.19
224.104	-26.19
224.338	-5.19
224.573	-22.19
224.808	-3.19
225.042	-16.19
225.277	-4.19
225.511	-0.19
225.746	-5.19
225.98	18.81
226.215	11.81
226.449	27.81
226.683	7.81
226.918	21.81
227.152	28.81
227.387	38.81
227.621	21.81
227.856	44.81
228.09	35.81
228.324	58.81
228.559	54.81
228.793	69.81
229.027	105.81
229.262	90.81
229.496	87.81
229.73	116.81
229.964	144.81
230.199	120.81
230.433	95.81
230.667	101.81
230.901	90.81
231.136	98.81
231.37	97.81
231.604	102.81
231.838	108.81
232.072	97.81
232.306	104.81
232.541	107.81
232.775	109.81
233.009	116.81
233.243	106.81
233.477	107.81
233.711	111.81
233.945	121.81
234.179	112.81
234.413	100.81
234.647	118.81
234.881	98.81
235.115	117.81
235.349	111.81
235.583	111.81
235.817	122.81
236.051	99.81
236.285	105.81
236.519	107.81
236.753	115.81
236.987	133.81
237.221	166.81
237.455	223.81
237.689	157.81
237.922	139.81
238.156	124.81
238.39	122.81
238.624	114.81
238.858	113.81
239.091	133.81
239.325	121.81
239.559	116.81
239.793	138.81
240.027	115.81
240.26	134.81
240.494	162.81
240.728	133.81
240.961	146.81
241.195	131.81
241.429	128.81
241.662	121.81
241.896	119.81
242.13	142.81
242.363	129.81
242.597	130.81
242.83	149.81
243.064	126.81
243.298	138.81
243.531	123.81
243.765	130.81
243.998	137.81
244.232	135.81
244.465	132.81
244.699	144.81
244.932	136.81
245.166	137.81
245.399	141.81
245.633	129.81
245.866	144.81
246.099	143.81
246.333	128.81
246.566	132.81
246.8	140.81
247.033	141.81
247.266	145.81
247.5	139.81
247.733	174.81
247.966	155.81
248.2	149.81
248.433	150.81
248.666	162.81
248.899	174.81
249.133	194.81
249.366	200.81
249.599	180.81
249.832	169.81
250.066	174.81
250.299	174.81
250.532	178.81
250.765	175.81
250.998	196.81
251.231	197.81
251.465	184.81
251.698	186.81
251.931	187.81
252.164	156.81
252.397	171.81
252.63	174.81
252.863	191.81
253.096	206.81
253.329	195.81
253.562	209.81
253.795	205.81
254.028	184.81
254.261	186.81
254.494	211.81
254.727	239.81
254.96	269.81
255.193	232.81
255.426	198.81
255.659	216.81
255.892	211.81
256.124	210.81
256.357	207.81
256.59	203.81
256.823	204.81
257.056	200.81
257.289	193.81
257.521	194.81
257.754	176.81
257.987	179.81
258.22	202.81
258.452	189.81
258.685	198.81
258.918	193.81
259.151	191.81
259.383	200.81
259.616	195.81
259.849	187.81
260.081	213.81
260.314	203.81
260.547	238.81
260.779	207.81
261.012	222.81
261.244	206.81
261.477	203.81
261.71	186.81
261.942	204.81
262.175	191.81
262.407	179.81
262.64	202.81
262.872	181.81
263.105	188.81
263.337	208.81
263.57	209.81
263.802	194.81
264.035	201.81
264.267	198.81
264.499	205.81
264.732	206.81
264.964	186.81
265.197	202.81
265.429	193.81
265.661	208.81
265.894	204.81
266.126	198.81
266.358	204.81
266.591	200.81
266.823	205.81
267.055	203.81
267.287	200.81
267.52	196.81
267.752	191.81
267.984	204.81
268.216	211.81
268.448	208.81
268.681	211.81
268.913	233.81
269.145	248.81
269.377	234.81
269.609	243.81
269.841	250.81
270.073	240.81
270.306	268.81
270.538	271.81
270.77	282.81
271.002	269.81
271.234	259.81
271.466	251.81
271.698	265.81
271.93	282.81
272.162	267.81
272.394	277.81
272.626	260.81
272.858	245.81
273.09	252.81
273.322	258.81
273.553	244.81
273.785	229.81
274.017	227.81
274.249	243.81
274.481	248.81
274.713	240.81
274.945	246.81
275.176	252.81
275.408	247.81
275.64	239.81
275.872	238.81
276.104	244.81
276.335	240.81
276.567	244.81
276.799	262.81
277.031	294.81
277.262	279.81
277.494	283.81
277.726	269.81
277.957	272.81
278.189	260.81
278.421	267.81
278.652	256.81
278.884	256.81
279.115	247.81
279.347	248.81
279.579	259.81
279.81	244.81
280.042	256.81
280.273	252.81
280.505	258.81
280.736	266.81
280.968	247.81
281.199	239.81
281.431	239.81
281.662	261.81
281.894	269.81
282.125	255.81
282.356	280.81
282.588	296.81
282.819	289.81
283.051	260.81
283.282	248.81
283.513	251.81
283.745	261.81
283.976	251.81
284.207	262.81
284.439	263.81
284.67	254.81
284.901	257.81
285.132	273.81
285.364	243.81
285.595	253.81
285.826	251.81
286.057	287.81
286.288	272.81
286.52	274.81
286.751	265.81
286.982	259.81
287.213	251.81
287.444	266.81
287.675	288.81
287.906	273.81
288.138	275.81
288.369	281.81
288.6	258.81
288.831	298.81
289.062	281.81
289.293	278.81
289.524	260.81
289.755	262.81
289.986	270.81
290.217	267.81
290.448	272.81
290.679	274.81
290.91	274.81
291.141	288.81
291.371	275.81
291.602	259.81
291.833	280.81
292.064	264.81
292.295	268.81
292.526	268.81
292.757	282.81
292.987	264.81
293.218	288.81
293.449	280.81
293.68	255.81
293.91	275.81
294.141	250.81
294.372	288.81
294.603	265.81
294.833	274.81
295.064	295.81
295.295	292.81
295.525	294.81
295.756	285.81
295.987	286.81
296.217	295.81
296.448	297.81
296.679	291.81
296.909	274.81
297.14	271.81
297.37	287.81
297.601	286.81
297.831	302.81
298.062	298.81
298.292	291.81
298.523	304.81
298.753	283.81
298.984	292.81
299.214	306.81
299.445	280.81
299.675	265.81
299.905	294.81
300.136	287.81
300.366	276.81
300.597	288.81
300.827	304.81
301.057	314.81
301.288	308.81
301.518	278.81
301.748	305.81
301.979	308.81
302.209	311.81
302.439	314.81
302.669	315.81
302.9	297.81
303.13	316.81
303.36	294.81
303.59	314.81
303.82	296.81
304.051	315.81
304.281	330.81
304.511	314.81
304.741	310.81
304.971	320.81
305.201	318.81
305.431	299.81
305.661	297.81
305.891	309.81
306.121	323.81
306.352	308.81
306.582	309.81
306.812	302.81
307.042	302.81
307.272	318.81
307.502	324.81
307.731	323.81
307.961	284.81
308.191	286.81
308.421	306.81
308.651	299.81
308.881	328.81
309.111	318.81
309.341	327.81
309.571	326.81
309.8	334.81
310.03	335.81
310.26	351.81
310.49	334.81
310.72	345.81
310.949	365.81
311.179	363.81
311.409	354.81
311.639	330.81
311.868	342.81
312.098	347.81
312.328	355.81
312.557	364.81
312.787	363.81
313.017	367.81
313.246	356.81
313.476	358.81
313.706	359.81
313.935	346.81
314.165	370.81
314.394	377.81
314.624	335.81
314.853	358.81
315.083	371.81
315.312	354.81
315.542	334.81
315.771	339.81
316.001	323.81
316.23	352.81
316.46	359.81
316.689	361.81
316.919	379.81
317.148	368.81
317.377	364.81
317.607	364.81
317.836	378.81
318.065	359.81
318.295	360.81
318.524	337.81
318.753	353.81
318.983	332.81
319.212	338.81
319.441	347.81
319.67	378.81
319.9	358.81
320.129	362.81
320.358	351.81
320.587	377.81
320.816	347.81
321.046	350.81
321.275	382.81
321.504	366.81
321.733	378.81
321.962	389.81
322.191	392.81
322.42	382.81
322.649	410.81
322.878	416.81
323.108	425.81
323.337	454.81
323.566	454.81
323.795	482.81
324.024	535.81
324.253	601.81
324.482	873.81
324.71	1374.81
324.939	2053.81
325.168	1863.81
325.397	872.81
325.626	624.81
325.855	498.81
326.084	472.81
326.313	457.81
326.542	456.81
326.77	512.81
326.999	593.81
327.228	816.81
327.457	1247.81
327.686	1589.81
327.914	1014.81
328.143	643.81
328.372	576.81
328.6	547.81
328.829	512.81
329.058	524.81
329.287	538.81
329.515	495.81
329.744	505.81
329.972	472.81
330.201	485.81
330.43	504.81
330.658	508.81
330.887	536.81
331.115	554.81
331.344	500.81
331.572	445.81
331.801	428.81
332.03	452.81
332.258	436.81
332.486	429.81
332.715	438.81
332.943	424.81
333.172	447.81
333.4	440.81
333.629	434.81
333.857	442.81
334.085	441.81
334.314	459.81
334.542	509.81
334.771	513.81
334.999	488.81
335.227	454.81
335.455	443.81
335.684	433.81
335.912	435.81
336.14	430.81
336.369	445.81
336.597	432.81
336.825	421.81
337.053	422.81
337.281	416.81
337.51	406.81
337.738	415.81
337.966	403.81
338.194	423.81
338.422	433.81
338.65	430.81
338.878	397.81
339.106	416.81
339.334	396.81
339.562	425.81
339.79	410.81
340.018	406.81
340.246	409.81
340.474	434.81
340.702	419.81
340.93	409.81
341.158	411.81
341.386	425.81
341.614	396.81
341.842	396.81
342.07	391.81
342.298	399.81
342.526	416.81
342.754	386.81
342.981	403.81
343.209	405.81
343.437	397.81
343.665	422.81
343.893	427.81
344.12	433.81
344.348	436.81
344.576	430.81
344.804	433.81
345.031	439.81
345.259	459.81
345.487	424.81
345.714	425.81
345.942	414.81
346.17	412.81
346.397	416.81
346.625	403.81
346.853	429.81
347.08	410.81
347.308	393.81
347.535	402.81
347.763	423.81
347.99	405.81
348.218	403.81
348.445	412.81
348.673	427.81
348.9	381.81
349.128	397.81
349.355	390.81
349.583	376.81
349.81	388.81
350.037	394.81
350.265	375.81
350.492	381.81
350.72	386.81
350.947	375.81
351.174	399.81
351.402	402.81
351.629	410.81
351.856	395.81
352.083	431.81
352.311	427.81
352.538	446.81
352.765	409.81
352.992	403.81
353.22	400.81
353.447	414.81
353.674	398.81
353.901	375.81
354.128	382.81
354.355	386.81
354.583	407.81
354.81	372.81
355.037	387.81
355.264	379.81
355.491	394.81
355.718	371.81
355.945	382.81
356.172	359.81
356.399	382.81
356.626	392.81
356.853	367.81
357.08	380.81
357.307	385.81
357.534	382.81
357.761	373.81
357.988	404.81
358.215	388.81
358.441	384.81
358.668	392.81
358.895	397.81
359.122	382.81
359.349	383.81
359.576	400.81
359.802	405.81
360.029	447.81
360.256	431.81
360.483	420.81
360.709	406.81
360.936	400.81
361.163	406.81
361.39	384.81
361.616	414.81
361.843	406.81
362.07	417.81
362.296	400.81
362.523	402.81
362.749	400.81
362.976	417.81
363.203	391.81
363.429	394.81
363.656	392.81
363.882	410.81
364.109	390.81
364.335	385.81
364.562	396.81
364.788	374.81
365.015	384.81
365.241	372.81
365.468	398.81
365.694	416.81
365.92	414.81
366.147	406.81
366.373	395.81
366.599	401.81
366.826	391.81
367.052	374.81
367.278	389.81
367.505	393.81
367.731	395.81
367.957	375.81
368.184	392.81
368.41	404.81
368.636	399.81
368.862	399.81
369.089	407.81
369.315	395.81
369.541	393.81
369.767	406.81
369.993	379.81
370.219	423.81
370.445	394.81
370.672	394.81
370.898	390.81
371.124	388.81
371.35	382.81
371.576	400.81
371.802	389.81
372.028	400.81
372.254	403.81
372.48	396.81
372.706	405.81
372.932	412.81
373.158	396.81
373.384	388.81
373.61	391.81
373.835	393.81
374.061	388.81
374.287	385.81
374.513	410.81
374.739	425.81
374.965	430.81
375.191	416.81
375.416	423.81
375.642	418.81
375.868	411.81
376.094	409.81
376.319	408.81
376.545	413.81
376.771	394.81
376.997	400.81
377.222	390.81
377.448	409.81
377.674	390.81
377.899	400.81
378.125	401.81
378.35	405.81
378.576	390.81
378.802	410.81
379.027	392.81
379.253	402.81
379.478	407.81
379.704	396.81
379.929	386.81
380.155	385.81
380.38	394.81
380.606	406.81
380.831	408.81
381.057	409.81
381.282	380.81
381.507	403.81
381.733	392.81
381.958	389.81
382.184	411.81
382.409	423.81
382.634	402.81
382.86	408.81
383.085	418.81
383.31	432.81
383.535	416.81
383.761	430.81
383.986	407.81
384.211	422.81
384.436	411.81
384.662	438.81
384.887	432.81
385.112	432.81
385.337	434.81
385.562	431.81
385.787	423.81
386.013	409.81
386.238	442.81
386.463	466.81
386.688	443.81
386.913	447.81
387.138	434.81
387.363	434.81
387.588	451.81
387.813	462.81
388.038	450.81
388.263	432.81
388.488	458.81
388.713	438.81
388.938	436.81
389.163	447.81
389.387	468.81
389.612	435.81
389.837	450.81
390.062	436.81
390.287	437.81
390.512	461.81
390.736	453.81
390.961	436.81
391.186	460.81
391.411	444.81
391.636	442.81
391.86	448.81
392.085	468.81
392.31	458.81
392.534	464.81
392.759	474.81
392.984	460.81
393.208	464.81
393.433	472.81
393.658	447.81
393.882	464.81
394.107	467.81
394.331	456.81
394.556	452.81
394.78	456.81
395.005	458.81
395.229	459.81
395.454	466.81
395.678	486.81
395.903	499.81
396.127	519.81
396.352	502.81
396.576	459.81
396.801	466.81
397.025	486.81
397.249	486.81
397.474	488.81
397.698	480.81
397.922	505.81
398.147	523.81
398.371	530.81
398.595	519.81
398.82	511.81
399.044	542.81
399.268	546.81
399.492	571.81
399.717	587.81
399.941	646.81
400.165	652.81
400.389	627.81
400.613	617.81
400.837	552.81
401.062	542.81
401.286	522.81
401.51	537.81
401.734	523.81
401.958	533.81
402.182	549.81
402.406	510.81
402.63	542.81
402.854	519.81
403.078	532.81
403.302	522.81
403.526	563.81
403.75	560.81
403.974	542.81
404.198	533.81
404.422	534.81
404.645	545.81
404.869	547.81
405.093	568.81
405.317	610.81
405.541	640.81
405.765	590.81
405.988	550.81
406.212	576.81
406.436	595.81
406.66	596.81
406.883	568.81
407.107	587.81
407.331	638.81
407.555	723.81
407.778	713.81
408.002	658.81
408.226	614.81
408.449	589.81
408.673	622.81
408.896	638.81
409.12	690.81
409.344	638.81
409.567	585.81
409.791	561.81
410.014	559.81
410.238	568.81
410.461	561.81
410.685	562.81
410.908	559.81
411.132	599.81
411.355	631.81
411.578	598.81
411.802	554.81
412.025	525.81
412.249	573.81
412.472	595.81
412.695	623.81
412.919	613.81
413.142	566.81
413.365	539.81
413.589	528.81
413.812	526.81
414.035	527.81
414.258	527.81
414.482	532.81
414.705	519.81
414.928	529.81
415.151	544.81
415.374	528.81
415.597	522.81
415.821	515.81
416.044	527.81
416.267	532.81
416.49	508.81
416.713	505.81
416.936	505.81
417.159	502.81
417.382	516.81
417.605	499.81
417.828	514.81
418.051	538.81
418.274	531.81
418.497	487.81
418.72	518.81
418.943	511.81
419.166	525.81
419.389	543.81
419.611	547.81
419.834	528.81
420.057	560.81
420.28	519.81
420.503	540.81
420.726	526.81
420.948	523.81
421.171	597.81
421.394	609.81
421.617	555.81
421.839	525.81
422.062	534.81
422.285	539.81
422.507	614.81
422.73	670.81
422.953	641.81
423.175	587.81
423.398	544.81
423.621	562.81
423.843	588.81
424.066	595.81
424.288	563.81
424.511	588.81
424.733	619.81
424.956	686.81
425.178	710.81
425.401	710.81
425.623	708.81
425.846	614.81
426.068	548.81
426.291	569.81
426.513	590.81
426.735	581.81
426.958	603.81
427.18	713.81
427.402	850.81
427.625	919.81
427.847	819.81
428.069	697.81
428.292	628.81
428.514	567.81
428.736	544.81
428.958	552.81
429.181	543.81
429.403	524.81
429.625	551.81
429.847	565.81
430.069	646.81
430.292	667.81
430.514	560.81
430.736	519.81
430.958	533.81
431.18	503.81
431.402	507.81
431.624	491.81
431.846	486.81
432.068	486.81
432.29	506.81
432.512	506.81
432.734	515.81
432.956	524.81
433.178	546.81
433.4	551.81
433.622	495.81
433.844	510.81
434.066	512.81
434.287	515.81
434.509	500.81
434.731	487.81
434.953	518.81
435.175	565.81
435.397	559.81
435.618	580.81
435.84	609.81
436.062	688.81
436.284	788.81
436.505	649.81
436.727	586.81
436.949	551.81
437.17	549.81
437.392	551.81
437.614	543.81
437.835	572.81
438.057	667.81
438.278	767.81
438.5	771.81
438.721	856.81
438.943	832.81
439.165	631.81
439.386	582.81
439.608	591.81
439.829	585.81
440.05	586.81
440.272	653.81
440.493	628.81
440.715	572.81
440.936	538.81
441.158	547.81
441.379	523.81
441.6	546.81
441.822	587.81
442.043	625.81
442.264	671.81
442.486	725.81
442.707	630.81
442.928	592.81
443.149	584.81
443.371	594.81
443.592	642.81
443.813	745.81
444.034	823.81
444.255	672.81
444.476	616.81
444.698	575.81
444.919	593.81
445.14	701.81
445.361	647.81
445.582	628.81
445.803	673.81
446.024	773.81
446.245	815.81
446.466	722.81
446.687	626.81
446.908	545.81
447.129	540.81
447.35	540.81
447.571	508.81
447.792	512.81
448.013	523.81
448.234	532.81
448.455	592.81
448.675	699.81
448.896	835.81
449.117	688.81
449.338	652.81
449.559	773.81
449.779	873.81
450	709.81
450.221	568.81
450.442	533.81
450.662	486.81
450.883	515.81
451.104	528.81
451.324	514.81
451.545	527.81
451.766	478.81
451.986	486.81
452.207	465.81
452.428	471.81
452.648	474.81
452.869	490.81
453.089	484.81
453.31	512.81
453.53	474.81
453.751	468.81
453.971	478.81
454.192	497.81
454.412	474.81
454.633	484.81
454.853	487.81
455.073	479.81
455.294	504.81
455.514	554.81
455.734	556.81
455.955	473.81
456.175	482.81
456.395	462.81
456.616	449.81
456.836	459.81
457.056	457.81
457.276	454.81
457.497	463.81
457.717	454.81
457.937	469.81
458.157	473.81
458.377	453.81
458.598	484.81
458.818	536.81
459.038	594.81
459.258	623.81
459.478	560.81
459.698	529.81
459.918	514.81
460.138	536.81
460.358	514.81
460.578	505.81
460.798	516.81
461.018	538.81
461.238	528.81
461.458	508.81
461.678	522.81
461.898	523.81
462.118	523.81
462.338	530.81
462.558	535.81
462.777	544.81
462.997	584.81
463.217	591.81
463.437	572.81
463.657	559.81
463.876	584.81
464.096	566.81
464.316	560.81
464.536	555.81
464.755	556.81
464.975	550.81
465.195	580.81
465.414	624.81
465.634	598.81
465.854	560.81
466.073	563.81
466.293	518.81
466.512	515.81
466.732	516.81
466.951	511.81
467.171	505.81
467.391	490.81
467.61	502.81
467.829	512.81
468.049	503.81
468.268	476.81
468.488	485.81
468.707	499.81
468.927	483.81
469.146	471.81
469.365	475.81
469.585	487.81
469.804	507.81
470.023	507.81
470.243	500.81
470.462	506.81
470.681	528.81
470.901	514.81
471.12	497.81
471.339	494.81
471.558	485.81
471.777	493.81
471.997	507.81
472.216	508.81
472.435	544.81
472.654	520.81
472.873	490.81
473.092	492.81
473.311	488.81
473.53	483.81
473.749	513.81
473.968	563.81
474.187	637.81
474.406	684.81
474.625	552.81
474.844	504.81
475.063	504.81
475.282	488.81
475.501	498.81
475.72	524.81
475.939	534.81
476.158	511.81
476.377	532.81
476.596	507.81
476.814	520.81
477.033	529.81
477.252	540.81
477.471	547.81
477.69	555.81
477.908	537.81
478.127	562.81
478.346	563.81
478.564	555.81
478.783	566.81
479.002	580.81
479.22	566.81
479.439	574.81
479.658	603.81
479.876	617.81
480.095	610.81
480.313	664.81
480.532	638.81
480.751	628.81
480.969	611.81
481.188	648.81
481.406	692.81
481.624	611.81
481.843	630.81
482.061	616.81
482.28	574.81
482.498	578.81
482.717	598.81
482.935	588.81
483.153	594.81
483.372	606.81
483.59	596.81
483.808	581.81
484.027	580.81
484.245	598.81
484.463	584.81
484.681	609.81
484.9	574.81
485.118	603.81
485.336	572.81
485.554	597.81
485.772	591.81
485.99	591.81
486.209	617.81
486.427	607.81
486.645	617.81
486.863	638.81
487.081	638.81
487.299	612.81
487.517	644.81
487.735	614.81
487.953	622.81
488.171	605.81
488.389	599.81
488.607	630.81
488.825	623.81
489.043	628.81
489.261	610.81
489.479	643.81
489.696	630.81
489.914	632.81
490.132	644.81
490.35	644.81
490.568	668.81
490.786	654.81
491.003	667.81
491.221	676.81
491.439	678.81
491.657	664.81
491.874	691.81
492.092	686.81
492.31	695.81
492.527	690.81
492.745	686.81
492.963	698.81
493.18	707.81
493.398	719.81
493.615	709.81
493.833	730.81
494.05	736.81
494.268	726.81
494.485	723.81
494.703	720.81
494.92	719.81
495.138	709.81
495.355	746.81
495.573	728.81
495.79	750.81
496.008	739.81
496.225	724.81
496.442	720.81
496.66	738.81
496.877	760.81
497.094	718.81
497.312	724.81
497.529	751.81
497.746	774.81
497.963	793.81
498.181	810.81
498.398	810.81
498.615	827.81
498.832	881.81
499.049	892.81
499.267	883.81
499.484	921.81
499.701	941.81
499.918	973.81
500.135	1014.81
500.352	1065.81
500.569	1078.81
500.786	1092.81
501.003	1061.81
501.22	1024.81
501.437	983.81
501.654	974.81
501.871	950.81
