Data from 1978.PennyLincolnUp.Lamp.En5.5.200Scan.071719.P1_HRD10591_16-14-35-864.txt Node
Date: Thu Jul 18 16:14:35 EDT 2019
User: cochatt
Spectrometer: HR+D1059
Trigger mode: 1
Integration Time (sec): 1.000000E-1
Scans to average: 1
Electric dark correction enabled: true
Nonlinearity correction enabled: false
Boxcar width: 0
XAxis mode: Wavelengths
Number of Pixels in Spectrum: 2048
>>>>>Begin Spectral Data<<<<<
223.165	-25.25
223.4	-25.25
223.635	-25.25
223.869	-24.25
224.104	-12.25
224.338	-4.25
224.573	-8.25
224.808	-16.25
225.042	7.75
225.277	-20.25
225.511	-13.25
225.746	20.75
225.98	7.75
226.215	8.75
226.449	14.75
226.683	18.75
226.918	14.75
227.152	30.75
227.387	35.75
227.621	44.75
227.856	30.75
228.09	37.75
228.324	35.75
228.559	55.75
228.793	58.75
229.027	99.75
229.262	110.75
229.496	118.75
229.73	120.75
229.964	159.75
230.199	123.75
230.433	98.75
230.667	116.75
230.901	116.75
231.136	108.75
231.37	108.75
231.604	110.75
231.838	125.75
232.072	105.75
232.306	117.75
232.541	124.75
232.775	125.75
233.009	90.75
233.243	97.75
233.477	125.75
233.711	124.75
233.945	123.75
234.179	113.75
234.413	108.75
234.647	103.75
234.881	115.75
235.115	110.75
235.349	117.75
235.583	117.75
235.817	118.75
236.051	120.75
236.285	131.75
236.519	134.75
236.753	121.75
236.987	143.75
237.221	174.75
237.455	230.75
237.689	192.75
237.922	135.75
238.156	129.75
238.39	133.75
238.624	117.75
238.858	138.75
239.091	116.75
239.325	107.75
239.559	122.75
239.793	122.75
240.027	135.75
240.26	141.75
240.494	151.75
240.728	128.75
240.961	144.75
241.195	142.75
241.429	145.75
241.662	129.75
241.896	130.75
242.13	129.75
242.363	115.75
242.597	124.75
242.83	145.75
243.064	139.75
243.298	136.75
243.531	145.75
243.765	138.75
243.998	129.75
244.232	131.75
244.465	129.75
244.699	139.75
244.932	143.75
245.166	136.75
245.399	158.75
245.633	136.75
245.866	143.75
246.099	148.75
246.333	139.75
246.566	139.75
246.8	136.75
247.033	153.75
247.266	152.75
247.5	152.75
247.733	145.75
247.966	168.75
248.2	153.75
248.433	160.75
248.666	154.75
248.899	167.75
249.133	196.75
249.366	195.75
249.599	198.75
249.832	164.75
250.066	171.75
250.299	168.75
250.532	164.75
250.765	180.75
250.998	192.75
251.231	215.75
251.465	207.75
251.698	186.75
251.931	199.75
252.164	196.75
252.397	193.75
252.63	188.75
252.863	193.75
253.096	205.75
253.329	202.75
253.562	219.75
253.795	206.75
254.028	203.75
254.261	196.75
254.494	202.75
254.727	240.75
254.96	250.75
255.193	263.75
255.426	236.75
255.659	227.75
255.892	204.75
256.124	212.75
256.357	231.75
256.59	219.75
256.823	221.75
257.056	210.75
257.289	186.75
257.521	198.75
257.754	193.75
257.987	194.75
258.22	201.75
258.452	183.75
258.685	186.75
258.918	206.75
259.151	191.75
259.383	198.75
259.616	209.75
259.849	201.75
260.081	223.75
260.314	227.75
260.547	258.75
260.779	231.75
261.012	230.75
261.244	202.75
261.477	185.75
261.71	217.75
261.942	215.75
262.175	210.75
262.407	227.75
262.64	202.75
262.872	207.75
263.105	196.75
263.337	214.75
263.57	204.75
263.802	194.75
264.035	216.75
264.267	211.75
264.499	200.75
264.732	200.75
264.964	207.75
265.197	209.75
265.429	222.75
265.661	187.75
265.894	208.75
266.126	221.75
266.358	224.75
266.591	206.75
266.823	217.75
267.055	227.75
267.287	230.75
267.52	216.75
267.752	243.75
267.984	229.75
268.216	233.75
268.448	223.75
268.681	223.75
268.913	241.75
269.145	248.75
269.377	265.75
269.609	261.75
269.841	266.75
270.073	254.75
270.306	279.75
270.538	311.75
270.77	293.75
271.002	268.75
271.234	297.75
271.466	276.75
271.698	309.75
271.93	306.75
272.162	314.75
272.394	305.75
272.626	285.75
272.858	287.75
273.09	255.75
273.322	278.75
273.553	265.75
273.785	252.75
274.017	253.75
274.249	268.75
274.481	259.75
274.713	268.75
274.945	254.75
275.176	264.75
275.408	266.75
275.64	257.75
275.872	250.75
276.104	255.75
276.335	267.75
276.567	256.75
276.799	263.75
277.031	285.75
277.262	301.75
277.494	300.75
277.726	282.75
277.957	288.75
278.189	280.75
278.421	257.75
278.652	258.75
278.884	250.75
279.115	274.75
279.347	253.75
279.579	266.75
279.81	281.75
280.042	273.75
280.273	257.75
280.505	249.75
280.736	266.75
280.968	263.75
281.199	280.75
281.431	250.75
281.662	256.75
281.894	258.75
282.125	269.75
282.356	280.75
282.588	299.75
282.819	300.75
283.051	270.75
283.282	264.75
283.513	267.75
283.745	264.75
283.976	271.75
284.207	288.75
284.439	274.75
284.67	288.75
284.901	286.75
285.132	256.75
285.364	261.75
285.595	279.75
285.826	278.75
286.057	271.75
286.288	259.75
286.52	273.75
286.751	279.75
286.982	288.75
287.213	284.75
287.444	290.75
287.675	294.75
287.906	278.75
288.138	295.75
288.369	289.75
288.6	306.75
288.831	286.75
289.062	293.75
289.293	280.75
289.524	290.75
289.755	282.75
289.986	268.75
290.217	284.75
290.448	277.75
290.679	293.75
290.91	303.75
291.141	286.75
291.371	283.75
291.602	283.75
291.833	271.75
292.064	282.75
292.295	292.75
292.526	299.75
292.757	282.75
292.987	306.75
293.218	296.75
293.449	302.75
293.68	295.75
293.91	302.75
294.141	310.75
294.372	279.75
294.603	289.75
294.833	287.75
295.064	293.75
295.295	298.75
295.525	305.75
295.756	289.75
295.987	286.75
296.217	303.75
296.448	328.75
296.679	310.75
296.909	287.75
297.14	290.75
297.37	294.75
297.601	297.75
297.831	299.75
298.062	292.75
298.292	305.75
298.523	300.75
298.753	318.75
298.984	299.75
299.214	310.75
299.445	322.75
299.675	311.75
299.905	312.75
300.136	304.75
300.366	300.75
300.597	324.75
300.827	331.75
301.057	313.75
301.288	314.75
301.518	325.75
301.748	320.75
301.979	332.75
302.209	331.75
302.439	330.75
302.669	311.75
302.9	324.75
303.13	328.75
303.36	330.75
303.59	343.75
303.82	330.75
304.051	335.75
304.281	329.75
304.511	315.75
304.741	328.75
304.971	321.75
305.201	325.75
305.431	327.75
305.661	330.75
305.891	304.75
306.121	318.75
306.352	306.75
306.582	346.75
306.812	324.75
307.042	327.75
307.272	329.75
307.502	343.75
307.731	338.75
307.961	332.75
308.191	339.75
308.421	340.75
308.651	332.75
308.881	327.75
309.111	333.75
309.341	330.75
309.571	358.75
309.8	358.75
310.03	370.75
310.26	354.75
310.49	356.75
310.72	372.75
310.949	386.75
311.179	371.75
311.409	388.75
311.639	370.75
311.868	361.75
312.098	371.75
312.328	383.75
312.557	377.75
312.787	398.75
313.017	399.75
313.246	391.75
313.476	382.75
313.706	375.75
313.935	366.75
314.165	399.75
314.394	399.75
314.624	404.75
314.853	393.75
315.083	376.75
315.312	362.75
315.542	360.75
315.771	369.75
316.001	400.75
316.23	354.75
316.46	369.75
316.689	370.75
316.919	382.75
317.148	379.75
317.377	372.75
317.607	376.75
317.836	409.75
318.065	392.75
318.295	375.75
318.524	376.75
318.753	376.75
318.983	385.75
319.212	377.75
319.441	373.75
319.67	382.75
319.9	374.75
320.129	376.75
320.358	388.75
320.587	371.75
320.816	399.75
321.046	414.75
321.275	414.75
321.504	405.75
321.733	397.75
321.962	399.75
322.191	408.75
322.42	431.75
322.649	444.75
322.878	446.75
323.108	451.75
323.337	499.75
323.566	483.75
323.795	522.75
324.024	563.75
324.253	716.75
324.482	1022.75
324.71	1654.75
324.939	2510.75
325.168	2143.75
325.397	1005.75
325.626	665.75
325.855	550.75
326.084	540.75
326.313	503.75
326.542	511.75
326.77	570.75
326.999	660.75
327.228	942.75
327.457	1482.75
327.686	1858.75
327.914	1189.75
328.143	716.75
328.372	653.75
328.6	600.75
328.829	569.75
329.058	582.75
329.287	584.75
329.515	550.75
329.744	517.75
329.972	502.75
330.201	526.75
330.43	552.75
330.658	598.75
330.887	602.75
331.115	579.75
331.344	514.75
331.572	499.75
331.801	482.75
332.03	491.75
332.258	492.75
332.486	481.75
332.715	451.75
332.943	466.75
333.172	461.75
333.4	474.75
333.629	481.75
333.857	475.75
334.085	485.75
334.314	487.75
334.542	571.75
334.771	551.75
334.999	525.75
335.227	490.75
335.455	459.75
335.684	476.75
335.912	455.75
336.14	461.75
336.369	449.75
336.597	463.75
336.825	474.75
337.053	468.75
337.281	471.75
337.51	456.75
337.738	446.75
337.966	441.75
338.194	460.75
338.422	462.75
338.65	440.75
338.878	449.75
339.106	454.75
339.334	450.75
339.562	431.75
339.79	436.75
340.018	441.75
340.246	438.75
340.474	447.75
340.702	419.75
340.93	441.75
341.158	449.75
341.386	436.75
341.614	436.75
341.842	427.75
342.07	427.75
342.298	437.75
342.526	431.75
342.754	431.75
342.981	433.75
343.209	420.75
343.437	411.75
343.665	434.75
343.893	456.75
344.12	459.75
344.348	447.75
344.576	448.75
344.804	452.75
345.031	456.75
345.259	463.75
345.487	435.75
345.714	450.75
345.942	443.75
346.17	455.75
346.397	422.75
346.625	422.75
346.853	393.75
347.08	409.75
347.308	415.75
347.535	432.75
347.763	428.75
347.99	420.75
348.218	421.75
348.445	442.75
348.673	455.75
348.9	427.75
349.128	424.75
349.355	419.75
349.583	421.75
349.81	407.75
350.037	427.75
350.265	423.75
350.492	413.75
350.72	413.75
350.947	409.75
351.174	434.75
351.402	447.75
351.629	406.75
351.856	424.75
352.083	437.75
352.311	433.75
352.538	438.75
352.765	438.75
352.992	423.75
353.22	442.75
353.447	450.75
353.674	419.75
353.901	397.75
354.128	419.75
354.355	401.75
354.583	420.75
354.81	417.75
355.037	402.75
355.264	399.75
355.491	399.75
355.718	387.75
355.945	389.75
356.172	406.75
356.399	417.75
356.626	393.75
356.853	388.75
357.08	392.75
357.307	404.75
357.534	409.75
357.761	416.75
357.988	407.75
358.215	401.75
358.441	408.75
358.668	388.75
358.895	421.75
359.122	420.75
359.349	421.75
359.576	438.75
359.802	459.75
360.029	475.75
360.256	484.75
360.483	472.75
360.709	436.75
360.936	434.75
361.163	424.75
361.39	444.75
361.616	419.75
361.843	421.75
362.07	437.75
362.296	443.75
362.523	436.75
362.749	407.75
362.976	426.75
363.203	422.75
363.429	400.75
363.656	421.75
363.882	421.75
364.109	431.75
364.335	438.75
364.562	400.75
364.788	412.75
365.015	421.75
365.241	407.75
365.468	407.75
365.694	417.75
365.92	436.75
366.147	422.75
366.373	416.75
366.599	406.75
366.826	435.75
367.052	431.75
367.278	431.75
367.505	399.75
367.731	407.75
367.957	391.75
368.184	436.75
368.41	416.75
368.636	430.75
368.862	438.75
369.089	439.75
369.315	420.75
369.541	423.75
369.767	410.75
369.993	420.75
370.219	400.75
370.445	401.75
370.672	415.75
370.898	418.75
371.124	428.75
371.35	415.75
371.576	416.75
371.802	403.75
372.028	434.75
372.254	421.75
372.48	406.75
372.706	406.75
372.932	424.75
373.158	404.75
373.384	441.75
373.61	442.75
373.835	416.75
374.061	436.75
374.287	423.75
374.513	432.75
374.739	419.75
374.965	444.75
375.191	426.75
375.416	439.75
375.642	408.75
375.868	452.75
376.094	433.75
376.319	414.75
376.545	441.75
376.771	436.75
376.997	404.75
377.222	424.75
377.448	432.75
377.674	421.75
377.899	415.75
378.125	411.75
378.35	416.75
378.576	426.75
378.802	429.75
379.027	423.75
379.253	415.75
379.478	444.75
379.704	416.75
379.929	420.75
380.155	410.75
380.38	436.75
380.606	427.75
380.831	424.75
381.057	433.75
381.282	425.75
381.507	432.75
381.733	456.75
381.958	423.75
382.184	431.75
382.409	428.75
382.634	448.75
382.86	434.75
383.085	451.75
383.31	416.75
383.535	452.75
383.761	443.75
383.986	447.75
384.211	458.75
384.436	451.75
384.662	450.75
384.887	470.75
385.112	450.75
385.337	447.75
385.562	467.75
385.787	446.75
386.013	461.75
386.238	458.75
386.463	476.75
386.688	463.75
386.913	463.75
387.138	492.75
387.363	475.75
387.588	465.75
387.813	458.75
388.038	486.75
388.263	470.75
388.488	467.75
388.713	456.75
388.938	477.75
389.163	478.75
389.387	490.75
389.612	471.75
389.837	467.75
390.062	472.75
390.287	474.75
390.512	464.75
390.736	478.75
390.961	496.75
391.186	480.75
391.411	482.75
391.636	479.75
391.86	477.75
392.085	504.75
392.31	512.75
392.534	497.75
392.759	499.75
392.984	482.75
393.208	472.75
393.433	488.75
393.658	494.75
393.882	476.75
394.107	502.75
394.331	518.75
394.556	481.75
394.78	500.75
395.005	477.75
395.229	466.75
395.454	501.75
395.678	499.75
395.903	497.75
396.127	542.75
396.352	531.75
396.576	494.75
396.801	500.75
397.025	498.75
397.249	507.75
397.474	499.75
397.698	496.75
397.922	533.75
398.147	543.75
398.371	538.75
398.595	527.75
398.82	533.75
399.044	545.75
399.268	575.75
399.492	619.75
399.717	634.75
399.941	648.75
400.165	675.75
400.389	687.75
400.613	632.75
400.837	584.75
401.062	568.75
401.286	569.75
401.51	550.75
401.734	542.75
401.958	552.75
402.182	580.75
402.406	562.75
402.63	562.75
402.854	588.75
403.078	552.75
403.302	587.75
403.526	569.75
403.75	578.75
403.974	556.75
404.198	576.75
404.422	588.75
404.645	579.75
404.869	591.75
405.093	600.75
405.317	658.75
405.541	692.75
405.765	631.75
405.988	622.75
406.212	631.75
406.436	626.75
406.66	634.75
406.883	607.75
407.107	654.75
407.331	680.75
407.555	755.75
407.778	772.75
408.002	697.75
408.226	648.75
408.449	649.75
408.673	636.75
408.896	653.75
409.12	723.75
409.344	683.75
409.567	623.75
409.791	610.75
410.014	580.75
410.238	578.75
410.461	579.75
410.685	569.75
410.908	583.75
411.132	624.75
411.355	691.75
411.578	650.75
411.802	616.75
412.025	595.75
412.249	577.75
412.472	627.75
412.695	667.75
412.919	633.75
413.142	568.75
413.365	568.75
413.589	555.75
413.812	552.75
414.035	567.75
414.258	549.75
414.482	546.75
414.705	546.75
414.928	561.75
415.151	556.75
415.374	539.75
415.597	551.75
415.821	526.75
416.044	537.75
416.267	532.75
416.49	543.75
416.713	532.75
416.936	536.75
417.159	545.75
417.382	534.75
417.605	570.75
417.828	563.75
418.051	576.75
418.274	561.75
418.497	524.75
418.72	564.75
418.943	531.75
419.166	583.75
419.389	584.75
419.611	603.75
419.834	578.75
420.057	566.75
420.28	572.75
420.503	583.75
420.726	556.75
420.948	565.75
421.171	627.75
421.394	638.75
421.617	568.75
421.839	560.75
422.062	575.75
422.285	580.75
422.507	624.75
422.73	741.75
422.953	704.75
423.175	628.75
423.398	607.75
423.621	598.75
423.843	594.75
424.066	597.75
424.288	604.75
424.511	624.75
424.733	690.75
424.956	784.75
425.178	754.75
425.401	725.75
425.623	778.75
425.846	654.75
426.068	606.75
426.291	576.75
426.513	595.75
426.735	619.75
426.958	671.75
427.18	741.75
427.402	898.75
427.625	1014.75
427.847	844.75
428.069	732.75
428.292	654.75
428.514	575.75
428.736	599.75
428.958	574.75
429.181	560.75
429.403	547.75
429.625	592.75
429.847	591.75
430.069	675.75
430.292	681.75
430.514	595.75
430.736	575.75
430.958	558.75
431.18	526.75
431.402	549.75
431.624	533.75
431.846	540.75
432.068	534.75
432.29	534.75
432.512	540.75
432.734	538.75
432.956	533.75
433.178	558.75
433.4	568.75
433.622	538.75
433.844	540.75
434.066	535.75
434.287	522.75
434.509	548.75
434.731	569.75
434.953	564.75
435.175	571.75
435.397	613.75
435.618	609.75
435.84	657.75
436.062	753.75
436.284	838.75
436.505	688.75
436.727	611.75
436.949	578.75
437.17	566.75
437.392	564.75
437.614	567.75
437.835	612.75
438.057	711.75
438.278	839.75
438.5	826.75
438.721	917.75
438.943	894.75
439.165	664.75
439.386	661.75
439.608	633.75
439.829	628.75
440.05	659.75
440.272	682.75
440.493	665.75
440.715	599.75
440.936	582.75
441.158	580.75
441.379	569.75
441.6	593.75
441.822	595.75
442.043	640.75
442.264	729.75
442.486	812.75
442.707	681.75
442.928	628.75
443.149	638.75
443.371	643.75
443.592	732.75
443.813	816.75
444.034	911.75
444.255	730.75
444.476	650.75
444.698	611.75
444.919	613.75
445.14	706.75
445.361	692.75
445.582	697.75
445.803	751.75
446.024	881.75
446.245	873.75
446.466	786.75
446.687	663.75
446.908	611.75
447.129	579.75
447.35	557.75
447.571	551.75
447.792	546.75
448.013	569.75
448.234	601.75
448.455	625.75
448.675	770.75
448.896	905.75
449.117	771.75
449.338	690.75
449.559	827.75
449.779	970.75
450	744.75
450.221	624.75
450.442	572.75
450.662	577.75
450.883	558.75
451.104	584.75
451.324	535.75
451.545	525.75
451.766	527.75
451.986	503.75
452.207	515.75
452.428	525.75
452.648	498.75
452.869	534.75
453.089	508.75
453.31	517.75
453.53	502.75
453.751	489.75
453.971	499.75
454.192	522.75
454.412	491.75
454.633	502.75
454.853	481.75
455.073	475.75
455.294	542.75
455.514	586.75
455.734	600.75
455.955	516.75
456.175	475.75
456.395	484.75
456.616	487.75
456.836	464.75
457.056	474.75
457.276	478.75
457.497	471.75
457.717	466.75
457.937	501.75
458.157	486.75
458.377	499.75
458.598	526.75
458.818	561.75
459.038	666.75
459.258	703.75
459.478	574.75
459.698	544.75
459.918	539.75
460.138	516.75
460.358	553.75
460.578	552.75
460.798	556.75
461.018	574.75
461.238	547.75
461.458	554.75
461.678	538.75
461.898	559.75
462.118	547.75
462.338	590.75
462.558	578.75
462.777	606.75
462.997	598.75
463.217	611.75
463.437	603.75
463.657	601.75
463.876	610.75
464.096	598.75
464.316	590.75
464.536	596.75
464.755	623.75
464.975	572.75
465.195	634.75
465.414	711.75
465.634	615.75
465.854	584.75
466.073	570.75
466.293	539.75
466.512	517.75
466.732	514.75
466.951	516.75
467.171	529.75
467.391	517.75
467.61	536.75
467.829	547.75
468.049	536.75
468.268	514.75
468.488	535.75
468.707	509.75
468.927	512.75
469.146	524.75
469.365	520.75
469.585	513.75
469.804	496.75
470.023	540.75
470.243	530.75
470.462	543.75
470.681	535.75
470.901	532.75
471.12	544.75
471.339	535.75
471.558	544.75
471.777	528.75
471.997	558.75
472.216	523.75
472.435	574.75
472.654	544.75
472.873	542.75
473.092	552.75
473.311	550.75
473.53	533.75
473.749	550.75
473.968	567.75
474.187	698.75
474.406	686.75
474.625	599.75
474.844	543.75
475.063	535.75
475.282	538.75
475.501	535.75
475.72	531.75
475.939	524.75
476.158	523.75
476.377	548.75
476.596	549.75
476.814	540.75
477.033	555.75
477.252	560.75
477.471	563.75
477.69	543.75
477.908	584.75
478.127	569.75
478.346	615.75
478.564	597.75
478.783	594.75
479.002	616.75
479.22	619.75
479.439	616.75
479.658	626.75
479.876	658.75
480.095	649.75
480.313	652.75
480.532	650.75
480.751	645.75
480.969	661.75
481.188	713.75
481.406	741.75
481.624	671.75
481.843	612.75
482.061	632.75
482.28	631.75
482.498	611.75
482.717	629.75
482.935	642.75
483.153	611.75
483.372	626.75
483.59	624.75
483.808	635.75
484.027	609.75
484.245	620.75
484.463	604.75
484.681	630.75
484.9	636.75
485.118	638.75
485.336	639.75
485.554	626.75
485.772	645.75
485.99	660.75
486.209	634.75
486.427	644.75
486.645	653.75
486.863	651.75
487.081	674.75
487.299	668.75
487.517	674.75
487.735	648.75
487.953	630.75
488.171	648.75
488.389	668.75
488.607	666.75
488.825	669.75
489.043	634.75
489.261	670.75
489.479	672.75
489.696	673.75
489.914	674.75
490.132	688.75
490.35	682.75
490.568	672.75
490.786	674.75
491.003	681.75
491.221	736.75
491.439	699.75
491.657	714.75
491.874	764.75
492.092	726.75
492.31	729.75
492.527	731.75
492.745	739.75
492.963	760.75
493.18	770.75
493.398	761.75
493.615	775.75
493.833	757.75
494.05	766.75
494.268	762.75
494.485	770.75
494.703	770.75
494.92	766.75
495.138	755.75
495.355	750.75
495.573	775.75
495.79	802.75
496.008	785.75
496.225	773.75
496.442	768.75
496.66	783.75
496.877	815.75
497.094	810.75
497.312	798.75
497.529	810.75
497.746	790.75
497.963	826.75
498.181	859.75
498.398	899.75
498.615	898.75
498.832	895.75
499.049	897.75
499.267	957.75
499.484	959.75
499.701	991.75
499.918	1047.75
500.135	1082.75
500.352	1113.75
500.569	1158.75
500.786	1148.75
501.003	1107.75
501.22	1084.75
501.437	1030.75
501.654	1035.75
501.871	1035.75
