Data from 1978.PennyLincolnUp.Lamp.En5.5.200Scan.071719.P1_HRD10591_16-14-41-864.txt Node
Date: Thu Jul 18 16:14:41 EDT 2019
User: cochatt
Spectrometer: HR+D1059
Trigger mode: 1
Integration Time (sec): 1.000000E-1
Scans to average: 1
Electric dark correction enabled: true
Nonlinearity correction enabled: false
Boxcar width: 0
XAxis mode: Wavelengths
Number of Pixels in Spectrum: 2048
>>>>>Begin Spectral Data<<<<<
223.165	-22.69
223.4	-22.69
223.635	-22.69
223.869	-23.69
224.104	-11.69
224.338	-13.69
224.573	-1.69
224.808	-22.69
225.042	-3.69
225.277	-1.69
225.511	-8.69
225.746	-8.69
225.98	17.31
226.215	12.31
226.449	7.31
226.683	16.31
226.918	32.31
227.152	33.31
227.387	23.31
227.621	44.31
227.856	27.31
228.09	40.31
228.324	45.31
228.559	35.31
228.793	60.31
229.027	105.31
229.262	104.31
229.496	121.31
229.73	126.31
229.964	141.31
230.199	132.31
230.433	107.31
230.667	104.31
230.901	107.31
231.136	117.31
231.37	92.31
231.604	109.31
231.838	120.31
232.072	114.31
232.306	118.31
232.541	110.31
232.775	101.31
233.009	125.31
233.243	109.31
233.477	114.31
233.711	114.31
233.945	117.31
234.179	129.31
234.413	109.31
234.647	117.31
234.881	112.31
235.115	120.31
235.349	116.31
235.583	119.31
235.817	121.31
236.051	124.31
236.285	131.31
236.519	112.31
236.753	111.31
236.987	130.31
237.221	181.31
237.455	244.31
237.689	183.31
237.922	130.31
238.156	126.31
238.39	147.31
238.624	134.31
238.858	134.31
239.091	133.31
239.325	123.31
239.559	126.31
239.793	119.31
240.027	130.31
240.26	142.31
240.494	143.31
240.728	124.31
240.961	146.31
241.195	146.31
241.429	134.31
241.662	129.31
241.896	128.31
242.13	118.31
242.363	143.31
242.597	128.31
242.83	142.31
243.064	132.31
243.298	140.31
243.531	130.31
243.765	125.31
243.998	132.31
244.232	132.31
244.465	140.31
244.699	144.31
244.932	140.31
245.166	139.31
245.399	137.31
245.633	142.31
245.866	158.31
246.099	136.31
246.333	138.31
246.566	153.31
246.8	154.31
247.033	148.31
247.266	158.31
247.5	146.31
247.733	173.31
247.966	153.31
248.2	171.31
248.433	171.31
248.666	171.31
248.899	186.31
249.133	192.31
249.366	196.31
249.599	197.31
249.832	178.31
250.066	163.31
250.299	177.31
250.532	182.31
250.765	194.31
250.998	213.31
251.231	213.31
251.465	207.31
251.698	216.31
251.931	198.31
252.164	190.31
252.397	196.31
252.63	201.31
252.863	201.31
253.096	204.31
253.329	205.31
253.562	204.31
253.795	217.31
254.028	212.31
254.261	184.31
254.494	236.31
254.727	227.31
254.96	251.31
255.193	244.31
255.426	206.31
255.659	203.31
255.892	210.31
256.124	201.31
256.357	211.31
256.59	197.31
256.823	207.31
257.056	200.31
257.289	197.31
257.521	199.31
257.754	194.31
257.987	184.31
258.22	201.31
258.452	199.31
258.685	197.31
258.918	198.31
259.151	215.31
259.383	205.31
259.616	224.31
259.849	212.31
260.081	224.31
260.314	243.31
260.547	235.31
260.779	220.31
261.012	227.31
261.244	216.31
261.477	222.31
261.71	220.31
261.942	218.31
262.175	217.31
262.407	216.31
262.64	219.31
262.872	221.31
263.105	204.31
263.337	204.31
263.57	191.31
263.802	211.31
264.035	212.31
264.267	235.31
264.499	192.31
264.732	216.31
264.964	213.31
265.197	205.31
265.429	228.31
265.661	206.31
265.894	211.31
266.126	216.31
266.358	209.31
266.591	196.31
266.823	216.31
267.055	215.31
267.287	213.31
267.52	231.31
267.752	226.31
267.984	232.31
268.216	217.31
268.448	235.31
268.681	229.31
268.913	240.31
269.145	248.31
269.377	266.31
269.609	262.31
269.841	263.31
270.073	263.31
270.306	276.31
270.538	293.31
270.77	292.31
271.002	285.31
271.234	284.31
271.466	277.31
271.698	306.31
271.93	306.31
272.162	306.31
272.394	281.31
272.626	282.31
272.858	267.31
273.09	260.31
273.322	265.31
273.553	261.31
273.785	262.31
274.017	244.31
274.249	265.31
274.481	253.31
274.713	242.31
274.945	273.31
275.176	245.31
275.408	245.31
275.64	242.31
275.872	247.31
276.104	268.31
276.335	254.31
276.567	253.31
276.799	290.31
277.031	295.31
277.262	281.31
277.494	310.31
277.726	294.31
277.957	279.31
278.189	256.31
278.421	264.31
278.652	259.31
278.884	284.31
279.115	244.31
279.347	255.31
279.579	260.31
279.81	255.31
280.042	269.31
280.273	247.31
280.505	254.31
280.736	248.31
280.968	250.31
281.199	242.31
281.431	262.31
281.662	264.31
281.894	256.31
282.125	266.31
282.356	289.31
282.588	306.31
282.819	316.31
283.051	276.31
283.282	274.31
283.513	261.31
283.745	274.31
283.976	279.31
284.207	266.31
284.439	272.31
284.67	273.31
284.901	284.31
285.132	274.31
285.364	266.31
285.595	269.31
285.826	270.31
286.057	264.31
286.288	270.31
286.52	294.31
286.751	276.31
286.982	286.31
287.213	279.31
287.444	278.31
287.675	285.31
287.906	277.31
288.138	300.31
288.369	298.31
288.6	294.31
288.831	302.31
289.062	289.31
289.293	284.31
289.524	293.31
289.755	281.31
289.986	305.31
290.217	284.31
290.448	294.31
290.679	297.31
290.91	264.31
291.141	285.31
291.371	295.31
291.602	298.31
291.833	271.31
292.064	269.31
292.295	278.31
292.526	284.31
292.757	299.31
292.987	310.31
293.218	284.31
293.449	282.31
293.68	279.31
293.91	285.31
294.141	271.31
294.372	297.31
294.603	316.31
294.833	302.31
295.064	296.31
295.295	298.31
295.525	285.31
295.756	306.31
295.987	312.31
296.217	306.31
296.448	324.31
296.679	312.31
296.909	295.31
297.14	319.31
297.37	292.31
297.601	308.31
297.831	298.31
298.062	298.31
298.292	302.31
298.523	309.31
298.753	334.31
298.984	327.31
299.214	316.31
299.445	291.31
299.675	322.31
299.905	317.31
300.136	317.31
300.366	308.31
300.597	332.31
300.827	322.31
301.057	297.31
301.288	330.31
301.518	346.31
301.748	320.31
301.979	326.31
302.209	319.31
302.439	341.31
302.669	320.31
302.9	315.31
303.13	327.31
303.36	328.31
303.59	328.31
303.82	331.31
304.051	324.31
304.281	319.31
304.511	312.31
304.741	320.31
304.971	327.31
305.201	332.31
305.431	312.31
305.661	344.31
305.891	308.31
306.121	341.31
306.352	353.31
306.582	340.31
306.812	335.31
307.042	331.31
307.272	324.31
307.502	316.31
307.731	315.31
307.961	323.31
308.191	343.31
308.421	319.31
308.651	333.31
308.881	336.31
309.111	340.31
309.341	339.31
309.571	348.31
309.8	355.31
310.03	349.31
310.26	362.31
310.49	358.31
310.72	362.31
310.949	379.31
311.179	388.31
311.409	349.31
311.639	396.31
311.868	374.31
312.098	373.31
312.328	377.31
312.557	413.31
312.787	405.31
313.017	398.31
313.246	379.31
313.476	366.31
313.706	372.31
313.935	362.31
314.165	390.31
314.394	408.31
314.624	398.31
314.853	394.31
315.083	382.31
315.312	373.31
315.542	370.31
315.771	370.31
316.001	378.31
316.23	378.31
316.46	385.31
316.689	371.31
316.919	379.31
317.148	389.31
317.377	406.31
317.607	382.31
317.836	383.31
318.065	376.31
318.295	373.31
318.524	364.31
318.753	382.31
318.983	375.31
319.212	367.31
319.441	372.31
319.67	378.31
319.9	365.31
320.129	392.31
320.358	390.31
320.587	362.31
320.816	384.31
321.046	406.31
321.275	395.31
321.504	388.31
321.733	380.31
321.962	396.31
322.191	420.31
322.42	429.31
322.649	446.31
322.878	458.31
323.108	454.31
323.337	478.31
323.566	501.31
323.795	556.31
324.024	576.31
324.253	694.31
324.482	1006.31
324.71	1561.31
324.939	2455.31
325.168	2128.31
325.397	1021.31
325.626	671.31
325.855	564.31
326.084	520.31
326.313	494.31
326.542	480.31
326.77	570.31
326.999	664.31
327.228	904.31
327.457	1456.31
327.686	1830.31
327.914	1147.31
328.143	715.31
328.372	634.31
328.6	580.31
328.829	560.31
329.058	577.31
329.287	601.31
329.515	540.31
329.744	498.31
329.972	504.31
330.201	518.31
330.43	546.31
330.658	577.31
330.887	613.31
331.115	607.31
331.344	516.31
331.572	488.31
331.801	504.31
332.03	497.31
332.258	470.31
332.486	461.31
332.715	443.31
332.943	452.31
333.172	459.31
333.4	472.31
333.629	468.31
333.857	470.31
334.085	520.31
334.314	506.31
334.542	565.31
334.771	539.31
334.999	513.31
335.227	472.31
335.455	459.31
335.684	473.31
335.912	470.31
336.14	452.31
336.369	457.31
336.597	464.31
336.825	463.31
337.053	457.31
337.281	455.31
337.51	441.31
337.738	447.31
337.966	439.31
338.194	451.31
338.422	444.31
338.65	458.31
338.878	459.31
339.106	446.31
339.334	424.31
339.562	442.31
339.79	446.31
340.018	421.31
340.246	430.31
340.474	444.31
340.702	450.31
340.93	451.31
341.158	436.31
341.386	427.31
341.614	458.31
341.842	456.31
342.07	440.31
342.298	441.31
342.526	425.31
342.754	424.31
342.981	420.31
343.209	402.31
343.437	426.31
343.665	427.31
343.893	428.31
344.12	428.31
344.348	444.31
344.576	447.31
344.804	455.31
345.031	455.31
345.259	477.31
345.487	458.31
345.714	453.31
345.942	424.31
346.17	426.31
346.397	421.31
346.625	428.31
346.853	411.31
347.08	439.31
347.308	427.31
347.535	418.31
347.763	453.31
347.99	424.31
348.218	438.31
348.445	452.31
348.673	441.31
348.9	429.31
349.128	423.31
349.355	406.31
349.583	409.31
349.81	407.31
350.037	400.31
350.265	410.31
350.492	420.31
350.72	407.31
350.947	400.31
351.174	426.31
351.402	421.31
351.629	436.31
351.856	450.31
352.083	443.31
352.311	440.31
352.538	444.31
352.765	427.31
352.992	438.31
353.22	437.31
353.447	425.31
353.674	424.31
353.901	417.31
354.128	395.31
354.355	413.31
354.583	413.31
354.81	399.31
355.037	395.31
355.264	402.31
355.491	413.31
355.718	397.31
355.945	416.31
356.172	394.31
356.399	394.31
356.626	403.31
356.853	412.31
357.08	407.31
357.307	392.31
357.534	410.31
357.761	390.31
357.988	396.31
358.215	401.31
358.441	405.31
358.668	403.31
358.895	404.31
359.122	392.31
359.349	399.31
359.576	449.31
359.802	456.31
360.029	470.31
360.256	472.31
360.483	465.31
360.709	436.31
360.936	426.31
361.163	419.31
361.39	435.31
361.616	444.31
361.843	416.31
362.07	438.31
362.296	412.31
362.523	413.31
362.749	432.31
362.976	431.31
363.203	418.31
363.429	408.31
363.656	410.31
363.882	418.31
364.109	421.31
364.335	413.31
364.562	401.31
364.788	410.31
365.015	437.31
365.241	420.31
365.468	413.31
365.694	427.31
365.92	404.31
366.147	416.31
366.373	403.31
366.599	410.31
366.826	419.31
367.052	413.31
367.278	418.31
367.505	418.31
367.731	413.31
367.957	412.31
368.184	411.31
368.41	423.31
368.636	426.31
368.862	432.31
369.089	431.31
369.315	433.31
369.541	428.31
369.767	425.31
369.993	417.31
370.219	411.31
370.445	418.31
370.672	412.31
370.898	406.31
371.124	408.31
371.35	417.31
371.576	424.31
371.802	424.31
372.028	405.31
372.254	410.31
372.48	424.31
372.706	423.31
372.932	434.31
373.158	440.31
373.384	404.31
373.61	414.31
373.835	423.31
374.061	422.31
374.287	441.31
374.513	418.31
374.739	440.31
374.965	429.31
375.191	418.31
375.416	438.31
375.642	443.31
375.868	425.31
376.094	425.31
376.319	430.31
376.545	437.31
376.771	419.31
376.997	412.31
377.222	418.31
377.448	399.31
377.674	398.31
377.899	416.31
378.125	406.31
378.35	406.31
378.576	417.31
378.802	436.31
379.027	395.31
379.253	426.31
379.478	429.31
379.704	422.31
379.929	416.31
380.155	420.31
380.38	434.31
380.606	436.31
380.831	423.31
381.057	433.31
381.282	407.31
381.507	409.31
381.733	423.31
381.958	435.31
382.184	431.31
382.409	423.31
382.634	440.31
382.86	434.31
383.085	436.31
383.31	421.31
383.535	432.31
383.761	445.31
383.986	450.31
384.211	438.31
384.436	441.31
384.662	454.31
384.887	446.31
385.112	453.31
385.337	475.31
385.562	467.31
385.787	474.31
386.013	475.31
386.238	462.31
386.463	462.31
386.688	453.31
386.913	445.31
387.138	481.31
387.363	466.31
387.588	472.31
387.813	467.31
388.038	462.31
388.263	476.31
388.488	483.31
388.713	457.31
388.938	468.31
389.163	487.31
389.387	477.31
389.612	475.31
389.837	473.31
390.062	476.31
390.287	451.31
390.512	465.31
390.736	468.31
390.961	487.31
391.186	477.31
391.411	468.31
391.636	496.31
391.86	480.31
392.085	487.31
392.31	491.31
392.534	488.31
392.759	490.31
392.984	482.31
393.208	458.31
393.433	460.31
393.658	473.31
393.882	464.31
394.107	485.31
394.331	473.31
394.556	476.31
394.78	476.31
395.005	484.31
395.229	483.31
395.454	504.31
395.678	493.31
395.903	483.31
396.127	544.31
396.352	518.31
396.576	490.31
396.801	518.31
397.025	500.31
397.249	506.31
397.474	512.31
397.698	498.31
397.922	506.31
398.147	535.31
398.371	548.31
398.595	536.31
398.82	544.31
399.044	539.31
399.268	560.31
399.492	618.31
399.717	609.31
399.941	640.31
400.165	698.31
400.389	695.31
400.613	637.31
400.837	608.31
401.062	570.31
401.286	540.31
401.51	545.31
401.734	555.31
401.958	561.31
402.182	550.31
402.406	565.31
402.63	568.31
402.854	561.31
403.078	574.31
403.302	558.31
403.526	555.31
403.75	569.31
403.974	570.31
404.198	562.31
404.422	566.31
404.645	576.31
404.869	564.31
405.093	601.31
405.317	632.31
405.541	693.31
405.765	639.31
405.988	579.31
406.212	618.31
406.436	610.31
406.66	644.31
406.883	612.31
407.107	636.31
407.331	711.31
407.555	758.31
407.778	774.31
408.002	691.31
408.226	652.31
408.449	643.31
408.673	629.31
408.896	652.31
409.12	696.31
409.344	687.31
409.567	626.31
409.791	587.31
410.014	572.31
410.238	582.31
410.461	573.31
410.685	594.31
410.908	585.31
411.132	612.31
411.355	694.31
411.578	643.31
411.802	579.31
412.025	556.31
412.249	577.31
412.472	602.31
412.695	660.31
412.919	653.31
413.142	588.31
413.365	574.31
413.589	582.31
413.812	570.31
414.035	551.31
414.258	529.31
414.482	541.31
414.705	553.31
414.928	552.31
415.151	539.31
415.374	542.31
415.597	539.31
415.821	544.31
416.044	540.31
416.267	555.31
416.49	555.31
416.713	542.31
416.936	535.31
417.159	528.31
417.382	557.31
417.605	536.31
417.828	557.31
418.051	557.31
418.274	565.31
418.497	545.31
418.72	521.31
418.943	532.31
419.166	562.31
419.389	588.31
419.611	600.31
419.834	590.31
420.057	582.31
420.28	578.31
420.503	570.31
420.726	562.31
420.948	581.31
421.171	622.31
421.394	653.31
421.617	583.31
421.839	582.31
422.062	561.31
422.285	595.31
422.507	664.31
422.73	728.31
422.953	704.31
423.175	621.31
423.398	601.31
423.621	590.31
423.843	627.31
424.066	608.31
424.288	616.31
424.511	610.31
424.733	693.31
424.956	808.31
425.178	741.31
425.401	738.31
425.623	773.31
425.846	644.31
426.068	584.31
426.291	608.31
426.513	579.31
426.735	585.31
426.958	637.31
427.18	725.31
427.402	912.31
427.625	1013.31
427.847	840.31
428.069	740.31
428.292	667.31
428.514	592.31
428.736	558.31
428.958	564.31
429.181	564.31
429.403	570.31
429.625	566.31
429.847	588.31
430.069	681.31
430.292	675.31
430.514	594.31
430.736	571.31
430.958	529.31
431.18	538.31
431.402	537.31
431.624	529.31
431.846	537.31
432.068	560.31
432.29	545.31
432.512	541.31
432.734	537.31
432.956	561.31
433.178	550.31
433.4	548.31
433.622	540.31
433.844	563.31
434.066	536.31
434.287	533.31
434.509	547.31
434.731	542.31
434.953	556.31
435.175	570.31
435.397	590.31
435.618	569.31
435.84	637.31
436.062	747.31
436.284	830.31
436.505	694.31
436.727	616.31
436.949	573.31
437.17	560.31
437.392	580.31
437.614	582.31
437.835	612.31
438.057	710.31
438.278	839.31
438.5	845.31
438.721	935.31
438.943	898.31
439.165	696.31
439.386	633.31
439.608	604.31
439.829	598.31
440.05	618.31
440.272	718.31
440.493	656.31
440.715	604.31
440.936	589.31
441.158	566.31
441.379	583.31
441.6	608.31
441.822	588.31
442.043	654.31
442.264	770.31
442.486	761.31
442.707	648.31
442.928	644.31
443.149	645.31
443.371	669.31
443.592	722.31
443.813	818.31
444.034	884.31
444.255	731.31
444.476	639.31
444.698	618.31
444.919	601.31
445.14	690.31
445.361	671.31
445.582	654.31
445.803	738.31
446.024	888.31
446.245	869.31
446.466	809.31
446.687	672.31
446.908	620.31
447.129	583.31
447.35	560.31
447.571	594.31
447.792	550.31
448.013	564.31
448.234	574.31
448.455	634.31
448.675	798.31
448.896	902.31
449.117	758.31
449.338	694.31
449.559	849.31
449.779	952.31
450	758.31
450.221	596.31
450.442	574.31
450.662	553.31
450.883	547.31
451.104	567.31
451.324	545.31
451.545	532.31
451.766	532.31
451.986	520.31
452.207	504.31
452.428	486.31
452.648	504.31
452.869	500.31
453.089	521.31
453.31	517.31
453.53	511.31
453.751	487.31
453.971	508.31
454.192	554.31
454.412	538.31
454.633	490.31
454.853	507.31
455.073	499.31
455.294	521.31
455.514	605.31
455.734	594.31
455.955	527.31
456.175	485.31
456.395	478.31
456.616	462.31
456.836	492.31
457.056	472.31
457.276	469.31
457.497	483.31
457.717	471.31
457.937	484.31
458.157	494.31
458.377	484.31
458.598	506.31
458.818	565.31
459.038	662.31
459.258	694.31
459.478	598.31
459.698	545.31
459.918	548.31
460.138	530.31
460.358	546.31
460.578	545.31
460.798	541.31
461.018	567.31
461.238	570.31
461.458	547.31
461.678	544.31
461.898	562.31
462.118	547.31
462.338	551.31
462.558	581.31
462.777	580.31
462.997	615.31
463.217	600.31
463.437	614.31
463.657	583.31
463.876	566.31
464.096	598.31
464.316	588.31
464.536	597.31
464.755	584.31
464.975	596.31
465.195	641.31
465.414	695.31
465.634	638.31
465.854	600.31
466.073	566.31
466.293	540.31
466.512	531.31
466.732	520.31
466.951	524.31
467.171	517.31
467.391	513.31
467.61	532.31
467.829	556.31
468.049	537.31
468.268	499.31
468.488	514.31
468.707	504.31
468.927	530.31
469.146	483.31
469.365	494.31
469.585	505.31
469.804	500.31
470.023	526.31
470.243	532.31
470.462	530.31
470.681	562.31
470.901	552.31
471.12	532.31
471.339	529.31
471.558	516.31
471.777	530.31
471.997	515.31
472.216	550.31
472.435	558.31
472.654	557.31
472.873	525.31
473.092	514.31
473.311	530.31
473.53	508.31
473.749	520.31
473.968	571.31
474.187	692.31
474.406	729.31
474.625	591.31
474.844	534.31
475.063	526.31
475.282	506.31
475.501	540.31
475.72	552.31
475.939	557.31
476.158	549.31
476.377	561.31
476.596	547.31
476.814	545.31
477.033	556.31
477.252	564.31
477.471	569.31
477.69	576.31
477.908	576.31
478.127	594.31
478.346	547.31
478.564	576.31
478.783	579.31
479.002	603.31
479.22	615.31
479.439	611.31
479.658	649.31
479.876	646.31
480.095	621.31
480.313	682.31
480.532	654.31
480.751	659.31
480.969	653.31
481.188	685.31
481.406	720.31
481.624	694.31
481.843	646.31
482.061	658.31
482.28	640.31
482.498	622.31
482.717	620.31
482.935	631.31
483.153	618.31
483.372	617.31
483.59	632.31
483.808	620.31
484.027	618.31
484.245	630.31
484.463	615.31
484.681	631.31
484.9	660.31
485.118	648.31
485.336	630.31
485.554	630.31
485.772	633.31
485.99	642.31
486.209	657.31
486.427	644.31
486.645	680.31
486.863	674.31
487.081	668.31
487.299	656.31
487.517	655.31
487.735	636.31
487.953	674.31
488.171	679.31
488.389	660.31
488.607	682.31
488.825	657.31
489.043	663.31
489.261	668.31
489.479	641.31
489.696	666.31
489.914	667.31
490.132	673.31
490.35	696.31
490.568	690.31
490.786	696.31
491.003	690.31
491.221	734.31
491.439	728.31
491.657	723.31
491.874	723.31
492.092	732.31
492.31	728.31
492.527	744.31
492.745	766.31
492.963	749.31
493.18	737.31
493.398	732.31
493.615	739.31
493.833	740.31
494.05	756.31
494.268	757.31
494.485	748.31
494.703	754.31
494.92	764.31
495.138	780.31
495.355	769.31
495.573	786.31
495.79	769.31
496.008	793.31
496.225	789.31
496.442	772.31
496.66	791.31
496.877	755.31
497.094	791.31
497.312	803.31
497.529	812.31
497.746	835.31
497.963	837.31
498.181	840.31
498.398	864.31
498.615	871.31
498.832	900.31
499.049	914.31
499.267	916.31
499.484	972.31
499.701	972.31
499.918	999.31
500.135	1067.31
500.352	1102.31
500.569	1119.31
500.786	1145.31
501.003	1080.31
501.22	1097.31
501.437	1065.31
501.654	1055.31
501.871	1008.31
