Data from 1978.PennyLincolnUp.Lamp.En5.5.200Scan.071719.P1_HRD10591_16-13-32-863.txt Node
Date: Thu Jul 18 16:13:32 EDT 2019
User: cochatt
Spectrometer: HR+D1059
Trigger mode: 1
Integration Time (sec): 1.000000E-1
Scans to average: 1
Electric dark correction enabled: true
Nonlinearity correction enabled: false
Boxcar width: 0
XAxis mode: Wavelengths
Number of Pixels in Spectrum: 2048
>>>>>Begin Spectral Data<<<<<
223.165	-22.38
223.4	-22.38
223.635	-22.38
223.869	-23.38
224.104	-18.38
224.338	-23.38
224.573	-1.38
224.808	-20.38
225.042	-10.38
225.277	-21.38
225.511	4.62
225.746	1.62
225.98	14.62
226.215	1.62
226.449	24.62
226.683	25.62
226.918	28.62
227.152	39.62
227.387	39.62
227.621	36.62
227.856	60.62
228.09	43.62
228.324	46.62
228.559	58.62
228.793	71.62
229.027	99.62
229.262	107.62
229.496	105.62
229.73	128.62
229.964	154.62
230.199	134.62
230.433	130.62
230.667	103.62
230.901	116.62
231.136	116.62
231.37	105.62
231.604	114.62
231.838	117.62
232.072	100.62
232.306	93.62
232.541	106.62
232.775	121.62
233.009	121.62
233.243	112.62
233.477	121.62
233.711	124.62
233.945	116.62
234.179	107.62
234.413	116.62
234.647	106.62
234.881	100.62
235.115	112.62
235.349	123.62
235.583	117.62
235.817	108.62
236.051	128.62
236.285	147.62
236.519	116.62
236.753	132.62
236.987	137.62
237.221	166.62
237.455	229.62
237.689	176.62
237.922	138.62
238.156	119.62
238.39	126.62
238.624	128.62
238.858	119.62
239.091	115.62
239.325	133.62
239.559	119.62
239.793	99.62
240.027	122.62
240.26	162.62
240.494	157.62
240.728	141.62
240.961	147.62
241.195	126.62
241.429	141.62
241.662	128.62
241.896	136.62
242.13	131.62
242.363	131.62
242.597	121.62
242.83	140.62
243.064	130.62
243.298	145.62
243.531	126.62
243.765	153.62
243.998	140.62
244.232	137.62
244.465	136.62
244.699	131.62
244.932	148.62
245.166	137.62
245.399	130.62
245.633	137.62
245.866	137.62
246.099	144.62
246.333	156.62
246.566	140.62
246.8	139.62
247.033	148.62
247.266	160.62
247.5	160.62
247.733	163.62
247.966	160.62
248.2	161.62
248.433	158.62
248.666	160.62
248.899	165.62
249.133	176.62
249.366	203.62
249.599	187.62
249.832	177.62
250.066	173.62
250.299	172.62
250.532	172.62
250.765	183.62
250.998	191.62
251.231	221.62
251.465	199.62
251.698	189.62
251.931	181.62
252.164	192.62
252.397	183.62
252.63	193.62
252.863	199.62
253.096	204.62
253.329	185.62
253.562	212.62
253.795	199.62
254.028	209.62
254.261	202.62
254.494	230.62
254.727	233.62
254.96	248.62
255.193	244.62
255.426	227.62
255.659	203.62
255.892	214.62
256.124	209.62
256.357	212.62
256.59	200.62
256.823	193.62
257.056	218.62
257.289	191.62
257.521	203.62
257.754	197.62
257.987	185.62
258.22	182.62
258.452	186.62
258.685	194.62
258.918	206.62
259.151	201.62
259.383	201.62
259.616	198.62
259.849	206.62
260.081	216.62
260.314	234.62
260.547	226.62
260.779	221.62
261.012	209.62
261.244	212.62
261.477	211.62
261.71	200.62
261.942	222.62
262.175	220.62
262.407	212.62
262.64	226.62
262.872	209.62
263.105	202.62
263.337	189.62
263.57	204.62
263.802	201.62
264.035	200.62
264.267	199.62
264.499	204.62
264.732	214.62
264.964	197.62
265.197	186.62
265.429	196.62
265.661	204.62
265.894	202.62
266.126	209.62
266.358	209.62
266.591	220.62
266.823	197.62
267.055	205.62
267.287	218.62
267.52	218.62
267.752	228.62
267.984	240.62
268.216	218.62
268.448	219.62
268.681	227.62
268.913	231.62
269.145	249.62
269.377	266.62
269.609	257.62
269.841	247.62
270.073	251.62
270.306	272.62
270.538	290.62
270.77	295.62
271.002	286.62
271.234	274.62
271.466	280.62
271.698	280.62
271.93	295.62
272.162	289.62
272.394	298.62
272.626	283.62
272.858	272.62
273.09	258.62
273.322	260.62
273.553	251.62
273.785	256.62
274.017	249.62
274.249	241.62
274.481	254.62
274.713	242.62
274.945	260.62
275.176	271.62
275.408	258.62
275.64	235.62
275.872	237.62
276.104	269.62
276.335	254.62
276.567	264.62
276.799	263.62
277.031	287.62
277.262	312.62
277.494	295.62
277.726	279.62
277.957	273.62
278.189	270.62
278.421	248.62
278.652	260.62
278.884	262.62
279.115	257.62
279.347	266.62
279.579	250.62
279.81	240.62
280.042	259.62
280.273	253.62
280.505	286.62
280.736	262.62
280.968	266.62
281.199	240.62
281.431	260.62
281.662	253.62
281.894	266.62
282.125	262.62
282.356	287.62
282.588	281.62
282.819	293.62
283.051	248.62
283.282	261.62
283.513	283.62
283.745	245.62
283.976	269.62
284.207	264.62
284.439	244.62
284.67	262.62
284.901	262.62
285.132	273.62
285.364	262.62
285.595	259.62
285.826	275.62
286.057	261.62
286.288	235.62
286.52	266.62
286.751	258.62
286.982	280.62
287.213	252.62
287.444	267.62
287.675	270.62
287.906	282.62
288.138	280.62
288.369	283.62
288.6	285.62
288.831	278.62
289.062	283.62
289.293	266.62
289.524	279.62
289.755	264.62
289.986	278.62
290.217	301.62
290.448	268.62
290.679	299.62
290.91	288.62
291.141	273.62
291.371	274.62
291.602	260.62
291.833	281.62
292.064	276.62
292.295	284.62
292.526	279.62
292.757	284.62
292.987	281.62
293.218	271.62
293.449	285.62
293.68	278.62
293.91	283.62
294.141	295.62
294.372	264.62
294.603	293.62
294.833	283.62
295.064	291.62
295.295	278.62
295.525	294.62
295.756	278.62
295.987	307.62
296.217	311.62
296.448	322.62
296.679	309.62
296.909	288.62
297.14	294.62
297.37	288.62
297.601	297.62
297.831	289.62
298.062	298.62
298.292	285.62
298.523	299.62
298.753	277.62
298.984	303.62
299.214	290.62
299.445	299.62
299.675	285.62
299.905	318.62
300.136	293.62
300.366	310.62
300.597	307.62
300.827	312.62
301.057	316.62
301.288	317.62
301.518	326.62
301.748	325.62
301.979	321.62
302.209	318.62
302.439	313.62
302.669	330.62
302.9	299.62
303.13	329.62
303.36	328.62
303.59	313.62
303.82	327.62
304.051	338.62
304.281	320.62
304.511	322.62
304.741	297.62
304.971	294.62
305.201	309.62
305.431	318.62
305.661	313.62
305.891	332.62
306.121	321.62
306.352	322.62
306.582	335.62
306.812	326.62
307.042	318.62
307.272	326.62
307.502	310.62
307.731	310.62
307.961	316.62
308.191	304.62
308.421	333.62
308.651	324.62
308.881	324.62
309.111	319.62
309.341	327.62
309.571	349.62
309.8	348.62
310.03	349.62
310.26	363.62
310.49	353.62
310.72	362.62
310.949	380.62
311.179	370.62
311.409	349.62
311.639	346.62
311.868	381.62
312.098	361.62
312.328	372.62
312.557	380.62
312.787	401.62
313.017	404.62
313.246	387.62
313.476	346.62
313.706	369.62
313.935	355.62
314.165	362.62
314.394	382.62
314.624	382.62
314.853	388.62
315.083	363.62
315.312	372.62
315.542	362.62
315.771	357.62
316.001	341.62
316.23	364.62
316.46	345.62
316.689	355.62
316.919	374.62
317.148	381.62
317.377	380.62
317.607	370.62
317.836	347.62
318.065	355.62
318.295	349.62
318.524	367.62
318.753	335.62
318.983	378.62
319.212	376.62
319.441	375.62
319.67	380.62
319.9	379.62
320.129	351.62
320.358	367.62
320.587	382.62
320.816	368.62
321.046	390.62
321.275	396.62
321.504	378.62
321.733	379.62
321.962	388.62
322.191	418.62
322.42	426.62
322.649	412.62
322.878	448.62
323.108	441.62
323.337	455.62
323.566	468.62
323.795	503.62
324.024	536.62
324.253	667.62
324.482	952.62
324.71	1521.62
324.939	2318.62
325.168	2005.62
325.397	942.62
325.626	665.62
325.855	552.62
326.084	502.62
326.313	488.62
326.542	495.62
326.77	536.62
326.999	615.62
327.228	879.62
327.457	1376.62
327.686	1734.62
327.914	1124.62
328.143	698.62
328.372	613.62
328.6	592.62
328.829	534.62
329.058	553.62
329.287	579.62
329.515	537.62
329.744	502.62
329.972	475.62
330.201	515.62
330.43	543.62
330.658	543.62
330.887	599.62
331.115	568.62
331.344	512.62
331.572	466.62
331.801	484.62
332.03	484.62
332.258	474.62
332.486	425.62
332.715	445.62
332.943	434.62
333.172	446.62
333.4	449.62
333.629	433.62
333.857	464.62
334.085	481.62
334.314	473.62
334.542	500.62
334.771	546.62
334.999	518.62
335.227	465.62
335.455	450.62
335.684	456.62
335.912	458.62
336.14	437.62
336.369	435.62
336.597	462.62
336.825	450.62
337.053	446.62
337.281	457.62
337.51	420.62
337.738	442.62
337.966	434.62
338.194	442.62
338.422	443.62
338.65	452.62
338.878	419.62
339.106	410.62
339.334	414.62
339.562	408.62
339.79	429.62
340.018	432.62
340.246	415.62
340.474	432.62
340.702	422.62
340.93	421.62
341.158	413.62
341.386	444.62
341.614	437.62
341.842	433.62
342.07	407.62
342.298	407.62
342.526	405.62
342.754	422.62
342.981	421.62
343.209	424.62
343.437	416.62
343.665	425.62
343.893	443.62
344.12	446.62
344.348	422.62
344.576	448.62
344.804	435.62
345.031	467.62
345.259	451.62
345.487	442.62
345.714	446.62
345.942	444.62
346.17	418.62
346.397	422.62
346.625	427.62
346.853	407.62
347.08	425.62
347.308	422.62
347.535	453.62
347.763	451.62
347.99	436.62
348.218	428.62
348.445	444.62
348.673	435.62
348.9	437.62
349.128	406.62
349.355	392.62
349.583	400.62
349.81	393.62
350.037	422.62
350.265	410.62
350.492	413.62
350.72	376.62
350.947	405.62
351.174	416.62
351.402	416.62
351.629	428.62
351.856	427.62
352.083	422.62
352.311	442.62
352.538	423.62
352.765	437.62
352.992	419.62
353.22	413.62
353.447	409.62
353.674	412.62
353.901	427.62
354.128	403.62
354.355	374.62
354.583	404.62
354.81	403.62
355.037	405.62
355.264	375.62
355.491	397.62
355.718	380.62
355.945	397.62
356.172	390.62
356.399	390.62
356.626	391.62
356.853	400.62
357.08	391.62
357.307	410.62
357.534	395.62
357.761	407.62
357.988	394.62
358.215	389.62
358.441	389.62
358.668	388.62
358.895	406.62
359.122	432.62
359.349	391.62
359.576	426.62
359.802	453.62
360.029	462.62
360.256	480.62
360.483	455.62
360.709	442.62
360.936	438.62
361.163	420.62
361.39	417.62
361.616	428.62
361.843	409.62
362.07	412.62
362.296	424.62
362.523	414.62
362.749	398.62
362.976	404.62
363.203	399.62
363.429	419.62
363.656	425.62
363.882	432.62
364.109	409.62
364.335	404.62
364.562	409.62
364.788	403.62
365.015	395.62
365.241	402.62
365.468	408.62
365.694	404.62
365.92	401.62
366.147	404.62
366.373	407.62
366.599	401.62
366.826	399.62
367.052	393.62
367.278	401.62
367.505	404.62
367.731	421.62
367.957	403.62
368.184	411.62
368.41	421.62
368.636	429.62
368.862	418.62
369.089	412.62
369.315	402.62
369.541	407.62
369.767	414.62
369.993	411.62
370.219	407.62
370.445	416.62
370.672	415.62
370.898	405.62
371.124	428.62
371.35	422.62
371.576	418.62
371.802	418.62
372.028	404.62
372.254	400.62
372.48	404.62
372.706	406.62
372.932	424.62
373.158	421.62
373.384	404.62
373.61	427.62
373.835	440.62
374.061	406.62
374.287	422.62
374.513	425.62
374.739	410.62
374.965	418.62
375.191	436.62
375.416	412.62
375.642	402.62
375.868	411.62
376.094	416.62
376.319	406.62
376.545	393.62
376.771	385.62
376.997	402.62
377.222	424.62
377.448	405.62
377.674	410.62
377.899	404.62
378.125	416.62
378.35	419.62
378.576	404.62
378.802	410.62
379.027	404.62
379.253	412.62
379.478	395.62
379.704	396.62
379.929	405.62
380.155	416.62
380.38	420.62
380.606	404.62
380.831	419.62
381.057	437.62
381.282	416.62
381.507	424.62
381.733	407.62
381.958	420.62
382.184	419.62
382.409	432.62
382.634	434.62
382.86	411.62
383.085	455.62
383.31	408.62
383.535	429.62
383.761	420.62
383.986	434.62
384.211	427.62
384.436	440.62
384.662	440.62
384.887	439.62
385.112	433.62
385.337	436.62
385.562	442.62
385.787	446.62
386.013	488.62
386.238	477.62
386.463	462.62
386.688	462.62
386.913	445.62
387.138	444.62
387.363	448.62
387.588	456.62
387.813	462.62
388.038	457.62
388.263	457.62
388.488	472.62
388.713	477.62
388.938	470.62
389.163	460.62
389.387	466.62
389.612	462.62
389.837	455.62
390.062	446.62
390.287	468.62
390.512	450.62
390.736	443.62
390.961	470.62
391.186	445.62
391.411	450.62
391.636	468.62
391.86	457.62
392.085	472.62
392.31	476.62
392.534	476.62
392.759	483.62
392.984	491.62
393.208	461.62
393.433	455.62
393.658	466.62
393.882	460.62
394.107	461.62
394.331	466.62
394.556	447.62
394.78	475.62
395.005	491.62
395.229	474.62
395.454	459.62
395.678	484.62
395.903	502.62
396.127	505.62
396.352	512.62
396.576	490.62
396.801	465.62
397.025	488.62
397.249	465.62
397.474	507.62
397.698	504.62
397.922	530.62
398.147	532.62
398.371	513.62
398.595	510.62
398.82	546.62
399.044	541.62
399.268	558.62
399.492	591.62
399.717	607.62
399.941	631.62
400.165	678.62
400.389	682.62
400.613	615.62
400.837	575.62
401.062	554.62
401.286	560.62
401.51	531.62
401.734	541.62
401.958	549.62
402.182	554.62
402.406	533.62
402.63	565.62
402.854	540.62
403.078	562.62
403.302	556.62
403.526	564.62
403.75	545.62
403.974	525.62
404.198	560.62
404.422	571.62
404.645	588.62
404.869	563.62
405.093	619.62
405.317	631.62
405.541	666.62
405.765	625.62
405.988	568.62
406.212	608.62
406.436	614.62
406.66	624.62
406.883	609.62
407.107	648.62
407.331	682.62
407.555	725.62
407.778	747.62
408.002	683.62
408.226	615.62
408.449	626.62
408.673	612.62
408.896	668.62
409.12	677.62
409.344	648.62
409.567	581.62
409.791	553.62
410.014	584.62
410.238	555.62
410.461	568.62
410.685	565.62
410.908	577.62
411.132	613.62
411.355	673.62
411.578	629.62
411.802	570.62
412.025	555.62
412.249	554.62
412.472	598.62
412.695	642.62
412.919	626.62
413.142	604.62
413.365	558.62
413.589	561.62
413.812	539.62
414.035	553.62
414.258	546.62
414.482	538.62
414.705	523.62
414.928	546.62
415.151	520.62
415.374	516.62
415.597	539.62
415.821	540.62
416.044	516.62
416.267	515.62
416.49	495.62
416.713	520.62
416.936	530.62
417.159	523.62
417.382	515.62
417.605	537.62
417.828	546.62
418.051	555.62
418.274	536.62
418.497	517.62
418.72	525.62
418.943	535.62
419.166	547.62
419.389	584.62
419.611	592.62
419.834	557.62
420.057	565.62
420.28	547.62
420.503	537.62
420.726	550.62
420.948	552.62
421.171	595.62
421.394	620.62
421.617	572.62
421.839	563.62
422.062	538.62
422.285	563.62
422.507	638.62
422.73	707.62
422.953	672.62
423.175	617.62
423.398	587.62
423.621	555.62
423.843	592.62
424.066	580.62
424.288	587.62
424.511	626.62
424.733	655.62
424.956	760.62
425.178	712.62
425.401	698.62
425.623	725.62
425.846	618.62
426.068	593.62
426.291	569.62
426.513	582.62
426.735	588.62
426.958	649.62
427.18	706.62
427.402	852.62
427.625	962.62
427.847	858.62
428.069	721.62
428.292	644.62
428.514	575.62
428.736	557.62
428.958	549.62
429.181	561.62
429.403	552.62
429.625	538.62
429.847	573.62
430.069	660.62
430.292	664.62
430.514	567.62
430.736	557.62
430.958	525.62
431.18	522.62
431.402	542.62
431.624	512.62
431.846	530.62
432.068	513.62
432.29	508.62
432.512	525.62
432.734	521.62
432.956	536.62
433.178	551.62
433.4	553.62
433.622	518.62
433.844	530.62
434.066	528.62
434.287	502.62
434.509	504.62
434.731	546.62
434.953	536.62
435.175	526.62
435.397	568.62
435.618	579.62
435.84	620.62
436.062	722.62
436.284	807.62
436.505	668.62
436.727	608.62
436.949	562.62
437.17	550.62
437.392	556.62
437.614	570.62
437.835	598.62
438.057	686.62
438.278	808.62
438.5	813.62
438.721	894.62
438.943	866.62
439.165	656.62
439.386	626.62
439.608	599.62
439.829	587.62
440.05	640.62
440.272	668.62
440.493	619.62
440.715	588.62
440.936	571.62
441.158	559.62
441.379	555.62
441.6	573.62
441.822	620.62
442.043	619.62
442.264	729.62
442.486	778.62
442.707	650.62
442.928	618.62
443.149	619.62
443.371	632.62
443.592	682.62
443.813	780.62
444.034	856.62
444.255	724.62
444.476	640.62
444.698	613.62
444.919	600.62
445.14	716.62
445.361	638.62
445.582	661.62
445.803	735.62
446.024	835.62
446.245	822.62
446.466	770.62
446.687	648.62
446.908	589.62
447.129	561.62
447.35	530.62
447.571	545.62
447.792	543.62
448.013	536.62
448.234	565.62
448.455	604.62
448.675	737.62
448.896	882.62
449.117	716.62
449.338	706.62
449.559	808.62
449.779	934.62
450	731.62
450.221	589.62
450.442	553.62
450.662	557.62
450.883	531.62
451.104	535.62
451.324	554.62
451.545	505.62
451.766	509.62
451.986	472.62
452.207	461.62
452.428	493.62
452.648	493.62
452.869	515.62
453.089	513.62
453.31	511.62
453.53	498.62
453.751	493.62
453.971	478.62
454.192	511.62
454.412	493.62
454.633	493.62
454.853	495.62
455.073	496.62
455.294	533.62
455.514	568.62
455.734	559.62
455.955	493.62
456.175	472.62
456.395	466.62
456.616	453.62
456.836	448.62
457.056	472.62
457.276	468.62
457.497	466.62
457.717	462.62
457.937	457.62
458.157	475.62
458.377	480.62
458.598	510.62
458.818	549.62
459.038	644.62
459.258	651.62
459.478	578.62
459.698	544.62
459.918	526.62
460.138	536.62
460.358	503.62
460.578	534.62
460.798	526.62
461.018	557.62
461.238	544.62
461.458	521.62
461.678	520.62
461.898	522.62
462.118	546.62
462.338	545.62
462.558	560.62
462.777	565.62
462.997	588.62
463.217	597.62
463.437	577.62
463.657	581.62
463.876	598.62
464.096	564.62
464.316	556.62
464.536	585.62
464.755	589.62
464.975	580.62
465.195	629.62
465.414	678.62
465.634	620.62
465.854	574.62
466.073	505.62
466.293	546.62
466.512	528.62
466.732	499.62
466.951	505.62
467.171	498.62
467.391	523.62
467.61	532.62
467.829	518.62
468.049	524.62
468.268	508.62
468.488	510.62
468.707	505.62
468.927	474.62
469.146	486.62
469.365	491.62
469.585	486.62
469.804	511.62
470.023	520.62
470.243	520.62
470.462	540.62
470.681	514.62
470.901	540.62
471.12	526.62
471.339	516.62
471.558	502.62
471.777	501.62
471.997	502.62
472.216	498.62
472.435	542.62
472.654	536.62
472.873	518.62
473.092	514.62
473.311	532.62
473.53	507.62
473.749	496.62
473.968	558.62
474.187	652.62
474.406	700.62
474.625	584.62
474.844	544.62
475.063	525.62
475.282	526.62
475.501	504.62
475.72	501.62
475.939	533.62
476.158	497.62
476.377	536.62
476.596	519.62
476.814	522.62
477.033	544.62
477.252	544.62
477.471	549.62
477.69	546.62
477.908	539.62
478.127	555.62
478.346	560.62
478.564	580.62
478.783	575.62
479.002	576.62
479.22	603.62
479.439	617.62
479.658	604.62
479.876	624.62
480.095	630.62
480.313	635.62
480.532	645.62
480.751	641.62
480.969	640.62
481.188	692.62
481.406	717.62
481.624	642.62
481.843	644.62
482.061	634.62
482.28	606.62
482.498	611.62
482.717	584.62
482.935	608.62
483.153	609.62
483.372	598.62
483.59	620.62
483.808	604.62
484.027	613.62
484.245	612.62
484.463	621.62
484.681	610.62
484.9	596.62
485.118	611.62
485.336	610.62
485.554	624.62
485.772	629.62
485.99	611.62
486.209	614.62
486.427	617.62
486.645	633.62
486.863	625.62
487.081	659.62
487.299	649.62
487.517	648.62
487.735	615.62
487.953	644.62
488.171	642.62
488.389	619.62
488.607	655.62
488.825	646.62
489.043	634.62
489.261	641.62
489.479	646.62
489.696	633.62
489.914	653.62
490.132	660.62
490.35	674.62
490.568	653.62
490.786	686.62
491.003	673.62
491.221	693.62
491.439	708.62
491.657	676.62
491.874	696.62
492.092	720.62
492.31	721.62
492.527	723.62
492.745	739.62
492.963	738.62
493.18	748.62
493.398	746.62
493.615	732.62
493.833	743.62
494.05	748.62
494.268	758.62
494.485	752.62
494.703	752.62
494.92	721.62
495.138	746.62
495.355	728.62
495.573	754.62
495.79	729.62
496.008	740.62
496.225	733.62
496.442	758.62
496.66	765.62
496.877	752.62
497.094	762.62
497.312	795.62
497.529	801.62
497.746	832.62
497.963	799.62
498.181	807.62
498.398	852.62
498.615	876.62
498.832	860.62
499.049	874.62
499.267	880.62
499.484	946.62
499.701	965.62
499.918	1013.62
500.135	1031.62
500.352	1050.62
500.569	1079.62
500.786	1124.62
501.003	1092.62
501.22	1044.62
501.437	1001.62
501.654	1021.62
501.871	977.62
