Data from 1978.PennyLincolnUp.Lamp.En5.5.200Scan.071719.P1_HRD10591_16-13-55-864.txt Node
Date: Thu Jul 18 16:13:55 EDT 2019
User: cochatt
Spectrometer: HR+D1059
Trigger mode: 1
Integration Time (sec): 1.000000E-1
Scans to average: 1
Electric dark correction enabled: true
Nonlinearity correction enabled: false
Boxcar width: 0
XAxis mode: Wavelengths
Number of Pixels in Spectrum: 2048
>>>>>Begin Spectral Data<<<<<
223.165	-27.56
223.4	-27.56
223.635	-27.56
223.869	-13.56
224.104	-17.56
224.338	-13.56
224.573	-13.56
224.808	-0.56
225.042	3.44
225.277	-0.56
225.511	0.44
225.746	3.44
225.98	16.44
226.215	12.44
226.449	3.44
226.683	13.44
226.918	7.44
227.152	26.44
227.387	33.44
227.621	43.44
227.856	46.44
228.09	37.44
228.324	41.44
228.559	64.44
228.793	54.44
229.027	94.44
229.262	89.44
229.496	99.44
229.73	129.44
229.964	166.44
230.199	126.44
230.433	103.44
230.667	124.44
230.901	120.44
231.136	127.44
231.37	111.44
231.604	109.44
231.838	118.44
232.072	101.44
232.306	119.44
232.541	116.44
232.775	115.44
233.009	111.44
233.243	116.44
233.477	114.44
233.711	112.44
233.945	120.44
234.179	114.44
234.413	99.44
234.647	119.44
234.881	112.44
235.115	116.44
235.349	118.44
235.583	114.44
235.817	126.44
236.051	117.44
236.285	114.44
236.519	119.44
236.753	115.44
236.987	138.44
237.221	193.44
237.455	210.44
237.689	192.44
237.922	145.44
238.156	138.44
238.39	120.44
238.624	136.44
238.858	110.44
239.091	126.44
239.325	128.44
239.559	135.44
239.793	116.44
240.027	126.44
240.26	137.44
240.494	143.44
240.728	146.44
240.961	146.44
241.195	138.44
241.429	133.44
241.662	120.44
241.896	132.44
242.13	124.44
242.363	129.44
242.597	139.44
242.83	145.44
243.064	132.44
243.298	148.44
243.531	151.44
243.765	137.44
243.998	135.44
244.232	147.44
244.465	158.44
244.699	144.44
244.932	143.44
245.166	150.44
245.399	150.44
245.633	143.44
245.866	162.44
246.099	150.44
246.333	155.44
246.566	151.44
246.8	167.44
247.033	154.44
247.266	170.44
247.5	164.44
247.733	166.44
247.966	160.44
248.2	164.44
248.433	156.44
248.666	175.44
248.899	187.44
249.133	183.44
249.366	211.44
249.599	182.44
249.832	170.44
250.066	167.44
250.299	172.44
250.532	176.44
250.765	185.44
250.998	206.44
251.231	200.44
251.465	205.44
251.698	186.44
251.931	185.44
252.164	185.44
252.397	182.44
252.63	183.44
252.863	187.44
253.096	219.44
253.329	220.44
253.562	215.44
253.795	196.44
254.028	222.44
254.261	200.44
254.494	199.44
254.727	237.44
254.96	258.44
255.193	247.44
255.426	232.44
255.659	230.44
255.892	204.44
256.124	209.44
256.357	206.44
256.59	217.44
256.823	222.44
257.056	187.44
257.289	210.44
257.521	214.44
257.754	203.44
257.987	194.44
258.22	206.44
258.452	217.44
258.685	178.44
258.918	201.44
259.151	199.44
259.383	211.44
259.616	198.44
259.849	222.44
260.081	226.44
260.314	250.44
260.547	237.44
260.779	236.44
261.012	233.44
261.244	239.44
261.477	227.44
261.71	202.44
261.942	223.44
262.175	214.44
262.407	214.44
262.64	189.44
262.872	216.44
263.105	227.44
263.337	227.44
263.57	205.44
263.802	217.44
264.035	208.44
264.267	218.44
264.499	217.44
264.732	210.44
264.964	227.44
265.197	204.44
265.429	201.44
265.661	198.44
265.894	189.44
266.126	212.44
266.358	214.44
266.591	220.44
266.823	202.44
267.055	218.44
267.287	229.44
267.52	242.44
267.752	236.44
267.984	224.44
268.216	216.44
268.448	229.44
268.681	225.44
268.913	245.44
269.145	258.44
269.377	274.44
269.609	264.44
269.841	262.44
270.073	272.44
270.306	292.44
270.538	290.44
270.77	303.44
271.002	288.44
271.234	269.44
271.466	275.44
271.698	311.44
271.93	307.44
272.162	308.44
272.394	290.44
272.626	280.44
272.858	272.44
273.09	263.44
273.322	278.44
273.553	260.44
273.785	260.44
274.017	268.44
274.249	246.44
274.481	248.44
274.713	269.44
274.945	265.44
275.176	263.44
275.408	260.44
275.64	266.44
275.872	258.44
276.104	268.44
276.335	251.44
276.567	272.44
276.799	285.44
277.031	277.44
277.262	308.44
277.494	298.44
277.726	292.44
277.957	280.44
278.189	278.44
278.421	284.44
278.652	268.44
278.884	277.44
279.115	260.44
279.347	273.44
279.579	274.44
279.81	267.44
280.042	280.44
280.273	282.44
280.505	272.44
280.736	273.44
280.968	278.44
281.199	267.44
281.431	255.44
281.662	266.44
281.894	267.44
282.125	281.44
282.356	280.44
282.588	307.44
282.819	311.44
283.051	290.44
283.282	264.44
283.513	279.44
283.745	274.44
283.976	278.44
284.207	272.44
284.439	251.44
284.67	286.44
284.901	271.44
285.132	283.44
285.364	285.44
285.595	283.44
285.826	282.44
286.057	276.44
286.288	269.44
286.52	268.44
286.751	272.44
286.982	291.44
287.213	272.44
287.444	270.44
287.675	284.44
287.906	300.44
288.138	307.44
288.369	295.44
288.6	287.44
288.831	312.44
289.062	290.44
289.293	288.44
289.524	281.44
289.755	288.44
289.986	311.44
290.217	283.44
290.448	296.44
290.679	293.44
290.91	278.44
291.141	282.44
291.371	302.44
291.602	276.44
291.833	292.44
292.064	287.44
292.295	276.44
292.526	295.44
292.757	293.44
292.987	286.44
293.218	297.44
293.449	296.44
293.68	285.44
293.91	291.44
294.141	287.44
294.372	292.44
294.603	301.44
294.833	269.44
295.064	280.44
295.295	286.44
295.525	310.44
295.756	299.44
295.987	310.44
296.217	321.44
296.448	316.44
296.679	297.44
296.909	282.44
297.14	283.44
297.37	289.44
297.601	283.44
297.831	278.44
298.062	285.44
298.292	293.44
298.523	315.44
298.753	308.44
298.984	298.44
299.214	301.44
299.445	298.44
299.675	319.44
299.905	314.44
300.136	308.44
300.366	319.44
300.597	325.44
300.827	328.44
301.057	322.44
301.288	340.44
301.518	320.44
301.748	332.44
301.979	332.44
302.209	317.44
302.439	322.44
302.669	321.44
302.9	319.44
303.13	342.44
303.36	322.44
303.59	340.44
303.82	347.44
304.051	359.44
304.281	344.44
304.511	316.44
304.741	328.44
304.971	335.44
305.201	311.44
305.431	323.44
305.661	338.44
305.891	318.44
306.121	319.44
306.352	323.44
306.582	349.44
306.812	339.44
307.042	362.44
307.272	328.44
307.502	333.44
307.731	334.44
307.961	321.44
308.191	355.44
308.421	361.44
308.651	339.44
308.881	338.44
309.111	341.44
309.341	331.44
309.571	367.44
309.8	376.44
310.03	374.44
310.26	372.44
310.49	368.44
310.72	374.44
310.949	383.44
311.179	412.44
311.409	379.44
311.639	375.44
311.868	371.44
312.098	377.44
312.328	358.44
312.557	404.44
312.787	410.44
313.017	384.44
313.246	396.44
313.476	374.44
313.706	358.44
313.935	386.44
314.165	371.44
314.394	390.44
314.624	404.44
314.853	403.44
315.083	384.44
315.312	363.44
315.542	384.44
315.771	386.44
316.001	362.44
316.23	388.44
316.46	368.44
316.689	370.44
316.919	378.44
317.148	397.44
317.377	373.44
317.607	379.44
317.836	383.44
318.065	375.44
318.295	373.44
318.524	363.44
318.753	359.44
318.983	356.44
319.212	391.44
319.441	391.44
319.67	384.44
319.9	375.44
320.129	381.44
320.358	382.44
320.587	379.44
320.816	405.44
321.046	414.44
321.275	401.44
321.504	410.44
321.733	383.44
321.962	416.44
322.191	405.44
322.42	420.44
322.649	436.44
322.878	473.44
323.108	467.44
323.337	485.44
323.566	477.44
323.795	528.44
324.024	580.44
324.253	687.44
324.482	986.44
324.71	1564.44
324.939	2346.44
325.168	2077.44
325.397	1010.44
325.626	645.44
325.855	577.44
326.084	518.44
326.313	516.44
326.542	493.44
326.77	535.44
326.999	623.44
327.228	888.44
327.457	1420.44
327.686	1752.44
327.914	1129.44
328.143	724.44
328.372	639.44
328.6	578.44
328.829	580.44
329.058	581.44
329.287	589.44
329.515	563.44
329.744	521.44
329.972	514.44
330.201	526.44
330.43	560.44
330.658	581.44
330.887	574.44
331.115	598.44
331.344	544.44
331.572	503.44
331.801	498.44
332.03	484.44
332.258	494.44
332.486	447.44
332.715	450.44
332.943	452.44
333.172	448.44
333.4	469.44
333.629	479.44
333.857	490.44
334.085	505.44
334.314	525.44
334.542	545.44
334.771	554.44
334.999	536.44
335.227	494.44
335.455	474.44
335.684	449.44
335.912	475.44
336.14	470.44
336.369	477.44
336.597	463.44
336.825	473.44
337.053	470.44
337.281	450.44
337.51	444.44
337.738	465.44
337.966	442.44
338.194	457.44
338.422	470.44
338.65	450.44
338.878	446.44
339.106	430.44
339.334	443.44
339.562	448.44
339.79	448.44
340.018	443.44
340.246	418.44
340.474	433.44
340.702	444.44
340.93	431.44
341.158	436.44
341.386	426.44
341.614	442.44
341.842	446.44
342.07	441.44
342.298	426.44
342.526	453.44
342.754	432.44
342.981	424.44
343.209	427.44
343.437	434.44
343.665	426.44
343.893	460.44
344.12	445.44
344.348	457.44
344.576	460.44
344.804	470.44
345.031	450.44
345.259	474.44
345.487	453.44
345.714	436.44
345.942	442.44
346.17	411.44
346.397	429.44
346.625	419.44
346.853	412.44
347.08	428.44
347.308	436.44
347.535	438.44
347.763	452.44
347.99	436.44
348.218	435.44
348.445	450.44
348.673	453.44
348.9	421.44
349.128	441.44
349.355	422.44
349.583	406.44
349.81	415.44
350.037	420.44
350.265	397.44
350.492	454.44
350.72	419.44
350.947	411.44
351.174	429.44
351.402	418.44
351.629	438.44
351.856	442.44
352.083	440.44
352.311	412.44
352.538	434.44
352.765	445.44
352.992	426.44
353.22	433.44
353.447	448.44
353.674	419.44
353.901	417.44
354.128	411.44
354.355	411.44
354.583	420.44
354.81	394.44
355.037	406.44
355.264	404.44
355.491	399.44
355.718	402.44
355.945	389.44
356.172	410.44
356.399	398.44
356.626	391.44
356.853	394.44
357.08	407.44
357.307	411.44
357.534	421.44
357.761	408.44
357.988	420.44
358.215	401.44
358.441	406.44
358.668	409.44
358.895	405.44
359.122	420.44
359.349	420.44
359.576	444.44
359.802	452.44
360.029	500.44
360.256	483.44
360.483	453.44
360.709	428.44
360.936	438.44
361.163	451.44
361.39	456.44
361.616	430.44
361.843	394.44
362.07	406.44
362.296	436.44
362.523	441.44
362.749	423.44
362.976	441.44
363.203	424.44
363.429	415.44
363.656	439.44
363.882	435.44
364.109	404.44
364.335	438.44
364.562	405.44
364.788	424.44
365.015	435.44
365.241	415.44
365.468	420.44
365.694	447.44
365.92	420.44
366.147	430.44
366.373	407.44
366.599	429.44
366.826	423.44
367.052	424.44
367.278	429.44
367.505	434.44
367.731	420.44
367.957	416.44
368.184	422.44
368.41	425.44
368.636	413.44
368.862	442.44
369.089	437.44
369.315	429.44
369.541	418.44
369.767	423.44
369.993	429.44
370.219	421.44
370.445	436.44
370.672	423.44
370.898	418.44
371.124	424.44
371.35	424.44
371.576	443.44
371.802	420.44
372.028	424.44
372.254	439.44
372.48	396.44
372.706	422.44
372.932	432.44
373.158	436.44
373.384	410.44
373.61	440.44
373.835	450.44
374.061	430.44
374.287	424.44
374.513	441.44
374.739	438.44
374.965	439.44
375.191	431.44
375.416	439.44
375.642	444.44
375.868	426.44
376.094	420.44
376.319	419.44
376.545	447.44
376.771	426.44
376.997	426.44
377.222	405.44
377.448	420.44
377.674	422.44
377.899	424.44
378.125	413.44
378.35	417.44
378.576	425.44
378.802	399.44
379.027	445.44
379.253	438.44
379.478	431.44
379.704	412.44
379.929	403.44
380.155	424.44
380.38	431.44
380.606	426.44
380.831	410.44
381.057	427.44
381.282	421.44
381.507	425.44
381.733	441.44
381.958	433.44
382.184	437.44
382.409	443.44
382.634	421.44
382.86	434.44
383.085	444.44
383.31	442.44
383.535	452.44
383.761	469.44
383.986	478.44
384.211	458.44
384.436	462.44
384.662	443.44
384.887	458.44
385.112	480.44
385.337	468.44
385.562	445.44
385.787	458.44
386.013	482.44
386.238	453.44
386.463	452.44
386.688	487.44
386.913	455.44
387.138	457.44
387.363	470.44
387.588	471.44
387.813	462.44
388.038	474.44
388.263	463.44
388.488	474.44
388.713	476.44
388.938	470.44
389.163	472.44
389.387	456.44
389.612	494.44
389.837	491.44
390.062	481.44
390.287	477.44
390.512	459.44
390.736	483.44
390.961	459.44
391.186	476.44
391.411	483.44
391.636	503.44
391.86	516.44
392.085	491.44
392.31	498.44
392.534	482.44
392.759	481.44
392.984	454.44
393.208	484.44
393.433	483.44
393.658	482.44
393.882	483.44
394.107	467.44
394.331	485.44
394.556	489.44
394.78	496.44
395.005	485.44
395.229	468.44
395.454	472.44
395.678	518.44
395.903	519.44
396.127	528.44
396.352	546.44
396.576	498.44
396.801	485.44
397.025	500.44
397.249	520.44
397.474	508.44
397.698	510.44
397.922	542.44
398.147	551.44
398.371	540.44
398.595	548.44
398.82	538.44
399.044	564.44
399.268	568.44
399.492	593.44
399.717	626.44
399.941	660.44
400.165	663.44
400.389	691.44
400.613	650.44
400.837	585.44
401.062	564.44
401.286	571.44
401.51	555.44
401.734	544.44
401.958	554.44
402.182	576.44
402.406	579.44
402.63	570.44
402.854	586.44
403.078	572.44
403.302	567.44
403.526	584.44
403.75	603.44
403.974	596.44
404.198	569.44
404.422	574.44
404.645	583.44
404.869	590.44
405.093	616.44
405.317	647.44
405.541	709.44
405.765	628.44
405.988	622.44
406.212	617.44
406.436	627.44
406.66	609.44
406.883	618.44
407.107	650.44
407.331	680.44
407.555	787.44
407.778	760.44
408.002	700.44
408.226	688.44
408.449	662.44
408.673	637.44
408.896	689.44
409.12	738.44
409.344	671.44
409.567	598.44
409.791	582.44
410.014	575.44
410.238	580.44
410.461	583.44
410.685	592.44
410.908	585.44
411.132	621.44
411.355	683.44
411.578	649.44
411.802	605.44
412.025	574.44
412.249	583.44
412.472	614.44
412.695	659.44
412.919	644.44
413.142	607.44
413.365	577.44
413.589	576.44
413.812	568.44
414.035	559.44
414.258	564.44
414.482	544.44
414.705	586.44
414.928	558.44
415.151	541.44
415.374	528.44
415.597	544.44
415.821	552.44
416.044	540.44
416.267	557.44
416.49	551.44
416.713	557.44
416.936	562.44
417.159	522.44
417.382	558.44
417.605	542.44
417.828	545.44
418.051	587.44
418.274	566.44
418.497	552.44
418.72	535.44
418.943	552.44
419.166	559.44
419.389	597.44
419.611	614.44
419.834	550.44
420.057	580.44
420.28	568.44
420.503	563.44
420.726	575.44
420.948	570.44
421.171	622.44
421.394	657.44
421.617	608.44
421.839	591.44
422.062	574.44
422.285	568.44
422.507	647.44
422.73	740.44
422.953	702.44
423.175	602.44
423.398	620.44
423.621	579.44
423.843	607.44
424.066	591.44
424.288	588.44
424.511	613.44
424.733	678.44
424.956	786.44
425.178	747.44
425.401	750.44
425.623	794.44
425.846	670.44
426.068	627.44
426.291	578.44
426.513	593.44
426.735	624.44
426.958	665.44
427.18	768.44
427.402	908.44
427.625	1003.44
427.847	872.44
428.069	731.44
428.292	659.44
428.514	620.44
428.736	557.44
428.958	571.44
429.181	575.44
429.403	567.44
429.625	566.44
429.847	605.44
430.069	666.44
430.292	676.44
430.514	573.44
430.736	570.44
430.958	568.44
431.18	564.44
431.402	553.44
431.624	542.44
431.846	548.44
432.068	554.44
432.29	555.44
432.512	544.44
432.734	520.44
432.956	557.44
433.178	536.44
433.4	550.44
433.622	570.44
433.844	548.44
434.066	538.44
434.287	539.44
434.509	533.44
434.731	580.44
434.953	548.44
435.175	585.44
435.397	578.44
435.618	585.44
435.84	668.44
436.062	804.44
436.284	854.44
436.505	677.44
436.727	626.44
436.949	600.44
437.17	569.44
437.392	550.44
437.614	569.44
437.835	618.44
438.057	694.44
438.278	844.44
438.5	853.44
438.721	930.44
438.943	910.44
439.165	686.44
439.386	640.44
439.608	603.44
439.829	624.44
440.05	660.44
440.272	695.44
440.493	668.44
440.715	620.44
440.936	570.44
441.158	577.44
441.379	578.44
441.6	566.44
441.822	586.44
442.043	656.44
442.264	765.44
442.486	807.44
442.707	671.44
442.928	598.44
443.149	611.44
443.371	649.44
443.592	719.44
443.813	810.44
444.034	857.44
444.255	720.44
444.476	641.44
444.698	629.44
444.919	598.44
445.14	692.44
445.361	653.44
445.582	642.44
445.803	731.44
446.024	814.44
446.245	872.44
446.466	768.44
446.687	652.44
446.908	636.44
447.129	560.44
447.35	564.44
447.571	552.44
447.792	543.44
448.013	553.44
448.234	593.44
448.455	635.44
448.675	776.44
448.896	916.44
449.117	777.44
449.338	709.44
449.559	839.44
449.779	967.44
450	745.44
450.221	620.44
450.442	581.44
450.662	551.44
450.883	533.44
451.104	557.44
451.324	536.44
451.545	551.44
451.766	539.44
451.986	528.44
452.207	488.44
452.428	512.44
452.648	500.44
452.869	511.44
453.089	520.44
453.31	520.44
453.53	534.44
453.751	542.44
453.971	524.44
454.192	534.44
454.412	516.44
454.633	518.44
454.853	523.44
455.073	496.44
455.294	537.44
455.514	604.44
455.734	595.44
455.955	517.44
456.175	485.44
456.395	500.44
456.616	472.44
456.836	487.44
457.056	466.44
457.276	467.44
457.497	478.44
457.717	462.44
457.937	507.44
458.157	499.44
458.377	502.44
458.598	536.44
458.818	585.44
459.038	658.44
459.258	697.44
459.478	590.44
459.698	540.44
459.918	543.44
460.138	538.44
460.358	535.44
460.578	544.44
460.798	553.44
461.018	568.44
461.238	552.44
461.458	567.44
461.678	555.44
461.898	547.44
462.118	572.44
462.338	565.44
462.558	601.44
462.777	593.44
462.997	599.44
463.217	612.44
463.437	634.44
463.657	618.44
463.876	607.44
464.096	608.44
464.316	599.44
464.536	601.44
464.755	603.44
464.975	629.44
465.195	621.44
465.414	679.44
465.634	651.44
465.854	591.44
466.073	546.44
466.293	532.44
466.512	523.44
466.732	521.44
466.951	516.44
467.171	511.44
467.391	534.44
467.61	530.44
467.829	546.44
468.049	542.44
468.268	518.44
468.488	512.44
468.707	504.44
468.927	516.44
469.146	498.44
469.365	507.44
469.585	493.44
469.804	516.44
470.023	536.44
470.243	523.44
470.462	561.44
470.681	546.44
470.901	563.44
471.12	534.44
471.339	526.44
471.558	543.44
471.777	531.44
471.997	507.44
472.216	531.44
472.435	551.44
472.654	559.44
472.873	521.44
473.092	549.44
473.311	540.44
473.53	533.44
473.749	542.44
473.968	564.44
474.187	682.44
474.406	703.44
474.625	587.44
474.844	565.44
475.063	530.44
475.282	528.44
475.501	538.44
475.72	550.44
475.939	526.44
476.158	549.44
476.377	550.44
476.596	547.44
476.814	572.44
477.033	557.44
477.252	562.44
477.471	566.44
477.69	569.44
477.908	578.44
478.127	585.44
478.346	577.44
478.564	598.44
478.783	606.44
479.002	596.44
479.22	589.44
479.439	586.44
479.658	618.44
479.876	659.44
480.095	646.44
480.313	661.44
480.532	670.44
480.751	637.44
480.969	643.44
481.188	695.44
481.406	748.44
481.624	683.44
481.843	622.44
482.061	644.44
482.28	640.44
482.498	666.44
482.717	648.44
482.935	625.44
483.153	607.44
483.372	648.44
483.59	631.44
483.808	588.44
484.027	622.44
484.245	637.44
484.463	631.44
484.681	642.44
484.9	629.44
485.118	630.44
485.336	632.44
485.554	647.44
485.772	636.44
485.99	630.44
486.209	643.44
486.427	632.44
486.645	674.44
486.863	680.44
487.081	662.44
487.299	647.44
487.517	691.44
487.735	681.44
487.953	647.44
488.171	663.44
488.389	644.44
488.607	672.44
488.825	661.44
489.043	666.44
489.261	671.44
489.479	692.44
489.696	673.44
489.914	667.44
490.132	698.44
490.35	674.44
490.568	702.44
490.786	701.44
491.003	693.44
491.221	708.44
491.439	739.44
491.657	730.44
491.874	714.44
492.092	721.44
492.31	727.44
492.527	747.44
492.745	748.44
492.963	773.44
493.18	759.44
493.398	750.44
493.615	749.44
493.833	758.44
494.05	780.44
494.268	776.44
494.485	774.44
494.703	770.44
494.92	768.44
495.138	756.44
495.355	806.44
495.573	771.44
495.79	786.44
496.008	794.44
496.225	774.44
496.442	791.44
496.66	764.44
496.877	775.44
497.094	800.44
497.312	815.44
497.529	815.44
497.746	843.44
497.963	847.44
498.181	867.44
498.398	848.44
498.615	877.44
498.832	909.44
499.049	927.44
499.267	941.44
499.484	966.44
499.701	1032.44
499.918	1054.44
500.135	1083.44
500.352	1090.44
500.569	1129.44
500.786	1162.44
501.003	1131.44
501.22	1093.44
501.437	1075.44
501.654	1027.44
501.871	1018.44
