Data from 1978.PennyLincolnUp.Lamp.En5.5.200Scan.071719.P1_HRD10591_16-13-07-865.txt Node
Date: Thu Jul 18 16:13:07 EDT 2019
User: cochatt
Spectrometer: HR+D1059
Trigger mode: 1
Integration Time (sec): 1.000000E-1
Scans to average: 1
Electric dark correction enabled: true
Nonlinearity correction enabled: false
Boxcar width: 0
XAxis mode: Wavelengths
Number of Pixels in Spectrum: 2048
>>>>>Begin Spectral Data<<<<<
223.165	-2.38
223.4	-2.38
223.635	-2.38
223.869	-17.38
224.104	-9.38
224.338	-7.38
224.573	-8.38
224.808	-7.38
225.042	-3.38
225.277	-10.38
225.511	-13.38
225.746	-0.38
225.98	10.62
226.215	15.62
226.449	2.62
226.683	13.62
226.918	13.62
227.152	23.62
227.387	33.62
227.621	26.62
227.856	49.62
228.09	42.62
228.324	45.62
228.559	63.62
228.793	73.62
229.027	101.62
229.262	122.62
229.496	113.62
229.73	122.62
229.964	156.62
230.199	129.62
230.433	115.62
230.667	115.62
230.901	122.62
231.136	113.62
231.37	125.62
231.604	103.62
231.838	114.62
232.072	113.62
232.306	115.62
232.541	108.62
232.775	105.62
233.009	125.62
233.243	113.62
233.477	119.62
233.711	118.62
233.945	106.62
234.179	98.62
234.413	111.62
234.647	125.62
234.881	119.62
235.115	118.62
235.349	117.62
235.583	114.62
235.817	126.62
236.051	123.62
236.285	121.62
236.519	120.62
236.753	115.62
236.987	142.62
237.221	165.62
237.455	208.62
237.689	178.62
237.922	141.62
238.156	131.62
238.39	137.62
238.624	117.62
238.858	127.62
239.091	119.62
239.325	120.62
239.559	121.62
239.793	126.62
240.027	115.62
240.26	146.62
240.494	154.62
240.728	158.62
240.961	133.62
241.195	131.62
241.429	140.62
241.662	128.62
241.896	122.62
242.13	126.62
242.363	125.62
242.597	134.62
242.83	128.62
243.064	131.62
243.298	148.62
243.531	139.62
243.765	147.62
243.998	142.62
244.232	137.62
244.465	132.62
244.699	139.62
244.932	143.62
245.166	139.62
245.399	150.62
245.633	148.62
245.866	151.62
246.099	138.62
246.333	145.62
246.566	155.62
246.8	150.62
247.033	147.62
247.266	152.62
247.5	140.62
247.733	155.62
247.966	157.62
248.2	151.62
248.433	149.62
248.666	183.62
248.899	168.62
249.133	189.62
249.366	195.62
249.599	187.62
249.832	181.62
250.066	175.62
250.299	183.62
250.532	181.62
250.765	183.62
250.998	215.62
251.231	206.62
251.465	177.62
251.698	201.62
251.931	189.62
252.164	190.62
252.397	189.62
252.63	182.62
252.863	185.62
253.096	173.62
253.329	217.62
253.562	186.62
253.795	197.62
254.028	192.62
254.261	207.62
254.494	194.62
254.727	231.62
254.96	254.62
255.193	246.62
255.426	235.62
255.659	218.62
255.892	217.62
256.124	229.62
256.357	221.62
256.59	204.62
256.823	210.62
257.056	197.62
257.289	208.62
257.521	206.62
257.754	195.62
257.987	215.62
258.22	197.62
258.452	195.62
258.685	186.62
258.918	198.62
259.151	202.62
259.383	218.62
259.616	214.62
259.849	207.62
260.081	218.62
260.314	225.62
260.547	235.62
260.779	237.62
261.012	201.62
261.244	216.62
261.477	224.62
261.71	221.62
261.942	209.62
262.175	218.62
262.407	207.62
262.64	214.62
262.872	200.62
263.105	215.62
263.337	199.62
263.57	195.62
263.802	208.62
264.035	201.62
264.267	201.62
264.499	210.62
264.732	203.62
264.964	185.62
265.197	210.62
265.429	195.62
265.661	200.62
265.894	220.62
266.126	222.62
266.358	220.62
266.591	205.62
266.823	209.62
267.055	212.62
267.287	207.62
267.52	212.62
267.752	228.62
267.984	235.62
268.216	226.62
268.448	210.62
268.681	232.62
268.913	241.62
269.145	231.62
269.377	249.62
269.609	247.62
269.841	241.62
270.073	239.62
270.306	292.62
270.538	292.62
270.77	292.62
271.002	274.62
271.234	274.62
271.466	285.62
271.698	301.62
271.93	280.62
272.162	293.62
272.394	281.62
272.626	281.62
272.858	276.62
273.09	250.62
273.322	268.62
273.553	250.62
273.785	233.62
274.017	261.62
274.249	249.62
274.481	246.62
274.713	241.62
274.945	259.62
275.176	254.62
275.408	247.62
275.64	254.62
275.872	258.62
276.104	258.62
276.335	234.62
276.567	244.62
276.799	263.62
277.031	293.62
277.262	299.62
277.494	285.62
277.726	277.62
277.957	275.62
278.189	261.62
278.421	270.62
278.652	250.62
278.884	258.62
279.115	259.62
279.347	269.62
279.579	271.62
279.81	282.62
280.042	258.62
280.273	247.62
280.505	268.62
280.736	258.62
280.968	265.62
281.199	247.62
281.431	271.62
281.662	245.62
281.894	242.62
282.125	283.62
282.356	275.62
282.588	289.62
282.819	294.62
283.051	271.62
283.282	264.62
283.513	281.62
283.745	286.62
283.976	287.62
284.207	271.62
284.439	281.62
284.67	276.62
284.901	272.62
285.132	270.62
285.364	262.62
285.595	275.62
285.826	269.62
286.057	269.62
286.288	265.62
286.52	283.62
286.751	285.62
286.982	270.62
287.213	273.62
287.444	277.62
287.675	265.62
287.906	276.62
288.138	282.62
288.369	293.62
288.6	296.62
288.831	290.62
289.062	291.62
289.293	305.62
289.524	258.62
289.755	277.62
289.986	277.62
290.217	268.62
290.448	273.62
290.679	274.62
290.91	283.62
291.141	277.62
291.371	291.62
291.602	294.62
291.833	297.62
292.064	294.62
292.295	286.62
292.526	277.62
292.757	292.62
292.987	278.62
293.218	289.62
293.449	280.62
293.68	285.62
293.91	276.62
294.141	297.62
294.372	280.62
294.603	279.62
294.833	297.62
295.064	301.62
295.295	295.62
295.525	289.62
295.756	326.62
295.987	309.62
296.217	310.62
296.448	339.62
296.679	313.62
296.909	286.62
297.14	294.62
297.37	280.62
297.601	294.62
297.831	297.62
298.062	280.62
298.292	290.62
298.523	305.62
298.753	296.62
298.984	302.62
299.214	302.62
299.445	290.62
299.675	320.62
299.905	316.62
300.136	316.62
300.366	312.62
300.597	298.62
300.827	300.62
301.057	313.62
301.288	325.62
301.518	313.62
301.748	322.62
301.979	314.62
302.209	322.62
302.439	305.62
302.669	321.62
302.9	322.62
303.13	316.62
303.36	326.62
303.59	309.62
303.82	348.62
304.051	339.62
304.281	324.62
304.511	331.62
304.741	325.62
304.971	319.62
305.201	323.62
305.431	317.62
305.661	317.62
305.891	320.62
306.121	316.62
306.352	326.62
306.582	321.62
306.812	313.62
307.042	328.62
307.272	340.62
307.502	332.62
307.731	337.62
307.961	332.62
308.191	325.62
308.421	338.62
308.651	344.62
308.881	332.62
309.111	343.62
309.341	337.62
309.571	331.62
309.8	350.62
310.03	376.62
310.26	345.62
310.49	366.62
310.72	378.62
310.949	374.62
311.179	382.62
311.409	365.62
311.639	355.62
311.868	358.62
312.098	375.62
312.328	369.62
312.557	396.62
312.787	382.62
313.017	399.62
313.246	391.62
313.476	364.62
313.706	356.62
313.935	371.62
314.165	378.62
314.394	395.62
314.624	384.62
314.853	379.62
315.083	370.62
315.312	346.62
315.542	376.62
315.771	359.62
316.001	352.62
316.23	356.62
316.46	356.62
316.689	362.62
316.919	379.62
317.148	366.62
317.377	374.62
317.607	389.62
317.836	372.62
318.065	373.62
318.295	358.62
318.524	351.62
318.753	360.62
318.983	373.62
319.212	358.62
319.441	369.62
319.67	375.62
319.9	361.62
320.129	377.62
320.358	358.62
320.587	382.62
320.816	387.62
321.046	398.62
321.275	387.62
321.504	405.62
321.733	403.62
321.962	400.62
322.191	435.62
322.42	418.62
322.649	445.62
322.878	438.62
323.108	432.62
323.337	462.62
323.566	476.62
323.795	501.62
324.024	539.62
324.253	649.62
324.482	935.62
324.71	1474.62
324.939	2314.62
325.168	1959.62
325.397	953.62
325.626	638.62
325.855	541.62
326.084	501.62
326.313	490.62
326.542	484.62
326.77	558.62
326.999	633.62
327.228	857.62
327.457	1327.62
327.686	1704.62
327.914	1066.62
328.143	667.62
328.372	595.62
328.6	537.62
328.829	551.62
329.058	555.62
329.287	547.62
329.515	546.62
329.744	486.62
329.972	492.62
330.201	522.62
330.43	539.62
330.658	537.62
330.887	586.62
331.115	578.62
331.344	514.62
331.572	481.62
331.801	486.62
332.03	483.62
332.258	473.62
332.486	438.62
332.715	464.62
332.943	449.62
333.172	451.62
333.4	469.62
333.629	476.62
333.857	472.62
334.085	483.62
334.314	503.62
334.542	516.62
334.771	555.62
334.999	491.62
335.227	454.62
335.455	453.62
335.684	437.62
335.912	456.62
336.14	451.62
336.369	444.62
336.597	474.62
336.825	457.62
337.053	458.62
337.281	426.62
337.51	457.62
337.738	452.62
337.966	433.62
338.194	444.62
338.422	449.62
338.65	430.62
338.878	442.62
339.106	418.62
339.334	423.62
339.562	434.62
339.79	419.62
340.018	453.62
340.246	435.62
340.474	456.62
340.702	446.62
340.93	439.62
341.158	422.62
341.386	423.62
341.614	413.62
341.842	421.62
342.07	418.62
342.298	431.62
342.526	420.62
342.754	425.62
342.981	425.62
343.209	415.62
343.437	424.62
343.665	430.62
343.893	443.62
344.12	445.62
344.348	453.62
344.576	448.62
344.804	438.62
345.031	462.62
345.259	425.62
345.487	445.62
345.714	437.62
345.942	424.62
346.17	422.62
346.397	417.62
346.625	417.62
346.853	410.62
347.08	406.62
347.308	437.62
347.535	446.62
347.763	435.62
347.99	446.62
348.218	430.62
348.445	428.62
348.673	439.62
348.9	421.62
349.128	401.62
349.355	391.62
349.583	413.62
349.81	412.62
350.037	413.62
350.265	392.62
350.492	399.62
350.72	410.62
350.947	421.62
351.174	386.62
351.402	418.62
351.629	434.62
351.856	421.62
352.083	417.62
352.311	441.62
352.538	442.62
352.765	428.62
352.992	418.62
353.22	404.62
353.447	417.62
353.674	418.62
353.901	411.62
354.128	396.62
354.355	396.62
354.583	409.62
354.81	421.62
355.037	392.62
355.264	375.62
355.491	381.62
355.718	399.62
355.945	397.62
356.172	397.62
356.399	408.62
356.626	388.62
356.853	393.62
357.08	390.62
357.307	406.62
357.534	396.62
357.761	400.62
357.988	428.62
358.215	405.62
358.441	387.62
358.668	415.62
358.895	390.62
359.122	418.62
359.349	429.62
359.576	429.62
359.802	444.62
360.029	462.62
360.256	487.62
360.483	455.62
360.709	428.62
360.936	425.62
361.163	422.62
361.39	420.62
361.616	436.62
361.843	412.62
362.07	422.62
362.296	422.62
362.523	416.62
362.749	432.62
362.976	424.62
363.203	413.62
363.429	412.62
363.656	424.62
363.882	410.62
364.109	397.62
364.335	417.62
364.562	413.62
364.788	430.62
365.015	433.62
365.241	416.62
365.468	437.62
365.694	425.62
365.92	444.62
366.147	403.62
366.373	403.62
366.599	424.62
366.826	406.62
367.052	414.62
367.278	420.62
367.505	399.62
367.731	413.62
367.957	414.62
368.184	415.62
368.41	401.62
368.636	427.62
368.862	417.62
369.089	425.62
369.315	421.62
369.541	410.62
369.767	412.62
369.993	422.62
370.219	422.62
370.445	424.62
370.672	424.62
370.898	414.62
371.124	419.62
371.35	406.62
371.576	408.62
371.802	407.62
372.028	417.62
372.254	424.62
372.48	411.62
372.706	432.62
372.932	420.62
373.158	419.62
373.384	420.62
373.61	420.62
373.835	420.62
374.061	418.62
374.287	404.62
374.513	442.62
374.739	422.62
374.965	447.62
375.191	433.62
375.416	440.62
375.642	428.62
375.868	399.62
376.094	434.62
376.319	422.62
376.545	410.62
376.771	430.62
376.997	398.62
377.222	402.62
377.448	425.62
377.674	434.62
377.899	403.62
378.125	406.62
378.35	406.62
378.576	410.62
378.802	417.62
379.027	440.62
379.253	420.62
379.478	409.62
379.704	400.62
379.929	409.62
380.155	424.62
380.38	418.62
380.606	406.62
380.831	417.62
381.057	423.62
381.282	437.62
381.507	435.62
381.733	412.62
381.958	433.62
382.184	440.62
382.409	442.62
382.634	434.62
382.86	428.62
383.085	421.62
383.31	434.62
383.535	451.62
383.761	426.62
383.986	448.62
384.211	453.62
384.436	452.62
384.662	442.62
384.887	432.62
385.112	444.62
385.337	456.62
385.562	451.62
385.787	459.62
386.013	460.62
386.238	461.62
386.463	471.62
386.688	483.62
386.913	446.62
387.138	461.62
387.363	447.62
387.588	467.62
387.813	473.62
388.038	453.62
388.263	458.62
388.488	479.62
388.713	466.62
388.938	470.62
389.163	469.62
389.387	454.62
389.612	463.62
389.837	454.62
390.062	462.62
390.287	469.62
390.512	462.62
390.736	475.62
390.961	463.62
391.186	466.62
391.411	482.62
391.636	478.62
391.86	496.62
392.085	471.62
392.31	482.62
392.534	478.62
392.759	481.62
392.984	462.62
393.208	451.62
393.433	471.62
393.658	509.62
393.882	474.62
394.107	483.62
394.331	463.62
394.556	469.62
394.78	505.62
395.005	489.62
395.229	469.62
395.454	494.62
395.678	497.62
395.903	507.62
396.127	532.62
396.352	547.62
396.576	499.62
396.801	517.62
397.025	517.62
397.249	493.62
397.474	519.62
397.698	518.62
397.922	525.62
398.147	525.62
398.371	518.62
398.595	534.62
398.82	538.62
399.044	545.62
399.268	565.62
399.492	594.62
399.717	635.62
399.941	635.62
400.165	647.62
400.389	681.62
400.613	618.62
400.837	591.62
401.062	549.62
401.286	546.62
401.51	549.62
401.734	546.62
401.958	570.62
402.182	577.62
402.406	549.62
402.63	573.62
402.854	545.62
403.078	544.62
403.302	555.62
403.526	573.62
403.75	569.62
403.974	566.62
404.198	554.62
404.422	569.62
404.645	572.62
404.869	586.62
405.093	613.62
405.317	637.62
405.541	696.62
405.765	628.62
405.988	594.62
406.212	614.62
406.436	617.62
406.66	646.62
406.883	603.62
407.107	640.62
407.331	697.62
407.555	740.62
407.778	739.62
408.002	668.62
408.226	668.62
408.449	629.62
408.673	612.62
408.896	644.62
409.12	712.62
409.344	659.62
409.567	603.62
409.791	561.62
410.014	584.62
410.238	553.62
410.461	558.62
410.685	582.62
410.908	587.62
411.132	644.62
411.355	649.62
411.578	632.62
411.802	583.62
412.025	569.62
412.249	571.62
412.472	586.62
412.695	634.62
412.919	639.62
413.142	582.62
413.365	569.62
413.589	553.62
413.812	538.62
414.035	547.62
414.258	533.62
414.482	561.62
414.705	555.62
414.928	525.62
415.151	539.62
415.374	527.62
415.597	542.62
415.821	528.62
416.044	553.62
416.267	532.62
416.49	553.62
416.713	526.62
416.936	550.62
417.159	533.62
417.382	533.62
417.605	534.62
417.828	538.62
418.051	567.62
418.274	537.62
418.497	529.62
418.72	509.62
418.943	537.62
419.166	567.62
419.389	593.62
419.611	578.62
419.834	556.62
420.057	577.62
420.28	549.62
420.503	561.62
420.726	581.62
420.948	575.62
421.171	610.62
421.394	659.62
421.617	579.62
421.839	561.62
422.062	557.62
422.285	575.62
422.507	626.62
422.73	698.62
422.953	672.62
423.175	611.62
423.398	602.62
423.621	597.62
423.843	611.62
424.066	597.62
424.288	595.62
424.511	605.62
424.733	661.62
424.956	758.62
425.178	706.62
425.401	710.62
425.623	738.62
425.846	650.62
426.068	618.62
426.291	578.62
426.513	557.62
426.735	583.62
426.958	645.62
427.18	722.62
427.402	883.62
427.625	969.62
427.847	843.62
428.069	715.62
428.292	639.62
428.514	568.62
428.736	572.62
428.958	579.62
429.181	552.62
429.403	533.62
429.625	544.62
429.847	582.62
430.069	668.62
430.292	666.62
430.514	558.62
430.736	567.62
430.958	551.62
431.18	540.62
431.402	519.62
431.624	512.62
431.846	537.62
432.068	525.62
432.29	522.62
432.512	523.62
432.734	544.62
432.956	574.62
433.178	533.62
433.4	556.62
433.622	536.62
433.844	526.62
434.066	531.62
434.287	531.62
434.509	549.62
434.731	557.62
434.953	534.62
435.175	535.62
435.397	601.62
435.618	603.62
435.84	636.62
436.062	731.62
436.284	828.62
436.505	697.62
436.727	618.62
436.949	592.62
437.17	565.62
437.392	565.62
437.614	545.62
437.835	605.62
438.057	692.62
438.278	810.62
438.5	813.62
438.721	898.62
438.943	857.62
439.165	668.62
439.386	589.62
439.608	615.62
439.829	599.62
440.05	620.62
440.272	656.62
440.493	652.62
440.715	607.62
440.936	574.62
441.158	563.62
441.379	562.62
441.6	569.62
441.822	609.62
442.043	641.62
442.264	713.62
442.486	760.62
442.707	655.62
442.928	609.62
443.149	623.62
443.371	631.62
443.592	678.62
443.813	777.62
444.034	855.62
444.255	703.62
444.476	639.62
444.698	617.62
444.919	600.62
445.14	705.62
445.361	666.62
445.582	642.62
445.803	705.62
446.024	843.62
446.245	856.62
446.466	741.62
446.687	667.62
446.908	604.62
447.129	565.62
447.35	557.62
447.571	572.62
447.792	531.62
448.013	549.62
448.234	564.62
448.455	613.62
448.675	747.62
448.896	865.62
449.117	739.62
449.338	679.62
449.559	813.62
449.779	964.62
450	719.62
450.221	621.62
450.442	561.62
450.662	549.62
450.883	540.62
451.104	556.62
451.324	539.62
451.545	510.62
451.766	518.62
451.986	514.62
452.207	479.62
452.428	489.62
452.648	504.62
452.869	503.62
453.089	517.62
453.31	519.62
453.53	501.62
453.751	503.62
453.971	517.62
454.192	516.62
454.412	513.62
454.633	498.62
454.853	494.62
455.073	477.62
455.294	518.62
455.514	598.62
455.734	584.62
455.955	503.62
456.175	463.62
456.395	481.62
456.616	457.62
456.836	501.62
457.056	464.62
457.276	456.62
457.497	454.62
457.717	477.62
457.937	490.62
458.157	476.62
458.377	491.62
458.598	511.62
458.818	557.62
459.038	631.62
459.258	657.62
459.478	586.62
459.698	542.62
459.918	541.62
460.138	549.62
460.358	514.62
460.578	524.62
460.798	526.62
461.018	554.62
461.238	530.62
461.458	541.62
461.678	536.62
461.898	554.62
462.118	554.62
462.338	574.62
462.558	579.62
462.777	574.62
462.997	582.62
463.217	618.62
463.437	610.62
463.657	592.62
463.876	603.62
464.096	592.62
464.316	594.62
464.536	606.62
464.755	587.62
464.975	599.62
465.195	595.62
465.414	652.62
465.634	600.62
465.854	575.62
466.073	577.62
466.293	549.62
466.512	540.62
466.732	506.62
466.951	525.62
467.171	499.62
467.391	535.62
467.61	520.62
467.829	530.62
468.049	525.62
468.268	520.62
468.488	509.62
468.707	494.62
468.927	501.62
469.146	505.62
469.365	490.62
469.585	492.62
469.804	499.62
470.023	515.62
470.243	509.62
470.462	519.62
470.681	542.62
470.901	546.62
471.12	513.62
471.339	497.62
471.558	531.62
471.777	501.62
471.997	519.62
472.216	526.62
472.435	580.62
472.654	550.62
472.873	532.62
473.092	525.62
473.311	541.62
473.53	501.62
473.749	519.62
473.968	572.62
474.187	638.62
474.406	694.62
474.625	575.62
474.844	518.62
475.063	548.62
475.282	521.62
475.501	497.62
475.72	527.62
475.939	532.62
476.158	536.62
476.377	513.62
476.596	543.62
476.814	543.62
477.033	559.62
477.252	554.62
477.471	557.62
477.69	554.62
477.908	573.62
478.127	551.62
478.346	551.62
478.564	585.62
478.783	571.62
479.002	586.62
479.22	612.62
479.439	607.62
479.658	637.62
479.876	635.62
480.095	629.62
480.313	658.62
480.532	633.62
480.751	605.62
480.969	626.62
481.188	690.62
481.406	718.62
481.624	647.62
481.843	643.62
482.061	631.62
482.28	629.62
482.498	627.62
482.717	614.62
482.935	592.62
483.153	607.62
483.372	593.62
483.59	626.62
483.808	597.62
484.027	599.62
484.245	614.62
484.463	623.62
484.681	638.62
484.9	641.62
485.118	609.62
485.336	595.62
485.554	635.62
485.772	632.62
485.99	629.62
486.209	652.62
486.427	623.62
486.645	627.62
486.863	627.62
487.081	637.62
487.299	641.62
487.517	645.62
487.735	628.62
487.953	662.62
488.171	649.62
488.389	659.62
488.607	635.62
488.825	644.62
489.043	647.62
489.261	651.62
489.479	675.62
489.696	667.62
489.914	667.62
490.132	679.62
490.35	649.62
490.568	659.62
490.786	695.62
491.003	695.62
491.221	715.62
491.439	723.62
491.657	740.62
491.874	706.62
492.092	709.62
492.31	723.62
492.527	741.62
492.745	734.62
492.963	727.62
493.18	715.62
493.398	722.62
493.615	733.62
493.833	768.62
494.05	758.62
494.268	765.62
494.485	748.62
494.703	749.62
494.92	733.62
495.138	757.62
495.355	762.62
495.573	773.62
495.79	769.62
496.008	794.62
496.225	763.62
496.442	757.62
496.66	758.62
496.877	775.62
497.094	764.62
497.312	791.62
497.529	790.62
497.746	801.62
497.963	819.62
498.181	823.62
498.398	842.62
498.615	896.62
498.832	881.62
499.049	860.62
499.267	899.62
499.484	955.62
499.701	996.62
499.918	1026.62
500.135	1066.62
500.352	1100.62
500.569	1119.62
500.786	1114.62
501.003	1114.62
501.22	1095.62
501.437	1059.62
501.654	1009.62
501.871	993.62
