Data from 1978.PennyLincolnUp.Lamp.En5.5.200Scan.071719.P1_HRD10591_16-12-24-864.txt Node
Date: Thu Jul 18 16:12:24 EDT 2019
User: cochatt
Spectrometer: HR+D1059
Trigger mode: 1
Integration Time (sec): 1.000000E-1
Scans to average: 1
Electric dark correction enabled: true
Nonlinearity correction enabled: false
Boxcar width: 0
XAxis mode: Wavelengths
Number of Pixels in Spectrum: 2048
>>>>>Begin Spectral Data<<<<<
223.165	-21.12
223.4	-21.12
223.635	-21.12
223.869	-25.12
224.104	-23.12
224.338	-8.12
224.573	0.88
224.808	-4.12
225.042	-7.12
225.277	-14.12
225.511	-9.12
225.746	4.88
225.98	11.88
226.215	8.88
226.449	15.88
226.683	13.88
226.918	27.88
227.152	27.88
227.387	35.88
227.621	33.88
227.856	43.88
228.09	56.88
228.324	52.88
228.559	61.88
228.793	56.88
229.027	78.88
229.262	100.88
229.496	106.88
229.73	117.88
229.964	146.88
230.199	123.88
230.433	115.88
230.667	97.88
230.901	102.88
231.136	120.88
231.37	101.88
231.604	113.88
231.838	114.88
232.072	112.88
232.306	95.88
232.541	128.88
232.775	95.88
233.009	100.88
233.243	94.88
233.477	112.88
233.711	105.88
233.945	108.88
234.179	118.88
234.413	122.88
234.647	116.88
234.881	109.88
235.115	117.88
235.349	110.88
235.583	116.88
235.817	103.88
236.051	116.88
236.285	118.88
236.519	129.88
236.753	129.88
236.987	129.88
237.221	161.88
237.455	207.88
237.689	180.88
237.922	136.88
238.156	110.88
238.39	141.88
238.624	128.88
238.858	110.88
239.091	126.88
239.325	122.88
239.559	114.88
239.793	111.88
240.027	122.88
240.26	128.88
240.494	142.88
240.728	154.88
240.961	136.88
241.195	140.88
241.429	135.88
241.662	131.88
241.896	128.88
242.13	116.88
242.363	134.88
242.597	140.88
242.83	132.88
243.064	126.88
243.298	140.88
243.531	137.88
243.765	125.88
243.998	131.88
244.232	132.88
244.465	143.88
244.699	144.88
244.932	145.88
245.166	129.88
245.399	138.88
245.633	143.88
245.866	148.88
246.099	148.88
246.333	139.88
246.566	149.88
246.8	151.88
247.033	137.88
247.266	150.88
247.5	152.88
247.733	149.88
247.966	148.88
248.2	160.88
248.433	153.88
248.666	159.88
248.899	170.88
249.133	167.88
249.366	201.88
249.599	180.88
249.832	176.88
250.066	178.88
250.299	172.88
250.532	171.88
250.765	201.88
250.998	185.88
251.231	186.88
251.465	186.88
251.698	167.88
251.931	190.88
252.164	165.88
252.397	180.88
252.63	180.88
252.863	197.88
253.096	191.88
253.329	209.88
253.562	196.88
253.795	193.88
254.028	200.88
254.261	197.88
254.494	207.88
254.727	217.88
254.96	252.88
255.193	226.88
255.426	218.88
255.659	193.88
255.892	215.88
256.124	196.88
256.357	216.88
256.59	199.88
256.823	187.88
257.056	170.88
257.289	189.88
257.521	183.88
257.754	189.88
257.987	189.88
258.22	190.88
258.452	193.88
258.685	197.88
258.918	194.88
259.151	210.88
259.383	201.88
259.616	192.88
259.849	203.88
260.081	202.88
260.314	220.88
260.547	233.88
260.779	215.88
261.012	209.88
261.244	195.88
261.477	196.88
261.71	217.88
261.942	208.88
262.175	219.88
262.407	213.88
262.64	199.88
262.872	208.88
263.105	185.88
263.337	196.88
263.57	192.88
263.802	200.88
264.035	206.88
264.267	205.88
264.499	207.88
264.732	198.88
264.964	182.88
265.197	192.88
265.429	179.88
265.661	197.88
265.894	207.88
266.126	212.88
266.358	211.88
266.591	197.88
266.823	212.88
267.055	203.88
267.287	208.88
267.52	208.88
267.752	206.88
267.984	213.88
268.216	226.88
268.448	218.88
268.681	235.88
268.913	219.88
269.145	229.88
269.377	262.88
269.609	244.88
269.841	238.88
270.073	234.88
270.306	245.88
270.538	276.88
270.77	275.88
271.002	263.88
271.234	248.88
271.466	260.88
271.698	260.88
271.93	269.88
272.162	267.88
272.394	273.88
272.626	272.88
272.858	279.88
273.09	260.88
273.322	256.88
273.553	244.88
273.785	237.88
274.017	226.88
274.249	241.88
274.481	244.88
274.713	234.88
274.945	267.88
275.176	254.88
275.408	242.88
275.64	246.88
275.872	247.88
276.104	261.88
276.335	243.88
276.567	246.88
276.799	267.88
277.031	274.88
277.262	273.88
277.494	279.88
277.726	285.88
277.957	266.88
278.189	261.88
278.421	245.88
278.652	242.88
278.884	249.88
279.115	249.88
279.347	245.88
279.579	236.88
279.81	263.88
280.042	257.88
280.273	241.88
280.505	262.88
280.736	256.88
280.968	237.88
281.199	252.88
281.431	256.88
281.662	269.88
281.894	251.88
282.125	253.88
282.356	275.88
282.588	275.88
282.819	302.88
283.051	266.88
283.282	265.88
283.513	243.88
283.745	248.88
283.976	272.88
284.207	281.88
284.439	270.88
284.67	268.88
284.901	278.88
285.132	273.88
285.364	248.88
285.595	266.88
285.826	259.88
286.057	258.88
286.288	252.88
286.52	265.88
286.751	272.88
286.982	248.88
287.213	262.88
287.444	265.88
287.675	265.88
287.906	284.88
288.138	281.88
288.369	282.88
288.6	280.88
288.831	285.88
289.062	267.88
289.293	273.88
289.524	267.88
289.755	300.88
289.986	269.88
290.217	272.88
290.448	292.88
290.679	279.88
290.91	276.88
291.141	298.88
291.371	283.88
291.602	265.88
291.833	281.88
292.064	269.88
292.295	266.88
292.526	274.88
292.757	266.88
292.987	283.88
293.218	278.88
293.449	256.88
293.68	284.88
293.91	276.88
294.141	248.88
294.372	277.88
294.603	285.88
294.833	300.88
295.064	292.88
295.295	279.88
295.525	266.88
295.756	287.88
295.987	284.88
296.217	316.88
296.448	341.88
296.679	295.88
296.909	283.88
297.14	282.88
297.37	301.88
297.601	312.88
297.831	277.88
298.062	285.88
298.292	290.88
298.523	299.88
298.753	321.88
298.984	277.88
299.214	294.88
299.445	305.88
299.675	276.88
299.905	292.88
300.136	316.88
300.366	284.88
300.597	308.88
300.827	308.88
301.057	313.88
301.288	306.88
301.518	314.88
301.748	313.88
301.979	320.88
302.209	320.88
302.439	307.88
302.669	320.88
302.9	321.88
303.13	315.88
303.36	328.88
303.59	338.88
303.82	325.88
304.051	306.88
304.281	313.88
304.511	317.88
304.741	305.88
304.971	283.88
305.201	313.88
305.431	319.88
305.661	314.88
305.891	313.88
306.121	301.88
306.352	341.88
306.582	324.88
306.812	322.88
307.042	317.88
307.272	307.88
307.502	304.88
307.731	323.88
307.961	329.88
308.191	320.88
308.421	327.88
308.651	322.88
308.881	299.88
309.111	342.88
309.341	329.88
309.571	352.88
309.8	357.88
310.03	334.88
310.26	348.88
310.49	368.88
310.72	343.88
310.949	360.88
311.179	370.88
311.409	362.88
311.639	349.88
311.868	376.88
312.098	377.88
312.328	354.88
312.557	363.88
312.787	379.88
313.017	389.88
313.246	357.88
313.476	356.88
313.706	353.88
313.935	363.88
314.165	356.88
314.394	379.88
314.624	390.88
314.853	381.88
315.083	365.88
315.312	366.88
315.542	355.88
315.771	356.88
316.001	352.88
316.23	362.88
316.46	371.88
316.689	352.88
316.919	357.88
317.148	373.88
317.377	370.88
317.607	371.88
317.836	385.88
318.065	351.88
318.295	357.88
318.524	348.88
318.753	368.88
318.983	360.88
319.212	361.88
319.441	368.88
319.67	370.88
319.9	379.88
320.129	349.88
320.358	360.88
320.587	352.88
320.816	389.88
321.046	386.88
321.275	388.88
321.504	372.88
321.733	374.88
321.962	386.88
322.191	388.88
322.42	413.88
322.649	415.88
322.878	422.88
323.108	427.88
323.337	429.88
323.566	490.88
323.795	472.88
324.024	532.88
324.253	617.88
324.482	857.88
324.71	1382.88
324.939	2080.88
325.168	1789.88
325.397	900.88
325.626	613.88
325.855	479.88
326.084	462.88
326.313	484.88
326.542	448.88
326.77	517.88
326.999	609.88
327.228	792.88
327.457	1269.88
327.686	1566.88
327.914	1005.88
328.143	658.88
328.372	568.88
328.6	532.88
328.829	516.88
329.058	518.88
329.287	515.88
329.515	496.88
329.744	438.88
329.972	461.88
330.201	492.88
330.43	518.88
330.658	534.88
330.887	545.88
331.115	535.88
331.344	481.88
331.572	466.88
331.801	472.88
332.03	446.88
332.258	467.88
332.486	427.88
332.715	440.88
332.943	448.88
333.172	452.88
333.4	442.88
333.629	430.88
333.857	470.88
334.085	478.88
334.314	458.88
334.542	487.88
334.771	521.88
334.999	489.88
335.227	453.88
335.455	441.88
335.684	474.88
335.912	429.88
336.14	429.88
336.369	437.88
336.597	455.88
336.825	459.88
337.053	459.88
337.281	421.88
337.51	431.88
337.738	429.88
337.966	430.88
338.194	437.88
338.422	423.88
338.65	433.88
338.878	409.88
339.106	410.88
339.334	432.88
339.562	414.88
339.79	418.88
340.018	443.88
340.246	416.88
340.474	426.88
340.702	426.88
340.93	403.88
341.158	415.88
341.386	432.88
341.614	422.88
341.842	419.88
342.07	428.88
342.298	430.88
342.526	415.88
342.754	406.88
342.981	399.88
343.209	412.88
343.437	404.88
343.665	427.88
343.893	452.88
344.12	428.88
344.348	437.88
344.576	438.88
344.804	446.88
345.031	450.88
345.259	438.88
345.487	436.88
345.714	437.88
345.942	418.88
346.17	399.88
346.397	420.88
346.625	409.88
346.853	400.88
347.08	405.88
347.308	416.88
347.535	433.88
347.763	416.88
347.99	413.88
348.218	433.88
348.445	434.88
348.673	434.88
348.9	414.88
349.128	414.88
349.355	380.88
349.583	396.88
349.81	402.88
350.037	412.88
350.265	393.88
350.492	392.88
350.72	402.88
350.947	399.88
351.174	422.88
351.402	420.88
351.629	413.88
351.856	407.88
352.083	414.88
352.311	396.88
352.538	443.88
352.765	426.88
352.992	402.88
353.22	409.88
353.447	399.88
353.674	416.88
353.901	403.88
354.128	422.88
354.355	395.88
354.583	395.88
354.81	382.88
355.037	384.88
355.264	402.88
355.491	403.88
355.718	393.88
355.945	380.88
356.172	387.88
356.399	382.88
356.626	393.88
356.853	397.88
357.08	387.88
357.307	397.88
357.534	386.88
357.761	395.88
357.988	386.88
358.215	412.88
358.441	388.88
358.668	389.88
358.895	383.88
359.122	398.88
359.349	388.88
359.576	421.88
359.802	417.88
360.029	461.88
360.256	454.88
360.483	432.88
360.709	417.88
360.936	410.88
361.163	409.88
361.39	416.88
361.616	403.88
361.843	416.88
362.07	392.88
362.296	409.88
362.523	409.88
362.749	404.88
362.976	406.88
363.203	415.88
363.429	414.88
363.656	396.88
363.882	397.88
364.109	385.88
364.335	417.88
364.562	424.88
364.788	427.88
365.015	392.88
365.241	407.88
365.468	403.88
365.694	409.88
365.92	417.88
366.147	389.88
366.373	420.88
366.599	383.88
366.826	412.88
367.052	390.88
367.278	398.88
367.505	396.88
367.731	396.88
367.957	410.88
368.184	406.88
368.41	425.88
368.636	405.88
368.862	419.88
369.089	407.88
369.315	417.88
369.541	397.88
369.767	409.88
369.993	390.88
370.219	428.88
370.445	426.88
370.672	418.88
370.898	402.88
371.124	415.88
371.35	420.88
371.576	397.88
371.802	414.88
372.028	398.88
372.254	418.88
372.48	427.88
372.706	401.88
372.932	425.88
373.158	410.88
373.384	438.88
373.61	408.88
373.835	416.88
374.061	422.88
374.287	416.88
374.513	439.88
374.739	427.88
374.965	416.88
375.191	443.88
375.416	430.88
375.642	425.88
375.868	428.88
376.094	406.88
376.319	401.88
376.545	403.88
376.771	425.88
376.997	411.88
377.222	416.88
377.448	425.88
377.674	425.88
377.899	410.88
378.125	415.88
378.35	409.88
378.576	402.88
378.802	412.88
379.027	424.88
379.253	411.88
379.478	407.88
379.704	412.88
379.929	401.88
380.155	404.88
380.38	392.88
380.606	402.88
380.831	387.88
381.057	433.88
381.282	425.88
381.507	411.88
381.733	423.88
381.958	412.88
382.184	409.88
382.409	412.88
382.634	420.88
382.86	449.88
383.085	415.88
383.31	424.88
383.535	434.88
383.761	424.88
383.986	444.88
384.211	428.88
384.436	440.88
384.662	428.88
384.887	442.88
385.112	444.88
385.337	444.88
385.562	452.88
385.787	438.88
386.013	469.88
386.238	465.88
386.463	469.88
386.688	449.88
386.913	453.88
387.138	461.88
387.363	443.88
387.588	454.88
387.813	463.88
388.038	455.88
388.263	484.88
388.488	475.88
388.713	480.88
388.938	465.88
389.163	454.88
389.387	474.88
389.612	463.88
389.837	474.88
390.062	460.88
390.287	470.88
390.512	444.88
390.736	459.88
390.961	471.88
391.186	454.88
391.411	474.88
391.636	489.88
391.86	482.88
392.085	488.88
392.31	461.88
392.534	450.88
392.759	460.88
392.984	496.88
393.208	466.88
393.433	498.88
393.658	471.88
393.882	477.88
394.107	460.88
394.331	472.88
394.556	482.88
394.78	486.88
395.005	472.88
395.229	489.88
395.454	492.88
395.678	488.88
395.903	508.88
396.127	536.88
396.352	521.88
396.576	475.88
396.801	486.88
397.025	509.88
397.249	504.88
397.474	498.88
397.698	512.88
397.922	515.88
398.147	548.88
398.371	525.88
398.595	537.88
398.82	541.88
399.044	554.88
399.268	560.88
399.492	589.88
399.717	632.88
399.941	662.88
400.165	660.88
400.389	685.88
400.613	620.88
400.837	579.88
401.062	564.88
401.286	561.88
401.51	535.88
401.734	562.88
401.958	578.88
402.182	547.88
402.406	543.88
402.63	556.88
402.854	542.88
403.078	558.88
403.302	566.88
403.526	572.88
403.75	564.88
403.974	562.88
404.198	563.88
404.422	573.88
404.645	580.88
404.869	564.88
405.093	613.88
405.317	614.88
405.541	671.88
405.765	598.88
405.988	610.88
406.212	601.88
406.436	588.88
406.66	634.88
406.883	604.88
407.107	654.88
407.331	666.88
407.555	730.88
407.778	737.88
408.002	680.88
408.226	634.88
408.449	624.88
408.673	634.88
408.896	673.88
409.12	699.88
409.344	662.88
409.567	590.88
409.791	580.88
410.014	579.88
410.238	554.88
410.461	567.88
410.685	551.88
410.908	571.88
411.132	634.88
411.355	663.88
411.578	636.88
411.802	557.88
412.025	575.88
412.249	595.88
412.472	593.88
412.695	638.88
412.919	612.88
413.142	573.88
413.365	550.88
413.589	541.88
413.812	525.88
414.035	534.88
414.258	523.88
414.482	546.88
414.705	528.88
414.928	537.88
415.151	536.88
415.374	570.88
415.597	544.88
415.821	528.88
416.044	544.88
416.267	532.88
416.49	546.88
416.713	524.88
416.936	502.88
417.159	534.88
417.382	522.88
417.605	541.88
417.828	532.88
418.051	548.88
418.274	554.88
418.497	534.88
418.72	541.88
418.943	520.88
419.166	547.88
419.389	577.88
419.611	567.88
419.834	551.88
420.057	548.88
420.28	574.88
420.503	572.88
420.726	549.88
420.948	554.88
421.171	605.88
421.394	637.88
421.617	590.88
421.839	564.88
422.062	549.88
422.285	566.88
422.507	629.88
422.73	669.88
422.953	652.88
423.175	590.88
423.398	560.88
423.621	575.88
423.843	598.88
424.066	574.88
424.288	569.88
424.511	580.88
424.733	637.88
424.956	733.88
425.178	701.88
425.401	673.88
425.623	724.88
425.846	634.88
426.068	591.88
426.291	571.88
426.513	569.88
426.735	583.88
426.958	618.88
427.18	714.88
427.402	857.88
427.625	954.88
427.847	813.88
428.069	686.88
428.292	650.88
428.514	588.88
428.736	565.88
428.958	545.88
429.181	531.88
429.403	546.88
429.625	541.88
429.847	571.88
430.069	646.88
430.292	642.88
430.514	565.88
430.736	567.88
430.958	546.88
431.18	522.88
431.402	541.88
431.624	512.88
431.846	527.88
432.068	505.88
432.29	543.88
432.512	512.88
432.734	536.88
432.956	523.88
433.178	534.88
433.4	545.88
433.622	520.88
433.844	553.88
434.066	520.88
434.287	542.88
434.509	508.88
434.731	540.88
434.953	554.88
435.175	582.88
435.397	568.88
435.618	582.88
435.84	642.88
436.062	727.88
436.284	820.88
436.505	664.88
436.727	601.88
436.949	555.88
437.17	538.88
437.392	547.88
437.614	553.88
437.835	584.88
438.057	680.88
438.278	793.88
438.5	780.88
438.721	862.88
438.943	827.88
439.165	666.88
439.386	598.88
439.608	576.88
439.829	579.88
440.05	615.88
440.272	658.88
440.493	617.88
440.715	605.88
440.936	564.88
441.158	537.88
441.379	544.88
441.6	565.88
441.822	578.88
442.043	638.88
442.264	711.88
442.486	760.88
442.707	643.88
442.928	616.88
443.149	581.88
443.371	603.88
443.592	664.88
443.813	775.88
444.034	824.88
444.255	689.88
444.476	634.88
444.698	586.88
444.919	616.88
445.14	708.88
445.361	664.88
445.582	617.88
445.803	696.88
446.024	778.88
446.245	808.88
446.466	749.88
446.687	634.88
446.908	577.88
447.129	562.88
447.35	564.88
447.571	537.88
447.792	506.88
448.013	550.88
448.234	549.88
448.455	600.88
448.675	718.88
448.896	850.88
449.117	708.88
449.338	657.88
449.559	782.88
449.779	909.88
450	733.88
450.221	587.88
450.442	550.88
450.662	530.88
450.883	532.88
451.104	550.88
451.324	551.88
451.545	533.88
451.766	511.88
451.986	497.88
452.207	495.88
452.428	472.88
452.648	480.88
452.869	471.88
453.089	508.88
453.31	501.88
453.53	498.88
453.751	509.88
453.971	488.88
454.192	502.88
454.412	483.88
454.633	482.88
454.853	497.88
455.073	492.88
455.294	526.88
455.514	567.88
455.734	572.88
455.955	485.88
456.175	482.88
456.395	461.88
456.616	474.88
456.836	457.88
457.056	465.88
457.276	457.88
457.497	458.88
457.717	457.88
457.937	482.88
458.157	496.88
458.377	483.88
458.598	500.88
458.818	543.88
459.038	626.88
459.258	648.88
459.478	557.88
459.698	530.88
459.918	550.88
460.138	536.88
460.358	530.88
460.578	551.88
460.798	529.88
461.018	553.88
461.238	543.88
461.458	568.88
461.678	553.88
461.898	556.88
462.118	546.88
462.338	561.88
462.558	537.88
462.777	569.88
462.997	577.88
463.217	597.88
463.437	589.88
463.657	589.88
463.876	592.88
464.096	602.88
464.316	576.88
464.536	576.88
464.755	556.88
464.975	565.88
465.195	605.88
465.414	647.88
465.634	591.88
465.854	560.88
466.073	552.88
466.293	532.88
466.512	511.88
466.732	518.88
466.951	534.88
467.171	482.88
467.391	505.88
467.61	521.88
467.829	522.88
468.049	505.88
468.268	519.88
468.488	494.88
468.707	496.88
468.927	508.88
469.146	494.88
469.365	493.88
469.585	491.88
469.804	494.88
470.023	516.88
470.243	508.88
470.462	518.88
470.681	531.88
470.901	502.88
471.12	507.88
471.339	520.88
471.558	495.88
471.777	506.88
471.997	507.88
472.216	514.88
472.435	525.88
472.654	525.88
472.873	503.88
473.092	520.88
473.311	521.88
473.53	525.88
473.749	530.88
473.968	556.88
474.187	668.88
474.406	689.88
474.625	561.88
474.844	526.88
475.063	516.88
475.282	513.88
475.501	525.88
475.72	528.88
475.939	526.88
476.158	542.88
476.377	533.88
476.596	553.88
476.814	552.88
477.033	546.88
477.252	545.88
477.471	574.88
477.69	556.88
477.908	572.88
478.127	574.88
478.346	568.88
478.564	576.88
478.783	585.88
479.002	582.88
479.22	580.88
479.439	615.88
479.658	605.88
479.876	609.88
480.095	596.88
480.313	653.88
480.532	626.88
480.751	658.88
480.969	613.88
481.188	658.88
481.406	685.88
481.624	630.88
481.843	611.88
482.061	615.88
482.28	593.88
482.498	602.88
482.717	604.88
482.935	605.88
483.153	617.88
483.372	598.88
483.59	592.88
483.808	621.88
484.027	598.88
484.245	595.88
484.463	604.88
484.681	620.88
484.9	634.88
485.118	630.88
485.336	617.88
485.554	607.88
485.772	639.88
485.99	622.88
486.209	630.88
486.427	628.88
486.645	636.88
486.863	655.88
487.081	636.88
487.299	670.88
487.517	621.88
487.735	634.88
487.953	650.88
488.171	637.88
488.389	629.88
488.607	642.88
488.825	666.88
489.043	640.88
489.261	660.88
489.479	640.88
489.696	642.88
489.914	651.88
490.132	642.88
490.35	646.88
490.568	654.88
490.786	681.88
491.003	671.88
491.221	666.88
491.439	688.88
491.657	710.88
491.874	706.88
492.092	711.88
492.31	683.88
492.527	706.88
492.745	716.88
492.963	702.88
493.18	728.88
493.398	723.88
493.615	711.88
493.833	715.88
494.05	722.88
494.268	750.88
494.485	732.88
494.703	716.88
494.92	734.88
495.138	713.88
495.355	715.88
495.573	735.88
495.79	726.88
496.008	749.88
496.225	791.88
496.442	774.88
496.66	773.88
496.877	744.88
497.094	763.88
497.312	746.88
497.529	776.88
497.746	797.88
497.963	811.88
498.181	849.88
498.398	822.88
498.615	865.88
498.832	896.88
499.049	884.88
499.267	917.88
499.484	924.88
499.701	965.88
499.918	1005.88
500.135	1052.88
500.352	1069.88
500.569	1115.88
500.786	1121.88
501.003	1121.88
501.22	1092.88
501.437	1037.88
501.654	1002.88
501.871	980.88
