Data from 1978.PennyLincolnUp.Lamp.En5.5.200Scan.071719.P1_HRD10591_16-14-23-863.txt Node
Date: Thu Jul 18 16:14:23 EDT 2019
User: cochatt
Spectrometer: HR+D1059
Trigger mode: 1
Integration Time (sec): 1.000000E-1
Scans to average: 1
Electric dark correction enabled: true
Nonlinearity correction enabled: false
Boxcar width: 0
XAxis mode: Wavelengths
Number of Pixels in Spectrum: 2048
>>>>>Begin Spectral Data<<<<<
223.165	-24.44
223.4	-24.44
223.635	-24.44
223.869	-2.44
224.104	-9.44
224.338	-17.44
224.573	-20.44
224.808	-20.44
225.042	-0.44
225.277	5.56
225.511	-14.44
225.746	9.56
225.98	1.56
226.215	9.56
226.449	12.56
226.683	28.56
226.918	19.56
227.152	22.56
227.387	35.56
227.621	45.56
227.856	39.56
228.09	27.56
228.324	55.56
228.559	59.56
228.793	68.56
229.027	112.56
229.262	100.56
229.496	125.56
229.73	136.56
229.964	144.56
230.199	128.56
230.433	121.56
230.667	109.56
230.901	108.56
231.136	105.56
231.37	112.56
231.604	100.56
231.838	108.56
232.072	118.56
232.306	109.56
232.541	105.56
232.775	100.56
233.009	116.56
233.243	121.56
233.477	128.56
233.711	109.56
233.945	121.56
234.179	104.56
234.413	124.56
234.647	115.56
234.881	123.56
235.115	125.56
235.349	117.56
235.583	121.56
235.817	120.56
236.051	120.56
236.285	137.56
236.519	128.56
236.753	133.56
236.987	133.56
237.221	175.56
237.455	244.56
237.689	192.56
237.922	131.56
238.156	124.56
238.39	117.56
238.624	133.56
238.858	117.56
239.091	116.56
239.325	128.56
239.559	134.56
239.793	116.56
240.027	133.56
240.26	132.56
240.494	155.56
240.728	148.56
240.961	140.56
241.195	144.56
241.429	129.56
241.662	153.56
241.896	116.56
242.13	130.56
242.363	141.56
242.597	134.56
242.83	138.56
243.064	145.56
243.298	157.56
243.531	150.56
243.765	125.56
243.998	125.56
244.232	152.56
244.465	140.56
244.699	131.56
244.932	140.56
245.166	147.56
245.399	133.56
245.633	147.56
245.866	138.56
246.099	125.56
246.333	144.56
246.566	152.56
246.8	142.56
247.033	168.56
247.266	157.56
247.5	160.56
247.733	167.56
247.966	161.56
248.2	150.56
248.433	174.56
248.666	173.56
248.899	150.56
249.133	176.56
249.366	207.56
249.599	188.56
249.832	185.56
250.066	166.56
250.299	184.56
250.532	182.56
250.765	178.56
250.998	205.56
251.231	200.56
251.465	209.56
251.698	189.56
251.931	187.56
252.164	179.56
252.397	190.56
252.63	172.56
252.863	192.56
253.096	206.56
253.329	211.56
253.562	210.56
253.795	212.56
254.028	205.56
254.261	184.56
254.494	226.56
254.727	240.56
254.96	255.56
255.193	264.56
255.426	230.56
255.659	230.56
255.892	231.56
256.124	227.56
256.357	230.56
256.59	216.56
256.823	190.56
257.056	193.56
257.289	192.56
257.521	203.56
257.754	196.56
257.987	184.56
258.22	204.56
258.452	189.56
258.685	195.56
258.918	209.56
259.151	215.56
259.383	218.56
259.616	207.56
259.849	229.56
260.081	233.56
260.314	239.56
260.547	261.56
260.779	245.56
261.012	227.56
261.244	216.56
261.477	218.56
261.71	212.56
261.942	228.56
262.175	221.56
262.407	220.56
262.64	224.56
262.872	194.56
263.105	217.56
263.337	214.56
263.57	210.56
263.802	204.56
264.035	206.56
264.267	202.56
264.499	211.56
264.732	186.56
264.964	200.56
265.197	212.56
265.429	223.56
265.661	206.56
265.894	211.56
266.126	220.56
266.358	220.56
266.591	206.56
266.823	216.56
267.055	218.56
267.287	201.56
267.52	205.56
267.752	220.56
267.984	204.56
268.216	217.56
268.448	228.56
268.681	230.56
268.913	245.56
269.145	245.56
269.377	265.56
269.609	256.56
269.841	234.56
270.073	242.56
270.306	272.56
270.538	300.56
270.77	297.56
271.002	264.56
271.234	286.56
271.466	278.56
271.698	298.56
271.93	286.56
272.162	293.56
272.394	279.56
272.626	281.56
272.858	276.56
273.09	275.56
273.322	259.56
273.553	278.56
273.785	252.56
274.017	262.56
274.249	244.56
274.481	260.56
274.713	269.56
274.945	258.56
275.176	267.56
275.408	238.56
275.64	262.56
275.872	260.56
276.104	247.56
276.335	248.56
276.567	260.56
276.799	269.56
277.031	290.56
277.262	305.56
277.494	322.56
277.726	295.56
277.957	278.56
278.189	271.56
278.421	280.56
278.652	264.56
278.884	264.56
279.115	267.56
279.347	252.56
279.579	250.56
279.81	262.56
280.042	251.56
280.273	268.56
280.505	290.56
280.736	268.56
280.968	265.56
281.199	256.56
281.431	242.56
281.662	276.56
281.894	264.56
282.125	268.56
282.356	278.56
282.588	306.56
282.819	309.56
283.051	284.56
283.282	275.56
283.513	253.56
283.745	268.56
283.976	271.56
284.207	276.56
284.439	289.56
284.67	275.56
284.901	269.56
285.132	264.56
285.364	279.56
285.595	288.56
285.826	270.56
286.057	272.56
286.288	268.56
286.52	268.56
286.751	276.56
286.982	263.56
287.213	269.56
287.444	270.56
287.675	277.56
287.906	280.56
288.138	302.56
288.369	302.56
288.6	312.56
288.831	283.56
289.062	301.56
289.293	288.56
289.524	302.56
289.755	289.56
289.986	276.56
290.217	276.56
290.448	288.56
290.679	293.56
290.91	282.56
291.141	304.56
291.371	294.56
291.602	288.56
291.833	276.56
292.064	285.56
292.295	297.56
292.526	281.56
292.757	294.56
292.987	269.56
293.218	281.56
293.449	291.56
293.68	287.56
293.91	282.56
294.141	300.56
294.372	287.56
294.603	283.56
294.833	296.56
295.064	288.56
295.295	283.56
295.525	294.56
295.756	305.56
295.987	297.56
296.217	319.56
296.448	326.56
296.679	320.56
296.909	300.56
297.14	288.56
297.37	306.56
297.601	313.56
297.831	292.56
298.062	294.56
298.292	309.56
298.523	311.56
298.753	314.56
298.984	318.56
299.214	291.56
299.445	306.56
299.675	307.56
299.905	317.56
300.136	328.56
300.366	296.56
300.597	325.56
300.827	306.56
301.057	316.56
301.288	328.56
301.518	330.56
301.748	301.56
301.979	324.56
302.209	329.56
302.439	318.56
302.669	339.56
302.9	324.56
303.13	332.56
303.36	340.56
303.59	321.56
303.82	328.56
304.051	317.56
304.281	332.56
304.511	318.56
304.741	309.56
304.971	328.56
305.201	314.56
305.431	308.56
305.661	330.56
305.891	325.56
306.121	338.56
306.352	340.56
306.582	327.56
306.812	339.56
307.042	331.56
307.272	326.56
307.502	320.56
307.731	337.56
307.961	318.56
308.191	328.56
308.421	337.56
308.651	356.56
308.881	344.56
309.111	343.56
309.341	355.56
309.571	346.56
309.8	351.56
310.03	372.56
310.26	367.56
310.49	343.56
310.72	377.56
310.949	387.56
311.179	391.56
311.409	398.56
311.639	364.56
311.868	377.56
312.098	376.56
312.328	378.56
312.557	391.56
312.787	427.56
313.017	393.56
313.246	381.56
313.476	363.56
313.706	363.56
313.935	408.56
314.165	378.56
314.394	393.56
314.624	389.56
314.853	386.56
315.083	379.56
315.312	383.56
315.542	376.56
315.771	368.56
316.001	378.56
316.23	379.56
316.46	373.56
316.689	372.56
316.919	376.56
317.148	393.56
317.377	384.56
317.607	391.56
317.836	352.56
318.065	372.56
318.295	374.56
318.524	394.56
318.753	378.56
318.983	377.56
319.212	377.56
319.441	356.56
319.67	396.56
319.9	392.56
320.129	390.56
320.358	387.56
320.587	374.56
320.816	376.56
321.046	407.56
321.275	415.56
321.504	383.56
321.733	381.56
321.962	396.56
322.191	424.56
322.42	434.56
322.649	443.56
322.878	446.56
323.108	469.56
323.337	461.56
323.566	512.56
323.795	504.56
324.024	560.56
324.253	685.56
324.482	1000.56
324.71	1586.56
324.939	2400.56
325.168	2064.56
325.397	998.56
325.626	656.56
325.855	566.56
326.084	506.56
326.313	520.56
326.542	505.56
326.77	562.56
326.999	644.56
327.228	905.56
327.457	1437.56
327.686	1794.56
327.914	1160.56
328.143	734.56
328.372	617.56
328.6	597.56
328.829	545.56
329.058	573.56
329.287	585.56
329.515	537.56
329.744	519.56
329.972	496.56
330.201	529.56
330.43	557.56
330.658	564.56
330.887	555.56
331.115	589.56
331.344	503.56
331.572	497.56
331.801	498.56
332.03	483.56
332.258	480.56
332.486	426.56
332.715	465.56
332.943	459.56
333.172	458.56
333.4	464.56
333.629	453.56
333.857	483.56
334.085	471.56
334.314	472.56
334.542	537.56
334.771	558.56
334.999	506.56
335.227	489.56
335.455	488.56
335.684	469.56
335.912	458.56
336.14	465.56
336.369	461.56
336.597	472.56
336.825	476.56
337.053	450.56
337.281	462.56
337.51	428.56
337.738	443.56
337.966	455.56
338.194	446.56
338.422	462.56
338.65	447.56
338.878	455.56
339.106	445.56
339.334	429.56
339.562	448.56
339.79	436.56
340.018	429.56
340.246	445.56
340.474	457.56
340.702	431.56
340.93	422.56
341.158	456.56
341.386	442.56
341.614	444.56
341.842	427.56
342.07	434.56
342.298	442.56
342.526	420.56
342.754	419.56
342.981	406.56
343.209	436.56
343.437	429.56
343.665	436.56
343.893	442.56
344.12	458.56
344.348	449.56
344.576	461.56
344.804	447.56
345.031	456.56
345.259	458.56
345.487	473.56
345.714	457.56
345.942	430.56
346.17	418.56
346.397	438.56
346.625	446.56
346.853	407.56
347.08	442.56
347.308	427.56
347.535	406.56
347.763	452.56
347.99	452.56
348.218	434.56
348.445	435.56
348.673	430.56
348.9	430.56
349.128	403.56
349.355	424.56
349.583	422.56
349.81	422.56
350.037	410.56
350.265	429.56
350.492	417.56
350.72	426.56
350.947	451.56
351.174	437.56
351.402	441.56
351.629	428.56
351.856	434.56
352.083	412.56
352.311	452.56
352.538	434.56
352.765	433.56
352.992	431.56
353.22	414.56
353.447	429.56
353.674	408.56
353.901	416.56
354.128	427.56
354.355	403.56
354.583	397.56
354.81	422.56
355.037	416.56
355.264	405.56
355.491	389.56
355.718	398.56
355.945	387.56
356.172	388.56
356.399	396.56
356.626	407.56
356.853	392.56
357.08	410.56
357.307	414.56
357.534	389.56
357.761	418.56
357.988	410.56
358.215	422.56
358.441	406.56
358.668	397.56
358.895	411.56
359.122	410.56
359.349	407.56
359.576	413.56
359.802	451.56
360.029	437.56
360.256	479.56
360.483	476.56
360.709	446.56
360.936	424.56
361.163	416.56
361.39	439.56
361.616	440.56
361.843	425.56
362.07	440.56
362.296	415.56
362.523	426.56
362.749	423.56
362.976	438.56
363.203	426.56
363.429	425.56
363.656	411.56
363.882	422.56
364.109	415.56
364.335	409.56
364.562	420.56
364.788	422.56
365.015	419.56
365.241	405.56
365.468	426.56
365.694	430.56
365.92	426.56
366.147	412.56
366.373	427.56
366.599	419.56
366.826	414.56
367.052	395.56
367.278	425.56
367.505	411.56
367.731	420.56
367.957	418.56
368.184	437.56
368.41	436.56
368.636	425.56
368.862	438.56
369.089	442.56
369.315	441.56
369.541	411.56
369.767	426.56
369.993	435.56
370.219	414.56
370.445	420.56
370.672	440.56
370.898	404.56
371.124	437.56
371.35	418.56
371.576	396.56
371.802	429.56
372.028	394.56
372.254	412.56
372.48	421.56
372.706	426.56
372.932	434.56
373.158	428.56
373.384	427.56
373.61	418.56
373.835	411.56
374.061	436.56
374.287	432.56
374.513	437.56
374.739	424.56
374.965	416.56
375.191	449.56
375.416	436.56
375.642	410.56
375.868	410.56
376.094	411.56
376.319	418.56
376.545	434.56
376.771	426.56
376.997	422.56
377.222	428.56
377.448	417.56
377.674	422.56
377.899	434.56
378.125	429.56
378.35	405.56
378.576	411.56
378.802	413.56
379.027	424.56
379.253	419.56
379.478	443.56
379.704	438.56
379.929	432.56
380.155	417.56
380.38	406.56
380.606	425.56
380.831	407.56
381.057	424.56
381.282	423.56
381.507	404.56
381.733	397.56
381.958	432.56
382.184	432.56
382.409	441.56
382.634	442.56
382.86	447.56
383.085	441.56
383.31	437.56
383.535	437.56
383.761	421.56
383.986	432.56
384.211	443.56
384.436	457.56
384.662	460.56
384.887	453.56
385.112	437.56
385.337	439.56
385.562	461.56
385.787	431.56
386.013	491.56
386.238	486.56
386.463	481.56
386.688	462.56
386.913	464.56
387.138	462.56
387.363	439.56
387.588	470.56
387.813	452.56
388.038	476.56
388.263	449.56
388.488	464.56
388.713	455.56
388.938	473.56
389.163	481.56
389.387	485.56
389.612	473.56
389.837	446.56
390.062	470.56
390.287	473.56
390.512	456.56
390.736	441.56
390.961	453.56
391.186	460.56
391.411	463.56
391.636	500.56
391.86	474.56
392.085	477.56
392.31	457.56
392.534	482.56
392.759	489.56
392.984	478.56
393.208	476.56
393.433	490.56
393.658	473.56
393.882	469.56
394.107	446.56
394.331	463.56
394.556	480.56
394.78	485.56
395.005	488.56
395.229	465.56
395.454	501.56
395.678	489.56
395.903	496.56
396.127	532.56
396.352	526.56
396.576	509.56
396.801	512.56
397.025	478.56
397.249	529.56
397.474	540.56
397.698	499.56
397.922	515.56
398.147	522.56
398.371	554.56
398.595	537.56
398.82	555.56
399.044	544.56
399.268	564.56
399.492	593.56
399.717	622.56
399.941	659.56
400.165	685.56
400.389	699.56
400.613	633.56
400.837	580.56
401.062	572.56
401.286	552.56
401.51	549.56
401.734	533.56
401.958	549.56
402.182	561.56
402.406	579.56
402.63	572.56
402.854	588.56
403.078	556.56
403.302	541.56
403.526	561.56
403.75	561.56
403.974	563.56
404.198	542.56
404.422	580.56
404.645	604.56
404.869	580.56
405.093	613.56
405.317	670.56
405.541	684.56
405.765	626.56
405.988	602.56
406.212	587.56
406.436	617.56
406.66	635.56
406.883	621.56
407.107	648.56
407.331	688.56
407.555	777.56
407.778	768.56
408.002	688.56
408.226	648.56
408.449	633.56
408.673	626.56
408.896	675.56
409.12	732.56
409.344	710.56
409.567	594.56
409.791	612.56
410.014	560.56
410.238	562.56
410.461	577.56
410.685	601.56
410.908	609.56
411.132	638.56
411.355	694.56
411.578	686.56
411.802	586.56
412.025	605.56
412.249	595.56
412.472	619.56
412.695	658.56
412.919	626.56
413.142	586.56
413.365	562.56
413.589	581.56
413.812	546.56
414.035	555.56
414.258	540.56
414.482	555.56
414.705	544.56
414.928	556.56
415.151	534.56
415.374	533.56
415.597	519.56
415.821	522.56
416.044	550.56
416.267	548.56
416.49	519.56
416.713	548.56
416.936	541.56
417.159	527.56
417.382	544.56
417.605	545.56
417.828	573.56
418.051	564.56
418.274	550.56
418.497	539.56
418.72	530.56
418.943	515.56
419.166	546.56
419.389	584.56
419.611	576.56
419.834	570.56
420.057	575.56
420.28	548.56
420.503	542.56
420.726	551.56
420.948	570.56
421.171	618.56
421.394	635.56
421.617	576.56
421.839	583.56
422.062	572.56
422.285	571.56
422.507	641.56
422.73	747.56
422.953	698.56
423.175	628.56
423.398	594.56
423.621	579.56
423.843	628.56
424.066	613.56
424.288	583.56
424.511	639.56
424.733	688.56
424.956	764.56
425.178	746.56
425.401	728.56
425.623	764.56
425.846	636.56
426.068	608.56
426.291	597.56
426.513	596.56
426.735	604.56
426.958	679.56
427.18	738.56
427.402	894.56
427.625	1002.56
427.847	848.56
428.069	739.56
428.292	658.56
428.514	568.56
428.736	602.56
428.958	591.56
429.181	591.56
429.403	541.56
429.625	559.56
429.847	608.56
430.069	684.56
430.292	688.56
430.514	590.56
430.736	562.56
430.958	568.56
431.18	532.56
431.402	549.56
431.624	533.56
431.846	540.56
432.068	524.56
432.29	538.56
432.512	530.56
432.734	553.56
432.956	544.56
433.178	556.56
433.4	541.56
433.622	557.56
433.844	552.56
434.066	526.56
434.287	536.56
434.509	557.56
434.731	544.56
434.953	571.56
435.175	575.56
435.397	588.56
435.618	615.56
435.84	664.56
436.062	761.56
436.284	856.56
436.505	716.56
436.727	618.56
436.949	553.56
437.17	576.56
437.392	561.56
437.614	571.56
437.835	602.56
438.057	695.56
438.278	823.56
438.5	830.56
438.721	934.56
438.943	891.56
439.165	694.56
439.386	600.56
439.608	620.56
439.829	604.56
440.05	645.56
440.272	701.56
440.493	667.56
440.715	584.56
440.936	576.56
441.158	562.56
441.379	532.56
441.6	601.56
441.822	595.56
442.043	644.56
442.264	754.56
442.486	802.56
442.707	658.56
442.928	600.56
443.149	640.56
443.371	657.56
443.592	689.56
443.813	813.56
444.034	896.56
444.255	712.56
444.476	629.56
444.698	619.56
444.919	623.56
445.14	716.56
445.361	660.56
445.582	652.56
445.803	719.56
446.024	849.56
446.245	862.56
446.466	775.56
446.687	636.56
446.908	614.56
447.129	582.56
447.35	562.56
447.571	567.56
447.792	545.56
448.013	565.56
448.234	587.56
448.455	620.56
448.675	749.56
448.896	894.56
449.117	754.56
449.338	684.56
449.559	844.56
449.779	983.56
450	752.56
450.221	611.56
450.442	576.56
450.662	527.56
450.883	560.56
451.104	569.56
451.324	545.56
451.545	538.56
451.766	519.56
451.986	506.56
452.207	513.56
452.428	500.56
452.648	501.56
452.869	501.56
453.089	513.56
453.31	524.56
453.53	514.56
453.751	491.56
453.971	508.56
454.192	531.56
454.412	514.56
454.633	498.56
454.853	508.56
455.073	495.56
455.294	530.56
455.514	609.56
455.734	590.56
455.955	502.56
456.175	498.56
456.395	459.56
456.616	434.56
456.836	475.56
457.056	496.56
457.276	470.56
457.497	482.56
457.717	488.56
457.937	487.56
458.157	501.56
458.377	500.56
458.598	528.56
458.818	600.56
459.038	658.56
459.258	667.56
459.478	587.56
459.698	550.56
459.918	540.56
460.138	545.56
460.358	546.56
460.578	560.56
460.798	548.56
461.018	580.56
461.238	563.56
461.458	560.56
461.678	526.56
461.898	565.56
462.118	550.56
462.338	578.56
462.558	576.56
462.777	563.56
462.997	591.56
463.217	599.56
463.437	610.56
463.657	601.56
463.876	586.56
464.096	589.56
464.316	608.56
464.536	572.56
464.755	599.56
464.975	588.56
465.195	617.56
465.414	670.56
465.634	604.56
465.854	587.56
466.073	520.56
466.293	532.56
466.512	551.56
466.732	522.56
466.951	522.56
467.171	496.56
467.391	517.56
467.61	530.56
467.829	525.56
468.049	522.56
468.268	552.56
468.488	506.56
468.707	519.56
468.927	525.56
469.146	480.56
469.365	493.56
469.585	514.56
469.804	536.56
470.023	532.56
470.243	517.56
470.462	520.56
470.681	542.56
470.901	542.56
471.12	524.56
471.339	533.56
471.558	519.56
471.777	529.56
471.997	524.56
472.216	549.56
472.435	541.56
472.654	544.56
472.873	535.56
473.092	493.56
473.311	537.56
473.53	504.56
473.749	504.56
473.968	568.56
474.187	684.56
474.406	709.56
474.625	582.56
474.844	539.56
475.063	530.56
475.282	534.56
475.501	541.56
475.72	534.56
475.939	513.56
476.158	536.56
476.377	544.56
476.596	522.56
476.814	537.56
477.033	543.56
477.252	574.56
477.471	537.56
477.69	561.56
477.908	567.56
478.127	560.56
478.346	580.56
478.564	610.56
478.783	601.56
479.002	613.56
479.22	631.56
479.439	636.56
479.658	623.56
479.876	638.56
480.095	647.56
480.313	669.56
480.532	669.56
480.751	643.56
480.969	667.56
481.188	706.56
481.406	727.56
481.624	672.56
481.843	644.56
482.061	616.56
482.28	613.56
482.498	612.56
482.717	627.56
482.935	613.56
483.153	605.56
483.372	618.56
483.59	586.56
483.808	616.56
484.027	604.56
484.245	608.56
484.463	598.56
484.681	648.56
484.9	631.56
485.118	634.56
485.336	644.56
485.554	652.56
485.772	635.56
485.99	648.56
486.209	654.56
486.427	650.56
486.645	666.56
486.863	667.56
487.081	685.56
487.299	653.56
487.517	661.56
487.735	648.56
487.953	672.56
488.171	659.56
488.389	645.56
488.607	661.56
488.825	668.56
489.043	658.56
489.261	693.56
489.479	674.56
489.696	668.56
489.914	663.56
490.132	691.56
490.35	685.56
490.568	654.56
490.786	677.56
491.003	704.56
491.221	706.56
491.439	727.56
491.657	736.56
491.874	730.56
492.092	728.56
492.31	721.56
492.527	752.56
492.745	767.56
492.963	743.56
493.18	760.56
493.398	746.56
493.615	766.56
493.833	756.56
494.05	763.56
494.268	756.56
494.485	759.56
494.703	754.56
494.92	771.56
495.138	742.56
495.355	780.56
495.573	771.56
495.79	772.56
496.008	771.56
496.225	781.56
496.442	771.56
496.66	800.56
496.877	788.56
497.094	772.56
497.312	794.56
497.529	794.56
497.746	836.56
497.963	819.56
498.181	853.56
498.398	873.56
498.615	889.56
498.832	926.56
499.049	910.56
499.267	944.56
499.484	940.56
499.701	994.56
499.918	1014.56
500.135	1061.56
500.352	1117.56
500.569	1109.56
500.786	1120.56
501.003	1106.56
501.22	1100.56
501.437	1049.56
501.654	1045.56
501.871	1000.56
