Data from 1978.PennyLincolnUp.Lamp.En5.5.200Scan.071719.P1_HRD10591_16-13-24-863.txt Node
Date: Thu Jul 18 16:13:24 EDT 2019
User: cochatt
Spectrometer: HR+D1059
Trigger mode: 1
Integration Time (sec): 1.000000E-1
Scans to average: 1
Electric dark correction enabled: true
Nonlinearity correction enabled: false
Boxcar width: 0
XAxis mode: Wavelengths
Number of Pixels in Spectrum: 2048
>>>>>Begin Spectral Data<<<<<
223.165	-26.56
223.4	-26.56
223.635	-26.56
223.869	-22.56
224.104	-3.56
224.338	-6.56
224.573	-9.56
224.808	-8.56
225.042	-23.56
225.277	0.44
225.511	4.44
225.746	-6.56
225.98	0.44
226.215	15.44
226.449	14.44
226.683	15.44
226.918	18.44
227.152	38.44
227.387	37.44
227.621	30.44
227.856	31.44
228.09	46.44
228.324	45.44
228.559	66.44
228.793	67.44
229.027	94.44
229.262	107.44
229.496	120.44
229.73	136.44
229.964	149.44
230.199	115.44
230.433	105.44
230.667	107.44
230.901	104.44
231.136	104.44
231.37	115.44
231.604	123.44
231.838	115.44
232.072	108.44
232.306	112.44
232.541	112.44
232.775	113.44
233.009	108.44
233.243	108.44
233.477	118.44
233.711	106.44
233.945	113.44
234.179	107.44
234.413	121.44
234.647	110.44
234.881	117.44
235.115	107.44
235.349	101.44
235.583	126.44
235.817	114.44
236.051	130.44
236.285	128.44
236.519	117.44
236.753	125.44
236.987	152.44
237.221	173.44
237.455	232.44
237.689	178.44
237.922	128.44
238.156	139.44
238.39	133.44
238.624	116.44
238.858	124.44
239.091	116.44
239.325	110.44
239.559	136.44
239.793	115.44
240.027	132.44
240.26	138.44
240.494	149.44
240.728	142.44
240.961	143.44
241.195	128.44
241.429	139.44
241.662	137.44
241.896	142.44
242.13	130.44
242.363	133.44
242.597	136.44
242.83	128.44
243.064	125.44
243.298	132.44
243.531	138.44
243.765	128.44
243.998	129.44
244.232	124.44
244.465	130.44
244.699	150.44
244.932	148.44
245.166	139.44
245.399	140.44
245.633	151.44
245.866	148.44
246.099	128.44
246.333	138.44
246.566	153.44
246.8	148.44
247.033	139.44
247.266	168.44
247.5	157.44
247.733	154.44
247.966	156.44
248.2	154.44
248.433	161.44
248.666	169.44
248.899	187.44
249.133	182.44
249.366	183.44
249.599	184.44
249.832	181.44
250.066	186.44
250.299	170.44
250.532	161.44
250.765	180.44
250.998	192.44
251.231	196.44
251.465	211.44
251.698	182.44
251.931	185.44
252.164	190.44
252.397	188.44
252.63	196.44
252.863	189.44
253.096	199.44
253.329	208.44
253.562	220.44
253.795	186.44
254.028	194.44
254.261	198.44
254.494	203.44
254.727	228.44
254.96	260.44
255.193	243.44
255.426	214.44
255.659	189.44
255.892	196.44
256.124	201.44
256.357	217.44
256.59	210.44
256.823	168.44
257.056	205.44
257.289	187.44
257.521	185.44
257.754	178.44
257.987	198.44
258.22	197.44
258.452	201.44
258.685	197.44
258.918	205.44
259.151	211.44
259.383	210.44
259.616	201.44
259.849	220.44
260.081	208.44
260.314	226.44
260.547	238.44
260.779	222.44
261.012	220.44
261.244	206.44
261.477	214.44
261.71	195.44
261.942	189.44
262.175	229.44
262.407	218.44
262.64	201.44
262.872	197.44
263.105	213.44
263.337	196.44
263.57	190.44
263.802	202.44
264.035	197.44
264.267	196.44
264.499	197.44
264.732	195.44
264.964	210.44
265.197	201.44
265.429	213.44
265.661	206.44
265.894	214.44
266.126	216.44
266.358	215.44
266.591	207.44
266.823	223.44
267.055	197.44
267.287	216.44
267.52	215.44
267.752	230.44
267.984	227.44
268.216	225.44
268.448	207.44
268.681	237.44
268.913	226.44
269.145	226.44
269.377	262.44
269.609	248.44
269.841	238.44
270.073	264.44
270.306	268.44
270.538	292.44
270.77	282.44
271.002	274.44
271.234	267.44
271.466	280.44
271.698	269.44
271.93	276.44
272.162	304.44
272.394	296.44
272.626	259.44
272.858	266.44
273.09	274.44
273.322	259.44
273.553	265.44
273.785	236.44
274.017	243.44
274.249	258.44
274.481	269.44
274.713	255.44
274.945	237.44
275.176	258.44
275.408	235.44
275.64	273.44
275.872	256.44
276.104	251.44
276.335	255.44
276.567	253.44
276.799	264.44
277.031	276.44
277.262	306.44
277.494	308.44
277.726	275.44
277.957	276.44
278.189	276.44
278.421	256.44
278.652	251.44
278.884	263.44
279.115	261.44
279.347	272.44
279.579	258.44
279.81	268.44
280.042	260.44
280.273	258.44
280.505	262.44
280.736	262.44
280.968	261.44
281.199	237.44
281.431	272.44
281.662	270.44
281.894	254.44
282.125	262.44
282.356	268.44
282.588	283.44
282.819	298.44
283.051	276.44
283.282	265.44
283.513	272.44
283.745	265.44
283.976	275.44
284.207	259.44
284.439	266.44
284.67	281.44
284.901	283.44
285.132	266.44
285.364	276.44
285.595	258.44
285.826	269.44
286.057	260.44
286.288	271.44
286.52	268.44
286.751	272.44
286.982	264.44
287.213	280.44
287.444	263.44
287.675	278.44
287.906	278.44
288.138	285.44
288.369	295.44
288.6	271.44
288.831	293.44
289.062	280.44
289.293	278.44
289.524	284.44
289.755	274.44
289.986	304.44
290.217	289.44
290.448	274.44
290.679	269.44
290.91	276.44
291.141	292.44
291.371	293.44
291.602	270.44
291.833	290.44
292.064	267.44
292.295	276.44
292.526	279.44
292.757	301.44
292.987	292.44
293.218	277.44
293.449	301.44
293.68	282.44
293.91	268.44
294.141	288.44
294.372	267.44
294.603	289.44
294.833	294.44
295.064	268.44
295.295	285.44
295.525	296.44
295.756	284.44
295.987	297.44
296.217	309.44
296.448	325.44
296.679	293.44
296.909	285.44
297.14	285.44
297.37	298.44
297.601	297.44
297.831	307.44
298.062	305.44
298.292	281.44
298.523	296.44
298.753	290.44
298.984	305.44
299.214	292.44
299.445	278.44
299.675	285.44
299.905	299.44
300.136	284.44
300.366	301.44
300.597	306.44
300.827	312.44
301.057	314.44
301.288	320.44
301.518	309.44
301.748	329.44
301.979	311.44
302.209	314.44
302.439	312.44
302.669	322.44
302.9	320.44
303.13	324.44
303.36	323.44
303.59	333.44
303.82	338.44
304.051	332.44
304.281	323.44
304.511	322.44
304.741	314.44
304.971	304.44
305.201	316.44
305.431	328.44
305.661	315.44
305.891	314.44
306.121	321.44
306.352	310.44
306.582	326.44
306.812	318.44
307.042	326.44
307.272	317.44
307.502	342.44
307.731	331.44
307.961	336.44
308.191	324.44
308.421	337.44
308.651	322.44
308.881	330.44
309.111	329.44
309.341	333.44
309.571	342.44
309.8	355.44
310.03	346.44
310.26	360.44
310.49	358.44
310.72	373.44
310.949	365.44
311.179	386.44
311.409	368.44
311.639	373.44
311.868	352.44
312.098	359.44
312.328	385.44
312.557	384.44
312.787	375.44
313.017	363.44
313.246	380.44
313.476	346.44
313.706	388.44
313.935	367.44
314.165	375.44
314.394	388.44
314.624	403.44
314.853	379.44
315.083	375.44
315.312	370.44
315.542	371.44
315.771	388.44
316.001	373.44
316.23	377.44
316.46	353.44
316.689	364.44
316.919	379.44
317.148	371.44
317.377	390.44
317.607	371.44
317.836	372.44
318.065	371.44
318.295	370.44
318.524	354.44
318.753	371.44
318.983	372.44
319.212	372.44
319.441	373.44
319.67	384.44
319.9	368.44
320.129	380.44
320.358	375.44
320.587	374.44
320.816	417.44
321.046	388.44
321.275	392.44
321.504	400.44
321.733	402.44
321.962	382.44
322.191	429.44
322.42	413.44
322.649	421.44
322.878	449.44
323.108	436.44
323.337	470.44
323.566	477.44
323.795	478.44
324.024	543.44
324.253	670.44
324.482	952.44
324.71	1459.44
324.939	2296.44
325.168	1951.44
325.397	941.44
325.626	644.44
325.855	518.44
326.084	494.44
326.313	498.44
326.542	494.44
326.77	536.44
326.999	621.44
327.228	885.44
327.457	1344.44
327.686	1720.44
327.914	1112.44
328.143	706.44
328.372	602.44
328.6	562.44
328.829	545.44
329.058	560.44
329.287	578.44
329.515	528.44
329.744	512.44
329.972	489.44
330.201	500.44
330.43	562.44
330.658	564.44
330.887	584.44
331.115	584.44
331.344	510.44
331.572	478.44
331.801	479.44
332.03	477.44
332.258	442.44
332.486	475.44
332.715	423.44
332.943	446.44
333.172	446.44
333.4	444.44
333.629	440.44
333.857	462.44
334.085	457.44
334.314	490.44
334.542	529.44
334.771	544.44
334.999	503.44
335.227	467.44
335.455	465.44
335.684	440.44
335.912	445.44
336.14	442.44
336.369	443.44
336.597	440.44
336.825	445.44
337.053	453.44
337.281	455.44
337.51	441.44
337.738	420.44
337.966	434.44
338.194	448.44
338.422	439.44
338.65	452.44
338.878	428.44
339.106	426.44
339.334	432.44
339.562	435.44
339.79	436.44
340.018	417.44
340.246	436.44
340.474	435.44
340.702	442.44
340.93	444.44
341.158	426.44
341.386	410.44
341.614	448.44
341.842	432.44
342.07	409.44
342.298	434.44
342.526	430.44
342.754	416.44
342.981	426.44
343.209	425.44
343.437	432.44
343.665	444.44
343.893	432.44
344.12	441.44
344.348	440.44
344.576	439.44
344.804	442.44
345.031	444.44
345.259	452.44
345.487	450.44
345.714	418.44
345.942	413.44
346.17	410.44
346.397	425.44
346.625	422.44
346.853	396.44
347.08	394.44
347.308	425.44
347.535	403.44
347.763	426.44
347.99	436.44
348.218	422.44
348.445	437.44
348.673	432.44
348.9	425.44
349.128	412.44
349.355	386.44
349.583	390.44
349.81	388.44
350.037	406.44
350.265	411.44
350.492	417.44
350.72	389.44
350.947	398.44
351.174	405.44
351.402	429.44
351.629	414.44
351.856	421.44
352.083	434.44
352.311	434.44
352.538	452.44
352.765	444.44
352.992	435.44
353.22	435.44
353.447	419.44
353.674	401.44
353.901	393.44
354.128	414.44
354.355	396.44
354.583	398.44
354.81	401.44
355.037	382.44
355.264	381.44
355.491	393.44
355.718	412.44
355.945	396.44
356.172	374.44
356.399	382.44
356.626	380.44
356.853	387.44
357.08	388.44
357.307	404.44
357.534	379.44
357.761	392.44
357.988	402.44
358.215	401.44
358.441	397.44
358.668	379.44
358.895	383.44
359.122	412.44
359.349	390.44
359.576	414.44
359.802	453.44
360.029	470.44
360.256	480.44
360.483	453.44
360.709	426.44
360.936	423.44
361.163	417.44
361.39	416.44
361.616	416.44
361.843	426.44
362.07	425.44
362.296	439.44
362.523	404.44
362.749	402.44
362.976	436.44
363.203	396.44
363.429	423.44
363.656	384.44
363.882	396.44
364.109	412.44
364.335	404.44
364.562	413.44
364.788	411.44
365.015	419.44
365.241	412.44
365.468	407.44
365.694	421.44
365.92	422.44
366.147	392.44
366.373	416.44
366.599	388.44
366.826	409.44
367.052	416.44
367.278	419.44
367.505	430.44
367.731	412.44
367.957	399.44
368.184	401.44
368.41	419.44
368.636	444.44
368.862	427.44
369.089	414.44
369.315	410.44
369.541	408.44
369.767	414.44
369.993	424.44
370.219	418.44
370.445	409.44
370.672	388.44
370.898	402.44
371.124	387.44
371.35	424.44
371.576	406.44
371.802	431.44
372.028	411.44
372.254	417.44
372.48	419.44
372.706	435.44
372.932	403.44
373.158	419.44
373.384	395.44
373.61	410.44
373.835	414.44
374.061	422.44
374.287	424.44
374.513	440.44
374.739	437.44
374.965	423.44
375.191	423.44
375.416	450.44
375.642	432.44
375.868	438.44
376.094	444.44
376.319	418.44
376.545	407.44
376.771	441.44
376.997	402.44
377.222	416.44
377.448	410.44
377.674	420.44
377.899	419.44
378.125	403.44
378.35	422.44
378.576	402.44
378.802	402.44
379.027	391.44
379.253	424.44
379.478	369.44
379.704	407.44
379.929	415.44
380.155	416.44
380.38	412.44
380.606	434.44
380.831	401.44
381.057	419.44
381.282	408.44
381.507	432.44
381.733	442.44
381.958	437.44
382.184	429.44
382.409	420.44
382.634	409.44
382.86	433.44
383.085	442.44
383.31	453.44
383.535	434.44
383.761	425.44
383.986	450.44
384.211	452.44
384.436	449.44
384.662	446.44
384.887	438.44
385.112	440.44
385.337	459.44
385.562	447.44
385.787	452.44
386.013	478.44
386.238	486.44
386.463	474.44
386.688	448.44
386.913	454.44
387.138	473.44
387.363	470.44
387.588	469.44
387.813	461.44
388.038	461.44
388.263	477.44
388.488	472.44
388.713	480.44
388.938	476.44
389.163	460.44
389.387	470.44
389.612	448.44
389.837	463.44
390.062	458.44
390.287	468.44
390.512	485.44
390.736	481.44
390.961	456.44
391.186	479.44
391.411	456.44
391.636	461.44
391.86	479.44
392.085	463.44
392.31	494.44
392.534	481.44
392.759	484.44
392.984	482.44
393.208	478.44
393.433	458.44
393.658	474.44
393.882	475.44
394.107	465.44
394.331	489.44
394.556	491.44
394.78	484.44
395.005	468.44
395.229	476.44
395.454	476.44
395.678	496.44
395.903	515.44
396.127	509.44
396.352	509.44
396.576	512.44
396.801	506.44
397.025	490.44
397.249	496.44
397.474	492.44
397.698	502.44
397.922	530.44
398.147	524.44
398.371	533.44
398.595	539.44
398.82	553.44
399.044	541.44
399.268	556.44
399.492	585.44
399.717	630.44
399.941	642.44
400.165	650.44
400.389	676.44
400.613	614.44
400.837	589.44
401.062	556.44
401.286	552.44
401.51	549.44
401.734	538.44
401.958	544.44
402.182	548.44
402.406	571.44
402.63	548.44
402.854	548.44
403.078	575.44
403.302	557.44
403.526	567.44
403.75	557.44
403.974	560.44
404.198	570.44
404.422	569.44
404.645	568.44
404.869	566.44
405.093	599.44
405.317	619.44
405.541	695.44
405.765	638.44
405.988	602.44
406.212	578.44
406.436	606.44
406.66	654.44
406.883	619.44
407.107	633.44
407.331	680.44
407.555	736.44
407.778	765.44
408.002	672.44
408.226	639.44
408.449	637.44
408.673	620.44
408.896	662.44
409.12	697.44
409.344	662.44
409.567	607.44
409.791	593.44
410.014	578.44
410.238	566.44
410.461	584.44
410.685	564.44
410.908	610.44
411.132	626.44
411.355	656.44
411.578	610.44
411.802	587.44
412.025	551.44
412.249	578.44
412.472	597.44
412.695	628.44
412.919	621.44
413.142	562.44
413.365	546.44
413.589	545.44
413.812	552.44
414.035	548.44
414.258	536.44
414.482	544.44
414.705	546.44
414.928	530.44
415.151	555.44
415.374	526.44
415.597	519.44
415.821	513.44
416.044	507.44
416.267	521.44
416.49	532.44
416.713	534.44
416.936	529.44
417.159	534.44
417.382	520.44
417.605	546.44
417.828	549.44
418.051	547.44
418.274	529.44
418.497	552.44
418.72	518.44
418.943	551.44
419.166	566.44
419.389	605.44
419.611	588.44
419.834	538.44
420.057	553.44
420.28	574.44
420.503	560.44
420.726	544.44
420.948	573.44
421.171	636.44
421.394	632.44
421.617	593.44
421.839	552.44
422.062	531.44
422.285	561.44
422.507	622.44
422.73	719.44
422.953	694.44
423.175	615.44
423.398	594.44
423.621	594.44
423.843	603.44
424.066	611.44
424.288	612.44
424.511	610.44
424.733	673.44
424.956	746.44
425.178	735.44
425.401	728.44
425.623	770.44
425.846	632.44
426.068	595.44
426.291	589.44
426.513	590.44
426.735	606.44
426.958	641.44
427.18	724.44
427.402	885.44
427.625	971.44
427.847	823.44
428.069	724.44
428.292	650.44
428.514	597.44
428.736	584.44
428.958	570.44
429.181	552.44
429.403	552.44
429.625	557.44
429.847	587.44
430.069	690.44
430.292	672.44
430.514	560.44
430.736	554.44
430.958	562.44
431.18	533.44
431.402	547.44
431.624	513.44
431.846	518.44
432.068	512.44
432.29	528.44
432.512	538.44
432.734	526.44
432.956	544.44
433.178	528.44
433.4	541.44
433.622	516.44
433.844	527.44
434.066	522.44
434.287	526.44
434.509	513.44
434.731	537.44
434.953	548.44
435.175	554.44
435.397	579.44
435.618	587.44
435.84	641.44
436.062	757.44
436.284	827.44
436.505	740.44
436.727	634.44
436.949	568.44
437.17	536.44
437.392	542.44
437.614	570.44
437.835	596.44
438.057	682.44
438.278	810.44
438.5	794.44
438.721	901.44
438.943	848.44
439.165	683.44
439.386	614.44
439.608	613.44
439.829	597.44
440.05	624.44
440.272	700.44
440.493	646.44
440.715	584.44
440.936	584.44
441.158	553.44
441.379	565.44
441.6	566.44
441.822	598.44
442.043	626.44
442.264	716.44
442.486	763.44
442.707	644.44
442.928	610.44
443.149	634.44
443.371	632.44
443.592	680.44
443.813	756.44
444.034	868.44
444.255	704.44
444.476	629.44
444.698	600.44
444.919	599.44
445.14	718.44
445.361	660.44
445.582	673.44
445.803	727.44
446.024	831.44
446.245	842.44
446.466	779.44
446.687	642.44
446.908	593.44
447.129	561.44
447.35	564.44
447.571	535.44
447.792	546.44
448.013	549.44
448.234	562.44
448.455	604.44
448.675	723.44
448.896	873.44
449.117	746.44
449.338	672.44
449.559	800.44
449.779	930.44
450	752.44
450.221	615.44
450.442	555.44
450.662	539.44
450.883	537.44
451.104	562.44
451.324	535.44
451.545	536.44
451.766	498.44
451.986	486.44
452.207	494.44
452.428	512.44
452.648	490.44
452.869	480.44
453.089	490.44
453.31	504.44
453.53	492.44
453.751	482.44
453.971	483.44
454.192	532.44
454.412	510.44
454.633	512.44
454.853	497.44
455.073	487.44
455.294	532.44
455.514	577.44
455.734	573.44
455.955	496.44
456.175	462.44
456.395	473.44
456.616	468.44
456.836	467.44
457.056	471.44
457.276	467.44
457.497	481.44
457.717	469.44
457.937	471.44
458.157	493.44
458.377	472.44
458.598	513.44
458.818	560.44
459.038	609.44
459.258	652.44
459.478	583.44
459.698	534.44
459.918	536.44
460.138	532.44
460.358	550.44
460.578	538.44
460.798	560.44
461.018	560.44
461.238	546.44
461.458	567.44
461.678	528.44
461.898	559.44
462.118	542.44
462.338	548.44
462.558	552.44
462.777	570.44
462.997	582.44
463.217	588.44
463.437	590.44
463.657	602.44
463.876	587.44
464.096	603.44
464.316	586.44
464.536	572.44
464.755	582.44
464.975	601.44
465.195	611.44
465.414	664.44
465.634	610.44
465.854	589.44
466.073	552.44
466.293	498.44
466.512	520.44
466.732	520.44
466.951	509.44
467.171	507.44
467.391	501.44
467.61	500.44
467.829	501.44
468.049	546.44
468.268	537.44
468.488	528.44
468.707	503.44
468.927	505.44
469.146	486.44
469.365	483.44
469.585	517.44
469.804	514.44
470.023	512.44
470.243	545.44
470.462	526.44
470.681	561.44
470.901	548.44
471.12	524.44
471.339	522.44
471.558	529.44
471.777	517.44
471.997	478.44
472.216	522.44
472.435	560.44
472.654	526.44
472.873	494.44
473.092	520.44
473.311	516.44
473.53	497.44
473.749	518.44
473.968	571.44
474.187	680.44
474.406	670.44
474.625	569.44
474.844	534.44
475.063	553.44
475.282	485.44
475.501	517.44
475.72	533.44
475.939	513.44
476.158	533.44
476.377	514.44
476.596	530.44
476.814	533.44
477.033	539.44
477.252	550.44
477.471	539.44
477.69	570.44
477.908	546.44
478.127	577.44
478.346	555.44
478.564	584.44
478.783	581.44
479.002	582.44
479.22	612.44
479.439	610.44
479.658	636.44
479.876	630.44
480.095	624.44
480.313	656.44
480.532	644.44
480.751	656.44
480.969	651.44
481.188	674.44
481.406	700.44
481.624	653.44
481.843	640.44
482.061	606.44
482.28	608.44
482.498	611.44
482.717	617.44
482.935	629.44
483.153	608.44
483.372	605.44
483.59	616.44
483.808	619.44
484.027	590.44
484.245	601.44
484.463	611.44
484.681	630.44
484.9	619.44
485.118	618.44
485.336	600.44
485.554	605.44
485.772	605.44
485.99	622.44
486.209	650.44
486.427	636.44
486.645	635.44
486.863	649.44
487.081	672.44
487.299	657.44
487.517	643.44
487.735	638.44
487.953	628.44
488.171	634.44
488.389	637.44
488.607	668.44
488.825	656.44
489.043	636.44
489.261	644.44
489.479	676.44
489.696	655.44
489.914	651.44
490.132	669.44
490.35	677.44
490.568	669.44
490.786	663.44
491.003	694.44
491.221	704.44
491.439	712.44
491.657	711.44
491.874	733.44
492.092	732.44
492.31	719.44
492.527	731.44
492.745	716.44
492.963	750.44
493.18	744.44
493.398	738.44
493.615	758.44
493.833	740.44
494.05	764.44
494.268	742.44
494.485	760.44
494.703	757.44
494.92	789.44
495.138	756.44
495.355	743.44
495.573	762.44
495.79	766.44
496.008	767.44
496.225	752.44
496.442	745.44
496.66	778.44
496.877	756.44
497.094	772.44
497.312	803.44
497.529	804.44
497.746	805.44
497.963	837.44
498.181	856.44
498.398	841.44
498.615	892.44
498.832	859.44
499.049	883.44
499.267	916.44
499.484	946.44
499.701	953.44
499.918	997.44
500.135	1073.44
500.352	1092.44
500.569	1112.44
500.786	1133.44
501.003	1130.44
501.22	1085.44
501.437	1042.44
501.654	1029.44
501.871	973.44
