Data from 1978.PennyLincolnUp.Lamp.En5.5.200Scan.071719.P1_HRD10591_16-13-34-863.txt Node
Date: Thu Jul 18 16:13:34 EDT 2019
User: cochatt
Spectrometer: HR+D1059
Trigger mode: 1
Integration Time (sec): 1.000000E-1
Scans to average: 1
Electric dark correction enabled: true
Nonlinearity correction enabled: false
Boxcar width: 0
XAxis mode: Wavelengths
Number of Pixels in Spectrum: 2048
>>>>>Begin Spectral Data<<<<<
223.165	-26.69
223.4	-26.69
223.635	-26.69
223.869	-16.69
224.104	-24.69
224.338	-14.69
224.573	-18.69
224.808	-9.69
225.042	0.31
225.277	-8.69
225.511	-7.69
225.746	-18.69
225.98	25.31
226.215	16.31
226.449	21.31
226.683	24.31
226.918	29.31
227.152	29.31
227.387	33.31
227.621	56.31
227.856	40.31
228.09	38.31
228.324	52.31
228.559	71.31
228.793	72.31
229.027	77.31
229.262	117.31
229.496	110.31
229.73	126.31
229.964	146.31
230.199	118.31
230.433	109.31
230.667	110.31
230.901	111.31
231.136	111.31
231.37	117.31
231.604	111.31
231.838	99.31
232.072	109.31
232.306	92.31
232.541	124.31
232.775	111.31
233.009	104.31
233.243	117.31
233.477	119.31
233.711	110.31
233.945	127.31
234.179	118.31
234.413	112.31
234.647	119.31
234.881	120.31
235.115	104.31
235.349	120.31
235.583	141.31
235.817	109.31
236.051	127.31
236.285	120.31
236.519	137.31
236.753	109.31
236.987	140.31
237.221	186.31
237.455	231.31
237.689	194.31
237.922	141.31
238.156	129.31
238.39	132.31
238.624	116.31
238.858	118.31
239.091	124.31
239.325	112.31
239.559	128.31
239.793	128.31
240.027	138.31
240.26	131.31
240.494	170.31
240.728	157.31
240.961	146.31
241.195	131.31
241.429	141.31
241.662	133.31
241.896	122.31
242.13	136.31
242.363	133.31
242.597	135.31
242.83	124.31
243.064	125.31
243.298	149.31
243.531	130.31
243.765	133.31
243.998	132.31
244.232	138.31
244.465	139.31
244.699	152.31
244.932	139.31
245.166	131.31
245.399	140.31
245.633	137.31
245.866	135.31
246.099	145.31
246.333	140.31
246.566	135.31
246.8	149.31
247.033	148.31
247.266	145.31
247.5	161.31
247.733	165.31
247.966	168.31
248.2	160.31
248.433	165.31
248.666	182.31
248.899	183.31
249.133	188.31
249.366	196.31
249.599	203.31
249.832	181.31
250.066	188.31
250.299	179.31
250.532	167.31
250.765	179.31
250.998	199.31
251.231	225.31
251.465	191.31
251.698	196.31
251.931	195.31
252.164	175.31
252.397	187.31
252.63	208.31
252.863	187.31
253.096	179.31
253.329	221.31
253.562	210.31
253.795	215.31
254.028	203.31
254.261	201.31
254.494	208.31
254.727	243.31
254.96	249.31
255.193	243.31
255.426	235.31
255.659	219.31
255.892	204.31
256.124	219.31
256.357	221.31
256.59	221.31
256.823	188.31
257.056	207.31
257.289	213.31
257.521	210.31
257.754	204.31
257.987	203.31
258.22	194.31
258.452	204.31
258.685	195.31
258.918	200.31
259.151	215.31
259.383	220.31
259.616	203.31
259.849	199.31
260.081	230.31
260.314	224.31
260.547	252.31
260.779	226.31
261.012	219.31
261.244	217.31
261.477	220.31
261.71	204.31
261.942	222.31
262.175	217.31
262.407	223.31
262.64	229.31
262.872	205.31
263.105	212.31
263.337	218.31
263.57	218.31
263.802	211.31
264.035	220.31
264.267	212.31
264.499	204.31
264.732	225.31
264.964	202.31
265.197	212.31
265.429	210.31
265.661	205.31
265.894	185.31
266.126	200.31
266.358	211.31
266.591	220.31
266.823	229.31
267.055	232.31
267.287	223.31
267.52	220.31
267.752	224.31
267.984	222.31
268.216	233.31
268.448	229.31
268.681	231.31
268.913	239.31
269.145	248.31
269.377	269.31
269.609	245.31
269.841	244.31
270.073	265.31
270.306	275.31
270.538	281.31
270.77	290.31
271.002	273.31
271.234	269.31
271.466	288.31
271.698	287.31
271.93	286.31
272.162	310.31
272.394	303.31
272.626	282.31
272.858	268.31
273.09	257.31
273.322	267.31
273.553	251.31
273.785	248.31
274.017	237.31
274.249	263.31
274.481	250.31
274.713	254.31
274.945	272.31
275.176	251.31
275.408	253.31
275.64	267.31
275.872	250.31
276.104	235.31
276.335	259.31
276.567	252.31
276.799	253.31
277.031	303.31
277.262	290.31
277.494	309.31
277.726	290.31
277.957	290.31
278.189	282.31
278.421	260.31
278.652	261.31
278.884	243.31
279.115	280.31
279.347	281.31
279.579	249.31
279.81	257.31
280.042	268.31
280.273	266.31
280.505	263.31
280.736	249.31
280.968	265.31
281.199	244.31
281.431	265.31
281.662	261.31
281.894	263.31
282.125	284.31
282.356	261.31
282.588	292.31
282.819	294.31
283.051	261.31
283.282	256.31
283.513	271.31
283.745	273.31
283.976	300.31
284.207	276.31
284.439	286.31
284.67	287.31
284.901	298.31
285.132	272.31
285.364	271.31
285.595	272.31
285.826	263.31
286.057	268.31
286.288	263.31
286.52	280.31
286.751	266.31
286.982	265.31
287.213	288.31
287.444	250.31
287.675	302.31
287.906	295.31
288.138	296.31
288.369	293.31
288.6	298.31
288.831	286.31
289.062	272.31
289.293	285.31
289.524	273.31
289.755	294.31
289.986	289.31
290.217	263.31
290.448	265.31
290.679	277.31
290.91	273.31
291.141	272.31
291.371	307.31
291.602	283.31
291.833	281.31
292.064	291.31
292.295	287.31
292.526	285.31
292.757	284.31
292.987	289.31
293.218	286.31
293.449	294.31
293.68	291.31
293.91	285.31
294.141	291.31
294.372	281.31
294.603	293.31
294.833	284.31
295.064	273.31
295.295	288.31
295.525	296.31
295.756	281.31
295.987	300.31
296.217	332.31
296.448	328.31
296.679	302.31
296.909	296.31
297.14	294.31
297.37	288.31
297.601	321.31
297.831	284.31
298.062	297.31
298.292	301.31
298.523	309.31
298.753	301.31
298.984	288.31
299.214	308.31
299.445	290.31
299.675	308.31
299.905	329.31
300.136	311.31
300.366	311.31
300.597	317.31
300.827	317.31
301.057	318.31
301.288	319.31
301.518	319.31
301.748	311.31
301.979	329.31
302.209	331.31
302.439	316.31
302.669	339.31
302.9	309.31
303.13	310.31
303.36	336.31
303.59	323.31
303.82	343.31
304.051	340.31
304.281	341.31
304.511	339.31
304.741	310.31
304.971	321.31
305.201	319.31
305.431	318.31
305.661	332.31
305.891	334.31
306.121	321.31
306.352	328.31
306.582	335.31
306.812	323.31
307.042	328.31
307.272	332.31
307.502	317.31
307.731	324.31
307.961	323.31
308.191	332.31
308.421	336.31
308.651	333.31
308.881	334.31
309.111	348.31
309.341	332.31
309.571	339.31
309.8	353.31
310.03	335.31
310.26	362.31
310.49	358.31
310.72	381.31
310.949	383.31
311.179	385.31
311.409	370.31
311.639	353.31
311.868	387.31
312.098	379.31
312.328	379.31
312.557	388.31
312.787	387.31
313.017	407.31
313.246	379.31
313.476	358.31
313.706	381.31
313.935	381.31
314.165	393.31
314.394	381.31
314.624	402.31
314.853	379.31
315.083	396.31
315.312	360.31
315.542	373.31
315.771	368.31
316.001	352.31
316.23	365.31
316.46	368.31
316.689	362.31
316.919	361.31
317.148	380.31
317.377	391.31
317.607	373.31
317.836	367.31
318.065	381.31
318.295	389.31
318.524	381.31
318.753	388.31
318.983	388.31
319.212	367.31
319.441	377.31
319.67	385.31
319.9	364.31
320.129	381.31
320.358	385.31
320.587	382.31
320.816	391.31
321.046	398.31
321.275	388.31
321.504	398.31
321.733	406.31
321.962	409.31
322.191	425.31
322.42	419.31
322.649	424.31
322.878	451.31
323.108	448.31
323.337	444.31
323.566	475.31
323.795	511.31
324.024	553.31
324.253	658.31
324.482	963.31
324.71	1475.31
324.939	2264.31
325.168	1959.31
325.397	974.31
325.626	655.31
325.855	548.31
326.084	507.31
326.313	494.31
326.542	486.31
326.77	553.31
326.999	611.31
327.228	862.31
327.457	1335.31
327.686	1718.31
327.914	1116.31
328.143	705.31
328.372	602.31
328.6	552.31
328.829	531.31
329.058	557.31
329.287	565.31
329.515	552.31
329.744	497.31
329.972	517.31
330.201	523.31
330.43	542.31
330.658	580.31
330.887	595.31
331.115	577.31
331.344	509.31
331.572	473.31
331.801	462.31
332.03	499.31
332.258	471.31
332.486	444.31
332.715	446.31
332.943	454.31
333.172	451.31
333.4	468.31
333.629	458.31
333.857	476.31
334.085	492.31
334.314	497.31
334.542	501.31
334.771	500.31
334.999	480.31
335.227	471.31
335.455	459.31
335.684	451.31
335.912	448.31
336.14	443.31
336.369	455.31
336.597	471.31
336.825	438.31
337.053	435.31
337.281	468.31
337.51	437.31
337.738	447.31
337.966	460.31
338.194	437.31
338.422	442.31
338.65	431.31
338.878	447.31
339.106	425.31
339.334	431.31
339.562	419.31
339.79	413.31
340.018	421.31
340.246	433.31
340.474	436.31
340.702	426.31
340.93	439.31
341.158	428.31
341.386	423.31
341.614	425.31
341.842	441.31
342.07	427.31
342.298	431.31
342.526	432.31
342.754	430.31
342.981	425.31
343.209	441.31
343.437	412.31
343.665	448.31
343.893	463.31
344.12	459.31
344.348	445.31
344.576	457.31
344.804	452.31
345.031	469.31
345.259	463.31
345.487	465.31
345.714	418.31
345.942	424.31
346.17	411.31
346.397	423.31
346.625	425.31
346.853	432.31
347.08	426.31
347.308	423.31
347.535	419.31
347.763	427.31
347.99	433.31
348.218	437.31
348.445	424.31
348.673	430.31
348.9	415.31
349.128	421.31
349.355	404.31
349.583	425.31
349.81	446.31
350.037	406.31
350.265	415.31
350.492	405.31
350.72	412.31
350.947	422.31
351.174	426.31
351.402	430.31
351.629	428.31
351.856	424.31
352.083	440.31
352.311	421.31
352.538	426.31
352.765	454.31
352.992	421.31
353.22	421.31
353.447	402.31
353.674	416.31
353.901	400.31
354.128	397.31
354.355	409.31
354.583	400.31
354.81	404.31
355.037	405.31
355.264	385.31
355.491	387.31
355.718	398.31
355.945	373.31
356.172	382.31
356.399	387.31
356.626	381.31
356.853	387.31
357.08	407.31
357.307	404.31
357.534	371.31
357.761	416.31
357.988	404.31
358.215	419.31
358.441	396.31
358.668	381.31
358.895	406.31
359.122	411.31
359.349	408.31
359.576	421.31
359.802	448.31
360.029	439.31
360.256	476.31
360.483	460.31
360.709	437.31
360.936	414.31
361.163	421.31
361.39	423.31
361.616	429.31
361.843	427.31
362.07	425.31
362.296	425.31
362.523	421.31
362.749	420.31
362.976	408.31
363.203	409.31
363.429	414.31
363.656	411.31
363.882	414.31
364.109	409.31
364.335	407.31
364.562	411.31
364.788	417.31
365.015	411.31
365.241	410.31
365.468	419.31
365.694	426.31
365.92	428.31
366.147	414.31
366.373	438.31
366.599	407.31
366.826	415.31
367.052	411.31
367.278	408.31
367.505	419.31
367.731	423.31
367.957	430.31
368.184	419.31
368.41	422.31
368.636	426.31
368.862	420.31
369.089	436.31
369.315	429.31
369.541	413.31
369.767	410.31
369.993	430.31
370.219	425.31
370.445	412.31
370.672	427.31
370.898	409.31
371.124	412.31
371.35	419.31
371.576	420.31
371.802	413.31
372.028	423.31
372.254	415.31
372.48	412.31
372.706	399.31
372.932	415.31
373.158	417.31
373.384	407.31
373.61	426.31
373.835	403.31
374.061	428.31
374.287	429.31
374.513	430.31
374.739	435.31
374.965	430.31
375.191	438.31
375.416	428.31
375.642	404.31
375.868	429.31
376.094	421.31
376.319	431.31
376.545	419.31
376.771	409.31
376.997	421.31
377.222	407.31
377.448	416.31
377.674	427.31
377.899	411.31
378.125	406.31
378.35	402.31
378.576	413.31
378.802	429.31
379.027	438.31
379.253	406.31
379.478	419.31
379.704	432.31
379.929	425.31
380.155	421.31
380.38	418.31
380.606	409.31
380.831	419.31
381.057	413.31
381.282	405.31
381.507	433.31
381.733	419.31
381.958	413.31
382.184	455.31
382.409	424.31
382.634	430.31
382.86	437.31
383.085	439.31
383.31	439.31
383.535	430.31
383.761	430.31
383.986	442.31
384.211	431.31
384.436	450.31
384.662	456.31
384.887	433.31
385.112	432.31
385.337	471.31
385.562	460.31
385.787	475.31
386.013	476.31
386.238	473.31
386.463	469.31
386.688	455.31
386.913	441.31
387.138	469.31
387.363	472.31
387.588	456.31
387.813	463.31
388.038	451.31
388.263	466.31
388.488	457.31
388.713	467.31
388.938	472.31
389.163	470.31
389.387	486.31
389.612	464.31
389.837	489.31
390.062	471.31
390.287	451.31
390.512	463.31
390.736	475.31
390.961	470.31
391.186	453.31
391.411	474.31
391.636	478.31
391.86	467.31
392.085	484.31
392.31	508.31
392.534	495.31
392.759	493.31
392.984	484.31
393.208	459.31
393.433	484.31
393.658	481.31
393.882	474.31
394.107	477.31
394.331	468.31
394.556	478.31
394.78	463.31
395.005	484.31
395.229	477.31
395.454	487.31
395.678	500.31
395.903	517.31
396.127	504.31
396.352	521.31
396.576	488.31
396.801	501.31
397.025	500.31
397.249	521.31
397.474	524.31
397.698	508.31
397.922	521.31
398.147	545.31
398.371	543.31
398.595	533.31
398.82	537.31
399.044	544.31
399.268	575.31
399.492	597.31
399.717	612.31
399.941	636.31
400.165	672.31
400.389	683.31
400.613	605.31
400.837	572.31
401.062	572.31
401.286	550.31
401.51	575.31
401.734	540.31
401.958	550.31
402.182	566.31
402.406	545.31
402.63	547.31
402.854	561.31
403.078	536.31
403.302	568.31
403.526	575.31
403.75	563.31
403.974	574.31
404.198	579.31
404.422	548.31
404.645	585.31
404.869	574.31
405.093	596.31
405.317	642.31
405.541	685.31
405.765	627.31
405.988	589.31
406.212	606.31
406.436	603.31
406.66	630.31
406.883	606.31
407.107	623.31
407.331	676.31
407.555	745.31
407.778	757.31
408.002	679.31
408.226	643.31
408.449	607.31
408.673	647.31
408.896	665.31
409.12	686.31
409.344	664.31
409.567	613.31
409.791	586.31
410.014	563.31
410.238	573.31
410.461	576.31
410.685	593.31
410.908	604.31
411.132	633.31
411.355	677.31
411.578	615.31
411.802	573.31
412.025	582.31
412.249	585.31
412.472	591.31
412.695	629.31
412.919	644.31
413.142	598.31
413.365	556.31
413.589	527.31
413.812	572.31
414.035	547.31
414.258	545.31
414.482	552.31
414.705	535.31
414.928	547.31
415.151	543.31
415.374	533.31
415.597	526.31
415.821	543.31
416.044	534.31
416.267	552.31
416.49	516.31
416.713	530.31
416.936	527.31
417.159	525.31
417.382	529.31
417.605	533.31
417.828	537.31
418.051	542.31
418.274	549.31
418.497	531.31
418.72	554.31
418.943	546.31
419.166	571.31
419.389	592.31
419.611	566.31
419.834	560.31
420.057	569.31
420.28	591.31
420.503	541.31
420.726	550.31
420.948	583.31
421.171	611.31
421.394	658.31
421.617	581.31
421.839	555.31
422.062	553.31
422.285	577.31
422.507	638.31
422.73	724.31
422.953	679.31
423.175	600.31
423.398	575.31
423.621	563.31
423.843	585.31
424.066	607.31
424.288	593.31
424.511	596.31
424.733	662.31
424.956	789.31
425.178	735.31
425.401	732.31
425.623	750.31
425.846	641.31
426.068	597.31
426.291	591.31
426.513	587.31
426.735	590.31
426.958	645.31
427.18	737.31
427.402	893.31
427.625	973.31
427.847	848.31
428.069	712.31
428.292	660.31
428.514	622.31
428.736	598.31
428.958	561.31
429.181	583.31
429.403	551.31
429.625	594.31
429.847	611.31
430.069	698.31
430.292	672.31
430.514	579.31
430.736	556.31
430.958	550.31
431.18	547.31
431.402	541.31
431.624	533.31
431.846	523.31
432.068	540.31
432.29	545.31
432.512	528.31
432.734	532.31
432.956	514.31
433.178	529.31
433.4	555.31
433.622	540.31
433.844	548.31
434.066	525.31
434.287	535.31
434.509	547.31
434.731	533.31
434.953	540.31
435.175	576.31
435.397	609.31
435.618	599.31
435.84	624.31
436.062	730.31
436.284	835.31
436.505	702.31
436.727	627.31
436.949	579.31
437.17	573.31
437.392	556.31
437.614	588.31
437.835	601.31
438.057	682.31
438.278	809.31
438.5	833.31
438.721	901.31
438.943	887.31
439.165	693.31
439.386	623.31
439.608	620.31
439.829	602.31
440.05	624.31
440.272	676.31
440.493	663.31
440.715	575.31
440.936	593.31
441.158	573.31
441.379	565.31
441.6	577.31
441.822	592.31
442.043	640.31
442.264	727.31
442.486	789.31
442.707	676.31
442.928	613.31
443.149	632.31
443.371	653.31
443.592	693.31
443.813	784.31
444.034	893.31
444.255	705.31
444.476	634.31
444.698	624.31
444.919	601.31
445.14	688.31
445.361	667.31
445.582	660.31
445.803	712.31
446.024	844.31
446.245	863.31
446.466	773.31
446.687	643.31
446.908	601.31
447.129	553.31
447.35	556.31
447.571	556.31
447.792	544.31
448.013	560.31
448.234	593.31
448.455	626.31
448.675	738.31
448.896	868.31
449.117	744.31
449.338	700.31
449.559	835.31
449.779	939.31
450	725.31
450.221	604.31
450.442	563.31
450.662	563.31
450.883	536.31
451.104	555.31
451.324	536.31
451.545	525.31
451.766	521.31
451.986	508.31
452.207	489.31
452.428	488.31
452.648	509.31
452.869	520.31
453.089	495.31
453.31	541.31
453.53	510.31
453.751	494.31
453.971	491.31
454.192	522.31
454.412	530.31
454.633	504.31
454.853	496.31
455.073	488.31
455.294	521.31
455.514	588.31
455.734	593.31
455.955	494.31
456.175	484.31
456.395	473.31
456.616	489.31
456.836	484.31
457.056	496.31
457.276	459.31
457.497	477.31
457.717	500.31
457.937	476.31
458.157	487.31
458.377	476.31
458.598	495.31
458.818	550.31
459.038	641.31
459.258	690.31
459.478	582.31
459.698	535.31
459.918	516.31
460.138	531.31
460.358	527.31
460.578	541.31
460.798	554.31
461.018	559.31
461.238	537.31
461.458	552.31
461.678	567.31
461.898	550.31
462.118	558.31
462.338	551.31
462.558	560.31
462.777	555.31
462.997	613.31
463.217	606.31
463.437	586.31
463.657	598.31
463.876	578.31
464.096	586.31
464.316	567.31
464.536	575.31
464.755	584.31
464.975	579.31
465.195	607.31
465.414	667.31
465.634	611.31
465.854	561.31
466.073	560.31
466.293	519.31
466.512	516.31
466.732	525.31
466.951	511.31
467.171	515.31
467.391	509.31
467.61	520.31
467.829	512.31
468.049	522.31
468.268	517.31
468.488	501.31
468.707	482.31
468.927	486.31
469.146	481.31
469.365	511.31
469.585	523.31
469.804	529.31
470.023	526.31
470.243	520.31
470.462	542.31
470.681	545.31
470.901	555.31
471.12	509.31
471.339	534.31
471.558	523.31
471.777	519.31
471.997	522.31
472.216	531.31
472.435	528.31
472.654	546.31
472.873	527.31
473.092	536.31
473.311	523.31
473.53	508.31
473.749	547.31
473.968	585.31
474.187	684.31
474.406	716.31
474.625	581.31
474.844	540.31
475.063	520.31
475.282	533.31
475.501	539.31
475.72	535.31
475.939	541.31
476.158	532.31
476.377	513.31
476.596	550.31
476.814	523.31
477.033	556.31
477.252	555.31
477.471	567.31
477.69	567.31
477.908	545.31
478.127	570.31
478.346	594.31
478.564	578.31
478.783	564.31
479.002	568.31
479.22	593.31
479.439	625.31
479.658	618.31
479.876	623.31
480.095	636.31
480.313	657.31
480.532	651.31
480.751	644.31
480.969	649.31
481.188	688.31
481.406	740.31
481.624	647.31
481.843	646.31
482.061	598.31
482.28	619.31
482.498	625.31
482.717	607.31
482.935	601.31
483.153	617.31
483.372	601.31
483.59	608.31
483.808	592.31
484.027	621.31
484.245	578.31
484.463	614.31
484.681	632.31
484.9	620.31
485.118	605.31
485.336	640.31
485.554	618.31
485.772	639.31
485.99	622.31
486.209	633.31
486.427	617.31
486.645	631.31
486.863	668.31
487.081	677.31
487.299	645.31
487.517	621.31
487.735	647.31
487.953	649.31
488.171	641.31
488.389	668.31
488.607	647.31
488.825	641.31
489.043	688.31
489.261	657.31
489.479	669.31
489.696	676.31
489.914	651.31
490.132	676.31
490.35	661.31
490.568	689.31
490.786	685.31
491.003	690.31
491.221	699.31
491.439	687.31
491.657	727.31
491.874	734.31
492.092	733.31
492.31	722.31
492.527	731.31
492.745	746.31
492.963	755.31
493.18	744.31
493.398	721.31
493.615	761.31
493.833	757.31
494.05	750.31
494.268	748.31
494.485	751.31
494.703	744.31
494.92	757.31
495.138	750.31
495.355	751.31
495.573	783.31
495.79	783.31
496.008	791.31
496.225	750.31
496.442	783.31
496.66	766.31
496.877	781.31
497.094	774.31
497.312	777.31
497.529	797.31
497.746	807.31
497.963	793.31
498.181	836.31
498.398	851.31
498.615	881.31
498.832	895.31
499.049	897.31
499.267	929.31
499.484	975.31
499.701	981.31
499.918	1023.31
500.135	1043.31
500.352	1088.31
500.569	1096.31
500.786	1112.31
501.003	1111.31
501.22	1079.31
501.437	1040.31
501.654	989.31
501.871	995.31
