Data from 1978.PennyLincolnUp.Lamp.En5.5.200Scan.071719.P1_HRD10591_16-13-19-864.txt Node
Date: Thu Jul 18 16:13:19 EDT 2019
User: cochatt
Spectrometer: HR+D1059
Trigger mode: 1
Integration Time (sec): 1.000000E-1
Scans to average: 1
Electric dark correction enabled: true
Nonlinearity correction enabled: false
Boxcar width: 0
XAxis mode: Wavelengths
Number of Pixels in Spectrum: 2048
>>>>>Begin Spectral Data<<<<<
223.165	-19.62
223.4	-19.62
223.635	-19.62
223.869	-7.62
224.104	-18.62
224.338	-25.62
224.573	-12.62
224.808	-2.62
225.042	-12.62
225.277	-9.62
225.511	-16.62
225.746	-10.62
225.98	4.38
226.215	23.38
226.449	21.38
226.683	28.38
226.918	28.38
227.152	30.38
227.387	33.38
227.621	54.38
227.856	36.38
228.09	44.38
228.324	35.38
228.559	46.38
228.793	67.38
229.027	94.38
229.262	99.38
229.496	123.38
229.73	122.38
229.964	148.38
230.199	136.38
230.433	115.38
230.667	120.38
230.901	107.38
231.136	104.38
231.37	100.38
231.604	107.38
231.838	121.38
232.072	116.38
232.306	111.38
232.541	131.38
232.775	127.38
233.009	127.38
233.243	106.38
233.477	110.38
233.711	102.38
233.945	108.38
234.179	130.38
234.413	118.38
234.647	111.38
234.881	118.38
235.115	120.38
235.349	123.38
235.583	118.38
235.817	117.38
236.051	122.38
236.285	125.38
236.519	117.38
236.753	137.38
236.987	148.38
237.221	173.38
237.455	236.38
237.689	173.38
237.922	153.38
238.156	142.38
238.39	139.38
238.624	116.38
238.858	142.38
239.091	108.38
239.325	132.38
239.559	116.38
239.793	132.38
240.027	128.38
240.26	147.38
240.494	140.38
240.728	159.38
240.961	142.38
241.195	150.38
241.429	134.38
241.662	125.38
241.896	131.38
242.13	135.38
242.363	143.38
242.597	141.38
242.83	146.38
243.064	139.38
243.298	142.38
243.531	136.38
243.765	147.38
243.998	146.38
244.232	151.38
244.465	140.38
244.699	134.38
244.932	155.38
245.166	155.38
245.399	142.38
245.633	127.38
245.866	126.38
246.099	150.38
246.333	151.38
246.566	163.38
246.8	169.38
247.033	150.38
247.266	160.38
247.5	157.38
247.733	162.38
247.966	159.38
248.2	164.38
248.433	178.38
248.666	163.38
248.899	170.38
249.133	194.38
249.366	214.38
249.599	204.38
249.832	183.38
250.066	178.38
250.299	171.38
250.532	192.38
250.765	198.38
250.998	207.38
251.231	196.38
251.465	195.38
251.698	202.38
251.931	186.38
252.164	186.38
252.397	195.38
252.63	191.38
252.863	186.38
253.096	210.38
253.329	216.38
253.562	217.38
253.795	222.38
254.028	204.38
254.261	211.38
254.494	214.38
254.727	240.38
254.96	255.38
255.193	246.38
255.426	230.38
255.659	229.38
255.892	221.38
256.124	223.38
256.357	213.38
256.59	212.38
256.823	197.38
257.056	214.38
257.289	180.38
257.521	214.38
257.754	208.38
257.987	209.38
258.22	216.38
258.452	202.38
258.685	208.38
258.918	195.38
259.151	197.38
259.383	218.38
259.616	215.38
259.849	213.38
260.081	221.38
260.314	228.38
260.547	243.38
260.779	232.38
261.012	228.38
261.244	208.38
261.477	224.38
261.71	215.38
261.942	217.38
262.175	219.38
262.407	234.38
262.64	212.38
262.872	219.38
263.105	216.38
263.337	227.38
263.57	216.38
263.802	208.38
264.035	222.38
264.267	214.38
264.499	206.38
264.732	227.38
264.964	208.38
265.197	207.38
265.429	210.38
265.661	199.38
265.894	206.38
266.126	214.38
266.358	216.38
266.591	220.38
266.823	216.38
267.055	223.38
267.287	210.38
267.52	217.38
267.752	213.38
267.984	225.38
268.216	226.38
268.448	224.38
268.681	245.38
268.913	240.38
269.145	249.38
269.377	268.38
269.609	273.38
269.841	260.38
270.073	264.38
270.306	276.38
270.538	286.38
270.77	298.38
271.002	286.38
271.234	281.38
271.466	269.38
271.698	285.38
271.93	315.38
272.162	297.38
272.394	310.38
272.626	295.38
272.858	286.38
273.09	270.38
273.322	279.38
273.553	251.38
273.785	252.38
274.017	258.38
274.249	251.38
274.481	266.38
274.713	287.38
274.945	267.38
275.176	263.38
275.408	263.38
275.64	259.38
275.872	260.38
276.104	264.38
276.335	267.38
276.567	254.38
276.799	276.38
277.031	291.38
277.262	296.38
277.494	303.38
277.726	296.38
277.957	278.38
278.189	266.38
278.421	269.38
278.652	259.38
278.884	271.38
279.115	271.38
279.347	268.38
279.579	250.38
279.81	255.38
280.042	256.38
280.273	249.38
280.505	282.38
280.736	254.38
280.968	265.38
281.199	262.38
281.431	258.38
281.662	260.38
281.894	279.38
282.125	267.38
282.356	299.38
282.588	309.38
282.819	302.38
283.051	277.38
283.282	264.38
283.513	275.38
283.745	269.38
283.976	270.38
284.207	283.38
284.439	271.38
284.67	295.38
284.901	289.38
285.132	267.38
285.364	271.38
285.595	269.38
285.826	272.38
286.057	270.38
286.288	282.38
286.52	280.38
286.751	288.38
286.982	274.38
287.213	281.38
287.444	266.38
287.675	273.38
287.906	270.38
288.138	310.38
288.369	300.38
288.6	303.38
288.831	293.38
289.062	291.38
289.293	295.38
289.524	290.38
289.755	263.38
289.986	312.38
290.217	281.38
290.448	294.38
290.679	282.38
290.91	294.38
291.141	286.38
291.371	285.38
291.602	279.38
291.833	279.38
292.064	293.38
292.295	286.38
292.526	279.38
292.757	288.38
292.987	298.38
293.218	296.38
293.449	286.38
293.68	280.38
293.91	280.38
294.141	292.38
294.372	298.38
294.603	283.38
294.833	284.38
295.064	291.38
295.295	291.38
295.525	273.38
295.756	297.38
295.987	303.38
296.217	332.38
296.448	338.38
296.679	318.38
296.909	295.38
297.14	293.38
297.37	297.38
297.601	299.38
297.831	296.38
298.062	299.38
298.292	326.38
298.523	316.38
298.753	331.38
298.984	301.38
299.214	301.38
299.445	302.38
299.675	315.38
299.905	325.38
300.136	300.38
300.366	302.38
300.597	308.38
300.827	310.38
301.057	316.38
301.288	343.38
301.518	329.38
301.748	313.38
301.979	336.38
302.209	325.38
302.439	324.38
302.669	341.38
302.9	320.38
303.13	324.38
303.36	337.38
303.59	325.38
303.82	343.38
304.051	319.38
304.281	341.38
304.511	348.38
304.741	317.38
304.971	329.38
305.201	333.38
305.431	325.38
305.661	329.38
305.891	327.38
306.121	337.38
306.352	326.38
306.582	320.38
306.812	328.38
307.042	331.38
307.272	351.38
307.502	344.38
307.731	332.38
307.961	332.38
308.191	343.38
308.421	318.38
308.651	320.38
308.881	341.38
309.111	345.38
309.341	326.38
309.571	347.38
309.8	352.38
310.03	364.38
310.26	378.38
310.49	388.38
310.72	380.38
310.949	392.38
311.179	399.38
311.409	343.38
311.639	378.38
311.868	382.38
312.098	364.38
312.328	371.38
312.557	382.38
312.787	400.38
313.017	408.38
313.246	386.38
313.476	372.38
313.706	367.38
313.935	386.38
314.165	390.38
314.394	399.38
314.624	384.38
314.853	386.38
315.083	379.38
315.312	366.38
315.542	355.38
315.771	362.38
316.001	372.38
316.23	370.38
316.46	361.38
316.689	399.38
316.919	373.38
317.148	386.38
317.377	391.38
317.607	380.38
317.836	392.38
318.065	385.38
318.295	383.38
318.524	378.38
318.753	373.38
318.983	380.38
319.212	375.38
319.441	391.38
319.67	373.38
319.9	373.38
320.129	387.38
320.358	396.38
320.587	395.38
320.816	400.38
321.046	414.38
321.275	401.38
321.504	409.38
321.733	396.38
321.962	422.38
322.191	416.38
322.42	436.38
322.649	434.38
322.878	449.38
323.108	455.38
323.337	478.38
323.566	498.38
323.795	548.38
324.024	577.38
324.253	706.38
324.482	934.38
324.71	1519.38
324.939	2340.38
325.168	2042.38
325.397	979.38
325.626	652.38
325.855	562.38
326.084	516.38
326.313	519.38
326.542	504.38
326.77	566.38
326.999	646.38
327.228	873.38
327.457	1354.38
327.686	1747.38
327.914	1143.38
328.143	729.38
328.372	616.38
328.6	573.38
328.829	536.38
329.058	558.38
329.287	582.38
329.515	553.38
329.744	529.38
329.972	496.38
330.201	514.38
330.43	548.38
330.658	590.38
330.887	582.38
331.115	584.38
331.344	520.38
331.572	494.38
331.801	476.38
332.03	478.38
332.258	486.38
332.486	449.38
332.715	442.38
332.943	466.38
333.172	463.38
333.4	472.38
333.629	458.38
333.857	510.38
334.085	516.38
334.314	509.38
334.542	524.38
334.771	540.38
334.999	515.38
335.227	464.38
335.455	491.38
335.684	458.38
335.912	450.38
336.14	470.38
336.369	450.38
336.597	478.38
336.825	492.38
337.053	460.38
337.281	464.38
337.51	450.38
337.738	440.38
337.966	455.38
338.194	455.38
338.422	463.38
338.65	465.38
338.878	438.38
339.106	421.38
339.334	450.38
339.562	442.38
339.79	425.38
340.018	440.38
340.246	465.38
340.474	446.38
340.702	460.38
340.93	438.38
341.158	418.38
341.386	450.38
341.614	434.38
341.842	459.38
342.07	405.38
342.298	436.38
342.526	455.38
342.754	430.38
342.981	450.38
343.209	426.38
343.437	463.38
343.665	444.38
343.893	445.38
344.12	462.38
344.348	442.38
344.576	445.38
344.804	482.38
345.031	463.38
345.259	445.38
345.487	448.38
345.714	453.38
345.942	453.38
346.17	451.38
346.397	423.38
346.625	428.38
346.853	432.38
347.08	435.38
347.308	434.38
347.535	435.38
347.763	446.38
347.99	444.38
348.218	447.38
348.445	434.38
348.673	460.38
348.9	441.38
349.128	435.38
349.355	427.38
349.583	414.38
349.81	415.38
350.037	419.38
350.265	415.38
350.492	405.38
350.72	403.38
350.947	432.38
351.174	428.38
351.402	438.38
351.629	427.38
351.856	454.38
352.083	438.38
352.311	433.38
352.538	439.38
352.765	421.38
352.992	416.38
353.22	416.38
353.447	424.38
353.674	415.38
353.901	404.38
354.128	419.38
354.355	417.38
354.583	414.38
354.81	407.38
355.037	425.38
355.264	424.38
355.491	401.38
355.718	392.38
355.945	398.38
356.172	404.38
356.399	414.38
356.626	396.38
356.853	408.38
357.08	399.38
357.307	412.38
357.534	406.38
357.761	413.38
357.988	387.38
358.215	394.38
358.441	396.38
358.668	402.38
358.895	406.38
359.122	425.38
359.349	442.38
359.576	445.38
359.802	459.38
360.029	474.38
360.256	468.38
360.483	440.38
360.709	429.38
360.936	416.38
361.163	443.38
361.39	450.38
361.616	426.38
361.843	395.38
362.07	429.38
362.296	434.38
362.523	420.38
362.749	442.38
362.976	415.38
363.203	420.38
363.429	410.38
363.656	426.38
363.882	409.38
364.109	402.38
364.335	430.38
364.562	425.38
364.788	438.38
365.015	420.38
365.241	425.38
365.468	422.38
365.694	428.38
365.92	418.38
366.147	400.38
366.373	423.38
366.599	408.38
366.826	418.38
367.052	416.38
367.278	427.38
367.505	421.38
367.731	424.38
367.957	409.38
368.184	425.38
368.41	409.38
368.636	438.38
368.862	419.38
369.089	429.38
369.315	413.38
369.541	435.38
369.767	407.38
369.993	417.38
370.219	400.38
370.445	426.38
370.672	412.38
370.898	423.38
371.124	428.38
371.35	421.38
371.576	435.38
371.802	438.38
372.028	406.38
372.254	418.38
372.48	406.38
372.706	417.38
372.932	432.38
373.158	425.38
373.384	431.38
373.61	431.38
373.835	431.38
374.061	434.38
374.287	429.38
374.513	430.38
374.739	421.38
374.965	463.38
375.191	417.38
375.416	420.38
375.642	427.38
375.868	438.38
376.094	431.38
376.319	415.38
376.545	414.38
376.771	446.38
376.997	412.38
377.222	425.38
377.448	422.38
377.674	422.38
377.899	415.38
378.125	440.38
378.35	421.38
378.576	407.38
378.802	422.38
379.027	423.38
379.253	420.38
379.478	410.38
379.704	449.38
379.929	424.38
380.155	416.38
380.38	416.38
380.606	439.38
380.831	431.38
381.057	426.38
381.282	452.38
381.507	434.38
381.733	422.38
381.958	427.38
382.184	425.38
382.409	432.38
382.634	438.38
382.86	426.38
383.085	453.38
383.31	440.38
383.535	439.38
383.761	434.38
383.986	460.38
384.211	454.38
384.436	461.38
384.662	462.38
384.887	462.38
385.112	465.38
385.337	449.38
385.562	452.38
385.787	460.38
386.013	470.38
386.238	486.38
386.463	462.38
386.688	467.38
386.913	480.38
387.138	480.38
387.363	460.38
387.588	467.38
387.813	453.38
388.038	471.38
388.263	478.38
388.488	470.38
388.713	485.38
388.938	493.38
389.163	471.38
389.387	477.38
389.612	474.38
389.837	483.38
390.062	482.38
390.287	469.38
390.512	457.38
390.736	468.38
390.961	478.38
391.186	464.38
391.411	492.38
391.636	494.38
391.86	478.38
392.085	505.38
392.31	502.38
392.534	482.38
392.759	489.38
392.984	485.38
393.208	479.38
393.433	484.38
393.658	463.38
393.882	486.38
394.107	477.38
394.331	489.38
394.556	467.38
394.78	487.38
395.005	504.38
395.229	492.38
395.454	492.38
395.678	517.38
395.903	514.38
396.127	523.38
396.352	531.38
396.576	504.38
396.801	488.38
397.025	519.38
397.249	522.38
397.474	533.38
397.698	521.38
397.922	532.38
398.147	562.38
398.371	551.38
398.595	551.38
398.82	550.38
399.044	554.38
399.268	580.38
399.492	618.38
399.717	649.38
399.941	638.38
400.165	698.38
400.389	715.38
400.613	642.38
400.837	586.38
401.062	591.38
401.286	570.38
401.51	557.38
401.734	562.38
401.958	572.38
402.182	538.38
402.406	572.38
402.63	593.38
402.854	598.38
403.078	565.38
403.302	564.38
403.526	603.38
403.75	595.38
403.974	575.38
404.198	586.38
404.422	579.38
404.645	564.38
404.869	592.38
405.093	618.38
405.317	649.38
405.541	704.38
405.765	651.38
405.988	607.38
406.212	618.38
406.436	625.38
406.66	632.38
406.883	630.38
407.107	627.38
407.331	688.38
407.555	780.38
407.778	763.38
408.002	684.38
408.226	645.38
408.449	623.38
408.673	659.38
408.896	680.38
409.12	699.38
409.344	688.38
409.567	615.38
409.791	600.38
410.014	602.38
410.238	613.38
410.461	604.38
410.685	623.38
410.908	605.38
411.132	645.38
411.355	676.38
411.578	666.38
411.802	596.38
412.025	572.38
412.249	604.38
412.472	616.38
412.695	623.38
412.919	656.38
413.142	606.38
413.365	581.38
413.589	570.38
413.812	570.38
414.035	564.38
414.258	553.38
414.482	548.38
414.705	570.38
414.928	549.38
415.151	563.38
415.374	535.38
415.597	554.38
415.821	564.38
416.044	568.38
416.267	544.38
416.49	550.38
416.713	540.38
416.936	547.38
417.159	546.38
417.382	540.38
417.605	540.38
417.828	569.38
418.051	574.38
418.274	545.38
418.497	538.38
418.72	552.38
418.943	556.38
419.166	564.38
419.389	591.38
419.611	588.38
419.834	584.38
420.057	592.38
420.28	560.38
420.503	574.38
420.726	578.38
420.948	560.38
421.171	619.38
421.394	663.38
421.617	593.38
421.839	574.38
422.062	590.38
422.285	590.38
422.507	638.38
422.73	718.38
422.953	706.38
423.175	631.38
423.398	590.38
423.621	596.38
423.843	608.38
424.066	615.38
424.288	630.38
424.511	632.38
424.733	657.38
424.956	793.38
425.178	744.38
425.401	735.38
425.623	741.38
425.846	640.38
426.068	631.38
426.291	611.38
426.513	590.38
426.735	614.38
426.958	662.38
427.18	732.38
427.402	880.38
427.625	994.38
427.847	870.38
428.069	735.38
428.292	652.38
428.514	606.38
428.736	597.38
428.958	611.38
429.181	574.38
429.403	566.38
429.625	582.38
429.847	613.38
430.069	665.38
430.292	683.38
430.514	589.38
430.736	572.38
430.958	559.38
431.18	558.38
431.402	561.38
431.624	538.38
431.846	542.38
432.068	530.38
432.29	524.38
432.512	541.38
432.734	534.38
432.956	539.38
433.178	540.38
433.4	557.38
433.622	565.38
433.844	528.38
434.066	526.38
434.287	529.38
434.509	574.38
434.731	565.38
434.953	574.38
435.175	592.38
435.397	594.38
435.618	613.38
435.84	678.38
436.062	761.38
436.284	839.38
436.505	694.38
436.727	648.38
436.949	605.38
437.17	586.38
437.392	559.38
437.614	572.38
437.835	629.38
438.057	696.38
438.278	830.38
438.5	823.38
438.721	926.38
438.943	885.38
439.165	670.38
439.386	632.38
439.608	613.38
439.829	610.38
440.05	660.38
440.272	675.38
440.493	641.38
440.715	613.38
440.936	581.38
441.158	583.38
441.379	557.38
441.6	578.38
441.822	604.38
442.043	640.38
442.264	754.38
442.486	811.38
442.707	672.38
442.928	621.38
443.149	647.38
443.371	655.38
443.592	705.38
443.813	826.38
444.034	886.38
444.255	708.38
444.476	625.38
444.698	620.38
444.919	618.38
445.14	736.38
445.361	670.38
445.582	651.38
445.803	704.38
446.024	878.38
446.245	876.38
446.466	775.38
446.687	657.38
446.908	629.38
447.129	593.38
447.35	556.38
447.571	575.38
447.792	546.38
448.013	582.38
448.234	573.38
448.455	641.38
448.675	783.38
448.896	920.38
449.117	754.38
449.338	721.38
449.559	835.38
449.779	956.38
450	757.38
450.221	609.38
450.442	559.38
450.662	563.38
450.883	554.38
451.104	569.38
451.324	581.38
451.545	546.38
451.766	526.38
451.986	506.38
452.207	506.38
452.428	528.38
452.648	506.38
452.869	495.38
453.089	521.38
453.31	526.38
453.53	523.38
453.751	536.38
453.971	516.38
454.192	536.38
454.412	491.38
454.633	506.38
454.853	520.38
455.073	508.38
455.294	550.38
455.514	603.38
455.734	600.38
455.955	494.38
456.175	482.38
456.395	504.38
456.616	502.38
456.836	499.38
457.056	481.38
457.276	465.38
457.497	487.38
457.717	501.38
457.937	495.38
458.157	498.38
458.377	511.38
458.598	547.38
458.818	567.38
459.038	656.38
459.258	664.38
459.478	592.38
459.698	582.38
459.918	538.38
460.138	567.38
460.358	542.38
460.578	552.38
460.798	565.38
461.018	562.38
461.238	570.38
461.458	556.38
461.678	578.38
461.898	554.38
462.118	561.38
462.338	580.38
462.558	584.38
462.777	579.38
462.997	605.38
463.217	614.38
463.437	606.38
463.657	608.38
463.876	608.38
464.096	607.38
464.316	590.38
464.536	600.38
464.755	607.38
464.975	614.38
465.195	639.38
465.414	690.38
465.634	637.38
465.854	605.38
466.073	570.38
466.293	545.38
466.512	517.38
466.732	530.38
466.951	523.38
467.171	512.38
467.391	544.38
467.61	549.38
467.829	546.38
468.049	547.38
468.268	546.38
468.488	524.38
468.707	503.38
468.927	520.38
469.146	516.38
469.365	519.38
469.585	534.38
469.804	519.38
470.023	527.38
470.243	542.38
470.462	546.38
470.681	557.38
470.901	541.38
471.12	541.38
471.339	525.38
471.558	541.38
471.777	539.38
471.997	540.38
472.216	555.38
472.435	556.38
472.654	530.38
472.873	530.38
473.092	555.38
473.311	524.38
473.53	552.38
473.749	568.38
473.968	549.38
474.187	667.38
474.406	726.38
474.625	607.38
474.844	526.38
475.063	534.38
475.282	534.38
475.501	543.38
475.72	534.38
475.939	519.38
476.158	526.38
476.377	547.38
476.596	537.38
476.814	556.38
477.033	566.38
477.252	562.38
477.471	582.38
477.69	576.38
477.908	564.38
478.127	574.38
478.346	590.38
478.564	615.38
478.783	592.38
479.002	602.38
479.22	598.38
479.439	632.38
479.658	638.38
479.876	641.38
480.095	666.38
480.313	684.38
480.532	657.38
480.751	649.38
480.969	669.38
481.188	684.38
481.406	725.38
481.624	676.38
481.843	638.38
482.061	617.38
482.28	646.38
482.498	612.38
482.717	638.38
482.935	621.38
483.153	609.38
483.372	640.38
483.59	622.38
483.808	622.38
484.027	617.38
484.245	630.38
484.463	614.38
484.681	629.38
484.9	629.38
485.118	627.38
485.336	640.38
485.554	641.38
485.772	622.38
485.99	633.38
486.209	671.38
486.427	636.38
486.645	666.38
486.863	667.38
487.081	665.38
487.299	662.38
487.517	670.38
487.735	692.38
487.953	660.38
488.171	677.38
488.389	651.38
488.607	667.38
488.825	676.38
489.043	653.38
489.261	676.38
489.479	680.38
489.696	661.38
489.914	662.38
490.132	685.38
490.35	682.38
490.568	689.38
490.786	670.38
491.003	705.38
491.221	707.38
491.439	726.38
491.657	744.38
491.874	723.38
492.092	761.38
492.31	742.38
492.527	766.38
492.745	736.38
492.963	758.38
493.18	735.38
493.398	742.38
493.615	778.38
493.833	759.38
494.05	774.38
494.268	760.38
494.485	732.38
494.703	797.38
494.92	783.38
495.138	785.38
495.355	766.38
495.573	789.38
495.79	806.38
496.008	766.38
496.225	785.38
496.442	775.38
496.66	780.38
496.877	796.38
497.094	785.38
497.312	804.38
497.529	812.38
497.746	806.38
497.963	836.38
498.181	867.38
498.398	859.38
498.615	885.38
498.832	882.38
499.049	908.38
499.267	947.38
499.484	957.38
499.701	1007.38
499.918	1029.38
500.135	1070.38
500.352	1105.38
500.569	1131.38
500.786	1158.38
501.003	1128.38
501.22	1125.38
501.437	1062.38
501.654	1071.38
501.871	1038.38
