Data from 1978.PennyLincolnUp.Lamp.En5.5.200Scan.071719.P1_HRD10591_16-12-16-864.txt Node
Date: Thu Jul 18 16:12:16 EDT 2019
User: cochatt
Spectrometer: HR+D1059
Trigger mode: 1
Integration Time (sec): 1.000000E-1
Scans to average: 1
Electric dark correction enabled: true
Nonlinearity correction enabled: false
Boxcar width: 0
XAxis mode: Wavelengths
Number of Pixels in Spectrum: 2048
>>>>>Begin Spectral Data<<<<<
223.165	-16
223.4	-16
223.635	-16
223.869	-10
224.104	-19
224.338	-20
224.573	-30
224.808	-1
225.042	0
225.277	-2
225.511	-11
225.746	5
225.98	8
226.215	15
226.449	16
226.683	3
226.918	36
227.152	26
227.387	29
227.621	31
227.856	58
228.09	50
228.324	56
228.559	69
228.793	85
229.027	86
229.262	101
229.496	108
229.73	121
229.964	139
230.199	123
230.433	127
230.667	122
230.901	102
231.136	107
231.37	116
231.604	103
231.838	100
232.072	118
232.306	110
232.541	106
232.775	120
233.009	106
233.243	106
233.477	126
233.711	104
233.945	119
234.179	118
234.413	112
234.647	117
234.881	107
235.115	123
235.349	109
235.583	122
235.817	120
236.051	111
236.285	129
236.519	118
236.753	119
236.987	139
237.221	168
237.455	216
237.689	173
237.922	135
238.156	124
238.39	137
238.624	115
238.858	119
239.091	124
239.325	112
239.559	123
239.793	132
240.027	130
240.26	130
240.494	141
240.728	138
240.961	125
241.195	124
241.429	132
241.662	128
241.896	127
242.13	139
242.363	120
242.597	121
242.83	124
243.064	134
243.298	150
243.531	132
243.765	135
243.998	141
244.232	137
244.465	135
244.699	126
244.932	141
245.166	150
245.399	134
245.633	150
245.866	135
246.099	140
246.333	139
246.566	141
246.8	138
247.033	130
247.266	141
247.5	151
247.733	151
247.966	146
248.2	156
248.433	151
248.666	143
248.899	177
249.133	168
249.366	196
249.599	179
249.832	159
250.066	173
250.299	159
250.532	172
250.765	173
250.998	180
251.231	206
251.465	178
251.698	175
251.931	188
252.164	184
252.397	181
252.63	174
252.863	166
253.096	195
253.329	190
253.562	190
253.795	197
254.028	207
254.261	188
254.494	196
254.727	227
254.96	238
255.193	224
255.426	218
255.659	191
255.892	207
256.124	204
256.357	196
256.59	205
256.823	202
257.056	210
257.289	195
257.521	209
257.754	204
257.987	186
258.22	192
258.452	187
258.685	204
258.918	201
259.151	213
259.383	216
259.616	196
259.849	195
260.081	211
260.314	217
260.547	216
260.779	218
261.012	191
261.244	214
261.477	214
261.71	198
261.942	203
262.175	212
262.407	194
262.64	186
262.872	199
263.105	198
263.337	201
263.57	202
263.802	202
264.035	217
264.267	212
264.499	201
264.732	198
264.964	191
265.197	201
265.429	187
265.661	184
265.894	211
266.126	207
266.358	197
266.591	194
266.823	204
267.055	218
267.287	216
267.52	206
267.752	216
267.984	215
268.216	208
268.448	208
268.681	207
268.913	219
269.145	230
269.377	246
269.609	254
269.841	257
270.073	241
270.306	242
270.538	260
270.77	261
271.002	272
271.234	264
271.466	273
271.698	261
271.93	263
272.162	277
272.394	281
272.626	265
272.858	239
273.09	244
273.322	248
273.553	267
273.785	248
274.017	234
274.249	219
274.481	234
274.713	226
274.945	249
275.176	233
275.408	265
275.64	246
275.872	247
276.104	238
276.335	231
276.567	249
276.799	273
277.031	281
277.262	299
277.494	286
277.726	271
277.957	272
278.189	255
278.421	257
278.652	266
278.884	236
279.115	224
279.347	225
279.579	231
279.81	251
280.042	257
280.273	253
280.505	252
280.736	250
280.968	264
281.199	250
281.431	244
281.662	244
281.894	256
282.125	274
282.356	248
282.588	276
282.819	287
283.051	262
283.282	251
283.513	261
283.745	271
283.976	246
284.207	268
284.439	247
284.67	266
284.901	274
285.132	265
285.364	264
285.595	262
285.826	264
286.057	279
286.288	250
286.52	261
286.751	272
286.982	270
287.213	258
287.444	272
287.675	264
287.906	275
288.138	267
288.369	288
288.6	259
288.831	274
289.062	273
289.293	284
289.524	282
289.755	252
289.986	271
290.217	264
290.448	278
290.679	288
290.91	268
291.141	279
291.371	274
291.602	274
291.833	277
292.064	273
292.295	262
292.526	291
292.757	267
292.987	270
293.218	272
293.449	279
293.68	291
293.91	267
294.141	288
294.372	279
294.603	275
294.833	266
295.064	286
295.295	263
295.525	279
295.756	286
295.987	280
296.217	298
296.448	318
296.679	303
296.909	288
297.14	268
297.37	270
297.601	253
297.831	293
298.062	281
298.292	281
298.523	315
298.753	290
298.984	292
299.214	303
299.445	311
299.675	270
299.905	299
300.136	288
300.366	287
300.597	304
300.827	317
301.057	314
301.288	307
301.518	301
301.748	310
301.979	308
302.209	303
302.439	301
302.669	300
302.9	315
303.13	305
303.36	308
303.59	303
303.82	310
304.051	309
304.281	321
304.511	312
304.741	291
304.971	327
305.201	322
305.431	321
305.661	314
305.891	304
306.121	307
306.352	334
306.582	319
306.812	325
307.042	316
307.272	311
307.502	328
307.731	332
307.961	296
308.191	315
308.421	316
308.651	317
308.881	321
309.111	341
309.341	311
309.571	339
309.8	332
310.03	342
310.26	339
310.49	348
310.72	361
310.949	347
311.179	367
311.409	360
311.639	349
311.868	344
312.098	346
312.328	359
312.557	364
312.787	372
313.017	374
313.246	373
313.476	355
313.706	370
313.935	343
314.165	379
314.394	367
314.624	368
314.853	349
315.083	363
315.312	370
315.542	350
315.771	330
316.001	344
316.23	345
316.46	368
316.689	367
316.919	359
317.148	364
317.377	359
317.607	376
317.836	371
318.065	372
318.295	368
318.524	374
318.753	347
318.983	351
319.212	361
319.441	356
319.67	341
319.9	346
320.129	346
320.358	376
320.587	368
320.816	376
321.046	367
321.275	370
321.504	372
321.733	384
321.962	376
322.191	387
322.42	389
322.649	395
322.878	415
323.108	398
323.337	443
323.566	435
323.795	464
324.024	499
324.253	607
324.482	826
324.71	1287
324.939	1993
325.168	1707
325.397	856
325.626	584
325.855	500
326.084	470
326.313	439
326.542	445
326.77	472
326.999	585
327.228	776
327.457	1194
327.686	1478
327.914	952
328.143	641
328.372	556
328.6	516
328.829	494
329.058	517
329.287	508
329.515	478
329.744	459
329.972	457
330.201	464
330.43	499
330.658	517
330.887	532
331.115	526
331.344	451
331.572	451
331.801	458
332.03	464
332.258	427
332.486	435
332.715	431
332.943	413
333.172	446
333.4	457
333.629	443
333.857	465
334.085	458
334.314	476
334.542	488
334.771	502
334.999	470
335.227	486
335.455	438
335.684	453
335.912	447
336.14	426
336.369	426
336.597	447
336.825	438
337.053	423
337.281	434
337.51	444
337.738	436
337.966	404
338.194	409
338.422	427
338.65	417
338.878	430
339.106	438
339.334	421
339.562	412
339.79	393
340.018	413
340.246	414
340.474	426
340.702	410
340.93	421
341.158	410
341.386	415
341.614	423
341.842	415
342.07	418
342.298	414
342.526	431
342.754	396
342.981	398
343.209	410
343.437	401
343.665	418
343.893	415
344.12	434
344.348	426
344.576	426
344.804	428
345.031	423
345.259	436
345.487	414
345.714	418
345.942	410
346.17	409
346.397	408
346.625	403
346.853	399
347.08	412
347.308	406
347.535	412
347.763	422
347.99	405
348.218	425
348.445	400
348.673	409
348.9	425
349.128	408
349.355	396
349.583	404
349.81	397
350.037	390
350.265	395
350.492	396
350.72	377
350.947	396
351.174	409
351.402	421
351.629	412
351.856	400
352.083	386
352.311	418
352.538	391
352.765	411
352.992	402
353.22	391
353.447	405
353.674	407
353.901	366
354.128	378
354.355	395
354.583	387
354.81	366
355.037	383
355.264	374
355.491	382
355.718	387
355.945	384
356.172	384
356.399	375
356.626	382
356.853	379
357.08	401
357.307	381
357.534	391
357.761	366
357.988	392
358.215	384
358.441	371
358.668	391
358.895	386
359.122	371
359.349	399
359.576	410
359.802	404
360.029	444
360.256	455
360.483	444
360.709	409
360.936	419
361.163	412
361.39	406
361.616	421
361.843	387
362.07	404
362.296	394
362.523	404
362.749	404
362.976	413
363.203	398
363.429	420
363.656	400
363.882	412
364.109	391
364.335	394
364.562	414
364.788	420
365.015	391
365.241	392
365.468	404
365.694	399
365.92	398
366.147	399
366.373	407
366.599	411
366.826	387
367.052	385
367.278	390
367.505	382
367.731	421
367.957	404
368.184	412
368.41	397
368.636	420
368.862	420
369.089	420
369.315	402
369.541	399
369.767	381
369.993	404
370.219	388
370.445	398
370.672	400
370.898	403
371.124	402
371.35	401
371.576	403
371.802	392
372.028	403
372.254	422
372.48	387
372.706	408
372.932	402
373.158	401
373.384	420
373.61	386
373.835	413
374.061	428
374.287	432
374.513	401
374.739	400
374.965	408
375.191	414
375.416	416
375.642	414
375.868	398
376.094	420
376.319	401
376.545	419
376.771	410
376.997	409
377.222	390
377.448	409
377.674	410
377.899	401
378.125	388
378.35	406
378.576	410
378.802	405
379.027	436
379.253	426
379.478	396
379.704	400
379.929	406
380.155	431
380.38	399
380.606	410
380.831	383
381.057	409
381.282	405
381.507	396
381.733	409
381.958	411
382.184	419
382.409	414
382.634	418
382.86	436
383.085	416
383.31	442
383.535	432
383.761	434
383.986	434
384.211	445
384.436	436
384.662	433
384.887	442
385.112	456
385.337	452
385.562	449
385.787	453
386.013	473
386.238	455
386.463	474
386.688	474
386.913	464
387.138	464
387.363	424
387.588	452
387.813	457
388.038	460
388.263	455
388.488	438
388.713	446
388.938	435
389.163	450
389.387	455
389.612	450
389.837	461
390.062	457
390.287	428
390.512	449
390.736	464
390.961	460
391.186	451
391.411	465
391.636	459
391.86	464
392.085	475
392.31	487
392.534	470
392.759	449
392.984	460
393.208	465
393.433	446
393.658	474
393.882	474
394.107	447
394.331	466
394.556	461
394.78	484
395.005	468
395.229	480
395.454	482
395.678	485
395.903	491
396.127	516
396.352	516
396.576	500
396.801	469
397.025	491
397.249	502
397.474	482
397.698	504
397.922	511
398.147	530
398.371	526
398.595	518
398.82	530
399.044	519
399.268	562
399.492	574
399.717	592
399.941	635
400.165	647
400.389	660
400.613	631
400.837	564
401.062	555
401.286	548
401.51	537
401.734	542
401.958	529
402.182	525
402.406	539
402.63	535
402.854	526
403.078	559
403.302	542
403.526	554
403.75	573
403.974	538
404.198	546
404.422	544
404.645	547
404.869	571
405.093	576
405.317	621
405.541	646
405.765	614
405.988	571
406.212	574
406.436	593
406.66	611
406.883	591
407.107	626
407.331	674
407.555	748
407.778	734
408.002	642
408.226	627
408.449	622
408.673	625
408.896	627
409.12	682
409.344	656
409.567	584
409.791	585
410.014	554
410.238	542
410.461	558
410.685	581
410.908	589
411.132	606
411.355	636
411.578	605
411.802	594
412.025	572
412.249	558
412.472	592
412.695	614
412.919	611
413.142	553
413.365	569
413.589	554
413.812	528
414.035	518
414.258	522
414.482	525
414.705	520
414.928	539
415.151	537
415.374	518
415.597	497
415.821	508
416.044	531
416.267	530
416.49	539
416.713	515
416.936	522
417.159	515
417.382	517
417.605	510
417.828	541
418.051	530
418.274	519
418.497	511
418.72	508
418.943	512
419.166	550
419.389	572
419.611	568
419.834	566
420.057	554
420.28	556
420.503	544
420.726	527
420.948	547
421.171	582
421.394	610
421.617	560
421.839	552
422.062	548
422.285	566
422.507	616
422.73	691
422.953	665
423.175	588
423.398	532
423.621	537
423.843	567
424.066	580
424.288	564
424.511	576
424.733	650
424.956	734
425.178	694
425.401	695
425.623	718
425.846	629
426.068	559
426.291	570
426.513	569
426.735	582
426.958	621
427.18	685
427.402	826
427.625	898
427.847	780
428.069	657
428.292	612
428.514	554
428.736	539
428.958	544
429.181	535
429.403	523
429.625	533
429.847	596
430.069	636
430.292	620
430.514	543
430.736	534
430.958	523
431.18	487
431.402	503
431.624	500
431.846	498
432.068	520
432.29	506
432.512	519
432.734	536
432.956	524
433.178	527
433.4	526
433.622	534
433.844	521
434.066	518
434.287	516
434.509	527
434.731	530
434.953	534
435.175	563
435.397	571
435.618	567
435.84	639
436.062	708
436.284	764
436.505	644
436.727	578
436.949	558
437.17	539
437.392	538
437.614	549
437.835	556
438.057	655
438.278	747
438.5	754
438.721	828
438.943	813
439.165	632
439.386	581
439.608	588
439.829	584
440.05	604
440.272	640
440.493	619
440.715	564
440.936	546
441.158	548
441.379	532
441.6	536
441.822	577
442.043	611
442.264	695
442.486	742
442.707	626
442.928	586
443.149	584
443.371	634
443.592	649
443.813	741
444.034	808
444.255	671
444.476	597
444.698	590
444.919	600
445.14	671
445.361	644
445.582	619
445.803	642
446.024	752
446.245	783
446.466	702
446.687	599
446.908	564
447.129	525
447.35	518
447.571	522
447.792	495
448.013	527
448.234	551
448.455	588
448.675	699
448.896	819
449.117	670
449.338	654
449.559	757
449.779	885
450	683
450.221	580
450.442	543
450.662	536
450.883	513
451.104	546
451.324	502
451.545	510
451.766	484
451.986	468
452.207	463
452.428	488
452.648	488
452.869	474
453.089	512
453.31	486
453.53	483
453.751	470
453.971	475
454.192	489
454.412	488
454.633	458
454.853	495
455.073	479
455.294	476
455.514	574
455.734	553
455.955	475
456.175	445
456.395	470
456.616	446
456.836	452
457.056	472
457.276	444
457.497	464
457.717	456
457.937	440
458.157	464
458.377	475
458.598	485
458.818	512
459.038	610
459.258	626
459.478	577
459.698	523
459.918	506
460.138	517
460.358	530
460.578	536
460.798	557
461.018	561
461.238	547
461.458	533
461.678	539
461.898	545
462.118	566
462.338	564
462.558	550
462.777	568
462.997	574
463.217	571
463.437	580
463.657	578
463.876	582
464.096	572
464.316	568
464.536	590
464.755	584
464.975	564
465.195	608
465.414	666
465.634	592
465.854	564
466.073	548
466.293	500
466.512	501
466.732	504
466.951	499
467.171	498
467.391	502
467.61	507
467.829	522
468.049	518
468.268	502
468.488	515
468.707	502
468.927	492
469.146	489
469.365	496
469.585	484
469.804	486
470.023	504
470.243	495
470.462	514
470.681	534
470.901	524
471.12	493
471.339	496
471.558	501
471.777	489
471.997	506
472.216	487
472.435	530
472.654	548
472.873	494
473.092	510
473.311	506
473.53	525
473.749	495
473.968	538
474.187	626
474.406	657
474.625	555
474.844	505
475.063	519
475.282	484
475.501	504
475.72	501
475.939	515
476.158	505
476.377	515
476.596	516
476.814	515
477.033	539
477.252	546
477.471	528
477.69	551
477.908	534
478.127	522
478.346	555
478.564	567
478.783	584
479.002	575
479.22	584
479.439	598
479.658	619
479.876	615
480.095	618
480.313	653
480.532	654
480.751	614
480.969	617
481.188	648
481.406	690
481.624	639
481.843	616
482.061	592
482.28	613
482.498	598
482.717	602
482.935	601
483.153	585
483.372	604
483.59	596
483.808	598
484.027	576
484.245	585
484.463	588
484.681	609
484.9	610
485.118	603
485.336	597
485.554	599
485.772	615
485.99	594
486.209	598
486.427	618
486.645	610
486.863	619
487.081	631
487.299	615
487.517	634
487.735	632
487.953	618
488.171	626
488.389	621
488.607	644
488.825	641
489.043	637
489.261	640
489.479	635
489.696	642
489.914	656
490.132	616
490.35	643
490.568	654
490.786	631
491.003	664
491.221	676
491.439	696
491.657	687
491.874	662
492.092	690
492.31	690
492.527	710
492.745	698
492.963	684
493.18	684
493.398	716
493.615	723
493.833	714
494.05	717
494.268	712
494.485	701
494.703	741
494.92	738
495.138	726
495.355	729
495.573	698
495.79	755
496.008	733
496.225	728
496.442	723
496.66	739
496.877	752
497.094	742
497.312	766
497.529	767
497.746	783
497.963	792
498.181	804
498.398	823
498.615	856
498.832	856
499.049	861
499.267	915
499.484	956
499.701	953
499.918	989
500.135	1018
500.352	1070
500.569	1094
500.786	1100
501.003	1078
501.22	1046
501.437	1026
501.654	964
501.871	960
502.088	948
502.305	898
502.522	862
502.739	848
502.956	813
503.172	810
503.389	823
503.606	794
503.823	794
504.04	775
504.256	769
504.473	768
504.69	741
504.907	804
505.123	738
505.34	723
505.557	703
505.773	696
505.99	690
506.207	696
506.423	701
506.64	685
506.856	687
507.073	704
507.289	675
507.506	692
507.722	665
507.939	688
508.155	702
508.372	651
508.588	648
508.805	667
509.021	669
509.238	683
509.454	677
509.67	661
509.887	624
510.103	662
510.319	659
510.536	727
510.752	1084
510.968	909
511.184	679
511.401	631
511.617	630
511.833	618
512.049	638
512.265	644
512.481	629
512.698	610
512.914	617
513.13	630
513.346	614
513.562	612
513.778	631
513.994	646
514.21	639
514.426	668
514.642	681
514.858	708
515.074	742
515.29	837
515.506	1098
515.721	980
515.937	746
516.153	687
516.369	680
516.585	673
516.801	656
517.016	651
517.232	654
517.448	671
517.664	681
517.879	677
518.095	683
518.311	659
518.527	667
518.742	643
518.958	622
519.173	608
519.389	646
519.605	646
519.82	624
520.036	669
520.251	654
520.467	654
520.682	667
520.898	680
521.113	664
521.329	689
521.544	752
521.76	912
521.975	1381
522.19	1357
522.406	816
522.621	680
522.836	629
523.052	612
523.267	607
523.482	588
523.698	557
523.913	582
524.128	574
524.343	587
524.559	592
524.774	546
524.989	573
525.204	557
525.419	565
525.634	573
525.849	544
526.064	552
526.28	555
526.495	540
526.71	537
526.925	513
527.14	520
527.355	513
527.57	508
527.785	549
527.999	535
528.214	524
528.429	518
528.644	536
528.859	536
529.074	517
529.289	541
529.503	593
529.718	585
529.933	571
530.148	544
530.363	563
530.577	541
530.792	531
531.007	523
531.221	535
531.436	514
531.651	518
531.865	516
532.08	515
532.295	521
532.509	510
532.724	519
532.938	517
533.153	509
533.367	501
533.582	520
533.796	525
534.011	529
534.225	525
534.44	475
534.654	498
534.868	523
535.083	514
535.297	500
535.511	534
535.726	527
535.94	497
536.154	509
536.369	515
536.583	499
536.797	486
537.011	478
537.225	494
537.44	492
537.654	505
537.868	482
538.082	480
538.296	510
538.51	508
538.724	504
538.938	497
539.153	516
539.367	522
539.581	504
539.795	500
540.009	498
540.222	493
540.436	486
540.65	475
540.864	481
541.078	498
541.292	506
541.506	471
541.72	481
541.934	484
542.147	492
542.361	505
542.575	450
542.789	495
543.002	492
543.216	493
543.43	489
543.644	490
543.857	476
544.071	522
544.285	466
544.498	478
544.712	498
544.925	495
545.139	473
545.352	487
545.566	478
545.779	466
545.993	457
546.206	466
546.42	486
546.633	470
546.847	475
547.06	490
547.274	444
547.487	470
547.7	473
547.914	456
548.127	486
548.34	475
548.554	478
548.767	468
548.98	475
549.193	481
549.407	462
549.62	458
549.833	480
550.046	489
550.259	464
550.473	472
550.686	469
550.899	464
551.112	465
551.325	457
551.538	474
551.751	476
551.964	467
552.177	490
552.39	463
552.603	450
552.816	480
553.029	479
553.242	496
553.455	500
553.667	483
553.88	499
554.093	501
554.306	500
554.519	476
554.732	455
554.944	445
555.157	463
555.37	446
555.583	465
555.795	443
556.008	451
556.221	443
556.433	460
556.646	434
556.859	437
557.071	443
557.284	412
557.496	431
557.709	425
557.921	425
558.134	426
558.346	424
558.559	445
558.771	415
558.984	437
559.196	442
559.409	414
559.621	435
559.833	412
560.046	411
560.258	432
560.47	435
560.683	431
560.895	394
561.107	422
561.32	418
561.532	404
561.744	424
561.956	426
562.168	442
562.381	428
562.593	421
562.805	415
563.017	431
563.229	432
563.441	436
