Data from 1978.PennyLincolnUp.Lamp.En5.5.200Scan.071719.P1_HRD10591_16-13-14-864.txt Node
Date: Thu Jul 18 16:13:14 EDT 2019
User: cochatt
Spectrometer: HR+D1059
Trigger mode: 1
Integration Time (sec): 1.000000E-1
Scans to average: 1
Electric dark correction enabled: true
Nonlinearity correction enabled: false
Boxcar width: 0
XAxis mode: Wavelengths
Number of Pixels in Spectrum: 2048
>>>>>Begin Spectral Data<<<<<
223.165	-19.75
223.4	-19.75
223.635	-19.75
223.869	-17.75
224.104	-5.75
224.338	-7.75
224.573	-26.75
224.808	-24.75
225.042	-15.75
225.277	-12.75
225.511	-8.75
225.746	6.25
225.98	5.25
226.215	21.25
226.449	26.25
226.683	18.25
226.918	28.25
227.152	34.25
227.387	33.25
227.621	21.25
227.856	40.25
228.09	47.25
228.324	57.25
228.559	62.25
228.793	71.25
229.027	95.25
229.262	110.25
229.496	118.25
229.73	122.25
229.964	160.25
230.199	140.25
230.433	101.25
230.667	108.25
230.901	113.25
231.136	120.25
231.37	93.25
231.604	104.25
231.838	123.25
232.072	110.25
232.306	114.25
232.541	115.25
232.775	107.25
233.009	112.25
233.243	115.25
233.477	110.25
233.711	116.25
233.945	109.25
234.179	117.25
234.413	124.25
234.647	125.25
234.881	104.25
235.115	118.25
235.349	115.25
235.583	122.25
235.817	110.25
236.051	132.25
236.285	125.25
236.519	115.25
236.753	123.25
236.987	139.25
237.221	165.25
237.455	224.25
237.689	189.25
237.922	141.25
238.156	144.25
238.39	127.25
238.624	112.25
238.858	128.25
239.091	128.25
239.325	126.25
239.559	127.25
239.793	127.25
240.027	137.25
240.26	136.25
240.494	142.25
240.728	163.25
240.961	147.25
241.195	157.25
241.429	133.25
241.662	139.25
241.896	135.25
242.13	135.25
242.363	140.25
242.597	123.25
242.83	122.25
243.064	139.25
243.298	145.25
243.531	127.25
243.765	130.25
243.998	134.25
244.232	132.25
244.465	143.25
244.699	139.25
244.932	140.25
245.166	146.25
245.399	141.25
245.633	135.25
245.866	144.25
246.099	150.25
246.333	161.25
246.566	153.25
246.8	139.25
247.033	151.25
247.266	160.25
247.5	168.25
247.733	165.25
247.966	169.25
248.2	162.25
248.433	171.25
248.666	174.25
248.899	179.25
249.133	192.25
249.366	206.25
249.599	191.25
249.832	173.25
250.066	175.25
250.299	174.25
250.532	181.25
250.765	184.25
250.998	220.25
251.231	193.25
251.465	201.25
251.698	198.25
251.931	179.25
252.164	200.25
252.397	204.25
252.63	207.25
252.863	195.25
253.096	197.25
253.329	220.25
253.562	203.25
253.795	212.25
254.028	211.25
254.261	205.25
254.494	205.25
254.727	260.25
254.96	253.25
255.193	255.25
255.426	231.25
255.659	213.25
255.892	206.25
256.124	220.25
256.357	212.25
256.59	207.25
256.823	217.25
257.056	212.25
257.289	204.25
257.521	205.25
257.754	198.25
257.987	211.25
258.22	199.25
258.452	211.25
258.685	205.25
258.918	197.25
259.151	226.25
259.383	204.25
259.616	222.25
259.849	224.25
260.081	225.25
260.314	262.25
260.547	235.25
260.779	223.25
261.012	224.25
261.244	222.25
261.477	219.25
261.71	231.25
261.942	205.25
262.175	230.25
262.407	217.25
262.64	208.25
262.872	208.25
263.105	208.25
263.337	211.25
263.57	191.25
263.802	200.25
264.035	212.25
264.267	216.25
264.499	206.25
264.732	202.25
264.964	224.25
265.197	213.25
265.429	223.25
265.661	230.25
265.894	215.25
266.126	216.25
266.358	209.25
266.591	222.25
266.823	203.25
267.055	224.25
267.287	223.25
267.52	233.25
267.752	221.25
267.984	215.25
268.216	219.25
268.448	225.25
268.681	238.25
268.913	240.25
269.145	256.25
269.377	268.25
269.609	245.25
269.841	259.25
270.073	262.25
270.306	288.25
270.538	289.25
270.77	307.25
271.002	289.25
271.234	263.25
271.466	288.25
271.698	282.25
271.93	295.25
272.162	319.25
272.394	287.25
272.626	283.25
272.858	289.25
273.09	250.25
273.322	278.25
273.553	259.25
273.785	259.25
274.017	246.25
274.249	269.25
274.481	263.25
274.713	255.25
274.945	272.25
275.176	258.25
275.408	276.25
275.64	273.25
275.872	252.25
276.104	263.25
276.335	264.25
276.567	264.25
276.799	271.25
277.031	310.25
277.262	314.25
277.494	304.25
277.726	304.25
277.957	277.25
278.189	267.25
278.421	255.25
278.652	265.25
278.884	280.25
279.115	253.25
279.347	262.25
279.579	257.25
279.81	261.25
280.042	279.25
280.273	266.25
280.505	269.25
280.736	277.25
280.968	277.25
281.199	272.25
281.431	263.25
281.662	264.25
281.894	266.25
282.125	273.25
282.356	301.25
282.588	288.25
282.819	287.25
283.051	289.25
283.282	266.25
283.513	267.25
283.745	275.25
283.976	285.25
284.207	292.25
284.439	284.25
284.67	287.25
284.901	266.25
285.132	272.25
285.364	266.25
285.595	267.25
285.826	277.25
286.057	267.25
286.288	273.25
286.52	267.25
286.751	278.25
286.982	284.25
287.213	277.25
287.444	279.25
287.675	291.25
287.906	291.25
288.138	273.25
288.369	288.25
288.6	292.25
288.831	284.25
289.062	288.25
289.293	300.25
289.524	290.25
289.755	287.25
289.986	286.25
290.217	292.25
290.448	283.25
290.679	300.25
290.91	284.25
291.141	292.25
291.371	291.25
291.602	290.25
291.833	271.25
292.064	293.25
292.295	279.25
292.526	283.25
292.757	295.25
292.987	275.25
293.218	280.25
293.449	304.25
293.68	272.25
293.91	299.25
294.141	290.25
294.372	311.25
294.603	300.25
294.833	291.25
295.064	289.25
295.295	289.25
295.525	291.25
295.756	303.25
295.987	306.25
296.217	320.25
296.448	318.25
296.679	320.25
296.909	287.25
297.14	296.25
297.37	295.25
297.601	298.25
297.831	303.25
298.062	293.25
298.292	281.25
298.523	313.25
298.753	317.25
298.984	300.25
299.214	313.25
299.445	310.25
299.675	311.25
299.905	327.25
300.136	323.25
300.366	315.25
300.597	317.25
300.827	317.25
301.057	335.25
301.288	319.25
301.518	333.25
301.748	338.25
301.979	326.25
302.209	312.25
302.439	334.25
302.669	344.25
302.9	323.25
303.13	325.25
303.36	329.25
303.59	333.25
303.82	336.25
304.051	340.25
304.281	352.25
304.511	335.25
304.741	348.25
304.971	327.25
305.201	332.25
305.431	328.25
305.661	348.25
305.891	351.25
306.121	320.25
306.352	353.25
306.582	339.25
306.812	351.25
307.042	328.25
307.272	341.25
307.502	315.25
307.731	322.25
307.961	328.25
308.191	333.25
308.421	329.25
308.651	332.25
308.881	320.25
309.111	333.25
309.341	337.25
309.571	356.25
309.8	345.25
310.03	373.25
310.26	395.25
310.49	375.25
310.72	361.25
310.949	379.25
311.179	390.25
311.409	394.25
311.639	385.25
311.868	381.25
312.098	397.25
312.328	386.25
312.557	399.25
312.787	401.25
313.017	383.25
313.246	393.25
313.476	379.25
313.706	368.25
313.935	385.25
314.165	393.25
314.394	411.25
314.624	385.25
314.853	384.25
315.083	382.25
315.312	381.25
315.542	372.25
315.771	374.25
316.001	364.25
316.23	376.25
316.46	362.25
316.689	377.25
316.919	361.25
317.148	399.25
317.377	373.25
317.607	379.25
317.836	360.25
318.065	371.25
318.295	368.25
318.524	385.25
318.753	364.25
318.983	379.25
319.212	373.25
319.441	402.25
319.67	400.25
319.9	380.25
320.129	387.25
320.358	396.25
320.587	381.25
320.816	384.25
321.046	407.25
321.275	387.25
321.504	411.25
321.733	401.25
321.962	405.25
322.191	424.25
322.42	443.25
322.649	407.25
322.878	442.25
323.108	471.25
323.337	485.25
323.566	508.25
323.795	503.25
324.024	551.25
324.253	663.25
324.482	944.25
324.71	1495.25
324.939	2278.25
325.168	1975.25
325.397	950.25
325.626	651.25
325.855	573.25
326.084	508.25
326.313	493.25
326.542	489.25
326.77	570.25
326.999	645.25
327.228	878.25
327.457	1363.25
327.686	1745.25
327.914	1129.25
328.143	711.25
328.372	619.25
328.6	574.25
328.829	561.25
329.058	555.25
329.287	583.25
329.515	537.25
329.744	516.25
329.972	487.25
330.201	537.25
330.43	582.25
330.658	564.25
330.887	592.25
331.115	573.25
331.344	519.25
331.572	502.25
331.801	503.25
332.03	482.25
332.258	470.25
332.486	465.25
332.715	460.25
332.943	445.25
333.172	470.25
333.4	469.25
333.629	471.25
333.857	488.25
334.085	487.25
334.314	502.25
334.542	532.25
334.771	548.25
334.999	507.25
335.227	473.25
335.455	465.25
335.684	460.25
335.912	466.25
336.14	444.25
336.369	451.25
336.597	479.25
336.825	465.25
337.053	468.25
337.281	455.25
337.51	455.25
337.738	453.25
337.966	446.25
338.194	438.25
338.422	450.25
338.65	443.25
338.878	448.25
339.106	435.25
339.334	444.25
339.562	457.25
339.79	453.25
340.018	430.25
340.246	450.25
340.474	445.25
340.702	427.25
340.93	448.25
341.158	453.25
341.386	437.25
341.614	440.25
341.842	438.25
342.07	436.25
342.298	441.25
342.526	432.25
342.754	427.25
342.981	426.25
343.209	432.25
343.437	427.25
343.665	446.25
343.893	442.25
344.12	448.25
344.348	438.25
344.576	452.25
344.804	443.25
345.031	474.25
345.259	494.25
345.487	459.25
345.714	440.25
345.942	427.25
346.17	431.25
346.397	440.25
346.625	427.25
346.853	413.25
347.08	435.25
347.308	447.25
347.535	435.25
347.763	445.25
347.99	443.25
348.218	443.25
348.445	445.25
348.673	427.25
348.9	443.25
349.128	428.25
349.355	400.25
349.583	424.25
349.81	409.25
350.037	407.25
350.265	402.25
350.492	397.25
350.72	420.25
350.947	415.25
351.174	434.25
351.402	445.25
351.629	429.25
351.856	433.25
352.083	448.25
352.311	445.25
352.538	456.25
352.765	457.25
352.992	434.25
353.22	419.25
353.447	410.25
353.674	412.25
353.901	404.25
354.128	388.25
354.355	398.25
354.583	395.25
354.81	409.25
355.037	414.25
355.264	417.25
355.491	405.25
355.718	409.25
355.945	411.25
356.172	390.25
356.399	389.25
356.626	401.25
356.853	403.25
357.08	407.25
357.307	404.25
357.534	416.25
357.761	406.25
357.988	401.25
358.215	411.25
358.441	408.25
358.668	382.25
358.895	408.25
359.122	412.25
359.349	420.25
359.576	431.25
359.802	439.25
360.029	449.25
360.256	465.25
360.483	454.25
360.709	426.25
360.936	427.25
361.163	441.25
361.39	432.25
361.616	440.25
361.843	415.25
362.07	424.25
362.296	447.25
362.523	423.25
362.749	436.25
362.976	432.25
363.203	424.25
363.429	402.25
363.656	424.25
363.882	415.25
364.109	413.25
364.335	402.25
364.562	423.25
364.788	431.25
365.015	418.25
365.241	396.25
365.468	411.25
365.694	411.25
365.92	423.25
366.147	421.25
366.373	409.25
366.599	405.25
366.826	415.25
367.052	415.25
367.278	423.25
367.505	413.25
367.731	421.25
367.957	422.25
368.184	432.25
368.41	430.25
368.636	446.25
368.862	439.25
369.089	408.25
369.315	415.25
369.541	429.25
369.767	409.25
369.993	424.25
370.219	427.25
370.445	419.25
370.672	439.25
370.898	411.25
371.124	429.25
371.35	409.25
371.576	421.25
371.802	444.25
372.028	405.25
372.254	431.25
372.48	427.25
372.706	434.25
372.932	426.25
373.158	404.25
373.384	443.25
373.61	412.25
373.835	429.25
374.061	434.25
374.287	425.25
374.513	429.25
374.739	447.25
374.965	419.25
375.191	445.25
375.416	421.25
375.642	437.25
375.868	441.25
376.094	431.25
376.319	427.25
376.545	422.25
376.771	441.25
376.997	409.25
377.222	415.25
377.448	414.25
377.674	413.25
377.899	432.25
378.125	406.25
378.35	419.25
378.576	416.25
378.802	417.25
379.027	422.25
379.253	420.25
379.478	440.25
379.704	437.25
379.929	423.25
380.155	415.25
380.38	430.25
380.606	427.25
380.831	438.25
381.057	435.25
381.282	440.25
381.507	412.25
381.733	423.25
381.958	418.25
382.184	426.25
382.409	431.25
382.634	430.25
382.86	430.25
383.085	456.25
383.31	442.25
383.535	449.25
383.761	447.25
383.986	460.25
384.211	456.25
384.436	455.25
384.662	456.25
384.887	441.25
385.112	466.25
385.337	468.25
385.562	475.25
385.787	472.25
386.013	491.25
386.238	467.25
386.463	470.25
386.688	477.25
386.913	449.25
387.138	477.25
387.363	483.25
387.588	475.25
387.813	462.25
388.038	477.25
388.263	465.25
388.488	463.25
388.713	463.25
388.938	474.25
389.163	491.25
389.387	474.25
389.612	441.25
389.837	465.25
390.062	457.25
390.287	484.25
390.512	464.25
390.736	482.25
390.961	466.25
391.186	477.25
391.411	464.25
391.636	493.25
391.86	483.25
392.085	510.25
392.31	497.25
392.534	472.25
392.759	494.25
392.984	485.25
393.208	479.25
393.433	489.25
393.658	477.25
393.882	483.25
394.107	462.25
394.331	487.25
394.556	490.25
394.78	492.25
395.005	498.25
395.229	479.25
395.454	491.25
395.678	492.25
395.903	522.25
396.127	523.25
396.352	541.25
396.576	506.25
396.801	489.25
397.025	499.25
397.249	515.25
397.474	524.25
397.698	514.25
397.922	530.25
398.147	552.25
398.371	560.25
398.595	535.25
398.82	540.25
399.044	561.25
399.268	577.25
399.492	602.25
399.717	629.25
399.941	641.25
400.165	659.25
400.389	671.25
400.613	617.25
400.837	599.25
401.062	581.25
401.286	571.25
401.51	559.25
401.734	590.25
401.958	544.25
402.182	570.25
402.406	581.25
402.63	575.25
402.854	567.25
403.078	552.25
403.302	565.25
403.526	572.25
403.75	566.25
403.974	586.25
404.198	574.25
404.422	568.25
404.645	589.25
404.869	576.25
405.093	596.25
405.317	645.25
405.541	689.25
405.765	634.25
405.988	620.25
406.212	643.25
406.436	623.25
406.66	639.25
406.883	613.25
407.107	627.25
407.331	710.25
407.555	797.25
407.778	780.25
408.002	706.25
408.226	653.25
408.449	648.25
408.673	635.25
408.896	677.25
409.12	696.25
409.344	673.25
409.567	634.25
409.791	611.25
410.014	575.25
410.238	573.25
410.461	592.25
410.685	600.25
410.908	609.25
411.132	641.25
411.355	663.25
411.578	640.25
411.802	599.25
412.025	592.25
412.249	596.25
412.472	609.25
412.695	661.25
412.919	618.25
413.142	581.25
413.365	595.25
413.589	592.25
413.812	581.25
414.035	560.25
414.258	545.25
414.482	555.25
414.705	546.25
414.928	546.25
415.151	567.25
415.374	550.25
415.597	559.25
415.821	550.25
416.044	563.25
416.267	535.25
416.49	550.25
416.713	539.25
416.936	519.25
417.159	544.25
417.382	531.25
417.605	546.25
417.828	557.25
418.051	582.25
418.274	570.25
418.497	546.25
418.72	558.25
418.943	568.25
419.166	566.25
419.389	616.25
419.611	589.25
419.834	584.25
420.057	600.25
420.28	574.25
420.503	543.25
420.726	559.25
420.948	592.25
421.171	618.25
421.394	677.25
421.617	603.25
421.839	559.25
422.062	591.25
422.285	587.25
422.507	624.25
422.73	715.25
422.953	719.25
423.175	628.25
423.398	608.25
423.621	599.25
423.843	611.25
424.066	599.25
424.288	616.25
424.511	607.25
424.733	683.25
424.956	764.25
425.178	743.25
425.401	717.25
425.623	792.25
425.846	657.25
426.068	612.25
426.291	594.25
426.513	588.25
426.735	622.25
426.958	640.25
427.18	739.25
427.402	920.25
427.625	1007.25
427.847	854.25
428.069	742.25
428.292	659.25
428.514	605.25
428.736	575.25
428.958	559.25
429.181	544.25
429.403	585.25
429.625	557.25
429.847	592.25
430.069	681.25
430.292	667.25
430.514	591.25
430.736	558.25
430.958	553.25
431.18	531.25
431.402	529.25
431.624	565.25
431.846	552.25
432.068	533.25
432.29	550.25
432.512	549.25
432.734	558.25
432.956	540.25
433.178	550.25
433.4	547.25
433.622	539.25
433.844	542.25
434.066	566.25
434.287	535.25
434.509	537.25
434.731	550.25
434.953	564.25
435.175	577.25
435.397	567.25
435.618	622.25
435.84	638.25
436.062	781.25
436.284	817.25
436.505	686.25
436.727	618.25
436.949	583.25
437.17	571.25
437.392	553.25
437.614	582.25
437.835	629.25
438.057	718.25
438.278	830.25
438.5	825.25
438.721	905.25
438.943	880.25
439.165	691.25
439.386	634.25
439.608	613.25
439.829	606.25
440.05	653.25
440.272	692.25
440.493	637.25
440.715	610.25
440.936	575.25
441.158	584.25
441.379	587.25
441.6	592.25
441.822	610.25
442.043	635.25
442.264	751.25
442.486	806.25
442.707	684.25
442.928	607.25
443.149	661.25
443.371	656.25
443.592	701.25
443.813	807.25
444.034	868.25
444.255	697.25
444.476	629.25
444.698	631.25
444.919	637.25
445.14	733.25
445.361	688.25
445.582	664.25
445.803	728.25
446.024	842.25
446.245	848.25
446.466	750.25
446.687	637.25
446.908	598.25
447.129	573.25
447.35	569.25
447.571	570.25
447.792	555.25
448.013	554.25
448.234	579.25
448.455	649.25
448.675	766.25
448.896	901.25
449.117	737.25
449.338	699.25
449.559	839.25
449.779	957.25
450	735.25
450.221	648.25
450.442	586.25
450.662	555.25
450.883	534.25
451.104	554.25
451.324	537.25
451.545	534.25
451.766	522.25
451.986	523.25
452.207	513.25
452.428	514.25
452.648	504.25
452.869	491.25
453.089	520.25
453.31	530.25
453.53	509.25
453.751	511.25
453.971	515.25
454.192	515.25
454.412	488.25
454.633	511.25
454.853	515.25
455.073	514.25
455.294	526.25
455.514	583.25
455.734	576.25
455.955	499.25
456.175	472.25
456.395	483.25
456.616	483.25
456.836	489.25
457.056	494.25
457.276	460.25
457.497	471.25
457.717	480.25
457.937	487.25
458.157	508.25
458.377	521.25
458.598	521.25
458.818	581.25
459.038	639.25
459.258	685.25
459.478	592.25
459.698	547.25
459.918	541.25
460.138	528.25
460.358	549.25
460.578	544.25
460.798	555.25
461.018	535.25
461.238	561.25
461.458	539.25
461.678	553.25
461.898	555.25
462.118	570.25
462.338	584.25
462.558	566.25
462.777	591.25
462.997	592.25
463.217	592.25
463.437	630.25
463.657	604.25
463.876	599.25
464.096	616.25
464.316	578.25
464.536	593.25
464.755	596.25
464.975	611.25
465.195	633.25
465.414	701.25
465.634	611.25
465.854	577.25
466.073	551.25
466.293	541.25
466.512	546.25
466.732	535.25
466.951	533.25
467.171	522.25
467.391	524.25
467.61	544.25
467.829	543.25
468.049	548.25
468.268	525.25
468.488	501.25
468.707	501.25
468.927	520.25
469.146	524.25
469.365	521.25
469.585	511.25
469.804	514.25
470.023	521.25
470.243	537.25
470.462	536.25
470.681	532.25
470.901	534.25
471.12	533.25
471.339	511.25
471.558	510.25
471.777	520.25
471.997	529.25
472.216	535.25
472.435	547.25
472.654	536.25
472.873	520.25
473.092	503.25
473.311	541.25
473.53	537.25
473.749	537.25
473.968	578.25
474.187	671.25
474.406	722.25
474.625	589.25
474.844	544.25
475.063	526.25
475.282	538.25
475.501	536.25
475.72	539.25
475.939	549.25
476.158	537.25
476.377	553.25
476.596	545.25
476.814	549.25
477.033	560.25
477.252	553.25
477.471	535.25
477.69	551.25
477.908	569.25
478.127	568.25
478.346	584.25
478.564	591.25
478.783	619.25
479.002	593.25
479.22	595.25
479.439	611.25
479.658	657.25
479.876	647.25
480.095	651.25
480.313	663.25
480.532	640.25
480.751	639.25
480.969	657.25
481.188	682.25
481.406	720.25
481.624	682.25
481.843	642.25
482.061	658.25
482.28	629.25
482.498	635.25
482.717	629.25
482.935	597.25
483.153	602.25
483.372	634.25
483.59	614.25
483.808	627.25
484.027	613.25
484.245	621.25
484.463	624.25
484.681	657.25
484.9	609.25
485.118	629.25
485.336	641.25
485.554	651.25
485.772	635.25
485.99	616.25
486.209	633.25
486.427	652.25
486.645	669.25
486.863	677.25
487.081	668.25
487.299	665.25
487.517	649.25
487.735	663.25
487.953	647.25
488.171	669.25
488.389	640.25
488.607	684.25
488.825	661.25
489.043	648.25
489.261	693.25
489.479	685.25
489.696	678.25
489.914	695.25
490.132	692.25
490.35	675.25
490.568	682.25
490.786	687.25
491.003	699.25
491.221	695.25
491.439	716.25
491.657	739.25
491.874	746.25
492.092	740.25
492.31	728.25
492.527	741.25
492.745	721.25
492.963	763.25
493.18	748.25
493.398	739.25
493.615	756.25
493.833	743.25
494.05	752.25
494.268	782.25
494.485	782.25
494.703	758.25
494.92	781.25
495.138	790.25
495.355	791.25
495.573	792.25
495.79	775.25
496.008	797.25
496.225	784.25
496.442	777.25
496.66	790.25
496.877	779.25
497.094	787.25
497.312	798.25
497.529	820.25
497.746	814.25
497.963	866.25
498.181	843.25
498.398	852.25
498.615	865.25
498.832	895.25
499.049	915.25
499.267	926.25
499.484	966.25
499.701	989.25
499.918	1034.25
500.135	1077.25
500.352	1126.25
500.569	1134.25
500.786	1132.25
501.003	1134.25
501.22	1077.25
501.437	1050.25
501.654	1032.25
501.871	1022.25
