Data from 1978.PennyLincolnUp.Lamp.En5.5.200Scan.071719.P1_HRD10591_16-11-43-866.txt Node
Date: Thu Jul 18 16:11:43 EDT 2019
User: cochatt
Spectrometer: HR+D1059
Trigger mode: 1
Integration Time (sec): 1.000000E-1
Scans to average: 1
Electric dark correction enabled: true
Nonlinearity correction enabled: false
Boxcar width: 0
XAxis mode: Wavelengths
Number of Pixels in Spectrum: 2048
>>>>>Begin Spectral Data<<<<<
223.165	-13.38
223.4	-13.38
223.635	-13.38
223.869	-19.38
224.104	-10.38
224.338	-12.38
224.573	-16.38
224.808	-9.38
225.042	-5.38
225.277	-18.38
225.511	2.62
225.746	13.62
225.98	5.62
226.215	19.62
226.449	11.62
226.683	15.62
226.918	13.62
227.152	22.62
227.387	40.62
227.621	41.62
227.856	41.62
228.09	46.62
228.324	43.62
228.559	45.62
228.793	73.62
229.027	98.62
229.262	92.62
229.496	90.62
229.73	128.62
229.964	119.62
230.199	109.62
230.433	96.62
230.667	103.62
230.901	102.62
231.136	98.62
231.37	92.62
231.604	104.62
231.838	108.62
232.072	109.62
232.306	103.62
232.541	102.62
232.775	108.62
233.009	110.62
233.243	100.62
233.477	100.62
233.711	102.62
233.945	99.62
234.179	111.62
234.413	115.62
234.647	118.62
234.881	116.62
235.115	112.62
235.349	102.62
235.583	100.62
235.817	111.62
236.051	105.62
236.285	123.62
236.519	117.62
236.753	105.62
236.987	120.62
237.221	149.62
237.455	165.62
237.689	135.62
237.922	121.62
238.156	109.62
238.39	106.62
238.624	108.62
238.858	112.62
239.091	111.62
239.325	114.62
239.559	116.62
239.793	107.62
240.027	125.62
240.26	122.62
240.494	128.62
240.728	139.62
240.961	125.62
241.195	133.62
241.429	135.62
241.662	118.62
241.896	126.62
242.13	103.62
242.363	118.62
242.597	126.62
242.83	130.62
243.064	121.62
243.298	109.62
243.531	123.62
243.765	127.62
243.998	128.62
244.232	126.62
244.465	140.62
244.699	129.62
244.932	117.62
245.166	132.62
245.399	124.62
245.633	139.62
245.866	118.62
246.099	111.62
246.333	126.62
246.566	139.62
246.8	131.62
247.033	124.62
247.266	129.62
247.5	114.62
247.733	139.62
247.966	134.62
248.2	157.62
248.433	132.62
248.666	145.62
248.899	150.62
249.133	150.62
249.366	157.62
249.599	161.62
249.832	144.62
250.066	143.62
250.299	131.62
250.532	147.62
250.765	173.62
250.998	169.62
251.231	160.62
251.465	162.62
251.698	172.62
251.931	165.62
252.164	174.62
252.397	155.62
252.63	134.62
252.863	165.62
253.096	162.62
253.329	163.62
253.562	166.62
253.795	162.62
254.028	171.62
254.261	154.62
254.494	180.62
254.727	182.62
254.96	194.62
255.193	197.62
255.426	173.62
255.659	187.62
255.892	178.62
256.124	182.62
256.357	172.62
256.59	166.62
256.823	166.62
257.056	180.62
257.289	145.62
257.521	158.62
257.754	145.62
257.987	182.62
258.22	182.62
258.452	155.62
258.685	172.62
258.918	171.62
259.151	174.62
259.383	188.62
259.616	174.62
259.849	171.62
260.081	181.62
260.314	190.62
260.547	199.62
260.779	182.62
261.012	201.62
261.244	170.62
261.477	169.62
261.71	188.62
261.942	175.62
262.175	180.62
262.407	181.62
262.64	170.62
262.872	167.62
263.105	178.62
263.337	189.62
263.57	180.62
263.802	177.62
264.035	181.62
264.267	172.62
264.499	172.62
264.732	178.62
264.964	192.62
265.197	175.62
265.429	176.62
265.661	184.62
265.894	194.62
266.126	186.62
266.358	184.62
266.591	176.62
266.823	185.62
267.055	179.62
267.287	198.62
267.52	187.62
267.752	184.62
267.984	194.62
268.216	189.62
268.448	211.62
268.681	211.62
268.913	204.62
269.145	204.62
269.377	205.62
269.609	224.62
269.841	210.62
270.073	212.62
270.306	213.62
270.538	205.62
270.77	204.62
271.002	216.62
271.234	213.62
271.466	214.62
271.698	229.62
271.93	245.62
272.162	223.62
272.394	213.62
272.626	231.62
272.858	217.62
273.09	213.62
273.322	209.62
273.553	219.62
273.785	216.62
274.017	214.62
274.249	212.62
274.481	205.62
274.713	222.62
274.945	228.62
275.176	216.62
275.408	215.62
275.64	225.62
275.872	214.62
276.104	206.62
276.335	207.62
276.567	212.62
276.799	226.62
277.031	222.62
277.262	243.62
277.494	252.62
277.726	239.62
277.957	232.62
278.189	224.62
278.421	218.62
278.652	247.62
278.884	218.62
279.115	235.62
279.347	219.62
279.579	205.62
279.81	235.62
280.042	224.62
280.273	214.62
280.505	242.62
280.736	222.62
280.968	214.62
281.199	220.62
281.431	221.62
281.662	220.62
281.894	223.62
282.125	209.62
282.356	223.62
282.588	237.62
282.819	244.62
283.051	236.62
283.282	246.62
283.513	237.62
283.745	232.62
283.976	226.62
284.207	221.62
284.439	223.62
284.67	240.62
284.901	242.62
285.132	256.62
285.364	234.62
285.595	227.62
285.826	231.62
286.057	233.62
286.288	235.62
286.52	226.62
286.751	235.62
286.982	229.62
287.213	253.62
287.444	234.62
287.675	242.62
287.906	240.62
288.138	236.62
288.369	236.62
288.6	242.62
288.831	229.62
289.062	247.62
289.293	235.62
289.524	252.62
289.755	226.62
289.986	242.62
290.217	234.62
290.448	248.62
290.679	246.62
290.91	239.62
291.141	248.62
291.371	234.62
291.602	247.62
291.833	247.62
292.064	237.62
292.295	243.62
292.526	264.62
292.757	240.62
292.987	252.62
293.218	232.62
293.449	262.62
293.68	238.62
293.91	265.62
294.141	245.62
294.372	243.62
294.603	235.62
294.833	238.62
295.064	261.62
295.295	251.62
295.525	238.62
295.756	254.62
295.987	247.62
296.217	247.62
296.448	265.62
296.679	247.62
296.909	257.62
297.14	265.62
297.37	281.62
297.601	255.62
297.831	258.62
298.062	235.62
298.292	247.62
298.523	253.62
298.753	267.62
298.984	281.62
299.214	246.62
299.445	246.62
299.675	256.62
299.905	258.62
300.136	262.62
300.366	267.62
300.597	249.62
300.827	259.62
301.057	284.62
301.288	257.62
301.518	273.62
301.748	267.62
301.979	287.62
302.209	287.62
302.439	283.62
302.669	268.62
302.9	278.62
303.13	265.62
303.36	270.62
303.59	282.62
303.82	284.62
304.051	299.62
304.281	265.62
304.511	284.62
304.741	272.62
304.971	266.62
305.201	259.62
305.431	275.62
305.661	278.62
305.891	282.62
306.121	266.62
306.352	288.62
306.582	283.62
306.812	279.62
307.042	271.62
307.272	264.62
307.502	279.62
307.731	275.62
307.961	290.62
308.191	274.62
308.421	294.62
308.651	284.62
308.881	287.62
309.111	270.62
309.341	287.62
309.571	285.62
309.8	301.62
310.03	281.62
310.26	300.62
310.49	305.62
310.72	287.62
310.949	312.62
311.179	316.62
311.409	279.62
311.639	295.62
311.868	292.62
312.098	313.62
312.328	311.62
312.557	317.62
312.787	325.62
313.017	311.62
313.246	318.62
313.476	301.62
313.706	297.62
313.935	304.62
314.165	327.62
314.394	324.62
314.624	335.62
314.853	338.62
315.083	329.62
315.312	309.62
315.542	314.62
315.771	311.62
316.001	310.62
316.23	284.62
316.46	294.62
316.689	316.62
316.919	312.62
317.148	304.62
317.377	307.62
317.607	322.62
317.836	321.62
318.065	313.62
318.295	307.62
318.524	303.62
318.753	302.62
318.983	315.62
319.212	301.62
319.441	308.62
319.67	311.62
319.9	311.62
320.129	321.62
320.358	307.62
320.587	313.62
320.816	332.62
321.046	311.62
321.275	327.62
321.504	338.62
321.733	299.62
321.962	329.62
322.191	340.62
322.42	342.62
322.649	338.62
322.878	343.62
323.108	341.62
323.337	366.62
323.566	347.62
323.795	382.62
324.024	392.62
324.253	441.62
324.482	562.62
324.71	878.62
324.939	1314.62
325.168	1156.62
325.397	606.62
325.626	444.62
325.855	397.62
326.084	373.62
326.313	363.62
326.542	367.62
326.77	392.62
326.999	439.62
327.228	571.62
327.457	813.62
327.686	999.62
327.914	671.62
328.143	454.62
328.372	417.62
328.6	392.62
328.829	382.62
329.058	391.62
329.287	427.62
329.515	387.62
329.744	383.62
329.972	389.62
330.201	370.62
330.43	378.62
330.658	393.62
330.887	416.62
331.115	422.62
331.344	386.62
331.572	382.62
331.801	392.62
332.03	367.62
332.258	330.62
332.486	353.62
332.715	376.62
332.943	370.62
333.172	372.62
333.4	374.62
333.629	392.62
333.857	406.62
334.085	395.62
334.314	408.62
334.542	398.62
334.771	407.62
334.999	394.62
335.227	388.62
335.455	391.62
335.684	371.62
335.912	376.62
336.14	377.62
336.369	368.62
336.597	378.62
336.825	365.62
337.053	360.62
337.281	368.62
337.51	368.62
337.738	373.62
337.966	367.62
338.194	360.62
338.422	382.62
338.65	371.62
338.878	370.62
339.106	354.62
339.334	352.62
339.562	374.62
339.79	381.62
340.018	370.62
340.246	360.62
340.474	376.62
340.702	357.62
340.93	358.62
341.158	367.62
341.386	378.62
341.614	361.62
341.842	372.62
342.07	356.62
342.298	360.62
342.526	370.62
342.754	341.62
342.981	356.62
343.209	362.62
343.437	349.62
343.665	367.62
343.893	379.62
344.12	400.62
344.348	376.62
344.576	376.62
344.804	364.62
345.031	366.62
345.259	378.62
345.487	382.62
345.714	371.62
345.942	366.62
346.17	343.62
346.397	359.62
346.625	344.62
346.853	352.62
347.08	344.62
347.308	346.62
347.535	353.62
347.763	351.62
347.99	356.62
348.218	354.62
348.445	354.62
348.673	350.62
348.9	360.62
349.128	327.62
349.355	336.62
349.583	336.62
349.81	353.62
350.037	331.62
350.265	354.62
350.492	346.62
350.72	342.62
350.947	358.62
351.174	351.62
351.402	369.62
351.629	349.62
351.856	357.62
352.083	363.62
352.311	346.62
352.538	354.62
352.765	369.62
352.992	342.62
353.22	330.62
353.447	363.62
353.674	345.62
353.901	355.62
354.128	344.62
354.355	357.62
354.583	345.62
354.81	326.62
355.037	330.62
355.264	319.62
355.491	356.62
355.718	343.62
355.945	335.62
356.172	328.62
356.399	315.62
356.626	347.62
356.853	350.62
357.08	327.62
357.307	352.62
357.534	346.62
357.761	329.62
357.988	348.62
358.215	347.62
358.441	336.62
358.668	349.62
358.895	342.62
359.122	332.62
359.349	352.62
359.576	368.62
359.802	370.62
360.029	370.62
360.256	373.62
360.483	362.62
360.709	374.62
360.936	359.62
361.163	370.62
361.39	356.62
361.616	343.62
361.843	338.62
362.07	352.62
362.296	351.62
362.523	350.62
362.749	365.62
362.976	347.62
363.203	355.62
363.429	356.62
363.656	348.62
363.882	342.62
364.109	344.62
364.335	349.62
364.562	355.62
364.788	342.62
365.015	348.62
365.241	347.62
365.468	343.62
365.694	365.62
365.92	366.62
366.147	362.62
366.373	347.62
366.599	350.62
366.826	352.62
367.052	341.62
367.278	364.62
367.505	345.62
367.731	357.62
367.957	363.62
368.184	355.62
368.41	353.62
368.636	368.62
368.862	363.62
369.089	383.62
369.315	343.62
369.541	348.62
369.767	359.62
369.993	361.62
370.219	346.62
370.445	366.62
370.672	361.62
370.898	370.62
371.124	369.62
371.35	354.62
371.576	370.62
371.802	370.62
372.028	376.62
372.254	361.62
372.48	375.62
372.706	354.62
372.932	394.62
373.158	349.62
373.384	356.62
373.61	368.62
373.835	376.62
374.061	358.62
374.287	375.62
374.513	370.62
374.739	367.62
374.965	378.62
375.191	370.62
375.416	351.62
375.642	380.62
375.868	367.62
376.094	373.62
376.319	359.62
376.545	372.62
376.771	363.62
376.997	364.62
377.222	373.62
377.448	360.62
377.674	382.62
377.899	377.62
378.125	369.62
378.35	379.62
378.576	362.62
378.802	360.62
379.027	357.62
379.253	377.62
379.478	361.62
379.704	374.62
379.929	362.62
380.155	370.62
380.38	372.62
380.606	375.62
380.831	366.62
381.057	382.62
381.282	364.62
381.507	370.62
381.733	388.62
381.958	382.62
382.184	372.62
382.409	376.62
382.634	377.62
382.86	378.62
383.085	375.62
383.31	386.62
383.535	403.62
383.761	400.62
383.986	399.62
384.211	398.62
384.436	393.62
384.662	389.62
384.887	422.62
385.112	410.62
385.337	416.62
385.562	407.62
385.787	400.62
386.013	406.62
386.238	431.62
386.463	414.62
386.688	401.62
386.913	404.62
387.138	411.62
387.363	412.62
387.588	407.62
387.813	408.62
388.038	412.62
388.263	395.62
388.488	415.62
388.713	415.62
388.938	408.62
389.163	423.62
389.387	418.62
389.612	418.62
389.837	406.62
390.062	397.62
390.287	420.62
390.512	421.62
390.736	414.62
390.961	406.62
391.186	417.62
391.411	417.62
391.636	395.62
391.86	423.62
392.085	438.62
392.31	444.62
392.534	418.62
392.759	408.62
392.984	435.62
393.208	430.62
393.433	419.62
393.658	427.62
393.882	392.62
394.107	415.62
394.331	420.62
394.556	427.62
394.78	409.62
395.005	416.62
395.229	423.62
395.454	439.62
395.678	440.62
395.903	443.62
396.127	449.62
396.352	437.62
396.576	444.62
396.801	422.62
397.025	415.62
397.249	427.62
397.474	445.62
397.698	440.62
397.922	458.62
398.147	460.62
398.371	458.62
398.595	454.62
398.82	472.62
399.044	462.62
399.268	489.62
399.492	526.62
399.717	546.62
399.941	589.62
400.165	574.62
400.389	572.62
400.613	543.62
400.837	506.62
401.062	496.62
401.286	490.62
401.51	487.62
401.734	483.62
401.958	470.62
402.182	471.62
402.406	469.62
402.63	477.62
402.854	512.62
403.078	482.62
403.302	496.62
403.526	494.62
403.75	487.62
403.974	493.62
404.198	480.62
404.422	479.62
404.645	479.62
404.869	501.62
405.093	517.62
405.317	550.62
405.541	584.62
405.765	532.62
405.988	519.62
406.212	493.62
406.436	490.62
406.66	520.62
406.883	501.62
407.107	546.62
407.331	594.62
407.555	623.62
407.778	623.62
408.002	588.62
408.226	537.62
408.449	530.62
408.673	526.62
408.896	555.62
409.12	578.62
409.344	567.62
409.567	523.62
409.791	500.62
410.014	504.62
410.238	510.62
410.461	531.62
410.685	508.62
410.908	505.62
411.132	515.62
411.355	541.62
411.578	539.62
411.802	518.62
412.025	495.62
412.249	483.62
412.472	521.62
412.695	527.62
412.919	527.62
413.142	498.62
413.365	477.62
413.589	480.62
413.812	480.62
414.035	474.62
414.258	460.62
414.482	472.62
414.705	472.62
414.928	458.62
415.151	474.62
415.374	510.62
415.597	466.62
415.821	463.62
416.044	474.62
416.267	464.62
416.49	452.62
416.713	474.62
416.936	469.62
417.159	456.62
417.382	434.62
417.605	468.62
417.828	480.62
418.051	491.62
418.274	472.62
418.497	441.62
418.72	448.62
418.943	459.62
419.166	468.62
419.389	491.62
419.611	501.62
419.834	478.62
420.057	491.62
420.28	471.62
420.503	469.62
420.726	485.62
420.948	485.62
421.171	502.62
421.394	543.62
421.617	486.62
421.839	451.62
422.062	489.62
422.285	479.62
422.507	520.62
422.73	598.62
422.953	539.62
423.175	498.62
423.398	487.62
423.621	495.62
423.843	495.62
424.066	519.62
424.288	516.62
424.511	504.62
424.733	546.62
424.956	615.62
425.178	590.62
425.401	575.62
425.623	596.62
425.846	532.62
426.068	491.62
426.291	487.62
426.513	501.62
426.735	496.62
426.958	518.62
427.18	580.62
427.402	718.62
427.625	793.62
427.847	636.62
428.069	583.62
428.292	536.62
428.514	506.62
428.736	494.62
428.958	480.62
429.181	470.62
429.403	446.62
429.625	462.62
429.847	496.62
430.069	539.62
430.292	534.62
430.514	484.62
430.736	475.62
430.958	471.62
431.18	467.62
431.402	443.62
431.624	464.62
431.846	442.62
432.068	437.62
432.29	441.62
432.512	445.62
432.734	461.62
432.956	432.62
433.178	472.62
433.4	459.62
433.622	452.62
433.844	471.62
434.066	489.62
434.287	460.62
434.509	459.62
434.731	474.62
434.953	470.62
435.175	478.62
435.397	492.62
435.618	484.62
435.84	498.62
436.062	603.62
436.284	619.62
436.505	533.62
436.727	509.62
436.949	469.62
437.17	468.62
437.392	491.62
437.614	479.62
437.835	487.62
438.057	536.62
438.278	619.62
438.5	622.62
438.721	702.62
438.943	678.62
439.165	546.62
439.386	498.62
439.608	527.62
439.829	489.62
440.05	492.62
440.272	543.62
440.493	516.62
440.715	482.62
440.936	474.62
441.158	480.62
441.379	470.62
441.6	490.62
441.822	464.62
442.043	514.62
442.264	582.62
442.486	621.62
442.707	551.62
442.928	521.62
443.149	521.62
443.371	516.62
443.592	549.62
443.813	617.62
444.034	669.62
444.255	579.62
444.476	514.62
444.698	525.62
444.919	519.62
445.14	660.62
445.361	576.62
445.582	550.62
445.803	579.62
446.024	627.62
446.245	660.62
446.466	586.62
446.687	502.62
446.908	481.62
447.129	467.62
447.35	452.62
447.571	464.62
447.792	465.62
448.013	459.62
448.234	486.62
448.455	534.62
448.675	594.62
448.896	696.62
449.117	591.62
449.338	551.62
449.559	644.62
449.779	726.62
450	591.62
450.221	475.62
450.442	460.62
450.662	448.62
450.883	443.62
451.104	447.62
451.324	455.62
451.545	430.62
451.766	437.62
451.986	420.62
452.207	434.62
452.428	415.62
452.648	417.62
452.869	443.62
453.089	443.62
453.31	436.62
453.53	410.62
453.751	431.62
453.971	425.62
454.192	444.62
454.412	404.62
454.633	401.62
454.853	424.62
455.073	432.62
455.294	438.62
455.514	488.62
455.734	473.62
455.955	414.62
456.175	430.62
456.395	418.62
456.616	406.62
456.836	401.62
457.056	397.62
457.276	398.62
457.497	400.62
457.717	376.62
457.937	427.62
458.157	411.62
458.377	417.62
458.598	440.62
458.818	454.62
459.038	518.62
459.258	524.62
459.478	505.62
459.698	462.62
459.918	474.62
460.138	467.62
460.358	462.62
460.578	484.62
460.798	480.62
461.018	474.62
461.238	481.62
461.458	477.62
461.678	468.62
461.898	494.62
462.118	487.62
462.338	510.62
462.558	514.62
462.777	526.62
462.997	512.62
463.217	528.62
463.437	529.62
463.657	546.62
463.876	534.62
464.096	504.62
464.316	530.62
464.536	536.62
464.755	502.62
464.975	522.62
465.195	496.62
465.414	536.62
465.634	509.62
465.854	486.62
466.073	461.62
466.293	486.62
466.512	460.62
466.732	467.62
466.951	460.62
467.171	446.62
467.391	452.62
467.61	467.62
467.829	453.62
468.049	455.62
468.268	449.62
468.488	444.62
468.707	444.62
468.927	444.62
469.146	438.62
469.365	461.62
469.585	442.62
469.804	450.62
470.023	445.62
470.243	454.62
470.462	449.62
470.681	476.62
470.901	476.62
471.12	452.62
471.339	458.62
471.558	459.62
471.777	448.62
471.997	428.62
472.216	466.62
472.435	470.62
472.654	454.62
472.873	450.62
473.092	428.62
473.311	439.62
473.53	456.62
473.749	444.62
473.968	459.62
474.187	543.62
474.406	532.62
474.625	467.62
474.844	460.62
475.063	446.62
475.282	461.62
475.501	474.62
475.72	468.62
475.939	446.62
476.158	467.62
476.377	465.62
476.596	462.62
476.814	471.62
477.033	464.62
477.252	490.62
477.471	492.62
477.69	486.62
477.908	510.62
478.127	492.62
478.346	496.62
478.564	509.62
478.783	481.62
479.002	519.62
479.22	517.62
479.439	523.62
479.658	529.62
479.876	543.62
480.095	542.62
480.313	555.62
480.532	558.62
480.751	553.62
480.969	557.62
481.188	571.62
481.406	589.62
481.624	576.62
481.843	546.62
482.061	528.62
482.28	515.62
482.498	525.62
482.717	541.62
482.935	546.62
483.153	527.62
483.372	532.62
483.59	526.62
483.808	532.62
484.027	536.62
484.245	531.62
484.463	533.62
484.681	543.62
484.9	549.62
485.118	548.62
485.336	542.62
485.554	550.62
485.772	568.62
485.99	550.62
486.209	528.62
486.427	551.62
486.645	564.62
486.863	566.62
487.081	558.62
487.299	557.62
487.517	551.62
487.735	536.62
487.953	571.62
488.171	576.62
488.389	571.62
488.607	568.62
488.825	562.62
489.043	531.62
489.261	581.62
489.479	570.62
489.696	567.62
489.914	562.62
490.132	588.62
490.35	578.62
490.568	574.62
490.786	583.62
491.003	586.62
491.221	602.62
491.439	596.62
491.657	632.62
491.874	628.62
492.092	604.62
492.31	617.62
492.527	627.62
492.745	603.62
492.963	620.62
493.18	620.62
493.398	649.62
493.615	635.62
493.833	601.62
494.05	645.62
494.268	638.62
494.485	633.62
494.703	630.62
494.92	622.62
495.138	618.62
495.355	612.62
495.573	638.62
495.79	652.62
496.008	646.62
496.225	639.62
496.442	637.62
496.66	669.62
496.877	656.62
497.094	638.62
497.312	650.62
497.529	670.62
497.746	676.62
497.963	700.62
498.181	719.62
498.398	718.62
498.615	738.62
498.832	770.62
499.049	800.62
499.267	809.62
499.484	834.62
499.701	847.62
499.918	874.62
500.135	920.62
500.352	963.62
500.569	976.62
500.786	977.62
501.003	996.62
501.22	955.62
501.437	902.62
501.654	871.62
501.871	831.62
502.088	847.62
