Data from 1978.PennyLincolnUp.Lamp.En5.5.200Scan.071719.P1_HRD10591_16-14-38-863.txt Node
Date: Thu Jul 18 16:14:38 EDT 2019
User: cochatt
Spectrometer: HR+D1059
Trigger mode: 1
Integration Time (sec): 1.000000E-1
Scans to average: 1
Electric dark correction enabled: true
Nonlinearity correction enabled: false
Boxcar width: 0
XAxis mode: Wavelengths
Number of Pixels in Spectrum: 2048
>>>>>Begin Spectral Data<<<<<
223.165	-18.5
223.4	-18.5
223.635	-18.5
223.869	-8.5
224.104	-23.5
224.338	-13.5
224.573	-20.5
224.808	-15.5
225.042	-6.5
225.277	-11.5
225.511	-1.5
225.746	-4.5
225.98	8.5
226.215	22.5
226.449	6.5
226.683	23.5
226.918	26.5
227.152	36.5
227.387	34.5
227.621	33.5
227.856	57.5
228.09	39.5
228.324	44.5
228.559	56.5
228.793	62.5
229.027	92.5
229.262	93.5
229.496	112.5
229.73	135.5
229.964	163.5
230.199	133.5
230.433	120.5
230.667	118.5
230.901	118.5
231.136	117.5
231.37	97.5
231.604	122.5
231.838	134.5
232.072	124.5
232.306	116.5
232.541	116.5
232.775	102.5
233.009	108.5
233.243	117.5
233.477	101.5
233.711	107.5
233.945	121.5
234.179	109.5
234.413	112.5
234.647	122.5
234.881	110.5
235.115	128.5
235.349	125.5
235.583	121.5
235.817	126.5
236.051	130.5
236.285	129.5
236.519	126.5
236.753	125.5
236.987	145.5
237.221	174.5
237.455	247.5
237.689	196.5
237.922	154.5
238.156	129.5
238.39	136.5
238.624	122.5
238.858	110.5
239.091	123.5
239.325	124.5
239.559	122.5
239.793	107.5
240.027	134.5
240.26	136.5
240.494	153.5
240.728	149.5
240.961	150.5
241.195	129.5
241.429	131.5
241.662	124.5
241.896	133.5
242.13	138.5
242.363	124.5
242.597	133.5
242.83	148.5
243.064	141.5
243.298	154.5
243.531	137.5
243.765	137.5
243.998	136.5
244.232	130.5
244.465	133.5
244.699	151.5
244.932	138.5
245.166	148.5
245.399	125.5
245.633	140.5
245.866	155.5
246.099	135.5
246.333	138.5
246.566	140.5
246.8	130.5
247.033	146.5
247.266	155.5
247.5	144.5
247.733	173.5
247.966	164.5
248.2	158.5
248.433	171.5
248.666	171.5
248.899	179.5
249.133	186.5
249.366	198.5
249.599	189.5
249.832	188.5
250.066	168.5
250.299	169.5
250.532	177.5
250.765	205.5
250.998	203.5
251.231	216.5
251.465	188.5
251.698	161.5
251.931	180.5
252.164	182.5
252.397	171.5
252.63	212.5
252.863	202.5
253.096	206.5
253.329	204.5
253.562	216.5
253.795	217.5
254.028	197.5
254.261	200.5
254.494	213.5
254.727	242.5
254.96	256.5
255.193	251.5
255.426	232.5
255.659	221.5
255.892	221.5
256.124	221.5
256.357	219.5
256.59	225.5
256.823	200.5
257.056	193.5
257.289	208.5
257.521	200.5
257.754	202.5
257.987	197.5
258.22	206.5
258.452	193.5
258.685	211.5
258.918	214.5
259.151	209.5
259.383	209.5
259.616	206.5
259.849	229.5
260.081	238.5
260.314	243.5
260.547	260.5
260.779	234.5
261.012	235.5
261.244	232.5
261.477	216.5
261.71	205.5
261.942	199.5
262.175	232.5
262.407	219.5
262.64	222.5
262.872	212.5
263.105	201.5
263.337	194.5
263.57	207.5
263.802	208.5
264.035	208.5
264.267	203.5
264.499	199.5
264.732	198.5
264.964	213.5
265.197	207.5
265.429	212.5
265.661	218.5
265.894	200.5
266.126	197.5
266.358	212.5
266.591	221.5
266.823	228.5
267.055	216.5
267.287	230.5
267.52	224.5
267.752	229.5
267.984	224.5
268.216	217.5
268.448	242.5
268.681	237.5
268.913	236.5
269.145	243.5
269.377	274.5
269.609	249.5
269.841	267.5
270.073	275.5
270.306	291.5
270.538	310.5
270.77	302.5
271.002	296.5
271.234	278.5
271.466	280.5
271.698	305.5
271.93	306.5
272.162	306.5
272.394	302.5
272.626	280.5
272.858	261.5
273.09	270.5
273.322	268.5
273.553	275.5
273.785	260.5
274.017	264.5
274.249	243.5
274.481	271.5
274.713	268.5
274.945	266.5
275.176	261.5
275.408	260.5
275.64	237.5
275.872	260.5
276.104	248.5
276.335	268.5
276.567	282.5
276.799	276.5
277.031	302.5
277.262	312.5
277.494	301.5
277.726	296.5
277.957	273.5
278.189	266.5
278.421	266.5
278.652	266.5
278.884	248.5
279.115	260.5
279.347	281.5
279.579	264.5
279.81	273.5
280.042	252.5
280.273	270.5
280.505	272.5
280.736	268.5
280.968	261.5
281.199	267.5
281.431	260.5
281.662	267.5
281.894	259.5
282.125	262.5
282.356	277.5
282.588	292.5
282.819	301.5
283.051	274.5
283.282	272.5
283.513	270.5
283.745	262.5
283.976	278.5
284.207	274.5
284.439	297.5
284.67	274.5
284.901	284.5
285.132	264.5
285.364	253.5
285.595	271.5
285.826	280.5
286.057	286.5
286.288	277.5
286.52	274.5
286.751	278.5
286.982	293.5
287.213	285.5
287.444	266.5
287.675	261.5
287.906	314.5
288.138	292.5
288.369	290.5
288.6	293.5
288.831	294.5
289.062	282.5
289.293	276.5
289.524	293.5
289.755	293.5
289.986	290.5
290.217	288.5
290.448	299.5
290.679	296.5
290.91	291.5
291.141	294.5
291.371	290.5
291.602	277.5
291.833	275.5
292.064	291.5
292.295	292.5
292.526	298.5
292.757	278.5
292.987	298.5
293.218	274.5
293.449	300.5
293.68	277.5
293.91	288.5
294.141	284.5
294.372	282.5
294.603	307.5
294.833	300.5
295.064	306.5
295.295	281.5
295.525	314.5
295.756	312.5
295.987	299.5
296.217	328.5
296.448	357.5
296.679	294.5
296.909	296.5
297.14	297.5
297.37	309.5
297.601	307.5
297.831	305.5
298.062	293.5
298.292	300.5
298.523	308.5
298.753	317.5
298.984	333.5
299.214	303.5
299.445	306.5
299.675	296.5
299.905	320.5
300.136	320.5
300.366	312.5
300.597	298.5
300.827	317.5
301.057	327.5
301.288	343.5
301.518	348.5
301.748	339.5
301.979	325.5
302.209	326.5
302.439	341.5
302.669	318.5
302.9	323.5
303.13	322.5
303.36	329.5
303.59	315.5
303.82	331.5
304.051	302.5
304.281	333.5
304.511	309.5
304.741	321.5
304.971	325.5
305.201	339.5
305.431	309.5
305.661	336.5
305.891	324.5
306.121	334.5
306.352	337.5
306.582	367.5
306.812	342.5
307.042	338.5
307.272	330.5
307.502	343.5
307.731	318.5
307.961	331.5
308.191	332.5
308.421	342.5
308.651	347.5
308.881	342.5
309.111	347.5
309.341	348.5
309.571	357.5
309.8	370.5
310.03	374.5
310.26	364.5
310.49	362.5
310.72	399.5
310.949	385.5
311.179	397.5
311.409	394.5
311.639	371.5
311.868	377.5
312.098	368.5
312.328	379.5
312.557	382.5
312.787	392.5
313.017	405.5
313.246	377.5
313.476	371.5
313.706	360.5
313.935	382.5
314.165	386.5
314.394	397.5
314.624	397.5
314.853	397.5
315.083	388.5
315.312	390.5
315.542	382.5
315.771	378.5
316.001	362.5
316.23	365.5
316.46	374.5
316.689	389.5
316.919	387.5
317.148	406.5
317.377	385.5
317.607	389.5
317.836	384.5
318.065	367.5
318.295	390.5
318.524	390.5
318.753	368.5
318.983	370.5
319.212	371.5
319.441	388.5
319.67	378.5
319.9	380.5
320.129	363.5
320.358	400.5
320.587	385.5
320.816	403.5
321.046	398.5
321.275	396.5
321.504	408.5
321.733	412.5
321.962	398.5
322.191	406.5
322.42	427.5
322.649	444.5
322.878	458.5
323.108	444.5
323.337	487.5
323.566	492.5
323.795	537.5
324.024	578.5
324.253	724.5
324.482	1046.5
324.71	1673.5
324.939	2539.5
325.168	2198.5
325.397	1050.5
325.626	672.5
325.855	570.5
326.084	524.5
326.313	502.5
326.542	519.5
326.77	562.5
326.999	634.5
327.228	944.5
327.457	1508.5
327.686	1874.5
327.914	1153.5
328.143	725.5
328.372	648.5
328.6	621.5
328.829	588.5
329.058	580.5
329.287	595.5
329.515	568.5
329.744	523.5
329.972	551.5
330.201	525.5
330.43	547.5
330.658	594.5
330.887	607.5
331.115	594.5
331.344	541.5
331.572	485.5
331.801	487.5
332.03	502.5
332.258	466.5
332.486	464.5
332.715	465.5
332.943	457.5
333.172	468.5
333.4	468.5
333.629	464.5
333.857	490.5
334.085	511.5
334.314	526.5
334.542	529.5
334.771	544.5
334.999	510.5
335.227	499.5
335.455	485.5
335.684	464.5
335.912	462.5
336.14	444.5
336.369	449.5
336.597	471.5
336.825	480.5
337.053	474.5
337.281	453.5
337.51	460.5
337.738	459.5
337.966	436.5
338.194	463.5
338.422	460.5
338.65	429.5
338.878	457.5
339.106	427.5
339.334	426.5
339.562	457.5
339.79	432.5
340.018	432.5
340.246	457.5
340.474	453.5
340.702	432.5
340.93	448.5
341.158	420.5
341.386	419.5
341.614	451.5
341.842	469.5
342.07	436.5
342.298	439.5
342.526	409.5
342.754	441.5
342.981	437.5
343.209	423.5
343.437	423.5
343.665	448.5
343.893	450.5
344.12	460.5
344.348	450.5
344.576	461.5
344.804	460.5
345.031	458.5
345.259	472.5
345.487	480.5
345.714	454.5
345.942	442.5
346.17	421.5
346.397	450.5
346.625	425.5
346.853	428.5
347.08	438.5
347.308	416.5
347.535	434.5
347.763	435.5
347.99	421.5
348.218	450.5
348.445	438.5
348.673	444.5
348.9	443.5
349.128	403.5
349.355	434.5
349.583	428.5
349.81	406.5
350.037	412.5
350.265	429.5
350.492	422.5
350.72	429.5
350.947	417.5
351.174	441.5
351.402	448.5
351.629	438.5
351.856	447.5
352.083	452.5
352.311	442.5
352.538	452.5
352.765	471.5
352.992	444.5
353.22	413.5
353.447	422.5
353.674	421.5
353.901	400.5
354.128	404.5
354.355	417.5
354.583	412.5
354.81	410.5
355.037	408.5
355.264	409.5
355.491	395.5
355.718	395.5
355.945	401.5
356.172	379.5
356.399	402.5
356.626	403.5
356.853	390.5
357.08	380.5
357.307	376.5
357.534	402.5
357.761	412.5
357.988	413.5
358.215	404.5
358.441	399.5
358.668	405.5
358.895	407.5
359.122	418.5
359.349	417.5
359.576	425.5
359.802	457.5
360.029	470.5
360.256	493.5
360.483	458.5
360.709	460.5
360.936	418.5
361.163	437.5
361.39	438.5
361.616	442.5
361.843	436.5
362.07	408.5
362.296	448.5
362.523	440.5
362.749	443.5
362.976	395.5
363.203	403.5
363.429	411.5
363.656	423.5
363.882	432.5
364.109	413.5
364.335	414.5
364.562	398.5
364.788	421.5
365.015	428.5
365.241	444.5
365.468	417.5
365.694	421.5
365.92	445.5
366.147	410.5
366.373	426.5
366.599	409.5
366.826	407.5
367.052	399.5
367.278	420.5
367.505	435.5
367.731	392.5
367.957	403.5
368.184	414.5
368.41	419.5
368.636	413.5
368.862	465.5
369.089	434.5
369.315	434.5
369.541	412.5
369.767	408.5
369.993	429.5
370.219	430.5
370.445	417.5
370.672	403.5
370.898	427.5
371.124	418.5
371.35	407.5
371.576	428.5
371.802	434.5
372.028	416.5
372.254	402.5
372.48	401.5
372.706	408.5
372.932	419.5
373.158	404.5
373.384	424.5
373.61	436.5
373.835	394.5
374.061	427.5
374.287	439.5
374.513	426.5
374.739	440.5
374.965	436.5
375.191	434.5
375.416	427.5
375.642	439.5
375.868	426.5
376.094	445.5
376.319	434.5
376.545	416.5
376.771	401.5
376.997	434.5
377.222	433.5
377.448	422.5
377.674	421.5
377.899	413.5
378.125	438.5
378.35	399.5
378.576	417.5
378.802	411.5
379.027	437.5
379.253	437.5
379.478	416.5
379.704	421.5
379.929	440.5
380.155	442.5
380.38	423.5
380.606	415.5
380.831	421.5
381.057	443.5
381.282	432.5
381.507	410.5
381.733	418.5
381.958	420.5
382.184	419.5
382.409	444.5
382.634	451.5
382.86	430.5
383.085	419.5
383.31	442.5
383.535	448.5
383.761	456.5
383.986	448.5
384.211	430.5
384.436	432.5
384.662	448.5
384.887	462.5
385.112	476.5
385.337	467.5
385.562	449.5
385.787	452.5
386.013	496.5
386.238	483.5
386.463	485.5
386.688	473.5
386.913	469.5
387.138	471.5
387.363	489.5
387.588	463.5
387.813	464.5
388.038	471.5
388.263	476.5
388.488	491.5
388.713	481.5
388.938	481.5
389.163	488.5
389.387	476.5
389.612	463.5
389.837	472.5
390.062	481.5
390.287	457.5
390.512	468.5
390.736	456.5
390.961	460.5
391.186	469.5
391.411	475.5
391.636	455.5
391.86	483.5
392.085	486.5
392.31	486.5
392.534	486.5
392.759	474.5
392.984	476.5
393.208	479.5
393.433	481.5
393.658	473.5
393.882	486.5
394.107	479.5
394.331	470.5
394.556	473.5
394.78	493.5
395.005	484.5
395.229	488.5
395.454	490.5
395.678	516.5
395.903	517.5
396.127	540.5
396.352	535.5
396.576	520.5
396.801	495.5
397.025	485.5
397.249	520.5
397.474	520.5
397.698	512.5
397.922	511.5
398.147	542.5
398.371	569.5
398.595	535.5
398.82	535.5
399.044	551.5
399.268	564.5
399.492	610.5
399.717	608.5
399.941	679.5
400.165	682.5
400.389	669.5
400.613	642.5
400.837	594.5
401.062	588.5
401.286	551.5
401.51	554.5
401.734	521.5
401.958	581.5
402.182	565.5
402.406	568.5
402.63	554.5
402.854	564.5
403.078	560.5
403.302	551.5
403.526	563.5
403.75	576.5
403.974	588.5
404.198	577.5
404.422	586.5
404.645	578.5
404.869	578.5
405.093	630.5
405.317	655.5
405.541	700.5
405.765	650.5
405.988	616.5
406.212	601.5
406.436	618.5
406.66	618.5
406.883	618.5
407.107	671.5
407.331	673.5
407.555	769.5
407.778	765.5
408.002	690.5
408.226	640.5
408.449	620.5
408.673	638.5
408.896	681.5
409.12	724.5
409.344	677.5
409.567	597.5
409.791	597.5
410.014	590.5
410.238	589.5
410.461	594.5
410.685	595.5
410.908	605.5
411.132	650.5
411.355	666.5
411.578	634.5
411.802	584.5
412.025	562.5
412.249	613.5
412.472	616.5
412.695	636.5
412.919	648.5
413.142	590.5
413.365	596.5
413.589	551.5
413.812	555.5
414.035	564.5
414.258	563.5
414.482	552.5
414.705	539.5
414.928	541.5
415.151	538.5
415.374	522.5
415.597	540.5
415.821	532.5
416.044	551.5
416.267	543.5
416.49	540.5
416.713	539.5
416.936	548.5
417.159	549.5
417.382	536.5
417.605	574.5
417.828	568.5
418.051	577.5
418.274	545.5
418.497	547.5
418.72	525.5
418.943	544.5
419.166	564.5
419.389	592.5
419.611	582.5
419.834	585.5
420.057	566.5
420.28	556.5
420.503	556.5
420.726	574.5
420.948	565.5
421.171	616.5
421.394	658.5
421.617	582.5
421.839	568.5
422.062	583.5
422.285	612.5
422.507	658.5
422.73	725.5
422.953	702.5
423.175	635.5
423.398	600.5
423.621	603.5
423.843	637.5
424.066	618.5
424.288	591.5
424.511	652.5
424.733	672.5
424.956	781.5
425.178	768.5
425.401	739.5
425.623	782.5
425.846	652.5
426.068	640.5
426.291	602.5
426.513	590.5
426.735	612.5
426.958	647.5
427.18	755.5
427.402	912.5
427.625	1010.5
427.847	852.5
428.069	746.5
428.292	644.5
428.514	614.5
428.736	613.5
428.958	568.5
429.181	562.5
429.403	549.5
429.625	579.5
429.847	611.5
430.069	681.5
430.292	672.5
430.514	542.5
430.736	572.5
430.958	549.5
431.18	557.5
431.402	544.5
431.624	514.5
431.846	539.5
432.068	522.5
432.29	537.5
432.512	529.5
432.734	539.5
432.956	541.5
433.178	546.5
433.4	552.5
433.622	529.5
433.844	533.5
434.066	557.5
434.287	541.5
434.509	550.5
434.731	540.5
434.953	557.5
435.175	587.5
435.397	602.5
435.618	609.5
435.84	648.5
436.062	742.5
436.284	865.5
436.505	695.5
436.727	636.5
436.949	591.5
437.17	585.5
437.392	571.5
437.614	569.5
437.835	611.5
438.057	732.5
438.278	833.5
438.5	841.5
438.721	930.5
438.943	872.5
439.165	683.5
439.386	619.5
439.608	631.5
439.829	628.5
440.05	641.5
440.272	715.5
440.493	669.5
440.715	604.5
440.936	596.5
441.158	537.5
441.379	560.5
441.6	590.5
441.822	585.5
442.043	664.5
442.264	753.5
442.486	818.5
442.707	669.5
442.928	642.5
443.149	629.5
443.371	661.5
443.592	698.5
443.813	801.5
444.034	901.5
444.255	717.5
444.476	650.5
444.698	593.5
444.919	621.5
445.14	707.5
445.361	677.5
445.582	681.5
445.803	754.5
446.024	872.5
446.245	896.5
446.466	813.5
446.687	667.5
446.908	622.5
447.129	579.5
447.35	575.5
447.571	568.5
447.792	546.5
448.013	564.5
448.234	597.5
448.455	624.5
448.675	766.5
448.896	926.5
449.117	768.5
449.338	736.5
449.559	841.5
449.779	983.5
450	749.5
450.221	642.5
450.442	578.5
450.662	530.5
450.883	542.5
451.104	566.5
451.324	552.5
451.545	540.5
451.766	531.5
451.986	500.5
452.207	515.5
452.428	488.5
452.648	491.5
452.869	492.5
453.089	489.5
453.31	530.5
453.53	502.5
453.751	513.5
453.971	512.5
454.192	497.5
454.412	489.5
454.633	497.5
454.853	492.5
455.073	477.5
455.294	533.5
455.514	616.5
455.734	596.5
455.955	519.5
456.175	484.5
456.395	492.5
456.616	458.5
456.836	472.5
457.056	478.5
457.276	457.5
457.497	472.5
457.717	464.5
457.937	477.5
458.157	513.5
458.377	503.5
458.598	527.5
458.818	580.5
459.038	658.5
459.258	672.5
459.478	602.5
459.698	549.5
459.918	538.5
460.138	538.5
460.358	572.5
460.578	557.5
460.798	550.5
461.018	553.5
461.238	544.5
461.458	559.5
461.678	525.5
461.898	544.5
462.118	530.5
462.338	550.5
462.558	542.5
462.777	569.5
462.997	586.5
463.217	602.5
463.437	598.5
463.657	574.5
463.876	593.5
464.096	591.5
464.316	563.5
464.536	578.5
464.755	601.5
464.975	600.5
465.195	610.5
465.414	708.5
465.634	600.5
465.854	576.5
466.073	571.5
466.293	555.5
466.512	535.5
466.732	520.5
466.951	535.5
467.171	527.5
467.391	519.5
467.61	526.5
467.829	540.5
468.049	538.5
468.268	521.5
468.488	513.5
468.707	526.5
468.927	528.5
469.146	530.5
469.365	504.5
469.585	514.5
469.804	503.5
470.023	539.5
470.243	516.5
470.462	546.5
470.681	543.5
470.901	549.5
471.12	509.5
471.339	523.5
471.558	539.5
471.777	526.5
471.997	529.5
472.216	530.5
472.435	562.5
472.654	557.5
472.873	539.5
473.092	523.5
473.311	537.5
473.53	520.5
473.749	534.5
473.968	568.5
474.187	688.5
474.406	728.5
474.625	587.5
474.844	551.5
475.063	560.5
475.282	529.5
475.501	524.5
475.72	549.5
475.939	575.5
476.158	565.5
476.377	545.5
476.596	547.5
476.814	565.5
477.033	541.5
477.252	557.5
477.471	562.5
477.69	551.5
477.908	546.5
478.127	566.5
478.346	560.5
478.564	575.5
478.783	602.5
479.002	612.5
479.22	603.5
479.439	638.5
479.658	640.5
479.876	603.5
480.095	640.5
480.313	672.5
480.532	660.5
480.751	637.5
480.969	667.5
481.188	690.5
481.406	734.5
481.624	688.5
481.843	636.5
482.061	651.5
482.28	633.5
482.498	612.5
482.717	614.5
482.935	609.5
483.153	621.5
483.372	618.5
483.59	601.5
483.808	597.5
484.027	606.5
484.245	624.5
484.463	645.5
484.681	636.5
484.9	640.5
485.118	625.5
485.336	634.5
485.554	625.5
485.772	645.5
485.99	634.5
486.209	630.5
486.427	645.5
486.645	644.5
486.863	676.5
487.081	676.5
487.299	654.5
487.517	648.5
487.735	642.5
487.953	650.5
488.171	652.5
488.389	668.5
488.607	660.5
488.825	660.5
489.043	676.5
489.261	675.5
489.479	658.5
489.696	679.5
489.914	672.5
490.132	670.5
490.35	694.5
490.568	675.5
490.786	676.5
491.003	714.5
491.221	732.5
491.439	719.5
491.657	719.5
491.874	709.5
492.092	745.5
492.31	725.5
492.527	718.5
492.745	750.5
492.963	750.5
493.18	747.5
493.398	772.5
493.615	752.5
493.833	759.5
494.05	794.5
494.268	764.5
494.485	766.5
494.703	773.5
494.92	787.5
495.138	768.5
495.355	787.5
495.573	789.5
495.79	780.5
496.008	781.5
496.225	788.5
496.442	750.5
496.66	786.5
496.877	786.5
497.094	777.5
497.312	805.5
497.529	827.5
497.746	838.5
497.963	810.5
498.181	870.5
498.398	858.5
498.615	893.5
498.832	885.5
499.049	896.5
499.267	942.5
499.484	973.5
499.701	970.5
499.918	1007.5
500.135	1100.5
500.352	1115.5
500.569	1143.5
500.786	1138.5
501.003	1107.5
501.22	1060.5
501.437	1038.5
501.654	1030.5
501.871	985.5
502.088	977.5
502.305	953.5
502.522	882.5
502.739	898.5
502.956	855.5
503.172	853.5
503.389	810.5
503.606	834.5
503.823	820.5
504.04	823.5
504.256	802.5
504.473	813.5
504.69	780.5
504.907	802.5
505.123	760.5
505.34	785.5
505.557	768.5
505.773	770.5
505.99	742.5
506.207	747.5
506.423	758.5
506.64	769.5
506.856	721.5
507.073	710.5
507.289	733.5
507.506	729.5
507.722	737.5
507.939	748.5
508.155	739.5
508.372	705.5
508.588	704.5
508.805	698.5
509.021	707.5
509.238	688.5
509.454	715.5
509.67	712.5
509.887	706.5
510.103	690.5
510.319	726.5
510.536	778.5
510.752	1252.5
510.968	1021.5
511.184	726.5
511.401	679.5
511.617	704.5
511.833	694.5
512.049	664.5
512.265	648.5
512.481	669.5
512.698	652.5
512.914	668.5
513.13	650.5
513.346	666.5
513.562	643.5
513.778	670.5
513.994	682.5
514.21	665.5
514.426	685.5
514.642	755.5
514.858	752.5
515.074	810.5
515.29	930.5
515.506	1297.5
515.721	1101.5
515.937	784.5
516.153	744.5
516.369	720.5
516.585	708.5
516.801	723.5
517.016	693.5
517.232	696.5
517.448	693.5
517.664	711.5
517.879	733.5
518.095	716.5
518.311	704.5
518.527	683.5
518.742	694.5
518.958	688.5
519.173	666.5
519.389	678.5
519.605	659.5
