Data from 1978.PennyLincolnUp.Lamp.En5.5.200Scan.071719.P1_HRD10591_16-12-00-865.txt Node
Date: Thu Jul 18 16:12:00 EDT 2019
User: cochatt
Spectrometer: HR+D1059
Trigger mode: 1
Integration Time (sec): 1.000000E-1
Scans to average: 1
Electric dark correction enabled: true
Nonlinearity correction enabled: false
Boxcar width: 0
XAxis mode: Wavelengths
Number of Pixels in Spectrum: 2048
>>>>>Begin Spectral Data<<<<<
223.165	-13.38
223.4	-13.38
223.635	-13.38
223.869	-8.38
224.104	-3.38
224.338	-16.38
224.573	-9.38
224.808	-24.38
225.042	-3.38
225.277	3.62
225.511	-23.38
225.746	-1.38
225.98	0.62
226.215	5.62
226.449	15.62
226.683	24.62
226.918	23.62
227.152	29.62
227.387	27.62
227.621	18.62
227.856	36.62
228.09	41.62
228.324	54.62
228.559	55.62
228.793	61.62
229.027	89.62
229.262	90.62
229.496	107.62
229.73	132.62
229.964	139.62
230.199	115.62
230.433	119.62
230.667	107.62
230.901	117.62
231.136	105.62
231.37	100.62
231.604	104.62
231.838	110.62
232.072	111.62
232.306	110.62
232.541	101.62
232.775	105.62
233.009	120.62
233.243	108.62
233.477	108.62
233.711	107.62
233.945	108.62
234.179	102.62
234.413	114.62
234.647	117.62
234.881	113.62
235.115	102.62
235.349	117.62
235.583	114.62
235.817	115.62
236.051	126.62
236.285	123.62
236.519	112.62
236.753	124.62
236.987	125.62
237.221	171.62
237.455	182.62
237.689	158.62
237.922	130.62
238.156	133.62
238.39	123.62
238.624	110.62
238.858	120.62
239.091	113.62
239.325	122.62
239.559	125.62
239.793	123.62
240.027	126.62
240.26	129.62
240.494	141.62
240.728	122.62
240.961	131.62
241.195	130.62
241.429	136.62
241.662	128.62
241.896	132.62
242.13	120.62
242.363	125.62
242.597	135.62
242.83	121.62
243.064	120.62
243.298	131.62
243.531	141.62
243.765	131.62
243.998	137.62
244.232	120.62
244.465	139.62
244.699	138.62
244.932	141.62
245.166	125.62
245.399	133.62
245.633	139.62
245.866	136.62
246.099	141.62
246.333	135.62
246.566	141.62
246.8	138.62
247.033	145.62
247.266	149.62
247.5	152.62
247.733	150.62
247.966	147.62
248.2	159.62
248.433	155.62
248.666	147.62
248.899	156.62
249.133	168.62
249.366	157.62
249.599	169.62
249.832	171.62
250.066	171.62
250.299	167.62
250.532	167.62
250.765	164.62
250.998	182.62
251.231	202.62
251.465	183.62
251.698	181.62
251.931	186.62
252.164	160.62
252.397	168.62
252.63	177.62
252.863	169.62
253.096	172.62
253.329	192.62
253.562	172.62
253.795	199.62
254.028	188.62
254.261	192.62
254.494	182.62
254.727	203.62
254.96	223.62
255.193	232.62
255.426	185.62
255.659	188.62
255.892	197.62
256.124	193.62
256.357	198.62
256.59	211.62
256.823	185.62
257.056	183.62
257.289	199.62
257.521	190.62
257.754	176.62
257.987	190.62
258.22	176.62
258.452	175.62
258.685	198.62
258.918	185.62
259.151	194.62
259.383	188.62
259.616	174.62
259.849	205.62
260.081	208.62
260.314	198.62
260.547	211.62
260.779	195.62
261.012	194.62
261.244	209.62
261.477	182.62
261.71	178.62
261.942	194.62
262.175	205.62
262.407	189.62
262.64	207.62
262.872	182.62
263.105	194.62
263.337	185.62
263.57	175.62
263.802	185.62
264.035	182.62
264.267	169.62
264.499	202.62
264.732	189.62
264.964	180.62
265.197	190.62
265.429	209.62
265.661	187.62
265.894	199.62
266.126	206.62
266.358	195.62
266.591	191.62
266.823	196.62
267.055	194.62
267.287	193.62
267.52	197.62
267.752	204.62
267.984	200.62
268.216	194.62
268.448	198.62
268.681	210.62
268.913	205.62
269.145	217.62
269.377	219.62
269.609	208.62
269.841	226.62
270.073	221.62
270.306	238.62
270.538	265.62
270.77	255.62
271.002	240.62
271.234	238.62
271.466	227.62
271.698	248.62
271.93	257.62
272.162	257.62
272.394	253.62
272.626	229.62
272.858	233.62
273.09	224.62
273.322	227.62
273.553	239.62
273.785	211.62
274.017	214.62
274.249	231.62
274.481	242.62
274.713	233.62
274.945	229.62
275.176	232.62
275.408	227.62
275.64	232.62
275.872	235.62
276.104	228.62
276.335	229.62
276.567	226.62
276.799	265.62
277.031	265.62
277.262	265.62
277.494	257.62
277.726	262.62
277.957	246.62
278.189	242.62
278.421	239.62
278.652	242.62
278.884	233.62
279.115	258.62
279.347	233.62
279.579	245.62
279.81	226.62
280.042	245.62
280.273	238.62
280.505	240.62
280.736	238.62
280.968	242.62
281.199	245.62
281.431	227.62
281.662	249.62
281.894	227.62
282.125	245.62
282.356	276.62
282.588	250.62
282.819	266.62
283.051	240.62
283.282	239.62
283.513	236.62
283.745	250.62
283.976	255.62
284.207	254.62
284.439	252.62
284.67	261.62
284.901	256.62
285.132	250.62
285.364	241.62
285.595	236.62
285.826	264.62
286.057	265.62
286.288	243.62
286.52	273.62
286.751	258.62
286.982	263.62
287.213	266.62
287.444	261.62
287.675	247.62
287.906	274.62
288.138	250.62
288.369	265.62
288.6	275.62
288.831	269.62
289.062	270.62
289.293	251.62
289.524	250.62
289.755	270.62
289.986	236.62
290.217	240.62
290.448	244.62
290.679	257.62
290.91	283.62
291.141	265.62
291.371	272.62
291.602	267.62
291.833	274.62
292.064	265.62
292.295	273.62
292.526	266.62
292.757	266.62
292.987	258.62
293.218	261.62
293.449	274.62
293.68	238.62
293.91	261.62
294.141	258.62
294.372	268.62
294.603	262.62
294.833	252.62
295.064	279.62
295.295	252.62
295.525	274.62
295.756	282.62
295.987	272.62
296.217	282.62
296.448	283.62
296.679	281.62
296.909	269.62
297.14	270.62
297.37	259.62
297.601	275.62
297.831	287.62
298.062	282.62
298.292	281.62
298.523	277.62
298.753	281.62
298.984	293.62
299.214	288.62
299.445	284.62
299.675	278.62
299.905	289.62
300.136	287.62
300.366	293.62
300.597	283.62
300.827	286.62
301.057	310.62
301.288	297.62
301.518	301.62
301.748	303.62
301.979	302.62
302.209	295.62
302.439	290.62
302.669	300.62
302.9	307.62
303.13	289.62
303.36	309.62
303.59	288.62
303.82	290.62
304.051	306.62
304.281	310.62
304.511	287.62
304.741	280.62
304.971	295.62
305.201	321.62
305.431	316.62
305.661	303.62
305.891	293.62
306.121	315.62
306.352	297.62
306.582	314.62
306.812	303.62
307.042	309.62
307.272	299.62
307.502	300.62
307.731	306.62
307.961	292.62
308.191	302.62
308.421	309.62
308.651	306.62
308.881	299.62
309.111	317.62
309.341	304.62
309.571	331.62
309.8	316.62
310.03	321.62
310.26	313.62
310.49	312.62
310.72	319.62
310.949	351.62
311.179	340.62
311.409	322.62
311.639	344.62
311.868	328.62
312.098	333.62
312.328	339.62
312.557	336.62
312.787	337.62
313.017	342.62
313.246	345.62
313.476	313.62
313.706	315.62
313.935	328.62
314.165	335.62
314.394	332.62
314.624	351.62
314.853	352.62
315.083	348.62
315.312	320.62
315.542	320.62
315.771	358.62
316.001	339.62
316.23	326.62
316.46	318.62
316.689	341.62
316.919	343.62
317.148	339.62
317.377	354.62
317.607	348.62
317.836	318.62
318.065	328.62
318.295	347.62
318.524	328.62
318.753	330.62
318.983	350.62
319.212	309.62
319.441	345.62
319.67	338.62
319.9	341.62
320.129	346.62
320.358	351.62
320.587	348.62
320.816	343.62
321.046	356.62
321.275	352.62
321.504	362.62
321.733	383.62
321.962	353.62
322.191	355.62
322.42	376.62
322.649	385.62
322.878	384.62
323.108	389.62
323.337	418.62
323.566	432.62
323.795	418.62
324.024	446.62
324.253	507.62
324.482	706.62
324.71	1107.62
324.939	1641.62
325.168	1455.62
325.397	721.62
325.626	515.62
325.855	426.62
326.084	409.62
326.313	414.62
326.542	407.62
326.77	449.62
326.999	515.62
327.228	663.62
327.457	1001.62
327.686	1256.62
327.914	821.62
328.143	573.62
328.372	494.62
328.6	480.62
328.829	446.62
329.058	444.62
329.287	477.62
329.515	443.62
329.744	427.62
329.972	438.62
330.201	437.62
330.43	455.62
330.658	469.62
330.887	503.62
331.115	472.62
331.344	424.62
331.572	424.62
331.801	435.62
332.03	421.62
332.258	439.62
332.486	414.62
332.715	386.62
332.943	411.62
333.172	413.62
333.4	431.62
333.629	400.62
333.857	447.62
334.085	422.62
334.314	446.62
334.542	471.62
334.771	474.62
334.999	418.62
335.227	403.62
335.455	413.62
335.684	417.62
335.912	414.62
336.14	390.62
336.369	412.62
336.597	395.62
336.825	437.62
337.053	396.62
337.281	408.62
337.51	415.62
337.738	400.62
337.966	398.62
338.194	385.62
338.422	401.62
338.65	383.62
338.878	422.62
339.106	397.62
339.334	410.62
339.562	404.62
339.79	398.62
340.018	411.62
340.246	402.62
340.474	415.62
340.702	385.62
340.93	377.62
341.158	394.62
341.386	399.62
341.614	395.62
341.842	379.62
342.07	382.62
342.298	395.62
342.526	389.62
342.754	353.62
342.981	389.62
343.209	385.62
343.437	381.62
343.665	394.62
343.893	395.62
344.12	402.62
344.348	415.62
344.576	397.62
344.804	396.62
345.031	433.62
345.259	421.62
345.487	400.62
345.714	401.62
345.942	381.62
346.17	377.62
346.397	366.62
346.625	391.62
346.853	374.62
347.08	370.62
347.308	370.62
347.535	399.62
347.763	405.62
347.99	378.62
348.218	401.62
348.445	377.62
348.673	394.62
348.9	413.62
349.128	383.62
349.355	378.62
349.583	375.62
349.81	350.62
350.037	377.62
350.265	383.62
350.492	365.62
350.72	373.62
350.947	370.62
351.174	389.62
351.402	394.62
351.629	368.62
351.856	376.62
352.083	385.62
352.311	382.62
352.538	391.62
352.765	407.62
352.992	398.62
353.22	387.62
353.447	349.62
353.674	360.62
353.901	366.62
354.128	382.62
354.355	380.62
354.583	370.62
354.81	371.62
355.037	359.62
355.264	366.62
355.491	368.62
355.718	357.62
355.945	363.62
356.172	368.62
356.399	361.62
356.626	385.62
356.853	376.62
357.08	368.62
357.307	358.62
357.534	373.62
357.761	386.62
357.988	370.62
358.215	355.62
358.441	376.62
358.668	367.62
358.895	360.62
359.122	364.62
359.349	370.62
359.576	371.62
359.802	409.62
360.029	415.62
360.256	431.62
360.483	415.62
360.709	381.62
360.936	391.62
361.163	384.62
361.39	391.62
361.616	382.62
361.843	369.62
362.07	377.62
362.296	391.62
362.523	370.62
362.749	388.62
362.976	377.62
363.203	383.62
363.429	387.62
363.656	369.62
363.882	370.62
364.109	365.62
364.335	377.62
364.562	386.62
364.788	384.62
365.015	382.62
365.241	380.62
365.468	386.62
365.694	378.62
365.92	386.62
366.147	387.62
366.373	393.62
366.599	375.62
366.826	353.62
367.052	372.62
367.278	381.62
367.505	372.62
367.731	380.62
367.957	385.62
368.184	380.62
368.41	367.62
368.636	379.62
368.862	373.62
369.089	388.62
369.315	388.62
369.541	391.62
369.767	378.62
369.993	384.62
370.219	378.62
370.445	388.62
370.672	401.62
370.898	390.62
371.124	360.62
371.35	387.62
371.576	393.62
371.802	409.62
372.028	373.62
372.254	387.62
372.48	381.62
372.706	405.62
372.932	380.62
373.158	396.62
373.384	401.62
373.61	400.62
373.835	397.62
374.061	387.62
374.287	406.62
374.513	400.62
374.739	407.62
374.965	373.62
375.191	398.62
375.416	406.62
375.642	401.62
375.868	377.62
376.094	401.62
376.319	399.62
376.545	427.62
376.771	394.62
376.997	386.62
377.222	380.62
377.448	399.62
377.674	393.62
377.899	385.62
378.125	384.62
378.35	385.62
378.576	375.62
378.802	406.62
379.027	367.62
379.253	395.62
379.478	413.62
379.704	408.62
379.929	384.62
380.155	395.62
380.38	397.62
380.606	400.62
380.831	369.62
381.057	374.62
381.282	393.62
381.507	417.62
381.733	398.62
381.958	396.62
382.184	394.62
382.409	387.62
382.634	395.62
382.86	425.62
383.085	403.62
383.31	394.62
383.535	416.62
383.761	398.62
383.986	407.62
384.211	423.62
384.436	432.62
384.662	418.62
384.887	410.62
385.112	426.62
385.337	414.62
385.562	450.62
385.787	417.62
386.013	443.62
386.238	444.62
386.463	453.62
386.688	460.62
386.913	427.62
387.138	452.62
387.363	446.62
387.588	422.62
387.813	452.62
388.038	421.62
388.263	427.62
388.488	446.62
388.713	426.62
388.938	449.62
389.163	431.62
389.387	445.62
389.612	434.62
389.837	443.62
390.062	446.62
390.287	455.62
390.512	448.62
390.736	469.62
390.961	453.62
391.186	434.62
391.411	442.62
391.636	453.62
391.86	442.62
392.085	462.62
392.31	449.62
392.534	443.62
392.759	460.62
392.984	470.62
393.208	454.62
393.433	459.62
393.658	467.62
393.882	441.62
394.107	449.62
394.331	467.62
394.556	454.62
394.78	454.62
395.005	437.62
395.229	464.62
395.454	458.62
395.678	466.62
395.903	466.62
396.127	476.62
396.352	491.62
396.576	465.62
396.801	461.62
397.025	479.62
397.249	477.62
397.474	465.62
397.698	464.62
397.922	489.62
398.147	505.62
398.371	521.62
398.595	501.62
398.82	498.62
399.044	523.62
399.268	532.62
399.492	559.62
399.717	588.62
399.941	608.62
400.165	624.62
400.389	630.62
400.613	580.62
400.837	569.62
401.062	538.62
401.286	513.62
401.51	526.62
401.734	507.62
401.958	496.62
402.182	513.62
402.406	543.62
402.63	524.62
402.854	519.62
403.078	512.62
403.302	520.62
403.526	528.62
403.75	527.62
403.974	535.62
404.198	505.62
404.422	535.62
404.645	527.62
404.869	543.62
405.093	563.62
405.317	597.62
405.541	602.62
405.765	562.62
405.988	545.62
406.212	574.62
406.436	569.62
406.66	588.62
406.883	565.62
407.107	609.62
407.331	609.62
407.555	708.62
407.778	677.62
408.002	634.62
408.226	586.62
408.449	577.62
408.673	609.62
408.896	606.62
409.12	639.62
409.344	594.62
409.567	556.62
409.791	541.62
410.014	552.62
410.238	553.62
410.461	556.62
410.685	547.62
410.908	557.62
411.132	584.62
411.355	606.62
411.578	592.62
411.802	527.62
412.025	535.62
412.249	532.62
412.472	569.62
412.695	573.62
412.919	591.62
413.142	530.62
413.365	507.62
413.589	515.62
413.812	512.62
414.035	517.62
414.258	519.62
414.482	505.62
414.705	517.62
414.928	525.62
415.151	499.62
415.374	485.62
415.597	501.62
415.821	486.62
416.044	499.62
416.267	508.62
416.49	484.62
416.713	486.62
416.936	490.62
417.159	492.62
417.382	509.62
417.605	495.62
417.828	501.62
418.051	513.62
418.274	512.62
418.497	498.62
418.72	504.62
418.943	505.62
419.166	486.62
419.389	556.62
419.611	539.62
419.834	526.62
420.057	529.62
420.28	522.62
420.503	515.62
420.726	514.62
420.948	495.62
421.171	553.62
421.394	598.62
421.617	556.62
421.839	516.62
422.062	519.62
422.285	523.62
422.507	568.62
422.73	638.62
422.953	619.62
423.175	567.62
423.398	524.62
423.621	544.62
423.843	520.62
424.066	529.62
424.288	521.62
424.511	559.62
424.733	621.62
424.956	675.62
425.178	645.62
425.401	647.62
425.623	682.62
425.846	588.62
426.068	528.62
426.291	535.62
426.513	522.62
426.735	553.62
426.958	595.62
427.18	621.62
427.402	751.62
427.625	802.62
427.847	706.62
428.069	620.62
428.292	557.62
428.514	549.62
428.736	543.62
428.958	531.62
429.181	509.62
429.403	490.62
429.625	501.62
429.847	510.62
430.069	561.62
430.292	592.62
430.514	520.62
430.736	497.62
430.958	506.62
431.18	503.62
431.402	508.62
431.624	471.62
431.846	481.62
432.068	484.62
432.29	488.62
432.512	493.62
432.734	492.62
432.956	491.62
433.178	496.62
433.4	515.62
433.622	511.62
433.844	485.62
434.066	504.62
434.287	488.62
434.509	505.62
434.731	496.62
434.953	508.62
435.175	534.62
435.397	560.62
435.618	554.62
435.84	588.62
436.062	665.62
436.284	721.62
436.505	604.62
436.727	554.62
436.949	538.62
437.17	523.62
437.392	499.62
437.614	517.62
437.835	552.62
438.057	610.62
438.278	715.62
438.5	699.62
438.721	750.62
438.943	749.62
439.165	629.62
439.386	534.62
439.608	533.62
439.829	550.62
440.05	561.62
440.272	615.62
440.493	567.62
440.715	541.62
440.936	509.62
441.158	508.62
441.379	516.62
441.6	525.62
441.822	549.62
442.043	561.62
442.264	638.62
442.486	689.62
442.707	604.62
442.928	543.62
443.149	554.62
443.371	576.62
443.592	613.62
443.813	693.62
444.034	738.62
444.255	622.62
444.476	558.62
444.698	585.62
444.919	544.62
445.14	661.62
445.361	615.62
445.582	595.62
445.803	617.62
446.024	683.62
446.245	706.62
446.466	648.62
446.687	576.62
446.908	554.62
447.129	515.62
447.35	508.62
447.571	481.62
447.792	483.62
448.013	498.62
448.234	489.62
448.455	575.62
448.675	659.62
448.896	755.62
449.117	637.62
449.338	597.62
449.559	714.62
449.779	810.62
450	616.62
450.221	547.62
450.442	507.62
450.662	485.62
450.883	473.62
451.104	489.62
451.324	476.62
451.545	493.62
451.766	462.62
451.986	454.62
452.207	463.62
452.428	459.62
452.648	473.62
452.869	460.62
453.089	463.62
453.31	466.62
453.53	433.62
453.751	449.62
453.971	454.62
454.192	464.62
454.412	453.62
454.633	472.62
454.853	449.62
455.073	439.62
455.294	469.62
455.514	542.62
455.734	516.62
455.955	465.62
456.175	422.62
456.395	441.62
456.616	435.62
456.836	441.62
457.056	459.62
457.276	420.62
457.497	428.62
457.717	439.62
457.937	457.62
458.157	456.62
458.377	453.62
458.598	482.62
458.818	509.62
459.038	565.62
459.258	567.62
459.478	522.62
459.698	481.62
459.918	521.62
460.138	501.62
460.358	501.62
460.578	522.62
460.798	526.62
461.018	513.62
461.238	516.62
461.458	513.62
461.678	525.62
461.898	530.62
462.118	526.62
462.338	525.62
462.558	574.62
462.777	527.62
462.997	552.62
463.217	588.62
463.437	587.62
463.657	583.62
463.876	541.62
464.096	559.62
464.316	561.62
464.536	565.62
464.755	555.62
464.975	558.62
465.195	562.62
465.414	594.62
465.634	561.62
465.854	529.62
466.073	523.62
466.293	494.62
466.512	493.62
466.732	487.62
466.951	474.62
467.171	484.62
467.391	503.62
467.61	491.62
467.829	507.62
468.049	490.62
468.268	478.62
468.488	497.62
468.707	476.62
468.927	458.62
469.146	462.62
469.365	485.62
469.585	477.62
469.804	477.62
470.023	479.62
470.243	495.62
470.462	484.62
470.681	515.62
470.901	499.62
471.12	469.62
471.339	470.62
471.558	480.62
471.777	491.62
471.997	494.62
472.216	466.62
472.435	508.62
472.654	501.62
472.873	497.62
473.092	487.62
473.311	485.62
473.53	454.62
473.749	481.62
473.968	504.62
474.187	608.62
474.406	600.62
474.625	515.62
474.844	501.62
475.063	516.62
475.282	491.62
475.501	490.62
475.72	510.62
475.939	514.62
476.158	479.62
476.377	492.62
476.596	489.62
476.814	522.62
477.033	525.62
477.252	528.62
477.471	527.62
477.69	531.62
477.908	527.62
478.127	526.62
478.346	521.62
478.564	544.62
478.783	540.62
479.002	566.62
479.22	573.62
479.439	570.62
479.658	579.62
479.876	587.62
480.095	588.62
480.313	627.62
480.532	576.62
480.751	608.62
480.969	571.62
481.188	633.62
481.406	637.62
481.624	584.62
481.843	586.62
482.061	561.62
482.28	590.62
482.498	572.62
482.717	560.62
482.935	595.62
483.153	575.62
483.372	580.62
483.59	559.62
483.808	562.62
484.027	575.62
484.245	569.62
484.463	590.62
484.681	593.62
484.9	585.62
485.118	570.62
485.336	567.62
485.554	579.62
485.772	584.62
485.99	570.62
486.209	592.62
486.427	578.62
486.645	568.62
486.863	583.62
487.081	603.62
487.299	594.62
487.517	598.62
487.735	597.62
487.953	567.62
488.171	587.62
488.389	601.62
488.607	584.62
488.825	603.62
489.043	595.62
489.261	594.62
489.479	628.62
489.696	597.62
489.914	595.62
490.132	620.62
490.35	606.62
490.568	610.62
490.786	623.62
491.003	611.62
491.221	631.62
491.439	625.62
491.657	631.62
491.874	651.62
492.092	646.62
492.31	653.62
492.527	665.62
492.745	673.62
492.963	659.62
493.18	669.62
493.398	661.62
493.615	681.62
493.833	689.62
494.05	687.62
494.268	671.62
494.485	681.62
494.703	679.62
494.92	680.62
495.138	673.62
495.355	696.62
495.573	696.62
495.79	683.62
496.008	717.62
496.225	694.62
496.442	702.62
496.66	704.62
496.877	721.62
497.094	709.62
497.312	719.62
497.529	717.62
497.746	733.62
497.963	749.62
498.181	760.62
498.398	805.62
498.615	797.62
498.832	818.62
499.049	837.62
499.267	837.62
499.484	840.62
499.701	918.62
499.918	945.62
500.135	1003.62
500.352	1032.62
500.569	1038.62
500.786	1083.62
501.003	1058.62
501.22	1023.62
501.437	961.62
501.654	935.62
501.871	926.62
