Data from 1978.PennyLincolnUp.Lamp.En5.5.200Scan.071719.P1_HRD10591_16-13-20-864.txt Node
Date: Thu Jul 18 16:13:20 EDT 2019
User: cochatt
Spectrometer: HR+D1059
Trigger mode: 1
Integration Time (sec): 1.000000E-1
Scans to average: 1
Electric dark correction enabled: true
Nonlinearity correction enabled: false
Boxcar width: 0
XAxis mode: Wavelengths
Number of Pixels in Spectrum: 2048
>>>>>Begin Spectral Data<<<<<
223.165	-9.38
223.4	-9.38
223.635	-9.38
223.869	-11.38
224.104	-14.38
224.338	-10.38
224.573	-15.38
224.808	-22.38
225.042	-14.38
225.277	-9.38
225.511	-7.38
225.746	7.62
225.98	9.62
226.215	15.62
226.449	22.62
226.683	1.62
226.918	35.62
227.152	21.62
227.387	20.62
227.621	37.62
227.856	39.62
228.09	21.62
228.324	40.62
228.559	53.62
228.793	67.62
229.027	90.62
229.262	113.62
229.496	94.62
229.73	113.62
229.964	155.62
230.199	124.62
230.433	115.62
230.667	98.62
230.901	107.62
231.136	99.62
231.37	97.62
231.604	106.62
231.838	117.62
232.072	111.62
232.306	89.62
232.541	108.62
232.775	111.62
233.009	107.62
233.243	111.62
233.477	112.62
233.711	107.62
233.945	126.62
234.179	122.62
234.413	110.62
234.647	100.62
234.881	112.62
235.115	115.62
235.349	128.62
235.583	114.62
235.817	121.62
236.051	123.62
236.285	107.62
236.519	134.62
236.753	117.62
236.987	136.62
237.221	163.62
237.455	218.62
237.689	186.62
237.922	132.62
238.156	137.62
238.39	130.62
238.624	120.62
238.858	112.62
239.091	120.62
239.325	122.62
239.559	114.62
239.793	123.62
240.027	129.62
240.26	128.62
240.494	158.62
240.728	137.62
240.961	144.62
241.195	126.62
241.429	121.62
241.662	134.62
241.896	118.62
242.13	125.62
242.363	134.62
242.597	136.62
242.83	134.62
243.064	138.62
243.298	119.62
243.531	118.62
243.765	140.62
243.998	136.62
244.232	136.62
244.465	128.62
244.699	132.62
244.932	123.62
245.166	126.62
245.399	138.62
245.633	127.62
245.866	130.62
246.099	140.62
246.333	147.62
246.566	174.62
246.8	152.62
247.033	152.62
247.266	156.62
247.5	155.62
247.733	165.62
247.966	149.62
248.2	163.62
248.433	158.62
248.666	153.62
248.899	155.62
249.133	164.62
249.366	201.62
249.599	175.62
249.832	177.62
250.066	182.62
250.299	172.62
250.532	186.62
250.765	185.62
250.998	201.62
251.231	200.62
251.465	191.62
251.698	181.62
251.931	162.62
252.164	163.62
252.397	175.62
252.63	192.62
252.863	174.62
253.096	191.62
253.329	191.62
253.562	215.62
253.795	185.62
254.028	179.62
254.261	176.62
254.494	211.62
254.727	250.62
254.96	247.62
255.193	259.62
255.426	199.62
255.659	218.62
255.892	210.62
256.124	216.62
256.357	204.62
256.59	222.62
256.823	196.62
257.056	191.62
257.289	203.62
257.521	186.62
257.754	188.62
257.987	188.62
258.22	182.62
258.452	184.62
258.685	175.62
258.918	204.62
259.151	189.62
259.383	196.62
259.616	201.62
259.849	202.62
260.081	217.62
260.314	244.62
260.547	235.62
260.779	220.62
261.012	227.62
261.244	200.62
261.477	214.62
261.71	215.62
261.942	219.62
262.175	229.62
262.407	208.62
262.64	204.62
262.872	212.62
263.105	190.62
263.337	201.62
263.57	185.62
263.802	198.62
264.035	202.62
264.267	205.62
264.499	197.62
264.732	202.62
264.964	201.62
265.197	219.62
265.429	195.62
265.661	197.62
265.894	203.62
266.126	194.62
266.358	210.62
266.591	211.62
266.823	213.62
267.055	221.62
267.287	229.62
267.52	214.62
267.752	195.62
267.984	205.62
268.216	192.62
268.448	222.62
268.681	218.62
268.913	218.62
269.145	231.62
269.377	264.62
269.609	250.62
269.841	253.62
270.073	254.62
270.306	254.62
270.538	300.62
270.77	310.62
271.002	304.62
271.234	277.62
271.466	258.62
271.698	290.62
271.93	283.62
272.162	293.62
272.394	287.62
272.626	284.62
272.858	267.62
273.09	272.62
273.322	251.62
273.553	247.62
273.785	254.62
274.017	245.62
274.249	250.62
274.481	249.62
274.713	253.62
274.945	251.62
275.176	270.62
275.408	253.62
275.64	229.62
275.872	228.62
276.104	246.62
276.335	233.62
276.567	254.62
276.799	267.62
277.031	291.62
277.262	299.62
277.494	293.62
277.726	291.62
277.957	275.62
278.189	250.62
278.421	267.62
278.652	245.62
278.884	255.62
279.115	263.62
279.347	251.62
279.579	245.62
279.81	230.62
280.042	267.62
280.273	275.62
280.505	244.62
280.736	249.62
280.968	246.62
281.199	252.62
281.431	275.62
281.662	241.62
281.894	272.62
282.125	258.62
282.356	262.62
282.588	282.62
282.819	283.62
283.051	261.62
283.282	252.62
283.513	265.62
283.745	257.62
283.976	262.62
284.207	258.62
284.439	263.62
284.67	251.62
284.901	259.62
285.132	276.62
285.364	252.62
285.595	276.62
285.826	272.62
286.057	268.62
286.288	262.62
286.52	261.62
286.751	252.62
286.982	240.62
287.213	274.62
287.444	262.62
287.675	287.62
287.906	276.62
288.138	282.62
288.369	279.62
288.6	265.62
288.831	277.62
289.062	288.62
289.293	291.62
289.524	283.62
289.755	284.62
289.986	259.62
290.217	292.62
290.448	270.62
290.679	257.62
290.91	283.62
291.141	269.62
291.371	267.62
291.602	294.62
291.833	283.62
292.064	291.62
292.295	298.62
292.526	260.62
292.757	278.62
292.987	282.62
293.218	276.62
293.449	304.62
293.68	294.62
293.91	272.62
294.141	282.62
294.372	295.62
294.603	283.62
294.833	277.62
295.064	298.62
295.295	278.62
295.525	281.62
295.756	287.62
295.987	304.62
296.217	327.62
296.448	313.62
296.679	302.62
296.909	281.62
297.14	288.62
297.37	289.62
297.601	306.62
297.831	292.62
298.062	305.62
298.292	302.62
298.523	288.62
298.753	288.62
298.984	295.62
299.214	294.62
299.445	302.62
299.675	305.62
299.905	319.62
300.136	308.62
300.366	305.62
300.597	294.62
300.827	298.62
301.057	316.62
301.288	328.62
301.518	312.62
301.748	314.62
301.979	313.62
302.209	323.62
302.439	318.62
302.669	329.62
302.9	312.62
303.13	330.62
303.36	313.62
303.59	324.62
303.82	326.62
304.051	307.62
304.281	314.62
304.511	295.62
304.741	305.62
304.971	310.62
305.201	315.62
305.431	305.62
305.661	318.62
305.891	317.62
306.121	325.62
306.352	324.62
306.582	332.62
306.812	304.62
307.042	304.62
307.272	333.62
307.502	309.62
307.731	314.62
307.961	327.62
308.191	331.62
308.421	322.62
308.651	338.62
308.881	302.62
309.111	326.62
309.341	338.62
309.571	332.62
309.8	336.62
310.03	344.62
310.26	370.62
310.49	362.62
310.72	350.62
310.949	373.62
311.179	376.62
311.409	370.62
311.639	368.62
311.868	353.62
312.098	373.62
312.328	369.62
312.557	394.62
312.787	375.62
313.017	405.62
313.246	369.62
313.476	365.62
313.706	359.62
313.935	364.62
314.165	377.62
314.394	384.62
314.624	392.62
314.853	361.62
315.083	354.62
315.312	375.62
315.542	352.62
315.771	350.62
316.001	365.62
316.23	364.62
316.46	366.62
316.689	376.62
316.919	358.62
317.148	377.62
317.377	382.62
317.607	363.62
317.836	379.62
318.065	383.62
318.295	343.62
318.524	350.62
318.753	364.62
318.983	374.62
319.212	378.62
319.441	372.62
319.67	367.62
319.9	358.62
320.129	366.62
320.358	366.62
320.587	356.62
320.816	392.62
321.046	378.62
321.275	402.62
321.504	366.62
321.733	375.62
321.962	378.62
322.191	400.62
322.42	414.62
322.649	420.62
322.878	438.62
323.108	426.62
323.337	453.62
323.566	462.62
323.795	529.62
324.024	564.62
324.253	644.62
324.482	923.62
324.71	1493.62
324.939	2276.62
325.168	1961.62
325.397	960.62
325.626	633.62
325.855	534.62
326.084	491.62
326.313	472.62
326.542	498.62
326.77	532.62
326.999	619.62
327.228	865.62
327.457	1360.62
327.686	1675.62
327.914	1104.62
328.143	710.62
328.372	622.62
328.6	552.62
328.829	528.62
329.058	561.62
329.287	552.62
329.515	539.62
329.744	484.62
329.972	469.62
330.201	492.62
330.43	530.62
330.658	554.62
330.887	596.62
331.115	551.62
331.344	487.62
331.572	477.62
331.801	470.62
332.03	487.62
332.258	433.62
332.486	451.62
332.715	445.62
332.943	440.62
333.172	442.62
333.4	443.62
333.629	453.62
333.857	458.62
334.085	474.62
334.314	476.62
334.542	511.62
334.771	538.62
334.999	474.62
335.227	458.62
335.455	454.62
335.684	440.62
335.912	446.62
336.14	451.62
336.369	430.62
336.597	426.62
336.825	435.62
337.053	440.62
337.281	427.62
337.51	440.62
337.738	432.62
337.966	430.62
338.194	452.62
338.422	450.62
338.65	447.62
338.878	430.62
339.106	429.62
339.334	424.62
339.562	419.62
339.79	433.62
340.018	423.62
340.246	453.62
340.474	446.62
340.702	416.62
340.93	430.62
341.158	449.62
341.386	442.62
341.614	466.62
341.842	433.62
342.07	422.62
342.298	417.62
342.526	408.62
342.754	407.62
342.981	415.62
343.209	408.62
343.437	408.62
343.665	437.62
343.893	451.62
344.12	449.62
344.348	449.62
344.576	448.62
344.804	435.62
345.031	445.62
345.259	441.62
345.487	457.62
345.714	420.62
345.942	406.62
346.17	426.62
346.397	420.62
346.625	404.62
346.853	406.62
347.08	411.62
347.308	418.62
347.535	394.62
347.763	399.62
347.99	408.62
348.218	416.62
348.445	430.62
348.673	448.62
348.9	411.62
349.128	409.62
349.355	415.62
349.583	404.62
349.81	402.62
350.037	419.62
350.265	398.62
350.492	418.62
350.72	398.62
350.947	400.62
351.174	427.62
351.402	407.62
351.629	411.62
351.856	427.62
352.083	415.62
352.311	434.62
352.538	445.62
352.765	434.62
352.992	416.62
353.22	424.62
353.447	417.62
353.674	405.62
353.901	411.62
354.128	396.62
354.355	388.62
354.583	391.62
354.81	372.62
355.037	408.62
355.264	375.62
355.491	383.62
355.718	385.62
355.945	398.62
356.172	397.62
356.399	388.62
356.626	390.62
356.853	390.62
357.08	396.62
357.307	409.62
357.534	392.62
357.761	394.62
357.988	393.62
358.215	382.62
358.441	401.62
358.668	372.62
358.895	385.62
359.122	386.62
359.349	413.62
359.576	424.62
359.802	448.62
360.029	466.62
360.256	452.62
360.483	443.62
360.709	412.62
360.936	416.62
361.163	408.62
361.39	428.62
361.616	431.62
361.843	413.62
362.07	430.62
362.296	423.62
362.523	416.62
362.749	413.62
362.976	432.62
363.203	416.62
363.429	435.62
363.656	400.62
363.882	384.62
364.109	390.62
364.335	403.62
364.562	406.62
364.788	411.62
365.015	410.62
365.241	395.62
365.468	417.62
365.694	432.62
365.92	422.62
366.147	415.62
366.373	422.62
366.599	410.62
366.826	389.62
367.052	396.62
367.278	407.62
367.505	405.62
367.731	397.62
367.957	409.62
368.184	396.62
368.41	409.62
368.636	394.62
368.862	442.62
369.089	434.62
369.315	412.62
369.541	417.62
369.767	437.62
369.993	406.62
370.219	393.62
370.445	412.62
370.672	395.62
370.898	406.62
371.124	392.62
371.35	400.62
371.576	414.62
371.802	412.62
372.028	425.62
372.254	400.62
372.48	403.62
372.706	394.62
372.932	400.62
373.158	411.62
373.384	424.62
373.61	402.62
373.835	402.62
374.061	402.62
374.287	403.62
374.513	424.62
374.739	424.62
374.965	427.62
375.191	423.62
375.416	420.62
375.642	430.62
375.868	416.62
376.094	410.62
376.319	428.62
376.545	408.62
376.771	420.62
376.997	415.62
377.222	412.62
377.448	407.62
377.674	404.62
377.899	401.62
378.125	419.62
378.35	405.62
378.576	391.62
378.802	419.62
379.027	399.62
379.253	397.62
379.478	424.62
379.704	410.62
379.929	427.62
380.155	430.62
380.38	414.62
380.606	415.62
380.831	431.62
381.057	429.62
381.282	412.62
381.507	401.62
381.733	418.62
381.958	411.62
382.184	420.62
382.409	419.62
382.634	414.62
382.86	417.62
383.085	425.62
383.31	455.62
383.535	438.62
383.761	409.62
383.986	432.62
384.211	402.62
384.436	424.62
384.662	423.62
384.887	456.62
385.112	447.62
385.337	461.62
385.562	465.62
385.787	454.62
386.013	493.62
386.238	468.62
386.463	466.62
386.688	463.62
386.913	432.62
387.138	449.62
387.363	454.62
387.588	441.62
387.813	457.62
388.038	488.62
388.263	462.62
388.488	465.62
388.713	471.62
388.938	477.62
389.163	461.62
389.387	475.62
389.612	442.62
389.837	475.62
390.062	435.62
390.287	456.62
390.512	456.62
390.736	460.62
390.961	453.62
391.186	464.62
391.411	476.62
391.636	486.62
391.86	483.62
392.085	479.62
392.31	495.62
392.534	471.62
392.759	474.62
392.984	464.62
393.208	438.62
393.433	466.62
393.658	477.62
393.882	455.62
394.107	473.62
394.331	469.62
394.556	460.62
394.78	464.62
395.005	487.62
395.229	478.62
395.454	497.62
395.678	501.62
395.903	494.62
396.127	508.62
396.352	520.62
396.576	500.62
396.801	495.62
397.025	511.62
397.249	485.62
397.474	498.62
397.698	491.62
397.922	519.62
398.147	535.62
398.371	510.62
398.595	511.62
398.82	561.62
399.044	562.62
399.268	576.62
399.492	589.62
399.717	611.62
399.941	634.62
400.165	651.62
400.389	667.62
400.613	631.62
400.837	578.62
401.062	547.62
401.286	551.62
401.51	524.62
401.734	525.62
401.958	546.62
402.182	559.62
402.406	548.62
402.63	556.62
402.854	543.62
403.078	538.62
403.302	568.62
403.526	568.62
403.75	555.62
403.974	569.62
404.198	541.62
404.422	550.62
404.645	549.62
404.869	541.62
405.093	612.62
405.317	632.62
405.541	664.62
405.765	619.62
405.988	590.62
406.212	576.62
406.436	619.62
406.66	617.62
406.883	597.62
407.107	646.62
407.331	688.62
407.555	706.62
407.778	736.62
408.002	699.62
408.226	613.62
408.449	616.62
408.673	627.62
408.896	657.62
409.12	696.62
409.344	642.62
409.567	588.62
409.791	587.62
410.014	574.62
410.238	586.62
410.461	567.62
410.685	563.62
410.908	563.62
411.132	616.62
411.355	605.62
411.578	627.62
411.802	584.62
412.025	561.62
412.249	551.62
412.472	578.62
412.695	625.62
412.919	629.62
413.142	564.62
413.365	555.62
413.589	561.62
413.812	537.62
414.035	542.62
414.258	549.62
414.482	532.62
414.705	522.62
414.928	544.62
415.151	545.62
415.374	523.62
415.597	529.62
415.821	541.62
416.044	547.62
416.267	524.62
416.49	510.62
416.713	548.62
416.936	516.62
417.159	527.62
417.382	531.62
417.605	525.62
417.828	531.62
418.051	551.62
418.274	554.62
418.497	539.62
418.72	550.62
418.943	530.62
419.166	546.62
419.389	563.62
419.611	566.62
419.834	549.62
420.057	580.62
420.28	545.62
420.503	540.62
420.726	537.62
420.948	584.62
421.171	597.62
421.394	638.62
421.617	570.62
421.839	550.62
422.062	553.62
422.285	554.62
422.507	613.62
422.73	695.62
422.953	692.62
423.175	577.62
423.398	582.62
423.621	598.62
423.843	577.62
424.066	585.62
424.288	589.62
424.511	611.62
424.733	645.62
424.956	742.62
425.178	719.62
425.401	700.62
425.623	745.62
425.846	618.62
426.068	581.62
426.291	584.62
426.513	582.62
426.735	564.62
426.958	623.62
427.18	738.62
427.402	872.62
427.625	996.62
427.847	830.62
428.069	720.62
428.292	641.62
428.514	584.62
428.736	550.62
428.958	560.62
429.181	553.62
429.403	550.62
429.625	565.62
429.847	584.62
430.069	671.62
430.292	665.62
430.514	562.62
430.736	534.62
430.958	543.62
431.18	530.62
431.402	522.62
431.624	508.62
431.846	496.62
432.068	531.62
432.29	533.62
432.512	521.62
432.734	535.62
432.956	532.62
433.178	536.62
433.4	553.62
433.622	505.62
433.844	527.62
434.066	533.62
434.287	527.62
434.509	538.62
434.731	549.62
434.953	558.62
435.175	574.62
435.397	581.62
435.618	602.62
435.84	642.62
436.062	725.62
436.284	857.62
436.505	699.62
436.727	574.62
436.949	560.62
437.17	553.62
437.392	539.62
437.614	554.62
437.835	578.62
438.057	686.62
438.278	819.62
438.5	814.62
438.721	900.62
438.943	828.62
439.165	659.62
439.386	608.62
439.608	579.62
439.829	599.62
440.05	638.62
440.272	690.62
440.493	634.62
440.715	600.62
440.936	545.62
441.158	583.62
441.379	549.62
441.6	585.62
441.822	568.62
442.043	638.62
442.264	731.62
442.486	814.62
442.707	646.62
442.928	630.62
443.149	611.62
443.371	607.62
443.592	681.62
443.813	764.62
444.034	846.62
444.255	708.62
444.476	609.62
444.698	618.62
444.919	595.62
445.14	740.62
445.361	667.62
445.582	642.62
445.803	712.62
446.024	823.62
446.245	824.62
446.466	750.62
446.687	615.62
446.908	580.62
447.129	550.62
447.35	539.62
447.571	536.62
447.792	546.62
448.013	573.62
448.234	543.62
448.455	616.62
448.675	728.62
448.896	875.62
449.117	724.62
449.338	664.62
449.559	799.62
449.779	920.62
450	734.62
450.221	596.62
450.442	581.62
450.662	530.62
450.883	521.62
451.104	538.62
451.324	546.62
451.545	519.62
451.766	497.62
451.986	494.62
452.207	479.62
452.428	483.62
452.648	488.62
452.869	499.62
453.089	475.62
453.31	473.62
453.53	505.62
453.751	478.62
453.971	499.62
454.192	520.62
454.412	491.62
454.633	479.62
454.853	486.62
455.073	492.62
455.294	496.62
455.514	574.62
455.734	578.62
455.955	491.62
456.175	473.62
456.395	441.62
456.616	459.62
456.836	459.62
457.056	454.62
457.276	462.62
457.497	482.62
457.717	467.62
457.937	463.62
458.157	489.62
458.377	470.62
458.598	504.62
458.818	550.62
459.038	641.62
459.258	670.62
459.478	587.62
459.698	514.62
459.918	533.62
460.138	520.62
460.358	519.62
460.578	517.62
460.798	534.62
461.018	522.62
461.238	538.62
461.458	540.62
461.678	530.62
461.898	532.62
462.118	544.62
462.338	567.62
462.558	567.62
462.777	575.62
462.997	579.62
463.217	579.62
463.437	599.62
463.657	574.62
463.876	592.62
464.096	577.62
464.316	577.62
464.536	583.62
464.755	571.62
464.975	587.62
465.195	617.62
465.414	672.62
465.634	608.62
465.854	552.62
466.073	537.62
466.293	510.62
466.512	521.62
466.732	525.62
466.951	514.62
467.171	519.62
467.391	509.62
467.61	528.62
467.829	544.62
468.049	512.62
468.268	506.62
468.488	476.62
468.707	520.62
468.927	488.62
469.146	492.62
469.365	494.62
469.585	470.62
469.804	487.62
470.023	489.62
470.243	536.62
470.462	521.62
470.681	516.62
470.901	539.62
471.12	520.62
471.339	504.62
471.558	515.62
471.777	527.62
471.997	498.62
472.216	503.62
472.435	535.62
472.654	553.62
472.873	500.62
473.092	529.62
473.311	511.62
473.53	512.62
473.749	531.62
473.968	553.62
474.187	659.62
474.406	676.62
474.625	586.62
474.844	521.62
475.063	498.62
475.282	514.62
475.501	519.62
475.72	528.62
475.939	516.62
476.158	523.62
476.377	542.62
476.596	494.62
476.814	528.62
477.033	522.62
477.252	538.62
477.471	556.62
477.69	568.62
477.908	563.62
478.127	554.62
478.346	569.62
478.564	584.62
478.783	591.62
479.002	583.62
479.22	588.62
479.439	613.62
479.658	598.62
479.876	627.62
480.095	632.62
480.313	646.62
480.532	660.62
480.751	618.62
480.969	615.62
481.188	668.62
481.406	692.62
481.624	626.62
481.843	632.62
482.061	605.62
482.28	606.62
482.498	601.62
482.717	597.62
482.935	583.62
483.153	588.62
483.372	600.62
483.59	595.62
483.808	598.62
484.027	594.62
484.245	584.62
484.463	584.62
484.681	604.62
484.9	615.62
485.118	629.62
485.336	604.62
485.554	604.62
485.772	628.62
485.99	599.62
486.209	615.62
486.427	618.62
486.645	644.62
486.863	664.62
487.081	656.62
487.299	607.62
487.517	639.62
487.735	624.62
487.953	644.62
488.171	636.62
488.389	605.62
488.607	626.62
488.825	640.62
489.043	631.62
489.261	654.62
489.479	652.62
489.696	667.62
489.914	623.62
490.132	641.62
490.35	650.62
490.568	676.62
490.786	680.62
491.003	676.62
491.221	690.62
491.439	687.62
491.657	693.62
491.874	701.62
492.092	704.62
492.31	693.62
492.527	722.62
492.745	708.62
492.963	737.62
493.18	739.62
493.398	726.62
493.615	756.62
493.833	728.62
494.05	753.62
494.268	730.62
494.485	740.62
494.703	736.62
494.92	753.62
495.138	732.62
495.355	744.62
495.573	752.62
495.79	739.62
496.008	742.62
496.225	782.62
496.442	755.62
496.66	763.62
496.877	748.62
497.094	762.62
497.312	783.62
497.529	781.62
497.746	817.62
497.963	814.62
498.181	849.62
498.398	814.62
498.615	855.62
498.832	895.62
499.049	866.62
499.267	907.62
499.484	942.62
499.701	960.62
499.918	1002.62
500.135	1035.62
500.352	1051.62
500.569	1104.62
500.786	1100.62
501.003	1076.62
501.22	1065.62
501.437	1063.62
501.654	1002.62
501.871	986.62
