Data from 1978.PennyLincolnUp.Lamp.En5.5.200Scan.071719.P1_HRD10591_16-12-02-865.txt Node
Date: Thu Jul 18 16:12:02 EDT 2019
User: cochatt
Spectrometer: HR+D1059
Trigger mode: 1
Integration Time (sec): 1.000000E-1
Scans to average: 1
Electric dark correction enabled: true
Nonlinearity correction enabled: false
Boxcar width: 0
XAxis mode: Wavelengths
Number of Pixels in Spectrum: 2048
>>>>>Begin Spectral Data<<<<<
223.165	-11.5
223.4	-11.5
223.635	-11.5
223.869	-21.5
224.104	-9.5
224.338	-21.5
224.573	-16.5
224.808	-20.5
225.042	-13.5
225.277	-8.5
225.511	10.5
225.746	11.5
225.98	-11.5
226.215	19.5
226.449	11.5
226.683	28.5
226.918	31.5
227.152	21.5
227.387	40.5
227.621	32.5
227.856	51.5
228.09	52.5
228.324	42.5
228.559	63.5
228.793	71.5
229.027	97.5
229.262	97.5
229.496	100.5
229.73	115.5
229.964	139.5
230.199	115.5
230.433	110.5
230.667	121.5
230.901	102.5
231.136	94.5
231.37	105.5
231.604	114.5
231.838	121.5
232.072	113.5
232.306	123.5
232.541	115.5
232.775	107.5
233.009	113.5
233.243	121.5
233.477	108.5
233.711	118.5
233.945	114.5
234.179	108.5
234.413	121.5
234.647	120.5
234.881	107.5
235.115	127.5
235.349	111.5
235.583	116.5
235.817	121.5
236.051	123.5
236.285	113.5
236.519	113.5
236.753	126.5
236.987	137.5
237.221	156.5
237.455	210.5
237.689	178.5
237.922	140.5
238.156	134.5
238.39	127.5
238.624	124.5
238.858	123.5
239.091	114.5
239.325	108.5
239.559	128.5
239.793	114.5
240.027	126.5
240.26	151.5
240.494	143.5
240.728	134.5
240.961	148.5
241.195	137.5
241.429	136.5
241.662	125.5
241.896	124.5
242.13	135.5
242.363	129.5
242.597	107.5
242.83	127.5
243.064	120.5
243.298	122.5
243.531	136.5
243.765	131.5
243.998	127.5
244.232	143.5
244.465	140.5
244.699	152.5
244.932	140.5
245.166	138.5
245.399	154.5
245.633	130.5
245.866	137.5
246.099	146.5
246.333	130.5
246.566	153.5
246.8	134.5
247.033	154.5
247.266	157.5
247.5	154.5
247.733	160.5
247.966	164.5
248.2	161.5
248.433	162.5
248.666	156.5
248.899	166.5
249.133	176.5
249.366	176.5
249.599	162.5
249.832	145.5
250.066	163.5
250.299	174.5
250.532	161.5
250.765	176.5
250.998	183.5
251.231	186.5
251.465	170.5
251.698	184.5
251.931	185.5
252.164	184.5
252.397	169.5
252.63	175.5
252.863	187.5
253.096	177.5
253.329	201.5
253.562	203.5
253.795	183.5
254.028	198.5
254.261	172.5
254.494	196.5
254.727	208.5
254.96	247.5
255.193	212.5
255.426	210.5
255.659	196.5
255.892	206.5
256.124	198.5
256.357	210.5
256.59	198.5
256.823	186.5
257.056	185.5
257.289	196.5
257.521	206.5
257.754	186.5
257.987	183.5
258.22	175.5
258.452	186.5
258.685	188.5
258.918	193.5
259.151	193.5
259.383	193.5
259.616	200.5
259.849	197.5
260.081	184.5
260.314	203.5
260.547	219.5
260.779	199.5
261.012	205.5
261.244	213.5
261.477	199.5
261.71	208.5
261.942	200.5
262.175	218.5
262.407	207.5
262.64	203.5
262.872	206.5
263.105	194.5
263.337	197.5
263.57	190.5
263.802	204.5
264.035	186.5
264.267	197.5
264.499	210.5
264.732	193.5
264.964	197.5
265.197	195.5
265.429	186.5
265.661	207.5
265.894	207.5
266.126	209.5
266.358	196.5
266.591	212.5
266.823	211.5
267.055	219.5
267.287	210.5
267.52	202.5
267.752	206.5
267.984	215.5
268.216	194.5
268.448	218.5
268.681	209.5
268.913	210.5
269.145	218.5
269.377	236.5
269.609	227.5
269.841	239.5
270.073	246.5
270.306	262.5
270.538	266.5
270.77	274.5
271.002	250.5
271.234	246.5
271.466	232.5
271.698	267.5
271.93	263.5
272.162	274.5
272.394	276.5
272.626	265.5
272.858	244.5
273.09	258.5
273.322	249.5
273.553	238.5
273.785	227.5
274.017	230.5
274.249	239.5
274.481	221.5
274.713	231.5
274.945	243.5
275.176	249.5
275.408	226.5
275.64	238.5
275.872	230.5
276.104	242.5
276.335	248.5
276.567	248.5
276.799	255.5
277.031	264.5
277.262	290.5
277.494	262.5
277.726	260.5
277.957	247.5
278.189	239.5
278.421	256.5
278.652	242.5
278.884	242.5
279.115	251.5
279.347	236.5
279.579	268.5
279.81	265.5
280.042	243.5
280.273	243.5
280.505	251.5
280.736	234.5
280.968	239.5
281.199	243.5
281.431	251.5
281.662	248.5
281.894	279.5
282.125	244.5
282.356	263.5
282.588	279.5
282.819	290.5
283.051	248.5
283.282	237.5
283.513	256.5
283.745	252.5
283.976	271.5
284.207	250.5
284.439	264.5
284.67	228.5
284.901	262.5
285.132	266.5
285.364	260.5
285.595	262.5
285.826	252.5
286.057	282.5
286.288	268.5
286.52	266.5
286.751	267.5
286.982	273.5
287.213	248.5
287.444	274.5
287.675	268.5
287.906	280.5
288.138	273.5
288.369	290.5
288.6	272.5
288.831	256.5
289.062	273.5
289.293	277.5
289.524	279.5
289.755	264.5
289.986	283.5
290.217	284.5
290.448	263.5
290.679	278.5
290.91	272.5
291.141	259.5
291.371	281.5
291.602	284.5
291.833	282.5
292.064	269.5
292.295	262.5
292.526	268.5
292.757	256.5
292.987	254.5
293.218	276.5
293.449	270.5
293.68	288.5
293.91	270.5
294.141	291.5
294.372	276.5
294.603	294.5
294.833	283.5
295.064	273.5
295.295	268.5
295.525	252.5
295.756	287.5
295.987	290.5
296.217	286.5
296.448	306.5
296.679	287.5
296.909	271.5
297.14	282.5
297.37	282.5
297.601	290.5
297.831	274.5
298.062	280.5
298.292	283.5
298.523	289.5
298.753	293.5
298.984	275.5
299.214	297.5
299.445	283.5
299.675	292.5
299.905	288.5
300.136	286.5
300.366	281.5
300.597	297.5
300.827	300.5
301.057	299.5
301.288	312.5
301.518	317.5
301.748	303.5
301.979	291.5
302.209	303.5
302.439	301.5
302.669	300.5
302.9	293.5
303.13	290.5
303.36	321.5
303.59	311.5
303.82	337.5
304.051	317.5
304.281	322.5
304.511	303.5
304.741	302.5
304.971	285.5
305.201	302.5
305.431	305.5
305.661	287.5
305.891	313.5
306.121	304.5
306.352	301.5
306.582	314.5
306.812	291.5
307.042	304.5
307.272	315.5
307.502	321.5
307.731	298.5
307.961	312.5
308.191	313.5
308.421	302.5
308.651	315.5
308.881	312.5
309.111	320.5
309.341	308.5
309.571	323.5
309.8	349.5
310.03	326.5
310.26	336.5
310.49	350.5
310.72	349.5
310.949	345.5
311.179	354.5
311.409	350.5
311.639	338.5
311.868	354.5
312.098	366.5
312.328	347.5
312.557	341.5
312.787	374.5
313.017	366.5
313.246	363.5
313.476	347.5
313.706	339.5
313.935	352.5
314.165	350.5
314.394	359.5
314.624	365.5
314.853	360.5
315.083	349.5
315.312	357.5
315.542	355.5
315.771	353.5
316.001	335.5
316.23	350.5
316.46	340.5
316.689	342.5
316.919	338.5
317.148	346.5
317.377	368.5
317.607	346.5
317.836	360.5
318.065	338.5
318.295	361.5
318.524	346.5
318.753	336.5
318.983	372.5
319.212	339.5
319.441	351.5
319.67	361.5
319.9	360.5
320.129	349.5
320.358	354.5
320.587	337.5
320.816	372.5
321.046	367.5
321.275	355.5
321.504	346.5
321.733	364.5
321.962	387.5
322.191	388.5
322.42	402.5
322.649	380.5
322.878	382.5
323.108	397.5
323.337	431.5
323.566	432.5
323.795	440.5
324.024	481.5
324.253	552.5
324.482	761.5
324.71	1166.5
324.939	1756.5
325.168	1528.5
325.397	766.5
325.626	544.5
325.855	467.5
326.084	449.5
326.313	442.5
326.542	441.5
326.77	450.5
326.999	541.5
327.228	712.5
327.457	1094.5
327.686	1319.5
327.914	881.5
328.143	560.5
328.372	514.5
328.6	484.5
328.829	480.5
329.058	463.5
329.287	476.5
329.515	463.5
329.744	446.5
329.972	430.5
330.201	446.5
330.43	484.5
330.658	493.5
330.887	517.5
331.115	479.5
331.344	464.5
331.572	439.5
331.801	433.5
332.03	439.5
332.258	425.5
332.486	416.5
332.715	414.5
332.943	421.5
333.172	411.5
333.4	419.5
333.629	423.5
333.857	455.5
334.085	448.5
334.314	466.5
334.542	456.5
334.771	472.5
334.999	457.5
335.227	416.5
335.455	442.5
335.684	449.5
335.912	412.5
336.14	406.5
336.369	440.5
336.597	425.5
336.825	435.5
337.053	423.5
337.281	418.5
337.51	430.5
337.738	405.5
337.966	408.5
338.194	408.5
338.422	416.5
338.65	399.5
338.878	398.5
339.106	409.5
339.334	405.5
339.562	411.5
339.79	392.5
340.018	408.5
340.246	407.5
340.474	408.5
340.702	408.5
340.93	418.5
341.158	406.5
341.386	408.5
341.614	430.5
341.842	397.5
342.07	405.5
342.298	410.5
342.526	400.5
342.754	394.5
342.981	392.5
343.209	403.5
343.437	390.5
343.665	418.5
343.893	409.5
344.12	405.5
344.348	423.5
344.576	422.5
344.804	422.5
345.031	418.5
345.259	431.5
345.487	416.5
345.714	411.5
345.942	396.5
346.17	418.5
346.397	386.5
346.625	395.5
346.853	371.5
347.08	386.5
347.308	414.5
347.535	396.5
347.763	390.5
347.99	410.5
348.218	417.5
348.445	416.5
348.673	403.5
348.9	424.5
349.128	398.5
349.355	388.5
349.583	401.5
349.81	386.5
350.037	383.5
350.265	369.5
350.492	384.5
350.72	386.5
350.947	391.5
351.174	395.5
351.402	402.5
351.629	401.5
351.856	396.5
352.083	383.5
352.311	405.5
352.538	398.5
352.765	405.5
352.992	398.5
353.22	398.5
353.447	396.5
353.674	393.5
353.901	377.5
354.128	372.5
354.355	382.5
354.583	396.5
354.81	390.5
355.037	398.5
355.264	381.5
355.491	385.5
355.718	361.5
355.945	387.5
356.172	379.5
356.399	401.5
356.626	376.5
356.853	363.5
357.08	371.5
357.307	387.5
357.534	357.5
357.761	361.5
357.988	360.5
358.215	373.5
358.441	359.5
358.668	370.5
358.895	390.5
359.122	386.5
359.349	391.5
359.576	382.5
359.802	405.5
360.029	405.5
360.256	431.5
360.483	412.5
360.709	381.5
360.936	409.5
361.163	396.5
361.39	391.5
361.616	394.5
361.843	398.5
362.07	384.5
362.296	385.5
362.523	402.5
362.749	409.5
362.976	402.5
363.203	395.5
363.429	403.5
363.656	416.5
363.882	377.5
364.109	398.5
364.335	390.5
364.562	401.5
364.788	382.5
365.015	397.5
365.241	410.5
365.468	404.5
365.694	410.5
365.92	381.5
366.147	385.5
366.373	387.5
366.599	372.5
366.826	391.5
367.052	383.5
367.278	383.5
367.505	390.5
367.731	385.5
367.957	368.5
368.184	408.5
368.41	387.5
368.636	402.5
368.862	417.5
369.089	394.5
369.315	400.5
369.541	390.5
369.767	382.5
369.993	375.5
370.219	385.5
370.445	394.5
370.672	402.5
370.898	386.5
371.124	408.5
371.35	423.5
371.576	417.5
371.802	400.5
372.028	387.5
372.254	392.5
372.48	388.5
372.706	412.5
372.932	403.5
373.158	399.5
373.384	407.5
373.61	390.5
373.835	408.5
374.061	391.5
374.287	412.5
374.513	402.5
374.739	408.5
374.965	416.5
375.191	426.5
375.416	431.5
375.642	402.5
375.868	416.5
376.094	395.5
376.319	401.5
376.545	392.5
376.771	386.5
376.997	404.5
377.222	412.5
377.448	392.5
377.674	376.5
377.899	376.5
378.125	388.5
378.35	402.5
378.576	403.5
378.802	393.5
379.027	406.5
379.253	396.5
379.478	393.5
379.704	379.5
379.929	401.5
380.155	407.5
380.38	401.5
380.606	399.5
380.831	408.5
381.057	402.5
381.282	406.5
381.507	384.5
381.733	407.5
381.958	410.5
382.184	413.5
382.409	415.5
382.634	431.5
382.86	431.5
383.085	416.5
383.31	423.5
383.535	426.5
383.761	427.5
383.986	408.5
384.211	408.5
384.436	424.5
384.662	450.5
384.887	443.5
385.112	431.5
385.337	427.5
385.562	462.5
385.787	440.5
386.013	435.5
386.238	465.5
386.463	438.5
386.688	430.5
386.913	446.5
387.138	434.5
387.363	456.5
387.588	454.5
387.813	452.5
388.038	459.5
388.263	456.5
388.488	445.5
388.713	438.5
388.938	445.5
389.163	438.5
389.387	462.5
389.612	441.5
389.837	430.5
390.062	452.5
390.287	458.5
390.512	433.5
390.736	445.5
390.961	463.5
391.186	443.5
391.411	465.5
391.636	454.5
391.86	462.5
392.085	466.5
392.31	464.5
392.534	464.5
392.759	460.5
392.984	458.5
393.208	461.5
393.433	487.5
393.658	447.5
393.882	468.5
394.107	462.5
394.331	473.5
394.556	448.5
394.78	458.5
395.005	467.5
395.229	449.5
395.454	471.5
395.678	492.5
395.903	470.5
396.127	500.5
396.352	505.5
396.576	485.5
396.801	481.5
397.025	486.5
397.249	491.5
397.474	482.5
397.698	503.5
397.922	495.5
398.147	508.5
398.371	528.5
398.595	510.5
398.82	507.5
399.044	532.5
399.268	550.5
399.492	559.5
399.717	601.5
399.941	603.5
400.165	652.5
400.389	627.5
400.613	582.5
400.837	562.5
401.062	540.5
401.286	549.5
401.51	528.5
401.734	537.5
401.958	503.5
402.182	527.5
402.406	539.5
402.63	534.5
402.854	546.5
403.078	524.5
403.302	531.5
403.526	531.5
403.75	559.5
403.974	551.5
404.198	539.5
404.422	534.5
404.645	578.5
404.869	562.5
405.093	573.5
405.317	614.5
405.541	648.5
405.765	602.5
405.988	571.5
406.212	566.5
406.436	572.5
406.66	584.5
406.883	561.5
407.107	595.5
407.331	635.5
407.555	680.5
407.778	691.5
408.002	632.5
408.226	591.5
408.449	580.5
408.673	600.5
408.896	616.5
409.12	648.5
409.344	635.5
409.567	558.5
409.791	558.5
410.014	568.5
410.238	538.5
410.461	562.5
410.685	555.5
410.908	569.5
411.132	571.5
411.355	607.5
411.578	590.5
411.802	550.5
412.025	549.5
412.249	541.5
412.472	566.5
412.695	604.5
412.919	586.5
413.142	552.5
413.365	528.5
413.589	538.5
413.812	523.5
414.035	522.5
414.258	528.5
414.482	509.5
414.705	519.5
414.928	495.5
415.151	524.5
415.374	515.5
415.597	512.5
415.821	505.5
416.044	510.5
416.267	513.5
416.49	506.5
416.713	504.5
416.936	512.5
417.159	499.5
417.382	510.5
417.605	512.5
417.828	491.5
418.051	514.5
418.274	543.5
418.497	510.5
418.72	511.5
418.943	510.5
419.166	542.5
419.389	550.5
419.611	552.5
419.834	546.5
420.057	539.5
420.28	530.5
420.503	550.5
420.726	507.5
420.948	552.5
421.171	585.5
421.394	591.5
421.617	536.5
421.839	523.5
422.062	544.5
422.285	546.5
422.507	599.5
422.73	645.5
422.953	640.5
423.175	552.5
423.398	545.5
423.621	553.5
423.843	538.5
424.066	569.5
424.288	547.5
424.511	580.5
424.733	623.5
424.956	701.5
425.178	660.5
425.401	644.5
425.623	661.5
425.846	596.5
426.068	556.5
426.291	556.5
426.513	554.5
426.735	563.5
426.958	602.5
427.18	672.5
427.402	770.5
427.625	883.5
427.847	749.5
428.069	641.5
428.292	580.5
428.514	554.5
428.736	549.5
428.958	542.5
429.181	514.5
429.403	526.5
429.625	530.5
429.847	558.5
430.069	628.5
430.292	635.5
430.514	534.5
430.736	520.5
430.958	521.5
431.18	475.5
431.402	489.5
431.624	510.5
431.846	499.5
432.068	496.5
432.29	501.5
432.512	499.5
432.734	500.5
432.956	493.5
433.178	477.5
433.4	515.5
433.622	500.5
433.844	484.5
434.066	503.5
434.287	513.5
434.509	498.5
434.731	497.5
434.953	531.5
435.175	528.5
435.397	547.5
435.618	555.5
435.84	602.5
436.062	675.5
436.284	745.5
436.505	610.5
436.727	574.5
436.949	532.5
437.17	515.5
437.392	516.5
437.614	541.5
437.835	546.5
438.057	626.5
438.278	723.5
438.5	740.5
438.721	779.5
438.943	782.5
439.165	595.5
439.386	580.5
439.608	545.5
439.829	538.5
440.05	588.5
440.272	626.5
440.493	600.5
440.715	569.5
440.936	550.5
441.158	522.5
441.379	524.5
441.6	540.5
441.822	554.5
442.043	576.5
442.264	666.5
442.486	704.5
442.707	616.5
442.928	563.5
443.149	566.5
443.371	575.5
443.592	629.5
443.813	708.5
444.034	786.5
444.255	632.5
444.476	590.5
444.698	587.5
444.919	584.5
445.14	692.5
445.361	628.5
445.582	596.5
445.803	630.5
446.024	741.5
446.245	736.5
446.466	681.5
446.687	580.5
446.908	553.5
447.129	525.5
447.35	526.5
447.571	518.5
447.792	491.5
448.013	520.5
448.234	537.5
448.455	542.5
448.675	657.5
448.896	783.5
449.117	682.5
449.338	620.5
449.559	703.5
449.779	828.5
450	658.5
450.221	544.5
450.442	523.5
450.662	510.5
450.883	471.5
451.104	502.5
451.324	495.5
451.545	480.5
451.766	490.5
451.986	468.5
452.207	458.5
452.428	477.5
452.648	459.5
452.869	462.5
453.089	468.5
453.31	468.5
453.53	472.5
453.751	472.5
453.971	468.5
454.192	486.5
454.412	483.5
454.633	450.5
454.853	467.5
455.073	491.5
455.294	513.5
455.514	553.5
455.734	514.5
455.955	473.5
456.175	449.5
456.395	466.5
456.616	436.5
456.836	444.5
457.056	449.5
457.276	451.5
457.497	462.5
457.717	452.5
457.937	440.5
458.157	466.5
458.377	469.5
458.598	480.5
458.818	519.5
459.038	584.5
459.258	588.5
459.478	543.5
459.698	515.5
459.918	527.5
460.138	494.5
460.358	505.5
460.578	510.5
460.798	518.5
461.018	519.5
461.238	513.5
461.458	514.5
461.678	522.5
461.898	539.5
462.118	515.5
462.338	541.5
462.558	563.5
462.777	546.5
462.997	571.5
463.217	566.5
463.437	586.5
463.657	575.5
463.876	565.5
464.096	572.5
464.316	531.5
464.536	567.5
464.755	585.5
464.975	566.5
465.195	586.5
465.414	612.5
465.634	566.5
465.854	545.5
466.073	532.5
466.293	500.5
466.512	497.5
466.732	484.5
466.951	511.5
467.171	481.5
467.391	496.5
467.61	514.5
467.829	488.5
468.049	515.5
468.268	495.5
468.488	483.5
468.707	483.5
468.927	475.5
469.146	492.5
469.365	467.5
469.585	483.5
469.804	486.5
470.023	496.5
470.243	498.5
470.462	492.5
470.681	493.5
470.901	522.5
471.12	484.5
471.339	515.5
471.558	486.5
471.777	495.5
471.997	488.5
472.216	475.5
472.435	508.5
472.654	509.5
472.873	485.5
473.092	502.5
473.311	489.5
473.53	484.5
473.749	522.5
473.968	550.5
474.187	614.5
474.406	619.5
474.625	528.5
474.844	473.5
475.063	498.5
475.282	507.5
475.501	489.5
475.72	503.5
475.939	518.5
476.158	493.5
476.377	510.5
476.596	490.5
476.814	518.5
477.033	522.5
477.252	547.5
477.471	540.5
477.69	537.5
477.908	536.5
478.127	548.5
478.346	547.5
478.564	588.5
478.783	536.5
479.002	560.5
479.22	559.5
479.439	574.5
479.658	580.5
479.876	601.5
480.095	615.5
480.313	615.5
480.532	610.5
480.751	593.5
480.969	599.5
481.188	630.5
481.406	652.5
481.624	620.5
481.843	610.5
482.061	587.5
482.28	575.5
482.498	597.5
482.717	606.5
482.935	580.5
483.153	568.5
483.372	574.5
483.59	568.5
483.808	589.5
484.027	563.5
484.245	589.5
484.463	578.5
484.681	581.5
484.9	569.5
485.118	594.5
485.336	596.5
485.554	603.5
485.772	591.5
485.99	588.5
486.209	588.5
486.427	583.5
486.645	611.5
486.863	611.5
487.081	610.5
487.299	613.5
487.517	635.5
487.735	585.5
487.953	599.5
488.171	598.5
488.389	606.5
488.607	590.5
488.825	608.5
489.043	597.5
489.261	598.5
489.479	607.5
489.696	636.5
489.914	627.5
490.132	614.5
490.35	633.5
490.568	643.5
490.786	641.5
491.003	667.5
491.221	655.5
491.439	682.5
491.657	666.5
491.874	688.5
492.092	661.5
492.31	665.5
492.527	690.5
492.745	705.5
492.963	718.5
493.18	667.5
493.398	676.5
493.615	708.5
493.833	714.5
494.05	700.5
494.268	700.5
494.485	680.5
494.703	712.5
494.92	709.5
495.138	670.5
495.355	702.5
495.573	731.5
495.79	700.5
496.008	715.5
496.225	720.5
496.442	722.5
496.66	706.5
496.877	704.5
497.094	718.5
497.312	748.5
497.529	760.5
497.746	770.5
497.963	766.5
498.181	803.5
498.398	804.5
498.615	811.5
498.832	814.5
499.049	857.5
499.267	865.5
499.484	905.5
499.701	954.5
499.918	951.5
500.135	1010.5
500.352	1063.5
500.569	1073.5
500.786	1075.5
501.003	1056.5
501.22	1020.5
501.437	958.5
501.654	957.5
501.871	935.5
502.088	915.5
502.305	903.5
502.522	828.5
502.739	816.5
502.956	810.5
503.172	806.5
503.389	791.5
503.606	751.5
503.823	758.5
504.04	745.5
504.256	730.5
504.473	750.5
504.69	763.5
504.907	733.5
505.123	724.5
505.34	696.5
505.557	695.5
505.773	710.5
505.99	690.5
506.207	676.5
506.423	680.5
506.64	683.5
506.856	690.5
507.073	662.5
507.289	669.5
507.506	671.5
507.722	656.5
507.939	646.5
508.155	654.5
508.372	636.5
508.588	640.5
508.805	619.5
509.021	646.5
509.238	650.5
509.454	652.5
509.67	639.5
509.887	627.5
510.103	630.5
510.319	640.5
510.536	687.5
510.752	1007.5
510.968	855.5
511.184	640.5
511.401	622.5
511.617	638.5
511.833	605.5
512.049	609.5
512.265	596.5
512.481	612.5
512.698	610.5
512.914	606.5
513.13	615.5
513.346	604.5
513.562	601.5
513.778	619.5
513.994	597.5
514.21	606.5
514.426	641.5
514.642	653.5
514.858	682.5
515.074	718.5
515.29	785.5
515.506	1015.5
515.721	898.5
515.937	690.5
516.153	680.5
516.369	658.5
516.585	664.5
516.801	658.5
517.016	626.5
517.232	659.5
517.448	652.5
517.664	645.5
517.879	651.5
518.095	660.5
518.311	652.5
518.527	660.5
518.742	642.5
518.958	630.5
519.173	639.5
519.389	627.5
519.605	661.5
519.82	614.5
