Data from 1978.PennyLincolnUp.Lamp.En5.5.200Scan.071719.P1_HRD10591_16-14-36-863.txt Node
Date: Thu Jul 18 16:14:36 EDT 2019
User: cochatt
Spectrometer: HR+D1059
Trigger mode: 1
Integration Time (sec): 1.000000E-1
Scans to average: 1
Electric dark correction enabled: true
Nonlinearity correction enabled: false
Boxcar width: 0
XAxis mode: Wavelengths
Number of Pixels in Spectrum: 2048
>>>>>Begin Spectral Data<<<<<
223.165	-6.25
223.4	-6.25
223.635	-6.25
223.869	-8.25
224.104	-16.25
224.338	-11.25
224.573	-18.25
224.808	-3.25
225.042	-19.25
225.277	-20.25
225.511	-2.25
225.746	-6.25
225.98	6.75
226.215	9.75
226.449	7.75
226.683	32.75
226.918	22.75
227.152	31.75
227.387	35.75
227.621	38.75
227.856	41.75
228.09	43.75
228.324	61.75
228.559	63.75
228.793	63.75
229.027	93.75
229.262	93.75
229.496	114.75
229.73	126.75
229.964	165.75
230.199	134.75
230.433	106.75
230.667	116.75
230.901	133.75
231.136	118.75
231.37	124.75
231.604	114.75
231.838	107.75
232.072	118.75
232.306	111.75
232.541	117.75
232.775	122.75
233.009	100.75
233.243	103.75
233.477	131.75
233.711	108.75
233.945	112.75
234.179	117.75
234.413	114.75
234.647	115.75
234.881	128.75
235.115	107.75
235.349	121.75
235.583	114.75
235.817	101.75
236.051	132.75
236.285	124.75
236.519	121.75
236.753	126.75
236.987	133.75
237.221	172.75
237.455	224.75
237.689	201.75
237.922	136.75
238.156	126.75
238.39	123.75
238.624	110.75
238.858	120.75
239.091	127.75
239.325	110.75
239.559	123.75
239.793	130.75
240.027	138.75
240.26	131.75
240.494	152.75
240.728	143.75
240.961	148.75
241.195	149.75
241.429	124.75
241.662	134.75
241.896	134.75
242.13	138.75
242.363	134.75
242.597	120.75
242.83	130.75
243.064	149.75
243.298	155.75
243.531	164.75
243.765	125.75
243.998	130.75
244.232	136.75
244.465	132.75
244.699	150.75
244.932	138.75
245.166	149.75
245.399	130.75
245.633	127.75
245.866	148.75
246.099	135.75
246.333	152.75
246.566	150.75
246.8	144.75
247.033	156.75
247.266	162.75
247.5	168.75
247.733	155.75
247.966	154.75
248.2	150.75
248.433	176.75
248.666	166.75
248.899	167.75
249.133	191.75
249.366	202.75
249.599	182.75
249.832	182.75
250.066	174.75
250.299	166.75
250.532	186.75
250.765	190.75
250.998	199.75
251.231	231.75
251.465	212.75
251.698	203.75
251.931	195.75
252.164	179.75
252.397	184.75
252.63	207.75
252.863	195.75
253.096	204.75
253.329	185.75
253.562	211.75
253.795	214.75
254.028	196.75
254.261	199.75
254.494	219.75
254.727	233.75
254.96	265.75
255.193	238.75
255.426	218.75
255.659	208.75
255.892	202.75
256.124	204.75
256.357	228.75
256.59	202.75
256.823	201.75
257.056	203.75
257.289	203.75
257.521	196.75
257.754	193.75
257.987	196.75
258.22	210.75
258.452	186.75
258.685	181.75
258.918	205.75
259.151	196.75
259.383	206.75
259.616	214.75
259.849	215.75
260.081	228.75
260.314	240.75
260.547	261.75
260.779	227.75
261.012	232.75
261.244	202.75
261.477	212.75
261.71	214.75
261.942	220.75
262.175	228.75
262.407	233.75
262.64	218.75
262.872	200.75
263.105	198.75
263.337	199.75
263.57	186.75
263.802	207.75
264.035	208.75
264.267	221.75
264.499	197.75
264.732	216.75
264.964	213.75
265.197	192.75
265.429	198.75
265.661	210.75
265.894	206.75
266.126	217.75
266.358	210.75
266.591	204.75
266.823	218.75
267.055	212.75
267.287	219.75
267.52	211.75
267.752	205.75
267.984	220.75
268.216	210.75
268.448	229.75
268.681	229.75
268.913	229.75
269.145	253.75
269.377	258.75
269.609	249.75
269.841	250.75
270.073	258.75
270.306	298.75
270.538	295.75
270.77	291.75
271.002	270.75
271.234	270.75
271.466	283.75
271.698	289.75
271.93	287.75
272.162	297.75
272.394	311.75
272.626	293.75
272.858	276.75
273.09	271.75
273.322	260.75
273.553	268.75
273.785	248.75
274.017	243.75
274.249	270.75
274.481	260.75
274.713	251.75
274.945	250.75
275.176	255.75
275.408	245.75
275.64	254.75
275.872	263.75
276.104	248.75
276.335	264.75
276.567	275.75
276.799	271.75
277.031	281.75
277.262	293.75
277.494	310.75
277.726	303.75
277.957	278.75
278.189	270.75
278.421	248.75
278.652	271.75
278.884	271.75
279.115	258.75
279.347	269.75
279.579	268.75
279.81	245.75
280.042	242.75
280.273	275.75
280.505	233.75
280.736	260.75
280.968	274.75
281.199	275.75
281.431	261.75
281.662	259.75
281.894	244.75
282.125	285.75
282.356	290.75
282.588	297.75
282.819	288.75
283.051	259.75
283.282	250.75
283.513	266.75
283.745	276.75
283.976	274.75
284.207	282.75
284.439	279.75
284.67	264.75
284.901	260.75
285.132	294.75
285.364	275.75
285.595	280.75
285.826	271.75
286.057	271.75
286.288	275.75
286.52	251.75
286.751	270.75
286.982	296.75
287.213	278.75
287.444	291.75
287.675	290.75
287.906	278.75
288.138	286.75
288.369	290.75
288.6	300.75
288.831	309.75
289.062	300.75
289.293	288.75
289.524	273.75
289.755	279.75
289.986	293.75
290.217	270.75
290.448	269.75
290.679	288.75
290.91	283.75
291.141	280.75
291.371	282.75
291.602	257.75
291.833	282.75
292.064	273.75
292.295	290.75
292.526	277.75
292.757	270.75
292.987	291.75
293.218	271.75
293.449	306.75
293.68	291.75
293.91	283.75
294.141	283.75
294.372	287.75
294.603	287.75
294.833	295.75
295.064	287.75
295.295	299.75
295.525	270.75
295.756	302.75
295.987	296.75
296.217	351.75
296.448	325.75
296.679	305.75
296.909	307.75
297.14	300.75
297.37	311.75
297.601	298.75
297.831	286.75
298.062	301.75
298.292	272.75
298.523	299.75
298.753	278.75
298.984	300.75
299.214	313.75
299.445	316.75
299.675	288.75
299.905	300.75
300.136	297.75
300.366	287.75
300.597	318.75
300.827	318.75
301.057	323.75
301.288	314.75
301.518	318.75
301.748	322.75
301.979	321.75
302.209	323.75
302.439	317.75
302.669	318.75
302.9	334.75
303.13	323.75
303.36	317.75
303.59	325.75
303.82	346.75
304.051	334.75
304.281	328.75
304.511	320.75
304.741	319.75
304.971	319.75
305.201	307.75
305.431	328.75
305.661	348.75
305.891	318.75
306.121	311.75
306.352	331.75
306.582	322.75
306.812	295.75
307.042	314.75
307.272	322.75
307.502	314.75
307.731	324.75
307.961	323.75
308.191	327.75
308.421	321.75
308.651	330.75
308.881	335.75
309.111	316.75
309.341	328.75
309.571	348.75
309.8	345.75
310.03	358.75
310.26	366.75
310.49	349.75
310.72	352.75
310.949	381.75
311.179	400.75
311.409	381.75
311.639	362.75
311.868	344.75
312.098	355.75
312.328	365.75
312.557	415.75
312.787	396.75
313.017	400.75
313.246	388.75
313.476	379.75
313.706	352.75
313.935	372.75
314.165	374.75
314.394	388.75
314.624	393.75
314.853	377.75
315.083	368.75
315.312	363.75
315.542	371.75
315.771	361.75
316.001	349.75
316.23	351.75
316.46	346.75
316.689	375.75
316.919	375.75
317.148	371.75
317.377	366.75
317.607	370.75
317.836	382.75
318.065	348.75
318.295	364.75
318.524	375.75
318.753	344.75
318.983	374.75
319.212	360.75
319.441	374.75
319.67	390.75
319.9	380.75
320.129	372.75
320.358	374.75
320.587	388.75
320.816	402.75
321.046	394.75
321.275	400.75
321.504	389.75
321.733	396.75
321.962	413.75
322.191	414.75
322.42	413.75
322.649	421.75
322.878	460.75
323.108	451.75
323.337	476.75
323.566	486.75
323.795	506.75
324.024	542.75
324.253	666.75
324.482	985.75
324.71	1611.75
324.939	2434.75
325.168	2063.75
325.397	983.75
325.626	668.75
325.855	542.75
326.084	514.75
326.313	518.75
326.542	492.75
326.77	548.75
326.999	640.75
327.228	887.75
327.457	1440.75
327.686	1837.75
327.914	1151.75
328.143	749.75
328.372	628.75
328.6	573.75
328.829	552.75
329.058	560.75
329.287	580.75
329.515	561.75
329.744	514.75
329.972	514.75
330.201	534.75
330.43	557.75
330.658	569.75
330.887	610.75
331.115	574.75
331.344	489.75
331.572	476.75
331.801	483.75
332.03	479.75
332.258	465.75
332.486	435.75
332.715	459.75
332.943	462.75
333.172	448.75
333.4	447.75
333.629	481.75
333.857	471.75
334.085	482.75
334.314	502.75
334.542	521.75
334.771	567.75
334.999	495.75
335.227	470.75
335.455	462.75
335.684	447.75
335.912	455.75
336.14	444.75
336.369	451.75
336.597	452.75
336.825	468.75
337.053	436.75
337.281	463.75
337.51	443.75
337.738	451.75
337.966	438.75
338.194	441.75
338.422	443.75
338.65	427.75
338.878	432.75
339.106	413.75
339.334	427.75
339.562	429.75
339.79	443.75
340.018	441.75
340.246	427.75
340.474	459.75
340.702	436.75
340.93	423.75
341.158	418.75
341.386	438.75
341.614	416.75
341.842	430.75
342.07	415.75
342.298	438.75
342.526	436.75
342.754	428.75
342.981	410.75
343.209	416.75
343.437	412.75
343.665	449.75
343.893	428.75
344.12	457.75
344.348	431.75
344.576	444.75
344.804	450.75
345.031	447.75
345.259	447.75
345.487	460.75
345.714	418.75
345.942	426.75
346.17	436.75
346.397	420.75
346.625	424.75
346.853	415.75
347.08	426.75
347.308	439.75
347.535	430.75
347.763	441.75
347.99	430.75
348.218	416.75
348.445	440.75
348.673	444.75
348.9	409.75
349.128	410.75
349.355	427.75
349.583	421.75
349.81	414.75
350.037	395.75
350.265	405.75
350.492	407.75
350.72	412.75
350.947	412.75
351.174	421.75
351.402	407.75
351.629	431.75
351.856	406.75
352.083	430.75
352.311	423.75
352.538	426.75
352.765	442.75
352.992	419.75
353.22	432.75
353.447	431.75
353.674	404.75
353.901	405.75
354.128	394.75
354.355	386.75
354.583	410.75
354.81	396.75
355.037	396.75
355.264	389.75
355.491	386.75
355.718	390.75
355.945	384.75
356.172	389.75
356.399	384.75
356.626	372.75
356.853	386.75
357.08	402.75
357.307	385.75
357.534	391.75
357.761	394.75
357.988	401.75
358.215	383.75
358.441	383.75
358.668	369.75
358.895	389.75
359.122	400.75
359.349	408.75
359.576	424.75
359.802	449.75
360.029	466.75
360.256	460.75
360.483	461.75
360.709	462.75
360.936	412.75
361.163	415.75
361.39	440.75
361.616	438.75
361.843	447.75
362.07	417.75
362.296	443.75
362.523	438.75
362.749	423.75
362.976	424.75
363.203	408.75
363.429	420.75
363.656	428.75
363.882	407.75
364.109	406.75
364.335	413.75
364.562	408.75
364.788	407.75
365.015	415.75
365.241	422.75
365.468	410.75
365.694	418.75
365.92	418.75
366.147	404.75
366.373	408.75
366.599	403.75
366.826	393.75
367.052	401.75
367.278	386.75
367.505	411.75
367.731	390.75
367.957	426.75
368.184	410.75
368.41	416.75
368.636	424.75
368.862	434.75
369.089	406.75
369.315	406.75
369.541	421.75
369.767	422.75
369.993	413.75
370.219	407.75
370.445	404.75
370.672	408.75
370.898	407.75
371.124	412.75
371.35	408.75
371.576	398.75
371.802	403.75
372.028	406.75
372.254	416.75
372.48	413.75
372.706	412.75
372.932	407.75
373.158	418.75
373.384	418.75
373.61	398.75
373.835	419.75
374.061	422.75
374.287	408.75
374.513	405.75
374.739	429.75
374.965	413.75
375.191	432.75
375.416	429.75
375.642	432.75
375.868	431.75
376.094	406.75
376.319	395.75
376.545	430.75
376.771	411.75
376.997	417.75
377.222	430.75
377.448	410.75
377.674	412.75
377.899	410.75
378.125	416.75
378.35	391.75
378.576	396.75
378.802	417.75
379.027	413.75
379.253	395.75
379.478	404.75
379.704	401.75
379.929	416.75
380.155	419.75
380.38	416.75
380.606	391.75
380.831	413.75
381.057	420.75
381.282	430.75
381.507	414.75
381.733	415.75
381.958	420.75
382.184	428.75
382.409	438.75
382.634	426.75
382.86	427.75
383.085	440.75
383.31	419.75
383.535	425.75
383.761	413.75
383.986	415.75
384.211	437.75
384.436	436.75
384.662	441.75
384.887	457.75
385.112	446.75
385.337	459.75
385.562	429.75
385.787	454.75
386.013	461.75
386.238	461.75
386.463	444.75
386.688	460.75
386.913	454.75
387.138	452.75
387.363	440.75
387.588	436.75
387.813	435.75
388.038	447.75
388.263	468.75
388.488	456.75
388.713	452.75
388.938	470.75
389.163	471.75
389.387	479.75
389.612	466.75
389.837	457.75
390.062	457.75
390.287	463.75
390.512	462.75
390.736	458.75
390.961	457.75
391.186	454.75
391.411	437.75
391.636	473.75
391.86	469.75
392.085	476.75
392.31	468.75
392.534	460.75
392.759	474.75
392.984	463.75
393.208	464.75
393.433	471.75
393.658	442.75
393.882	451.75
394.107	483.75
394.331	470.75
394.556	462.75
394.78	465.75
395.005	470.75
395.229	493.75
395.454	493.75
395.678	470.75
395.903	493.75
396.127	508.75
396.352	508.75
396.576	478.75
396.801	468.75
397.025	476.75
397.249	504.75
397.474	511.75
397.698	503.75
397.922	514.75
398.147	504.75
398.371	538.75
398.595	526.75
398.82	543.75
399.044	553.75
399.268	567.75
399.492	594.75
399.717	614.75
399.941	637.75
400.165	670.75
400.389	679.75
400.613	606.75
400.837	568.75
401.062	548.75
401.286	559.75
401.51	563.75
401.734	526.75
401.958	541.75
402.182	548.75
402.406	566.75
402.63	556.75
402.854	568.75
403.078	554.75
403.302	550.75
403.526	572.75
403.75	558.75
403.974	541.75
404.198	574.75
404.422	562.75
404.645	574.75
404.869	568.75
405.093	602.75
405.317	624.75
405.541	673.75
405.765	636.75
405.988	576.75
406.212	618.75
406.436	616.75
406.66	623.75
406.883	605.75
407.107	616.75
407.331	671.75
407.555	748.75
407.778	746.75
408.002	674.75
408.226	636.75
408.449	637.75
408.673	607.75
408.896	640.75
409.12	703.75
409.344	655.75
409.567	601.75
409.791	602.75
410.014	573.75
410.238	557.75
410.461	562.75
410.685	572.75
410.908	577.75
411.132	620.75
411.355	668.75
411.578	631.75
411.802	569.75
412.025	574.75
412.249	573.75
412.472	601.75
412.695	648.75
412.919	637.75
413.142	564.75
413.365	560.75
413.589	562.75
413.812	553.75
414.035	534.75
414.258	514.75
414.482	527.75
414.705	526.75
414.928	546.75
415.151	513.75
415.374	521.75
415.597	546.75
415.821	528.75
416.044	548.75
416.267	520.75
416.49	525.75
416.713	520.75
416.936	514.75
417.159	547.75
417.382	516.75
417.605	534.75
417.828	534.75
418.051	566.75
418.274	540.75
418.497	530.75
418.72	549.75
418.943	533.75
419.166	542.75
419.389	582.75
419.611	585.75
419.834	554.75
420.057	554.75
420.28	578.75
420.503	552.75
420.726	539.75
420.948	568.75
421.171	620.75
421.394	644.75
421.617	570.75
421.839	563.75
422.062	542.75
422.285	564.75
422.507	634.75
422.73	728.75
422.953	706.75
423.175	620.75
423.398	590.75
423.621	586.75
423.843	602.75
424.066	588.75
424.288	579.75
424.511	604.75
424.733	668.75
424.956	780.75
425.178	738.75
425.401	715.75
425.623	741.75
425.846	645.75
426.068	608.75
426.291	580.75
426.513	571.75
426.735	596.75
426.958	665.75
427.18	740.75
427.402	898.75
427.625	972.75
427.847	853.75
428.069	726.75
428.292	628.75
428.514	600.75
428.736	573.75
428.958	565.75
429.181	549.75
429.403	560.75
429.625	559.75
429.847	582.75
430.069	668.75
430.292	647.75
430.514	572.75
430.736	559.75
430.958	542.75
431.18	523.75
431.402	532.75
431.624	518.75
431.846	514.75
432.068	522.75
432.29	519.75
432.512	520.75
432.734	537.75
432.956	522.75
433.178	534.75
433.4	520.75
433.622	538.75
433.844	534.75
434.066	528.75
434.287	523.75
434.509	520.75
434.731	533.75
434.953	558.75
435.175	567.75
435.397	601.75
435.618	597.75
435.84	647.75
436.062	755.75
436.284	842.75
436.505	695.75
436.727	620.75
436.949	570.75
437.17	551.75
437.392	544.75
437.614	576.75
437.835	605.75
438.057	708.75
438.278	823.75
438.5	810.75
438.721	922.75
438.943	871.75
439.165	662.75
439.386	612.75
439.608	596.75
439.829	602.75
440.05	605.75
440.272	686.75
440.493	648.75
440.715	588.75
440.936	575.75
441.158	553.75
441.379	552.75
441.6	564.75
441.822	594.75
442.043	622.75
442.264	723.75
442.486	774.75
442.707	655.75
442.928	602.75
443.149	632.75
443.371	636.75
443.592	673.75
443.813	768.75
444.034	845.75
444.255	719.75
444.476	624.75
444.698	598.75
444.919	595.75
445.14	659.75
445.361	649.75
445.582	662.75
445.803	737.75
446.024	852.75
446.245	838.75
446.466	758.75
446.687	644.75
446.908	581.75
447.129	583.75
447.35	556.75
447.571	548.75
447.792	551.75
448.013	547.75
448.234	579.75
448.455	628.75
448.675	734.75
448.896	866.75
449.117	747.75
449.338	712.75
449.559	802.75
449.779	929.75
450	727.75
450.221	631.75
450.442	559.75
450.662	531.75
450.883	532.75
451.104	538.75
451.324	536.75
451.545	531.75
451.766	518.75
451.986	501.75
452.207	503.75
452.428	483.75
452.648	490.75
452.869	474.75
453.089	489.75
453.31	500.75
453.53	501.75
453.751	498.75
453.971	507.75
454.192	509.75
454.412	512.75
454.633	510.75
454.853	511.75
455.073	482.75
455.294	500.75
455.514	603.75
455.734	583.75
455.955	508.75
456.175	472.75
456.395	471.75
456.616	446.75
456.836	468.75
457.056	476.75
457.276	447.75
457.497	487.75
457.717	458.75
457.937	474.75
458.157	473.75
458.377	495.75
458.598	491.75
458.818	570.75
459.038	634.75
459.258	686.75
459.478	589.75
459.698	547.75
459.918	534.75
460.138	528.75
460.358	528.75
460.578	539.75
460.798	558.75
461.018	553.75
461.238	546.75
461.458	524.75
461.678	553.75
461.898	563.75
462.118	544.75
462.338	573.75
462.558	574.75
462.777	566.75
462.997	581.75
463.217	588.75
463.437	613.75
463.657	596.75
463.876	568.75
464.096	596.75
464.316	584.75
464.536	591.75
464.755	574.75
464.975	588.75
465.195	597.75
465.414	676.75
465.634	615.75
465.854	589.75
466.073	534.75
466.293	532.75
466.512	525.75
466.732	514.75
466.951	528.75
467.171	495.75
467.391	518.75
467.61	500.75
467.829	527.75
468.049	543.75
468.268	522.75
468.488	506.75
468.707	476.75
468.927	499.75
469.146	489.75
469.365	520.75
469.585	491.75
469.804	501.75
470.023	526.75
470.243	514.75
470.462	513.75
470.681	544.75
470.901	524.75
471.12	539.75
471.339	503.75
471.558	518.75
471.777	521.75
471.997	500.75
472.216	515.75
472.435	549.75
472.654	551.75
472.873	529.75
473.092	521.75
473.311	510.75
473.53	510.75
473.749	494.75
473.968	550.75
474.187	674.75
474.406	703.75
474.625	559.75
474.844	525.75
475.063	526.75
475.282	524.75
475.501	512.75
475.72	530.75
475.939	513.75
476.158	539.75
476.377	528.75
476.596	524.75
476.814	522.75
477.033	523.75
477.252	539.75
477.471	547.75
477.69	583.75
477.908	563.75
478.127	561.75
478.346	551.75
478.564	586.75
478.783	587.75
479.002	565.75
479.22	611.75
479.439	619.75
479.658	630.75
479.876	610.75
480.095	634.75
480.313	654.75
480.532	622.75
480.751	607.75
480.969	630.75
481.188	665.75
481.406	706.75
481.624	669.75
481.843	631.75
482.061	627.75
482.28	590.75
482.498	609.75
482.717	589.75
482.935	587.75
483.153	608.75
483.372	612.75
483.59	607.75
483.808	599.75
484.027	612.75
484.245	610.75
484.463	604.75
484.681	615.75
484.9	602.75
485.118	594.75
485.336	640.75
485.554	623.75
485.772	632.75
485.99	652.75
486.209	627.75
486.427	649.75
486.645	640.75
486.863	622.75
487.081	652.75
487.299	676.75
487.517	634.75
487.735	636.75
487.953	631.75
488.171	648.75
488.389	636.75
488.607	654.75
488.825	630.75
489.043	662.75
489.261	651.75
489.479	643.75
489.696	650.75
489.914	673.75
490.132	655.75
490.35	671.75
490.568	679.75
490.786	693.75
491.003	692.75
491.221	732.75
491.439	712.75
491.657	733.75
491.874	705.75
492.092	711.75
492.31	711.75
492.527	717.75
492.745	739.75
492.963	746.75
493.18	752.75
493.398	733.75
493.615	724.75
493.833	748.75
494.05	740.75
494.268	750.75
494.485	720.75
494.703	734.75
494.92	746.75
495.138	756.75
495.355	773.75
495.573	752.75
495.79	752.75
496.008	783.75
496.225	749.75
496.442	777.75
496.66	741.75
496.877	779.75
497.094	760.75
497.312	770.75
497.529	802.75
497.746	812.75
497.963	814.75
498.181	853.75
498.398	859.75
498.615	834.75
498.832	861.75
499.049	898.75
499.267	912.75
499.484	919.75
499.701	980.75
499.918	990.75
500.135	1036.75
500.352	1072.75
500.569	1068.75
500.786	1095.75
501.003	1087.75
501.22	1057.75
501.437	1038.75
501.654	1019.75
501.871	1016.75
