Data from 1978.PennyLincolnUp.Lamp.En5.5.200Scan.071719.P1_HRD10591_16-14-48-865.txt Node
Date: Thu Jul 18 16:14:48 EDT 2019
User: cochatt
Spectrometer: HR+D1059
Trigger mode: 1
Integration Time (sec): 1.000000E-1
Scans to average: 1
Electric dark correction enabled: true
Nonlinearity correction enabled: false
Boxcar width: 0
XAxis mode: Wavelengths
Number of Pixels in Spectrum: 2048
>>>>>Begin Spectral Data<<<<<
223.165	5.94
223.4	5.94
223.635	5.94
223.869	-16.06
224.104	-23.06
224.338	-15.06
224.573	-22.06
224.808	-18.06
225.042	-3.06
225.277	-11.06
225.511	1.94
225.746	1.94
225.98	1.94
226.215	5.94
226.449	19.94
226.683	17.94
226.918	19.94
227.152	32.94
227.387	23.94
227.621	41.94
227.856	49.94
228.09	36.94
228.324	47.94
228.559	62.94
228.793	55.94
229.027	93.94
229.262	101.94
229.496	101.94
229.73	130.94
229.964	154.94
230.199	122.94
230.433	103.94
230.667	119.94
230.901	113.94
231.136	105.94
231.37	111.94
231.604	109.94
231.838	103.94
232.072	128.94
232.306	105.94
232.541	119.94
232.775	119.94
233.009	122.94
233.243	109.94
233.477	114.94
233.711	119.94
233.945	105.94
234.179	110.94
234.413	116.94
234.647	107.94
234.881	121.94
235.115	114.94
235.349	121.94
235.583	117.94
235.817	123.94
236.051	124.94
236.285	127.94
236.519	112.94
236.753	124.94
236.987	147.94
237.221	168.94
237.455	245.94
237.689	187.94
237.922	147.94
238.156	142.94
238.39	129.94
238.624	120.94
238.858	115.94
239.091	139.94
239.325	118.94
239.559	120.94
239.793	123.94
240.027	148.94
240.26	138.94
240.494	151.94
240.728	132.94
240.961	145.94
241.195	152.94
241.429	135.94
241.662	138.94
241.896	144.94
242.13	126.94
242.363	124.94
242.597	133.94
242.83	131.94
243.064	141.94
243.298	140.94
243.531	146.94
243.765	138.94
243.998	144.94
244.232	151.94
244.465	137.94
244.699	156.94
244.932	152.94
245.166	156.94
245.399	148.94
245.633	130.94
245.866	155.94
246.099	140.94
246.333	148.94
246.566	145.94
246.8	149.94
247.033	144.94
247.266	147.94
247.5	162.94
247.733	169.94
247.966	164.94
248.2	175.94
248.433	172.94
248.666	162.94
248.899	184.94
249.133	188.94
249.366	204.94
249.599	203.94
249.832	194.94
250.066	187.94
250.299	175.94
250.532	203.94
250.765	209.94
250.998	207.94
251.231	221.94
251.465	209.94
251.698	206.94
251.931	180.94
252.164	187.94
252.397	198.94
252.63	197.94
252.863	206.94
253.096	213.94
253.329	221.94
253.562	196.94
253.795	212.94
254.028	214.94
254.261	200.94
254.494	205.94
254.727	251.94
254.96	250.94
255.193	267.94
255.426	230.94
255.659	211.94
255.892	210.94
256.124	219.94
256.357	233.94
256.59	217.94
256.823	191.94
257.056	195.94
257.289	202.94
257.521	215.94
257.754	210.94
257.987	205.94
258.22	211.94
258.452	201.94
258.685	211.94
258.918	209.94
259.151	212.94
259.383	203.94
259.616	211.94
259.849	219.94
260.081	227.94
260.314	242.94
260.547	239.94
260.779	253.94
261.012	237.94
261.244	223.94
261.477	231.94
261.71	203.94
261.942	222.94
262.175	228.94
262.407	227.94
262.64	217.94
262.872	206.94
263.105	213.94
263.337	196.94
263.57	184.94
263.802	219.94
264.035	219.94
264.267	232.94
264.499	212.94
264.732	207.94
264.964	195.94
265.197	195.94
265.429	184.94
265.661	215.94
265.894	197.94
266.126	215.94
266.358	214.94
266.591	217.94
266.823	220.94
267.055	230.94
267.287	223.94
267.52	224.94
267.752	224.94
267.984	227.94
268.216	222.94
268.448	220.94
268.681	202.94
268.913	230.94
269.145	230.94
269.377	281.94
269.609	249.94
269.841	243.94
270.073	266.94
270.306	269.94
270.538	309.94
270.77	291.94
271.002	294.94
271.234	267.94
271.466	299.94
271.698	297.94
271.93	319.94
272.162	316.94
272.394	311.94
272.626	291.94
272.858	268.94
273.09	274.94
273.322	254.94
273.553	274.94
273.785	250.94
274.017	265.94
274.249	263.94
274.481	263.94
274.713	276.94
274.945	265.94
275.176	265.94
275.408	275.94
275.64	256.94
275.872	258.94
276.104	250.94
276.335	269.94
276.567	261.94
276.799	263.94
277.031	310.94
277.262	327.94
277.494	298.94
277.726	282.94
277.957	283.94
278.189	275.94
278.421	266.94
278.652	267.94
278.884	265.94
279.115	273.94
279.347	276.94
279.579	265.94
279.81	264.94
280.042	269.94
280.273	251.94
280.505	256.94
280.736	261.94
280.968	270.94
281.199	249.94
281.431	284.94
281.662	264.94
281.894	260.94
282.125	269.94
282.356	279.94
282.588	287.94
282.819	313.94
283.051	268.94
283.282	281.94
283.513	272.94
283.745	277.94
283.976	271.94
284.207	288.94
284.439	261.94
284.67	279.94
284.901	278.94
285.132	284.94
285.364	265.94
285.595	276.94
285.826	275.94
286.057	276.94
286.288	296.94
286.52	279.94
286.751	283.94
286.982	296.94
287.213	277.94
287.444	285.94
287.675	285.94
287.906	300.94
288.138	297.94
288.369	306.94
288.6	305.94
288.831	300.94
289.062	300.94
289.293	292.94
289.524	270.94
289.755	291.94
289.986	294.94
290.217	299.94
290.448	295.94
290.679	288.94
290.91	283.94
291.141	297.94
291.371	283.94
291.602	293.94
291.833	272.94
292.064	284.94
292.295	296.94
292.526	274.94
292.757	286.94
292.987	300.94
293.218	275.94
293.449	293.94
293.68	287.94
293.91	289.94
294.141	290.94
294.372	312.94
294.603	308.94
294.833	289.94
295.064	285.94
295.295	277.94
295.525	292.94
295.756	307.94
295.987	304.94
296.217	308.94
296.448	333.94
296.679	300.94
296.909	279.94
297.14	288.94
297.37	296.94
297.601	290.94
297.831	309.94
298.062	299.94
298.292	319.94
298.523	303.94
298.753	299.94
298.984	309.94
299.214	316.94
299.445	319.94
299.675	337.94
299.905	319.94
300.136	332.94
300.366	329.94
300.597	308.94
300.827	292.94
301.057	319.94
301.288	322.94
301.518	321.94
301.748	317.94
301.979	339.94
302.209	338.94
302.439	326.94
302.669	327.94
302.9	323.94
303.13	330.94
303.36	328.94
303.59	336.94
303.82	335.94
304.051	347.94
304.281	325.94
304.511	340.94
304.741	317.94
304.971	329.94
305.201	338.94
305.431	326.94
305.661	338.94
305.891	327.94
306.121	321.94
306.352	347.94
306.582	356.94
306.812	339.94
307.042	329.94
307.272	337.94
307.502	324.94
307.731	333.94
307.961	309.94
308.191	321.94
308.421	332.94
308.651	344.94
308.881	347.94
309.111	345.94
309.341	343.94
309.571	329.94
309.8	351.94
310.03	376.94
310.26	382.94
310.49	364.94
310.72	374.94
310.949	391.94
311.179	399.94
311.409	388.94
311.639	367.94
311.868	364.94
312.098	393.94
312.328	391.94
312.557	390.94
312.787	388.94
313.017	391.94
313.246	397.94
313.476	387.94
313.706	389.94
313.935	376.94
314.165	373.94
314.394	409.94
314.624	387.94
314.853	407.94
315.083	383.94
315.312	387.94
315.542	363.94
315.771	401.94
316.001	380.94
316.23	372.94
316.46	387.94
316.689	390.94
316.919	396.94
317.148	379.94
317.377	357.94
317.607	380.94
317.836	393.94
318.065	393.94
318.295	383.94
318.524	376.94
318.753	361.94
318.983	362.94
319.212	378.94
319.441	388.94
319.67	386.94
319.9	383.94
320.129	391.94
320.358	384.94
320.587	396.94
320.816	397.94
321.046	390.94
321.275	401.94
321.504	417.94
321.733	413.94
321.962	409.94
322.191	421.94
322.42	436.94
322.649	436.94
322.878	456.94
323.108	458.94
323.337	485.94
323.566	488.94
323.795	506.94
324.024	597.94
324.253	716.94
324.482	1031.94
324.71	1655.94
324.939	2518.94
325.168	2175.94
325.397	1028.94
325.626	689.94
325.855	576.94
326.084	539.94
326.313	525.94
326.542	522.94
326.77	550.94
326.999	655.94
327.228	963.94
327.457	1494.94
327.686	1882.94
327.914	1211.94
328.143	741.94
328.372	649.94
328.6	587.94
328.829	554.94
329.058	567.94
329.287	584.94
329.515	576.94
329.744	523.94
329.972	521.94
330.201	529.94
330.43	581.94
330.658	608.94
330.887	615.94
331.115	592.94
331.344	538.94
331.572	497.94
331.801	512.94
332.03	490.94
332.258	476.94
332.486	442.94
332.715	455.94
332.943	463.94
333.172	456.94
333.4	483.94
333.629	465.94
333.857	505.94
334.085	497.94
334.314	523.94
334.542	538.94
334.771	565.94
334.999	533.94
335.227	479.94
335.455	499.94
335.684	475.94
335.912	455.94
336.14	472.94
336.369	456.94
336.597	466.94
336.825	472.94
337.053	453.94
337.281	444.94
337.51	452.94
337.738	458.94
337.966	466.94
338.194	457.94
338.422	437.94
338.65	464.94
338.878	450.94
339.106	437.94
339.334	454.94
339.562	451.94
339.79	436.94
340.018	442.94
340.246	431.94
340.474	432.94
340.702	435.94
340.93	452.94
341.158	438.94
341.386	450.94
341.614	451.94
341.842	447.94
342.07	440.94
342.298	449.94
342.526	421.94
342.754	432.94
342.981	425.94
343.209	436.94
343.437	450.94
343.665	437.94
343.893	433.94
344.12	433.94
344.348	454.94
344.576	446.94
344.804	461.94
345.031	460.94
345.259	473.94
345.487	477.94
345.714	455.94
345.942	431.94
346.17	437.94
346.397	434.94
346.625	433.94
346.853	420.94
347.08	436.94
347.308	421.94
347.535	445.94
347.763	449.94
347.99	444.94
348.218	456.94
348.445	443.94
348.673	435.94
348.9	443.94
349.128	425.94
349.355	409.94
349.583	433.94
349.81	431.94
350.037	439.94
350.265	416.94
350.492	409.94
350.72	407.94
350.947	437.94
351.174	435.94
351.402	444.94
351.629	435.94
351.856	426.94
352.083	439.94
352.311	467.94
352.538	442.94
352.765	436.94
352.992	448.94
353.22	428.94
353.447	435.94
353.674	431.94
353.901	441.94
354.128	404.94
354.355	408.94
354.583	437.94
354.81	417.94
355.037	407.94
355.264	399.94
355.491	397.94
355.718	434.94
355.945	393.94
356.172	425.94
356.399	419.94
356.626	423.94
356.853	393.94
357.08	398.94
357.307	413.94
357.534	391.94
357.761	403.94
357.988	405.94
358.215	392.94
358.441	411.94
358.668	404.94
358.895	403.94
359.122	412.94
359.349	433.94
359.576	431.94
359.802	449.94
360.029	500.94
360.256	477.94
360.483	465.94
360.709	439.94
360.936	445.94
361.163	439.94
361.39	446.94
361.616	431.94
361.843	425.94
362.07	416.94
362.296	443.94
362.523	433.94
362.749	435.94
362.976	427.94
363.203	434.94
363.429	432.94
363.656	432.94
363.882	427.94
364.109	433.94
364.335	425.94
364.562	418.94
364.788	419.94
365.015	427.94
365.241	425.94
365.468	436.94
365.694	406.94
365.92	441.94
366.147	406.94
366.373	420.94
366.599	413.94
366.826	393.94
367.052	416.94
367.278	412.94
367.505	418.94
367.731	438.94
367.957	440.94
368.184	426.94
368.41	436.94
368.636	422.94
368.862	429.94
369.089	440.94
369.315	439.94
369.541	428.94
369.767	440.94
369.993	419.94
370.219	424.94
370.445	430.94
370.672	421.94
370.898	430.94
371.124	421.94
371.35	425.94
371.576	420.94
371.802	415.94
372.028	419.94
372.254	418.94
372.48	404.94
372.706	420.94
372.932	445.94
373.158	405.94
373.384	450.94
373.61	442.94
373.835	436.94
374.061	417.94
374.287	419.94
374.513	436.94
374.739	443.94
374.965	432.94
375.191	454.94
375.416	435.94
375.642	422.94
375.868	463.94
376.094	443.94
376.319	431.94
376.545	430.94
376.771	419.94
376.997	425.94
377.222	423.94
377.448	401.94
377.674	434.94
377.899	405.94
378.125	420.94
378.35	409.94
378.576	411.94
378.802	413.94
379.027	420.94
379.253	412.94
379.478	415.94
379.704	419.94
379.929	415.94
380.155	410.94
380.38	440.94
380.606	422.94
380.831	421.94
381.057	415.94
381.282	421.94
381.507	426.94
381.733	450.94
381.958	454.94
382.184	409.94
382.409	417.94
382.634	447.94
382.86	437.94
383.085	429.94
383.31	430.94
383.535	451.94
383.761	444.94
383.986	444.94
384.211	453.94
384.436	465.94
384.662	459.94
384.887	456.94
385.112	460.94
385.337	459.94
385.562	456.94
385.787	459.94
386.013	471.94
386.238	461.94
386.463	475.94
386.688	491.94
386.913	461.94
387.138	468.94
387.363	469.94
387.588	476.94
387.813	476.94
388.038	449.94
388.263	472.94
388.488	472.94
388.713	471.94
388.938	467.94
389.163	484.94
389.387	480.94
389.612	454.94
389.837	454.94
390.062	483.94
390.287	471.94
390.512	468.94
390.736	472.94
390.961	489.94
391.186	458.94
391.411	476.94
391.636	481.94
391.86	495.94
392.085	500.94
392.31	497.94
392.534	495.94
392.759	496.94
392.984	472.94
393.208	469.94
393.433	475.94
393.658	481.94
393.882	490.94
394.107	493.94
394.331	505.94
394.556	482.94
394.78	479.94
395.005	486.94
395.229	491.94
395.454	509.94
395.678	509.94
395.903	503.94
396.127	541.94
396.352	531.94
396.576	511.94
396.801	489.94
397.025	502.94
397.249	516.94
397.474	552.94
397.698	502.94
397.922	497.94
398.147	541.94
398.371	542.94
398.595	557.94
398.82	539.94
399.044	539.94
399.268	580.94
399.492	612.94
399.717	609.94
399.941	647.94
400.165	673.94
400.389	697.94
400.613	640.94
400.837	593.94
401.062	581.94
401.286	567.94
401.51	555.94
401.734	536.94
401.958	555.94
402.182	557.94
402.406	577.94
402.63	579.94
402.854	569.94
403.078	570.94
403.302	566.94
403.526	586.94
403.75	603.94
403.974	578.94
404.198	585.94
404.422	561.94
404.645	583.94
404.869	593.94
405.093	633.94
405.317	649.94
405.541	708.94
405.765	656.94
405.988	628.94
406.212	594.94
406.436	623.94
406.66	657.94
406.883	628.94
407.107	658.94
407.331	700.94
407.555	784.94
407.778	779.94
408.002	727.94
408.226	655.94
408.449	620.94
408.673	661.94
408.896	665.94
409.12	720.94
409.344	694.94
409.567	610.94
409.791	604.94
410.014	591.94
410.238	570.94
410.461	576.94
410.685	567.94
410.908	582.94
411.132	641.94
411.355	665.94
411.578	651.94
411.802	615.94
412.025	583.94
412.249	597.94
412.472	609.94
412.695	654.94
412.919	642.94
413.142	587.94
413.365	557.94
413.589	575.94
413.812	545.94
414.035	528.94
414.258	546.94
414.482	541.94
414.705	554.94
414.928	567.94
415.151	538.94
415.374	552.94
415.597	540.94
415.821	583.94
416.044	547.94
416.267	536.94
416.49	557.94
416.713	541.94
416.936	544.94
417.159	528.94
417.382	545.94
417.605	553.94
417.828	567.94
418.051	597.94
418.274	560.94
418.497	537.94
418.72	545.94
418.943	548.94
419.166	566.94
419.389	600.94
419.611	601.94
419.834	582.94
420.057	593.94
420.28	557.94
420.503	566.94
420.726	571.94
420.948	599.94
421.171	654.94
421.394	661.94
421.617	615.94
421.839	570.94
422.062	576.94
422.285	587.94
422.507	633.94
422.73	735.94
422.953	714.94
423.175	632.94
423.398	598.94
423.621	606.94
423.843	602.94
424.066	624.94
424.288	618.94
424.511	625.94
424.733	699.94
424.956	777.94
425.178	751.94
425.401	735.94
425.623	768.94
425.846	678.94
426.068	640.94
426.291	622.94
426.513	636.94
426.735	631.94
426.958	663.94
427.18	761.94
427.402	905.94
427.625	1003.94
427.847	881.94
428.069	792.94
428.292	677.94
428.514	632.94
428.736	614.94
428.958	580.94
429.181	569.94
429.403	588.94
429.625	567.94
429.847	609.94
430.069	697.94
430.292	713.94
430.514	602.94
430.736	601.94
430.958	549.94
431.18	539.94
431.402	541.94
431.624	500.94
431.846	536.94
432.068	546.94
432.29	553.94
432.512	551.94
432.734	563.94
432.956	543.94
433.178	572.94
433.4	581.94
433.622	553.94
433.844	540.94
434.066	533.94
434.287	530.94
434.509	546.94
434.731	555.94
434.953	561.94
435.175	589.94
435.397	604.94
435.618	604.94
435.84	682.94
436.062	793.94
436.284	882.94
436.505	732.94
436.727	644.94
436.949	604.94
437.17	583.94
437.392	576.94
437.614	580.94
437.835	602.94
438.057	728.94
438.278	852.94
438.5	806.94
438.721	919.94
438.943	887.94
439.165	689.94
439.386	624.94
439.608	626.94
439.829	643.94
440.05	656.94
440.272	715.94
440.493	663.94
440.715	607.94
440.936	583.94
441.158	580.94
441.379	567.94
441.6	592.94
441.822	611.94
442.043	652.94
442.264	755.94
442.486	810.94
442.707	699.94
442.928	640.94
443.149	627.94
443.371	671.94
443.592	706.94
443.813	818.94
444.034	886.94
444.255	748.94
444.476	651.94
444.698	639.94
444.919	618.94
445.14	707.94
445.361	680.94
445.582	691.94
445.803	741.94
446.024	880.94
446.245	885.94
446.466	791.94
446.687	659.94
446.908	619.94
447.129	592.94
447.35	586.94
447.571	567.94
447.792	568.94
448.013	574.94
448.234	579.94
448.455	643.94
448.675	764.94
448.896	896.94
449.117	775.94
449.338	729.94
449.559	814.94
449.779	963.94
450	761.94
450.221	608.94
450.442	589.94
450.662	575.94
450.883	559.94
451.104	561.94
451.324	567.94
451.545	566.94
451.766	543.94
451.986	504.94
452.207	499.94
452.428	496.94
452.648	513.94
452.869	508.94
453.089	514.94
453.31	522.94
453.53	526.94
453.751	491.94
453.971	514.94
454.192	532.94
454.412	525.94
454.633	513.94
454.853	482.94
455.073	491.94
455.294	535.94
455.514	625.94
455.734	608.94
455.955	500.94
456.175	532.94
456.395	485.94
456.616	473.94
456.836	471.94
457.056	457.94
457.276	472.94
457.497	484.94
457.717	485.94
457.937	497.94
458.157	489.94
458.377	514.94
458.598	527.94
458.818	580.94
459.038	664.94
459.258	677.94
459.478	576.94
459.698	559.94
459.918	564.94
460.138	544.94
460.358	552.94
460.578	575.94
460.798	571.94
461.018	572.94
461.238	550.94
461.458	558.94
461.678	555.94
461.898	575.94
462.118	587.94
462.338	566.94
462.558	565.94
462.777	600.94
462.997	605.94
463.217	603.94
463.437	625.94
463.657	589.94
463.876	581.94
464.096	595.94
464.316	580.94
464.536	630.94
464.755	619.94
464.975	599.94
465.195	616.94
465.414	679.94
465.634	643.94
465.854	582.94
466.073	571.94
466.293	568.94
466.512	546.94
466.732	541.94
466.951	552.94
467.171	529.94
467.391	536.94
467.61	536.94
467.829	570.94
468.049	533.94
468.268	509.94
468.488	533.94
468.707	523.94
468.927	502.94
469.146	510.94
469.365	521.94
469.585	521.94
469.804	525.94
470.023	525.94
470.243	533.94
470.462	546.94
470.681	549.94
470.901	555.94
471.12	525.94
471.339	513.94
471.558	531.94
471.777	530.94
471.997	526.94
472.216	523.94
472.435	555.94
472.654	565.94
472.873	517.94
473.092	543.94
473.311	547.94
473.53	537.94
473.749	559.94
473.968	574.94
474.187	692.94
474.406	733.94
474.625	592.94
474.844	553.94
475.063	535.94
475.282	522.94
475.501	527.94
475.72	553.94
475.939	538.94
476.158	562.94
476.377	554.94
476.596	524.94
476.814	552.94
477.033	570.94
477.252	561.94
477.471	557.94
477.69	586.94
477.908	586.94
478.127	598.94
478.346	608.94
478.564	606.94
478.783	593.94
479.002	602.94
479.22	617.94
479.439	643.94
479.658	649.94
479.876	668.94
480.095	645.94
480.313	688.94
480.532	649.94
480.751	641.94
480.969	672.94
481.188	721.94
481.406	743.94
481.624	683.94
481.843	661.94
482.061	636.94
482.28	622.94
482.498	635.94
482.717	631.94
482.935	605.94
483.153	618.94
483.372	596.94
483.59	632.94
483.808	629.94
484.027	621.94
484.245	625.94
484.463	637.94
484.681	652.94
484.9	626.94
485.118	645.94
485.336	608.94
485.554	637.94
485.772	649.94
485.99	641.94
486.209	659.94
486.427	652.94
486.645	647.94
486.863	652.94
487.081	641.94
487.299	672.94
487.517	656.94
487.735	691.94
487.953	649.94
488.171	671.94
488.389	664.94
488.607	676.94
488.825	660.94
489.043	665.94
489.261	663.94
489.479	676.94
489.696	689.94
489.914	683.94
490.132	695.94
490.35	688.94
490.568	708.94
490.786	694.94
491.003	707.94
491.221	747.94
491.439	735.94
491.657	729.94
491.874	725.94
492.092	707.94
492.31	727.94
492.527	776.94
492.745	751.94
492.963	735.94
493.18	757.94
493.398	763.94
493.615	756.94
493.833	771.94
494.05	770.94
494.268	787.94
494.485	794.94
494.703	756.94
494.92	775.94
495.138	777.94
495.355	809.94
495.573	780.94
495.79	811.94
496.008	816.94
496.225	794.94
496.442	785.94
496.66	792.94
496.877	783.94
497.094	786.94
497.312	800.94
497.529	805.94
497.746	818.94
497.963	845.94
498.181	895.94
498.398	888.94
498.615	884.94
498.832	915.94
499.049	945.94
499.267	922.94
499.484	964.94
499.701	1023.94
499.918	1054.94
500.135	1090.94
500.352	1122.94
500.569	1135.94
500.786	1147.94
501.003	1125.94
501.22	1099.94
501.437	1108.94
501.654	1011.94
501.871	1056.94
