Data from 1978.PennyLincolnUp.Lamp.En5.5.200Scan.071719.P1_HRD10591_16-12-45-864.txt Node
Date: Thu Jul 18 16:12:45 EDT 2019
User: cochatt
Spectrometer: HR+D1059
Trigger mode: 1
Integration Time (sec): 1.000000E-1
Scans to average: 1
Electric dark correction enabled: true
Nonlinearity correction enabled: false
Boxcar width: 0
XAxis mode: Wavelengths
Number of Pixels in Spectrum: 2048
>>>>>Begin Spectral Data<<<<<
223.165	-21.5
223.4	-21.5
223.635	-21.5
223.869	-16.5
224.104	-34.5
224.338	-8.5
224.573	-11.5
224.808	-4.5
225.042	-7.5
225.277	3.5
225.511	11.5
225.746	-0.5
225.98	6.5
226.215	10.5
226.449	24.5
226.683	17.5
226.918	12.5
227.152	18.5
227.387	28.5
227.621	28.5
227.856	36.5
228.09	50.5
228.324	50.5
228.559	55.5
228.793	68.5
229.027	94.5
229.262	93.5
229.496	81.5
229.73	120.5
229.964	150.5
230.199	129.5
230.433	100.5
230.667	105.5
230.901	110.5
231.136	100.5
231.37	116.5
231.604	103.5
231.838	106.5
232.072	100.5
232.306	103.5
232.541	112.5
232.775	115.5
233.009	114.5
233.243	121.5
233.477	108.5
233.711	109.5
233.945	115.5
234.179	111.5
234.413	117.5
234.647	103.5
234.881	120.5
235.115	111.5
235.349	117.5
235.583	118.5
235.817	118.5
236.051	128.5
236.285	123.5
236.519	114.5
236.753	120.5
236.987	127.5
237.221	175.5
237.455	229.5
237.689	180.5
237.922	136.5
238.156	142.5
238.39	127.5
238.624	121.5
238.858	109.5
239.091	116.5
239.325	125.5
239.559	119.5
239.793	128.5
240.027	119.5
240.26	119.5
240.494	147.5
240.728	145.5
240.961	129.5
241.195	142.5
241.429	122.5
241.662	125.5
241.896	142.5
242.13	131.5
242.363	127.5
242.597	125.5
242.83	129.5
243.064	116.5
243.298	125.5
243.531	133.5
243.765	126.5
243.998	131.5
244.232	141.5
244.465	136.5
244.699	130.5
244.932	140.5
245.166	155.5
245.399	127.5
245.633	139.5
245.866	134.5
246.099	135.5
246.333	146.5
246.566	127.5
246.8	134.5
247.033	136.5
247.266	147.5
247.5	147.5
247.733	156.5
247.966	159.5
248.2	166.5
248.433	160.5
248.666	156.5
248.899	165.5
249.133	173.5
249.366	194.5
249.599	173.5
249.832	165.5
250.066	170.5
250.299	170.5
250.532	167.5
250.765	180.5
250.998	199.5
251.231	180.5
251.465	183.5
251.698	173.5
251.931	167.5
252.164	180.5
252.397	167.5
252.63	177.5
252.863	191.5
253.096	187.5
253.329	205.5
253.562	198.5
253.795	198.5
254.028	174.5
254.261	194.5
254.494	207.5
254.727	223.5
254.96	224.5
255.193	221.5
255.426	216.5
255.659	213.5
255.892	203.5
256.124	207.5
256.357	194.5
256.59	209.5
256.823	191.5
257.056	185.5
257.289	190.5
257.521	189.5
257.754	201.5
257.987	192.5
258.22	200.5
258.452	194.5
258.685	189.5
258.918	196.5
259.151	193.5
259.383	210.5
259.616	202.5
259.849	199.5
260.081	203.5
260.314	223.5
260.547	231.5
260.779	231.5
261.012	206.5
261.244	213.5
261.477	209.5
261.71	213.5
261.942	209.5
262.175	212.5
262.407	216.5
262.64	203.5
262.872	199.5
263.105	209.5
263.337	195.5
263.57	193.5
263.802	217.5
264.035	212.5
264.267	197.5
264.499	195.5
264.732	206.5
264.964	224.5
265.197	216.5
265.429	212.5
265.661	203.5
265.894	204.5
266.126	205.5
266.358	192.5
266.591	195.5
266.823	215.5
267.055	206.5
267.287	208.5
267.52	220.5
267.752	219.5
267.984	212.5
268.216	221.5
268.448	225.5
268.681	234.5
268.913	218.5
269.145	245.5
269.377	252.5
269.609	256.5
269.841	245.5
270.073	258.5
270.306	264.5
270.538	297.5
270.77	276.5
271.002	274.5
271.234	261.5
271.466	287.5
271.698	293.5
271.93	267.5
272.162	286.5
272.394	284.5
272.626	259.5
272.858	266.5
273.09	259.5
273.322	253.5
273.553	252.5
273.785	235.5
274.017	241.5
274.249	236.5
274.481	232.5
274.713	243.5
274.945	246.5
275.176	255.5
275.408	259.5
275.64	246.5
275.872	241.5
276.104	260.5
276.335	252.5
276.567	258.5
276.799	262.5
277.031	284.5
277.262	285.5
277.494	288.5
277.726	268.5
277.957	273.5
278.189	266.5
278.421	251.5
278.652	245.5
278.884	253.5
279.115	240.5
279.347	252.5
279.579	257.5
279.81	243.5
280.042	233.5
280.273	247.5
280.505	262.5
280.736	250.5
280.968	260.5
281.199	258.5
281.431	245.5
281.662	257.5
281.894	265.5
282.125	256.5
282.356	277.5
282.588	283.5
282.819	299.5
283.051	279.5
283.282	256.5
283.513	255.5
283.745	267.5
283.976	269.5
284.207	274.5
284.439	257.5
284.67	283.5
284.901	267.5
285.132	279.5
285.364	259.5
285.595	283.5
285.826	290.5
286.057	276.5
286.288	280.5
286.52	285.5
286.751	259.5
286.982	275.5
287.213	255.5
287.444	264.5
287.675	269.5
287.906	289.5
288.138	290.5
288.369	307.5
288.6	311.5
288.831	299.5
289.062	283.5
289.293	284.5
289.524	298.5
289.755	264.5
289.986	279.5
290.217	282.5
290.448	256.5
290.679	273.5
290.91	268.5
291.141	276.5
291.371	281.5
291.602	284.5
291.833	284.5
292.064	297.5
292.295	283.5
292.526	277.5
292.757	271.5
292.987	287.5
293.218	280.5
293.449	270.5
293.68	287.5
293.91	266.5
294.141	279.5
294.372	284.5
294.603	276.5
294.833	277.5
295.064	278.5
295.295	283.5
295.525	296.5
295.756	283.5
295.987	280.5
296.217	285.5
296.448	314.5
296.679	301.5
296.909	284.5
297.14	279.5
297.37	287.5
297.601	288.5
297.831	291.5
298.062	281.5
298.292	283.5
298.523	298.5
298.753	296.5
298.984	320.5
299.214	295.5
299.445	304.5
299.675	303.5
299.905	275.5
300.136	296.5
300.366	299.5
300.597	310.5
300.827	285.5
301.057	295.5
301.288	319.5
301.518	305.5
301.748	317.5
301.979	304.5
302.209	311.5
302.439	319.5
302.669	328.5
302.9	312.5
303.13	292.5
303.36	318.5
303.59	311.5
303.82	336.5
304.051	336.5
304.281	319.5
304.511	315.5
304.741	317.5
304.971	331.5
305.201	319.5
305.431	309.5
305.661	324.5
305.891	329.5
306.121	324.5
306.352	330.5
306.582	328.5
306.812	320.5
307.042	309.5
307.272	324.5
307.502	346.5
307.731	323.5
307.961	324.5
308.191	317.5
308.421	311.5
308.651	338.5
308.881	331.5
309.111	319.5
309.341	346.5
309.571	329.5
309.8	356.5
310.03	350.5
310.26	357.5
310.49	341.5
310.72	357.5
310.949	361.5
311.179	364.5
311.409	354.5
311.639	366.5
311.868	351.5
312.098	352.5
312.328	367.5
312.557	395.5
312.787	383.5
313.017	377.5
313.246	399.5
313.476	362.5
313.706	360.5
313.935	359.5
314.165	369.5
314.394	395.5
314.624	389.5
314.853	365.5
315.083	374.5
315.312	390.5
315.542	370.5
315.771	349.5
316.001	346.5
316.23	342.5
316.46	355.5
316.689	383.5
316.919	364.5
317.148	378.5
317.377	371.5
317.607	375.5
317.836	346.5
318.065	361.5
318.295	367.5
318.524	341.5
318.753	375.5
318.983	356.5
319.212	374.5
319.441	376.5
319.67	369.5
319.9	370.5
320.129	367.5
320.358	384.5
320.587	379.5
320.816	372.5
321.046	385.5
321.275	387.5
321.504	367.5
321.733	403.5
321.962	412.5
322.191	403.5
322.42	397.5
322.649	419.5
322.878	412.5
323.108	424.5
323.337	451.5
323.566	466.5
323.795	491.5
324.024	525.5
324.253	649.5
324.482	908.5
324.71	1424.5
324.939	2139.5
325.168	1877.5
325.397	914.5
325.626	629.5
325.855	511.5
326.084	497.5
326.313	482.5
326.542	492.5
326.77	543.5
326.999	610.5
327.228	823.5
327.457	1267.5
327.686	1600.5
327.914	1040.5
328.143	651.5
328.372	581.5
328.6	555.5
328.829	540.5
329.058	520.5
329.287	545.5
329.515	525.5
329.744	488.5
329.972	447.5
330.201	476.5
330.43	524.5
330.658	556.5
330.887	592.5
331.115	556.5
331.344	483.5
331.572	460.5
331.801	467.5
332.03	463.5
332.258	457.5
332.486	448.5
332.715	421.5
332.943	413.5
333.172	434.5
333.4	468.5
333.629	439.5
333.857	473.5
334.085	461.5
334.314	513.5
334.542	513.5
334.771	505.5
334.999	474.5
335.227	468.5
335.455	471.5
335.684	441.5
335.912	432.5
336.14	434.5
336.369	438.5
336.597	451.5
336.825	451.5
337.053	437.5
337.281	442.5
337.51	455.5
337.738	425.5
337.966	438.5
338.194	439.5
338.422	447.5
338.65	426.5
338.878	448.5
339.106	442.5
339.334	413.5
339.562	418.5
339.79	424.5
340.018	405.5
340.246	435.5
340.474	419.5
340.702	413.5
340.93	431.5
341.158	452.5
341.386	411.5
341.614	422.5
341.842	424.5
342.07	425.5
342.298	425.5
342.526	413.5
342.754	419.5
342.981	410.5
343.209	414.5
343.437	442.5
343.665	413.5
343.893	417.5
344.12	435.5
344.348	431.5
344.576	443.5
344.804	439.5
345.031	421.5
345.259	445.5
345.487	445.5
345.714	415.5
345.942	422.5
346.17	420.5
346.397	406.5
346.625	417.5
346.853	415.5
347.08	423.5
347.308	422.5
347.535	433.5
347.763	435.5
347.99	417.5
348.218	430.5
348.445	401.5
348.673	410.5
348.9	421.5
349.128	400.5
349.355	379.5
349.583	393.5
349.81	405.5
350.037	406.5
350.265	387.5
350.492	395.5
350.72	391.5
350.947	397.5
351.174	427.5
351.402	406.5
351.629	419.5
351.856	433.5
352.083	423.5
352.311	417.5
352.538	429.5
352.765	421.5
352.992	410.5
353.22	403.5
353.447	404.5
353.674	404.5
353.901	398.5
354.128	376.5
354.355	402.5
354.583	405.5
354.81	397.5
355.037	396.5
355.264	396.5
355.491	388.5
355.718	402.5
355.945	390.5
356.172	409.5
356.399	401.5
356.626	375.5
356.853	392.5
357.08	393.5
357.307	407.5
357.534	404.5
357.761	401.5
357.988	404.5
358.215	383.5
358.441	390.5
358.668	396.5
358.895	379.5
359.122	403.5
359.349	412.5
359.576	402.5
359.802	439.5
360.029	455.5
360.256	461.5
360.483	460.5
360.709	412.5
360.936	399.5
361.163	407.5
361.39	422.5
361.616	436.5
361.843	426.5
362.07	405.5
362.296	431.5
362.523	418.5
362.749	401.5
362.976	407.5
363.203	416.5
363.429	383.5
363.656	408.5
363.882	425.5
364.109	398.5
364.335	420.5
364.562	394.5
364.788	397.5
365.015	404.5
365.241	428.5
365.468	412.5
365.694	380.5
365.92	409.5
366.147	396.5
366.373	419.5
366.599	407.5
366.826	407.5
367.052	389.5
367.278	404.5
367.505	413.5
367.731	405.5
367.957	405.5
368.184	411.5
368.41	408.5
368.636	413.5
368.862	419.5
369.089	426.5
369.315	413.5
369.541	399.5
369.767	402.5
369.993	411.5
370.219	407.5
370.445	416.5
370.672	426.5
370.898	418.5
371.124	393.5
371.35	414.5
371.576	413.5
371.802	443.5
372.028	413.5
372.254	396.5
372.48	402.5
372.706	389.5
372.932	404.5
373.158	413.5
373.384	419.5
373.61	437.5
373.835	433.5
374.061	410.5
374.287	423.5
374.513	411.5
374.739	425.5
374.965	428.5
375.191	434.5
375.416	427.5
375.642	417.5
375.868	407.5
376.094	391.5
376.319	405.5
376.545	423.5
376.771	383.5
376.997	393.5
377.222	410.5
377.448	422.5
377.674	397.5
377.899	414.5
378.125	411.5
378.35	415.5
378.576	403.5
378.802	396.5
379.027	397.5
379.253	405.5
379.478	410.5
379.704	406.5
379.929	407.5
380.155	423.5
380.38	405.5
380.606	419.5
380.831	435.5
381.057	403.5
381.282	400.5
381.507	425.5
381.733	414.5
381.958	430.5
382.184	415.5
382.409	419.5
382.634	443.5
382.86	398.5
383.085	435.5
383.31	410.5
383.535	426.5
383.761	448.5
383.986	417.5
384.211	433.5
384.436	421.5
384.662	415.5
384.887	446.5
385.112	453.5
385.337	458.5
385.562	463.5
385.787	456.5
386.013	463.5
386.238	478.5
386.463	477.5
386.688	465.5
386.913	460.5
387.138	467.5
387.363	447.5
387.588	459.5
387.813	471.5
388.038	440.5
388.263	477.5
388.488	451.5
388.713	455.5
388.938	456.5
389.163	465.5
389.387	487.5
389.612	460.5
389.837	472.5
390.062	457.5
390.287	461.5
390.512	432.5
390.736	461.5
390.961	472.5
391.186	472.5
391.411	475.5
391.636	474.5
391.86	482.5
392.085	483.5
392.31	505.5
392.534	469.5
392.759	472.5
392.984	460.5
393.208	448.5
393.433	484.5
393.658	470.5
393.882	461.5
394.107	479.5
394.331	468.5
394.556	470.5
394.78	493.5
395.005	497.5
395.229	488.5
395.454	482.5
395.678	482.5
395.903	492.5
396.127	521.5
396.352	537.5
396.576	516.5
396.801	480.5
397.025	484.5
397.249	478.5
397.474	484.5
397.698	490.5
397.922	528.5
398.147	526.5
398.371	531.5
398.595	527.5
398.82	521.5
399.044	529.5
399.268	569.5
399.492	585.5
399.717	624.5
399.941	645.5
400.165	669.5
400.389	667.5
400.613	633.5
400.837	580.5
401.062	578.5
401.286	564.5
401.51	552.5
401.734	517.5
401.958	549.5
402.182	533.5
402.406	569.5
402.63	535.5
402.854	547.5
403.078	541.5
403.302	561.5
403.526	563.5
403.75	549.5
403.974	553.5
404.198	570.5
404.422	571.5
404.645	567.5
404.869	576.5
405.093	596.5
405.317	637.5
405.541	663.5
405.765	604.5
405.988	600.5
406.212	623.5
406.436	591.5
406.66	621.5
406.883	577.5
407.107	619.5
407.331	669.5
407.555	725.5
407.778	757.5
408.002	673.5
408.226	638.5
408.449	626.5
408.673	600.5
408.896	653.5
409.12	671.5
409.344	641.5
409.567	589.5
409.791	580.5
410.014	555.5
410.238	548.5
410.461	555.5
410.685	580.5
410.908	573.5
411.132	609.5
411.355	651.5
411.578	636.5
411.802	587.5
412.025	575.5
412.249	573.5
412.472	600.5
412.695	611.5
412.919	603.5
413.142	577.5
413.365	560.5
413.589	551.5
413.812	561.5
414.035	539.5
414.258	555.5
414.482	540.5
414.705	505.5
414.928	522.5
415.151	520.5
415.374	500.5
415.597	521.5
415.821	534.5
416.044	536.5
416.267	537.5
416.49	526.5
416.713	532.5
416.936	541.5
417.159	518.5
417.382	526.5
417.605	543.5
417.828	521.5
418.051	554.5
418.274	546.5
418.497	532.5
418.72	507.5
418.943	527.5
419.166	557.5
419.389	552.5
419.611	561.5
419.834	549.5
420.057	564.5
420.28	565.5
420.503	538.5
420.726	555.5
420.948	571.5
421.171	584.5
421.394	621.5
421.617	594.5
421.839	556.5
422.062	554.5
422.285	559.5
422.507	633.5
422.73	707.5
422.953	689.5
423.175	588.5
423.398	581.5
423.621	562.5
423.843	599.5
424.066	597.5
424.288	570.5
424.511	619.5
424.733	625.5
424.956	729.5
425.178	729.5
425.401	712.5
425.623	759.5
425.846	637.5
426.068	573.5
426.291	563.5
426.513	596.5
426.735	588.5
426.958	638.5
427.18	701.5
427.402	843.5
427.625	933.5
427.847	812.5
428.069	721.5
428.292	629.5
428.514	575.5
428.736	570.5
428.958	575.5
429.181	555.5
429.403	559.5
429.625	553.5
429.847	580.5
430.069	643.5
430.292	667.5
430.514	565.5
430.736	541.5
430.958	538.5
431.18	512.5
431.402	516.5
431.624	505.5
431.846	515.5
432.068	509.5
432.29	527.5
432.512	533.5
432.734	535.5
432.956	509.5
433.178	529.5
433.4	540.5
433.622	508.5
433.844	518.5
434.066	539.5
434.287	505.5
434.509	536.5
434.731	522.5
434.953	561.5
435.175	555.5
435.397	572.5
435.618	596.5
435.84	617.5
436.062	707.5
436.284	828.5
436.505	688.5
436.727	604.5
436.949	564.5
437.17	519.5
437.392	532.5
437.614	551.5
437.835	604.5
438.057	677.5
438.278	793.5
438.5	779.5
438.721	898.5
438.943	843.5
439.165	649.5
439.386	605.5
439.608	609.5
439.829	583.5
440.05	613.5
440.272	677.5
440.493	618.5
440.715	595.5
440.936	549.5
441.158	583.5
441.379	544.5
441.6	554.5
441.822	592.5
442.043	625.5
442.264	730.5
442.486	757.5
442.707	654.5
442.928	589.5
443.149	603.5
443.371	609.5
443.592	664.5
443.813	771.5
444.034	839.5
444.255	681.5
444.476	626.5
444.698	596.5
444.919	579.5
445.14	705.5
445.361	637.5
445.582	640.5
445.803	718.5
446.024	779.5
446.245	802.5
446.466	746.5
446.687	629.5
446.908	567.5
447.129	579.5
447.35	537.5
447.571	527.5
447.792	559.5
448.013	536.5
448.234	563.5
448.455	586.5
448.675	717.5
448.896	851.5
449.117	751.5
449.338	693.5
449.559	805.5
449.779	907.5
450	689.5
450.221	591.5
450.442	561.5
450.662	523.5
450.883	535.5
451.104	536.5
451.324	544.5
451.545	486.5
451.766	490.5
451.986	487.5
452.207	480.5
452.428	467.5
452.648	475.5
452.869	485.5
453.089	482.5
453.31	499.5
453.53	495.5
453.751	485.5
453.971	484.5
454.192	519.5
454.412	496.5
454.633	497.5
454.853	499.5
455.073	497.5
455.294	489.5
455.514	581.5
455.734	532.5
455.955	479.5
456.175	471.5
456.395	451.5
456.616	451.5
456.836	480.5
457.056	468.5
457.276	448.5
457.497	464.5
457.717	471.5
457.937	471.5
458.157	507.5
458.377	499.5
458.598	503.5
458.818	556.5
459.038	627.5
459.258	639.5
459.478	570.5
459.698	552.5
459.918	524.5
460.138	521.5
460.358	532.5
460.578	526.5
460.798	534.5
461.018	559.5
461.238	531.5
461.458	544.5
461.678	548.5
461.898	553.5
462.118	551.5
462.338	548.5
462.558	559.5
462.777	575.5
462.997	589.5
463.217	601.5
463.437	583.5
463.657	553.5
463.876	598.5
464.096	580.5
464.316	576.5
464.536	591.5
464.755	594.5
464.975	575.5
465.195	602.5
465.414	639.5
465.634	587.5
465.854	573.5
466.073	540.5
466.293	503.5
466.512	509.5
466.732	514.5
466.951	525.5
467.171	517.5
467.391	487.5
467.61	495.5
467.829	527.5
468.049	504.5
468.268	503.5
468.488	504.5
468.707	496.5
468.927	486.5
469.146	497.5
469.365	519.5
469.585	485.5
469.804	516.5
470.023	512.5
470.243	530.5
470.462	529.5
470.681	516.5
470.901	525.5
471.12	512.5
471.339	506.5
471.558	517.5
471.777	543.5
471.997	512.5
472.216	520.5
472.435	543.5
472.654	541.5
472.873	525.5
473.092	531.5
473.311	515.5
473.53	515.5
473.749	522.5
473.968	551.5
474.187	643.5
474.406	676.5
474.625	579.5
474.844	530.5
475.063	520.5
475.282	506.5
475.501	527.5
475.72	495.5
475.939	518.5
476.158	530.5
476.377	537.5
476.596	526.5
476.814	532.5
477.033	539.5
477.252	542.5
477.471	554.5
477.69	553.5
477.908	548.5
478.127	577.5
478.346	580.5
478.564	573.5
478.783	607.5
479.002	597.5
479.22	591.5
479.439	588.5
479.658	594.5
479.876	633.5
480.095	613.5
480.313	638.5
480.532	635.5
480.751	633.5
480.969	641.5
481.188	687.5
481.406	714.5
481.624	643.5
481.843	615.5
482.061	621.5
482.28	587.5
482.498	597.5
482.717	588.5
482.935	584.5
483.153	587.5
483.372	609.5
483.59	599.5
483.808	603.5
484.027	594.5
484.245	588.5
484.463	603.5
484.681	586.5
484.9	610.5
485.118	599.5
485.336	584.5
485.554	604.5
485.772	629.5
485.99	627.5
486.209	611.5
486.427	623.5
486.645	632.5
486.863	635.5
487.081	646.5
487.299	629.5
487.517	620.5
487.735	641.5
487.953	650.5
488.171	606.5
488.389	614.5
488.607	633.5
488.825	629.5
489.043	652.5
489.261	654.5
489.479	634.5
489.696	644.5
489.914	649.5
490.132	660.5
490.35	661.5
490.568	648.5
490.786	651.5
491.003	680.5
491.221	700.5
491.439	717.5
491.657	688.5
491.874	723.5
492.092	728.5
492.31	725.5
492.527	703.5
492.745	715.5
492.963	697.5
493.18	733.5
493.398	703.5
493.615	745.5
493.833	748.5
494.05	744.5
494.268	749.5
494.485	737.5
494.703	722.5
494.92	733.5
495.138	726.5
495.355	733.5
495.573	774.5
495.79	747.5
496.008	768.5
496.225	767.5
496.442	746.5
496.66	735.5
496.877	760.5
497.094	780.5
497.312	775.5
497.529	779.5
497.746	810.5
497.963	802.5
498.181	829.5
498.398	837.5
498.615	865.5
498.832	884.5
499.049	864.5
499.267	915.5
499.484	951.5
499.701	973.5
499.918	988.5
500.135	1073.5
500.352	1068.5
500.569	1114.5
500.786	1112.5
501.003	1099.5
501.22	1073.5
501.437	1029.5
501.654	992.5
501.871	1000.5
502.088	925.5
502.305	916.5
502.522	876.5
502.739	866.5
502.956	867.5
503.172	831.5
503.389	812.5
503.606	825.5
503.823	775.5
504.04	785.5
504.256	787.5
504.473	773.5
504.69	778.5
504.907	770.5
505.123	754.5
505.34	745.5
505.557	727.5
505.773	743.5
505.99	742.5
506.207	706.5
506.423	702.5
506.64	712.5
506.856	704.5
507.073	714.5
507.289	685.5
507.506	689.5
507.722	703.5
507.939	689.5
508.155	690.5
508.372	649.5
508.588	681.5
508.805	660.5
509.021	663.5
509.238	681.5
509.454	688.5
509.67	660.5
509.887	673.5
510.103	661.5
510.319	683.5
510.536	741.5
510.752	1147.5
510.968	983.5
511.184	692.5
511.401	639.5
511.617	640.5
511.833	620.5
512.049	640.5
512.265	631.5
512.481	643.5
512.698	638.5
512.914	636.5
513.13	634.5
513.346	638.5
513.562	629.5
513.778	635.5
513.994	653.5
514.21	645.5
514.426	649.5
514.642	699.5
514.858	715.5
515.074	769.5
515.29	847.5
515.506	1153.5
515.721	1023.5
515.937	769.5
516.153	714.5
516.369	680.5
516.585	709.5
516.801	687.5
517.016	687.5
517.232	680.5
517.448	658.5
517.664	677.5
517.879	686.5
518.095	683.5
518.311	676.5
518.527	675.5
518.742	657.5
518.958	647.5
519.173	654.5
519.389	643.5
519.605	621.5
519.82	667.5
