Data from 1978.PennyLincolnUp.Lamp.En5.5.200Scan.071719.P1_HRD10591_16-14-47-862.txt Node
Date: Thu Jul 18 16:14:47 EDT 2019
User: cochatt
Spectrometer: HR+D1059
Trigger mode: 1
Integration Time (sec): 1.000000E-1
Scans to average: 1
Electric dark correction enabled: true
Nonlinearity correction enabled: false
Boxcar width: 0
XAxis mode: Wavelengths
Number of Pixels in Spectrum: 2048
>>>>>Begin Spectral Data<<<<<
223.165	-17.31
223.4	-17.31
223.635	-17.31
223.869	-23.31
224.104	-23.31
224.338	-13.31
224.573	-12.31
224.808	-14.31
225.042	5.69
225.277	-6.31
225.511	3.69
225.746	-2.31
225.98	-9.31
226.215	14.69
226.449	11.69
226.683	21.69
226.918	26.69
227.152	37.69
227.387	42.69
227.621	39.69
227.856	36.69
228.09	41.69
228.324	29.69
228.559	57.69
228.793	66.69
229.027	103.69
229.262	107.69
229.496	115.69
229.73	137.69
229.964	149.69
230.199	123.69
230.433	102.69
230.667	102.69
230.901	110.69
231.136	110.69
231.37	114.69
231.604	122.69
231.838	109.69
232.072	118.69
232.306	113.69
232.541	113.69
232.775	113.69
233.009	107.69
233.243	117.69
233.477	100.69
233.711	114.69
233.945	123.69
234.179	122.69
234.413	126.69
234.647	110.69
234.881	116.69
235.115	109.69
235.349	129.69
235.583	107.69
235.817	121.69
236.051	126.69
236.285	123.69
236.519	121.69
236.753	133.69
236.987	153.69
237.221	190.69
237.455	261.69
237.689	191.69
237.922	147.69
238.156	137.69
238.39	133.69
238.624	130.69
238.858	131.69
239.091	110.69
239.325	117.69
239.559	133.69
239.793	149.69
240.027	127.69
240.26	142.69
240.494	148.69
240.728	157.69
240.961	158.69
241.195	159.69
241.429	143.69
241.662	139.69
241.896	136.69
242.13	125.69
242.363	135.69
242.597	135.69
242.83	135.69
243.064	150.69
243.298	137.69
243.531	137.69
243.765	135.69
243.998	138.69
244.232	140.69
244.465	140.69
244.699	157.69
244.932	142.69
245.166	156.69
245.399	134.69
245.633	140.69
245.866	135.69
246.099	159.69
246.333	160.69
246.566	171.69
246.8	157.69
247.033	148.69
247.266	156.69
247.5	156.69
247.733	182.69
247.966	166.69
248.2	163.69
248.433	178.69
248.666	172.69
248.899	184.69
249.133	207.69
249.366	206.69
249.599	195.69
249.832	165.69
250.066	184.69
250.299	179.69
250.532	183.69
250.765	209.69
250.998	195.69
251.231	230.69
251.465	216.69
251.698	198.69
251.931	202.69
252.164	208.69
252.397	189.69
252.63	195.69
252.863	203.69
253.096	228.69
253.329	229.69
253.562	213.69
253.795	207.69
254.028	213.69
254.261	210.69
254.494	214.69
254.727	239.69
254.96	251.69
255.193	243.69
255.426	234.69
255.659	234.69
255.892	225.69
256.124	228.69
256.357	233.69
256.59	217.69
256.823	220.69
257.056	211.69
257.289	215.69
257.521	218.69
257.754	195.69
257.987	201.69
258.22	206.69
258.452	201.69
258.685	187.69
258.918	201.69
259.151	194.69
259.383	210.69
259.616	211.69
259.849	221.69
260.081	236.69
260.314	250.69
260.547	255.69
260.779	233.69
261.012	225.69
261.244	220.69
261.477	230.69
261.71	233.69
261.942	230.69
262.175	236.69
262.407	236.69
262.64	220.69
262.872	239.69
263.105	203.69
263.337	209.69
263.57	217.69
263.802	197.69
264.035	230.69
264.267	199.69
264.499	202.69
264.732	205.69
264.964	220.69
265.197	216.69
265.429	224.69
265.661	202.69
265.894	193.69
266.126	226.69
266.358	219.69
266.591	216.69
266.823	218.69
267.055	223.69
267.287	235.69
267.52	230.69
267.752	227.69
267.984	223.69
268.216	233.69
268.448	231.69
268.681	230.69
268.913	227.69
269.145	247.69
269.377	259.69
269.609	269.69
269.841	241.69
270.073	268.69
270.306	285.69
270.538	310.69
270.77	317.69
271.002	305.69
271.234	284.69
271.466	309.69
271.698	301.69
271.93	313.69
272.162	297.69
272.394	314.69
272.626	283.69
272.858	269.69
273.09	277.69
273.322	268.69
273.553	248.69
273.785	274.69
274.017	267.69
274.249	267.69
274.481	253.69
274.713	257.69
274.945	281.69
275.176	283.69
275.408	256.69
275.64	266.69
275.872	265.69
276.104	252.69
276.335	247.69
276.567	270.69
276.799	278.69
277.031	315.69
277.262	308.69
277.494	310.69
277.726	303.69
277.957	280.69
278.189	283.69
278.421	266.69
278.652	246.69
278.884	277.69
279.115	261.69
279.347	289.69
279.579	281.69
279.81	251.69
280.042	264.69
280.273	275.69
280.505	265.69
280.736	274.69
280.968	265.69
281.199	271.69
281.431	278.69
281.662	272.69
281.894	285.69
282.125	265.69
282.356	289.69
282.588	324.69
282.819	305.69
283.051	293.69
283.282	284.69
283.513	271.69
283.745	294.69
283.976	277.69
284.207	290.69
284.439	285.69
284.67	288.69
284.901	296.69
285.132	281.69
285.364	287.69
285.595	270.69
285.826	287.69
286.057	282.69
286.288	294.69
286.52	282.69
286.751	297.69
286.982	285.69
287.213	297.69
287.444	317.69
287.675	282.69
287.906	301.69
288.138	292.69
288.369	305.69
288.6	297.69
288.831	307.69
289.062	298.69
289.293	301.69
289.524	285.69
289.755	289.69
289.986	294.69
290.217	305.69
290.448	276.69
290.679	308.69
290.91	291.69
291.141	302.69
291.371	305.69
291.602	310.69
291.833	306.69
292.064	286.69
292.295	275.69
292.526	289.69
292.757	288.69
292.987	286.69
293.218	285.69
293.449	301.69
293.68	307.69
293.91	307.69
294.141	294.69
294.372	300.69
294.603	307.69
294.833	297.69
295.064	307.69
295.295	309.69
295.525	290.69
295.756	316.69
295.987	311.69
296.217	326.69
296.448	335.69
296.679	317.69
296.909	308.69
297.14	311.69
297.37	307.69
297.601	302.69
297.831	295.69
298.062	306.69
298.292	319.69
298.523	309.69
298.753	328.69
298.984	313.69
299.214	323.69
299.445	309.69
299.675	315.69
299.905	314.69
300.136	331.69
300.366	331.69
300.597	338.69
300.827	324.69
301.057	326.69
301.288	322.69
301.518	324.69
301.748	334.69
301.979	330.69
302.209	350.69
302.439	324.69
302.669	333.69
302.9	319.69
303.13	335.69
303.36	331.69
303.59	325.69
303.82	350.69
304.051	357.69
304.281	333.69
304.511	325.69
304.741	332.69
304.971	337.69
305.201	315.69
305.431	316.69
305.661	332.69
305.891	334.69
306.121	351.69
306.352	324.69
306.582	329.69
306.812	331.69
307.042	326.69
307.272	342.69
307.502	329.69
307.731	343.69
307.961	341.69
308.191	348.69
308.421	340.69
308.651	334.69
308.881	364.69
309.111	353.69
309.341	341.69
309.571	353.69
309.8	372.69
310.03	378.69
310.26	391.69
310.49	391.69
310.72	384.69
310.949	405.69
311.179	388.69
311.409	387.69
311.639	381.69
311.868	389.69
312.098	380.69
312.328	400.69
312.557	412.69
312.787	437.69
313.017	408.69
313.246	403.69
313.476	379.69
313.706	393.69
313.935	391.69
314.165	399.69
314.394	413.69
314.624	410.69
314.853	400.69
315.083	403.69
315.312	385.69
315.542	378.69
315.771	387.69
316.001	371.69
316.23	376.69
316.46	386.69
316.689	385.69
316.919	408.69
317.148	404.69
317.377	393.69
317.607	399.69
317.836	397.69
318.065	394.69
318.295	386.69
318.524	399.69
318.753	374.69
318.983	406.69
319.212	380.69
319.441	391.69
319.67	382.69
319.9	386.69
320.129	388.69
320.358	376.69
320.587	402.69
320.816	405.69
321.046	405.69
321.275	400.69
321.504	406.69
321.733	430.69
321.962	405.69
322.191	429.69
322.42	447.69
322.649	442.69
322.878	454.69
323.108	452.69
323.337	477.69
323.566	501.69
323.795	542.69
324.024	576.69
324.253	708.69
324.482	1032.69
324.71	1691.69
324.939	2549.69
325.168	2202.69
325.397	1052.69
325.626	701.69
325.855	582.69
326.084	521.69
326.313	516.69
326.542	523.69
326.77	590.69
326.999	659.69
327.228	934.69
327.457	1485.69
327.686	1898.69
327.914	1211.69
328.143	765.69
328.372	647.69
328.6	617.69
328.829	571.69
329.058	597.69
329.287	575.69
329.515	576.69
329.744	533.69
329.972	535.69
330.201	539.69
330.43	569.69
330.658	577.69
330.887	623.69
331.115	636.69
331.344	554.69
331.572	499.69
331.801	500.69
332.03	506.69
332.258	473.69
332.486	465.69
332.715	474.69
332.943	473.69
333.172	468.69
333.4	494.69
333.629	502.69
333.857	490.69
334.085	513.69
334.314	517.69
334.542	540.69
334.771	548.69
334.999	505.69
335.227	484.69
335.455	467.69
335.684	464.69
335.912	455.69
336.14	461.69
336.369	481.69
336.597	501.69
336.825	479.69
337.053	479.69
337.281	463.69
337.51	465.69
337.738	468.69
337.966	444.69
338.194	487.69
338.422	466.69
338.65	456.69
338.878	461.69
339.106	436.69
339.334	411.69
339.562	457.69
339.79	438.69
340.018	455.69
340.246	434.69
340.474	457.69
340.702	442.69
340.93	438.69
341.158	439.69
341.386	454.69
341.614	458.69
341.842	428.69
342.07	445.69
342.298	451.69
342.526	449.69
342.754	454.69
342.981	445.69
343.209	436.69
343.437	458.69
343.665	451.69
343.893	440.69
344.12	471.69
344.348	475.69
344.576	468.69
344.804	469.69
345.031	483.69
345.259	475.69
345.487	438.69
345.714	455.69
345.942	467.69
346.17	458.69
346.397	428.69
346.625	439.69
346.853	442.69
347.08	455.69
347.308	433.69
347.535	435.69
347.763	450.69
347.99	433.69
348.218	438.69
348.445	450.69
348.673	453.69
348.9	458.69
349.128	426.69
349.355	418.69
349.583	409.69
349.81	421.69
350.037	423.69
350.265	434.69
350.492	420.69
350.72	425.69
350.947	437.69
351.174	456.69
351.402	425.69
351.629	453.69
351.856	441.69
352.083	439.69
352.311	458.69
352.538	457.69
352.765	468.69
352.992	467.69
353.22	438.69
353.447	437.69
353.674	420.69
353.901	447.69
354.128	430.69
354.355	402.69
354.583	417.69
354.81	420.69
355.037	440.69
355.264	411.69
355.491	401.69
355.718	405.69
355.945	403.69
356.172	403.69
356.399	427.69
356.626	420.69
356.853	417.69
357.08	430.69
357.307	399.69
357.534	404.69
357.761	412.69
357.988	422.69
358.215	391.69
358.441	416.69
358.668	425.69
358.895	422.69
359.122	427.69
359.349	444.69
359.576	441.69
359.802	470.69
360.029	491.69
360.256	490.69
360.483	474.69
360.709	454.69
360.936	459.69
361.163	435.69
361.39	440.69
361.616	447.69
361.843	441.69
362.07	430.69
362.296	447.69
362.523	454.69
362.749	445.69
362.976	447.69
363.203	441.69
363.429	398.69
363.656	442.69
363.882	426.69
364.109	430.69
364.335	422.69
364.562	415.69
364.788	423.69
365.015	437.69
365.241	414.69
365.468	413.69
365.694	425.69
365.92	430.69
366.147	430.69
366.373	420.69
366.599	427.69
366.826	436.69
367.052	415.69
367.278	435.69
367.505	414.69
367.731	435.69
367.957	427.69
368.184	450.69
368.41	428.69
368.636	427.69
368.862	443.69
369.089	445.69
369.315	435.69
369.541	421.69
369.767	421.69
369.993	414.69
370.219	416.69
370.445	430.69
370.672	430.69
370.898	418.69
371.124	444.69
371.35	413.69
371.576	439.69
371.802	419.69
372.028	439.69
372.254	435.69
372.48	439.69
372.706	437.69
372.932	442.69
373.158	432.69
373.384	450.69
373.61	443.69
373.835	439.69
374.061	431.69
374.287	429.69
374.513	426.69
374.739	418.69
374.965	426.69
375.191	434.69
375.416	441.69
375.642	439.69
375.868	444.69
376.094	457.69
376.319	463.69
376.545	450.69
376.771	422.69
376.997	453.69
377.222	422.69
377.448	436.69
377.674	435.69
377.899	415.69
378.125	413.69
378.35	414.69
378.576	416.69
378.802	421.69
379.027	428.69
379.253	443.69
379.478	417.69
379.704	421.69
379.929	420.69
380.155	432.69
380.38	429.69
380.606	421.69
380.831	428.69
381.057	459.69
381.282	415.69
381.507	425.69
381.733	423.69
381.958	423.69
382.184	435.69
382.409	452.69
382.634	413.69
382.86	433.69
383.085	438.69
383.31	451.69
383.535	460.69
383.761	455.69
383.986	466.69
384.211	459.69
384.436	443.69
384.662	462.69
384.887	482.69
385.112	468.69
385.337	454.69
385.562	467.69
385.787	465.69
386.013	494.69
386.238	498.69
386.463	482.69
386.688	477.69
386.913	464.69
387.138	462.69
387.363	482.69
387.588	482.69
387.813	465.69
388.038	459.69
388.263	473.69
388.488	481.69
388.713	509.69
388.938	489.69
389.163	480.69
389.387	502.69
389.612	464.69
389.837	483.69
390.062	464.69
390.287	459.69
390.512	486.69
390.736	470.69
390.961	482.69
391.186	506.69
391.411	475.69
391.636	494.69
391.86	494.69
392.085	501.69
392.31	497.69
392.534	485.69
392.759	497.69
392.984	486.69
393.208	505.69
393.433	498.69
393.658	462.69
393.882	486.69
394.107	490.69
394.331	502.69
394.556	481.69
394.78	473.69
395.005	503.69
395.229	469.69
395.454	510.69
395.678	510.69
395.903	516.69
396.127	526.69
396.352	535.69
396.576	518.69
396.801	522.69
397.025	516.69
397.249	532.69
397.474	530.69
397.698	527.69
397.922	529.69
398.147	541.69
398.371	558.69
398.595	547.69
398.82	550.69
399.044	565.69
399.268	588.69
399.492	610.69
399.717	651.69
399.941	660.69
400.165	693.69
400.389	691.69
400.613	633.69
400.837	610.69
401.062	561.69
401.286	569.69
401.51	577.69
401.734	571.69
401.958	565.69
402.182	549.69
402.406	572.69
402.63	572.69
402.854	594.69
403.078	553.69
403.302	599.69
403.526	591.69
403.75	591.69
403.974	588.69
404.198	603.69
404.422	589.69
404.645	571.69
404.869	585.69
405.093	623.69
405.317	659.69
405.541	707.69
405.765	631.69
405.988	603.69
406.212	627.69
406.436	636.69
406.66	673.69
406.883	649.69
407.107	651.69
407.331	709.69
407.555	746.69
407.778	791.69
408.002	699.69
408.226	661.69
408.449	629.69
408.673	649.69
408.896	681.69
409.12	738.69
409.344	671.69
409.567	601.69
409.791	617.69
410.014	597.69
410.238	575.69
410.461	589.69
410.685	608.69
410.908	604.69
411.132	653.69
411.355	696.69
411.578	657.69
411.802	590.69
412.025	602.69
412.249	591.69
412.472	617.69
412.695	660.69
412.919	677.69
413.142	608.69
413.365	586.69
413.589	590.69
413.812	556.69
414.035	563.69
414.258	551.69
414.482	574.69
414.705	553.69
414.928	549.69
415.151	552.69
415.374	549.69
415.597	565.69
415.821	550.69
416.044	531.69
416.267	548.69
416.49	557.69
416.713	555.69
416.936	558.69
417.159	554.69
417.382	559.69
417.605	538.69
417.828	585.69
418.051	592.69
418.274	562.69
418.497	554.69
418.72	568.69
418.943	539.69
419.166	573.69
419.389	599.69
419.611	590.69
419.834	597.69
420.057	585.69
420.28	599.69
420.503	590.69
420.726	578.69
420.948	589.69
421.171	637.69
421.394	678.69
421.617	599.69
421.839	586.69
422.062	595.69
422.285	590.69
422.507	651.69
422.73	756.69
422.953	715.69
423.175	616.69
423.398	604.69
423.621	595.69
423.843	614.69
424.066	616.69
424.288	608.69
424.511	655.69
424.733	702.69
424.956	807.69
425.178	746.69
425.401	743.69
425.623	785.69
425.846	664.69
426.068	627.69
426.291	619.69
426.513	611.69
426.735	643.69
426.958	683.69
427.18	773.69
427.402	937.69
427.625	1016.69
427.847	864.69
428.069	757.69
428.292	675.69
428.514	614.69
428.736	605.69
428.958	565.69
429.181	582.69
429.403	567.69
429.625	563.69
429.847	626.69
430.069	697.69
430.292	697.69
430.514	602.69
430.736	548.69
430.958	552.69
431.18	557.69
431.402	548.69
431.624	537.69
431.846	542.69
432.068	521.69
432.29	543.69
432.512	551.69
432.734	557.69
432.956	566.69
433.178	563.69
433.4	543.69
433.622	522.69
433.844	518.69
434.066	540.69
434.287	563.69
434.509	551.69
434.731	567.69
434.953	570.69
435.175	604.69
435.397	625.69
435.618	609.69
435.84	667.69
436.062	763.69
436.284	878.69
436.505	715.69
436.727	627.69
436.949	587.69
437.17	571.69
437.392	579.69
437.614	600.69
437.835	619.69
438.057	729.69
438.278	831.69
438.5	822.69
438.721	945.69
438.943	909.69
439.165	712.69
439.386	643.69
439.608	635.69
439.829	636.69
440.05	666.69
440.272	718.69
440.493	669.69
440.715	622.69
440.936	590.69
441.158	586.69
441.379	614.69
441.6	618.69
441.822	611.69
442.043	689.69
442.264	801.69
442.486	825.69
442.707	698.69
442.928	638.69
443.149	660.69
443.371	658.69
443.592	714.69
443.813	815.69
444.034	918.69
444.255	755.69
444.476	670.69
444.698	643.69
444.919	622.69
445.14	695.69
445.361	679.69
445.582	666.69
445.803	748.69
446.024	863.69
446.245	904.69
446.466	799.69
446.687	689.69
446.908	643.69
447.129	587.69
447.35	575.69
447.571	558.69
447.792	565.69
448.013	594.69
448.234	581.69
448.455	632.69
448.675	775.69
448.896	966.69
449.117	763.69
449.338	713.69
449.559	865.69
449.779	991.69
450	765.69
450.221	655.69
450.442	588.69
450.662	541.69
450.883	555.69
451.104	581.69
451.324	584.69
451.545	519.69
451.766	549.69
451.986	527.69
452.207	498.69
452.428	523.69
452.648	527.69
452.869	532.69
453.089	521.69
453.31	531.69
453.53	513.69
453.751	506.69
453.971	506.69
454.192	551.69
454.412	514.69
454.633	517.69
454.853	507.69
455.073	501.69
455.294	533.69
455.514	599.69
455.734	574.69
455.955	517.69
456.175	498.69
456.395	498.69
456.616	483.69
456.836	486.69
457.056	475.69
457.276	485.69
457.497	482.69
457.717	485.69
457.937	489.69
458.157	513.69
458.377	515.69
458.598	537.69
458.818	587.69
459.038	667.69
459.258	709.69
459.478	602.69
459.698	556.69
459.918	550.69
460.138	533.69
460.358	551.69
460.578	563.69
460.798	584.69
461.018	550.69
461.238	587.69
461.458	556.69
461.678	566.69
461.898	574.69
462.118	558.69
462.338	587.69
462.558	587.69
462.777	573.69
462.997	588.69
463.217	612.69
463.437	614.69
463.657	610.69
463.876	618.69
464.096	640.69
464.316	591.69
464.536	597.69
464.755	605.69
464.975	612.69
465.195	653.69
465.414	701.69
465.634	631.69
465.854	592.69
466.073	575.69
466.293	561.69
466.512	531.69
466.732	510.69
466.951	533.69
467.171	527.69
467.391	526.69
467.61	547.69
467.829	545.69
468.049	535.69
468.268	537.69
468.488	523.69
468.707	532.69
468.927	529.69
469.146	533.69
469.365	520.69
469.585	519.69
469.804	543.69
470.023	534.69
470.243	523.69
470.462	531.69
470.681	549.69
470.901	551.69
471.12	549.69
471.339	521.69
471.558	551.69
471.777	548.69
471.997	526.69
472.216	550.69
472.435	603.69
472.654	558.69
472.873	557.69
473.092	542.69
473.311	543.69
473.53	548.69
473.749	558.69
473.968	586.69
474.187	701.69
474.406	754.69
474.625	600.69
474.844	561.69
475.063	545.69
475.282	551.69
475.501	550.69
475.72	555.69
475.939	559.69
476.158	538.69
476.377	551.69
476.596	552.69
476.814	559.69
477.033	586.69
477.252	577.69
477.471	577.69
477.69	572.69
477.908	584.69
478.127	590.69
478.346	582.69
478.564	608.69
478.783	617.69
479.002	612.69
479.22	614.69
479.439	628.69
479.658	643.69
479.876	665.69
480.095	661.69
480.313	674.69
480.532	660.69
480.751	643.69
480.969	676.69
481.188	725.69
481.406	783.69
481.624	685.69
481.843	672.69
482.061	636.69
482.28	636.69
482.498	616.69
482.717	598.69
482.935	652.69
483.153	617.69
483.372	618.69
483.59	644.69
483.808	645.69
484.027	640.69
484.245	631.69
484.463	639.69
484.681	652.69
484.9	650.69
485.118	635.69
485.336	635.69
485.554	673.69
485.772	656.69
485.99	639.69
486.209	675.69
486.427	647.69
486.645	654.69
486.863	691.69
487.081	670.69
487.299	702.69
487.517	664.69
487.735	682.69
487.953	684.69
488.171	695.69
488.389	689.69
488.607	661.69
488.825	675.69
489.043	665.69
489.261	687.69
489.479	708.69
489.696	681.69
489.914	698.69
490.132	713.69
490.35	712.69
490.568	712.69
490.786	688.69
491.003	726.69
491.221	738.69
491.439	719.69
491.657	740.69
491.874	734.69
492.092	757.69
492.31	785.69
492.527	748.69
492.745	763.69
492.963	769.69
493.18	761.69
493.398	803.69
493.615	791.69
493.833	776.69
494.05	777.69
494.268	762.69
494.485	754.69
494.703	754.69
494.92	781.69
495.138	782.69
495.355	770.69
495.573	775.69
495.79	794.69
496.008	809.69
496.225	812.69
496.442	794.69
496.66	804.69
496.877	790.69
497.094	814.69
497.312	825.69
497.529	835.69
497.746	835.69
497.963	833.69
498.181	859.69
498.398	895.69
498.615	912.69
498.832	933.69
499.049	957.69
499.267	967.69
499.484	980.69
499.701	1002.69
499.918	1042.69
500.135	1103.69
500.352	1121.69
500.569	1159.69
500.786	1179.69
501.003	1137.69
501.22	1102.69
501.437	1037.69
501.654	1036.69
