Data from 1979.PennyLincolnUp.Lamp.En5.5.200Scan.071719.P1_HRD10591_16-20-12-863.txt Node
Date: Thu Jul 18 16:20:12 EDT 2019
User: cochatt
Spectrometer: HR+D1059
Trigger mode: 1
Integration Time (sec): 1.000000E-1
Scans to average: 1
Electric dark correction enabled: true
Nonlinearity correction enabled: false
Boxcar width: 0
XAxis mode: Wavelengths
Number of Pixels in Spectrum: 2048
>>>>>Begin Spectral Data<<<<<
223.165	-16.56
223.4	-16.56
223.635	-16.56
223.869	-22.56
224.104	-19.56
224.338	-3.56
224.573	-30.56
224.808	-9.56
225.042	-6.56
225.277	5.44
225.511	-2.56
225.746	8.44
225.98	2.44
226.215	27.44
226.449	7.44
226.683	14.44
226.918	16.44
227.152	29.44
227.387	21.44
227.621	47.44
227.856	36.44
228.09	53.44
228.324	50.44
228.559	49.44
228.793	61.44
229.027	109.44
229.262	91.44
229.496	125.44
229.73	124.44
229.964	162.44
230.199	132.44
230.433	112.44
230.667	101.44
230.901	103.44
231.136	112.44
231.37	112.44
231.604	103.44
231.838	103.44
232.072	101.44
232.306	104.44
232.541	97.44
232.775	107.44
233.009	115.44
233.243	128.44
233.477	106.44
233.711	123.44
233.945	107.44
234.179	122.44
234.413	115.44
234.647	109.44
234.881	132.44
235.115	104.44
235.349	109.44
235.583	119.44
235.817	117.44
236.051	119.44
236.285	121.44
236.519	120.44
236.753	112.44
236.987	139.44
237.221	173.44
237.455	226.44
237.689	156.44
237.922	137.44
238.156	133.44
238.39	129.44
238.624	120.44
238.858	114.44
239.091	126.44
239.325	123.44
239.559	121.44
239.793	123.44
240.027	139.44
240.26	146.44
240.494	167.44
240.728	147.44
240.961	142.44
241.195	134.44
241.429	131.44
241.662	124.44
241.896	127.44
242.13	141.44
242.363	139.44
242.597	119.44
242.83	128.44
243.064	140.44
243.298	115.44
243.531	157.44
243.765	141.44
243.998	125.44
244.232	142.44
244.465	140.44
244.699	138.44
244.932	123.44
245.166	155.44
245.399	139.44
245.633	158.44
245.866	135.44
246.099	139.44
246.333	149.44
246.566	138.44
246.8	139.44
247.033	147.44
247.266	147.44
247.5	153.44
247.733	164.44
247.966	172.44
248.2	182.44
248.433	171.44
248.666	166.44
248.899	180.44
249.133	183.44
249.366	186.44
249.599	177.44
249.832	191.44
250.066	174.44
250.299	167.44
250.532	181.44
250.765	198.44
250.998	218.44
251.231	204.44
251.465	198.44
251.698	203.44
251.931	183.44
252.164	197.44
252.397	196.44
252.63	187.44
252.863	189.44
253.096	199.44
253.329	198.44
253.562	223.44
253.795	207.44
254.028	217.44
254.261	202.44
254.494	213.44
254.727	242.44
254.96	265.44
255.193	238.44
255.426	224.44
255.659	237.44
255.892	228.44
256.124	213.44
256.357	237.44
256.59	239.44
256.823	211.44
257.056	216.44
257.289	199.44
257.521	207.44
257.754	213.44
257.987	200.44
258.22	195.44
258.452	196.44
258.685	187.44
258.918	191.44
259.151	202.44
259.383	205.44
259.616	212.44
259.849	205.44
260.081	215.44
260.314	230.44
260.547	233.44
260.779	232.44
261.012	227.44
261.244	218.44
261.477	213.44
261.71	216.44
261.942	209.44
262.175	241.44
262.407	234.44
262.64	205.44
262.872	211.44
263.105	217.44
263.337	208.44
263.57	223.44
263.802	205.44
264.035	207.44
264.267	209.44
264.499	215.44
264.732	215.44
264.964	211.44
265.197	206.44
265.429	209.44
265.661	199.44
265.894	207.44
266.126	211.44
266.358	220.44
266.591	219.44
266.823	212.44
267.055	216.44
267.287	234.44
267.52	217.44
267.752	222.44
267.984	205.44
268.216	192.44
268.448	210.44
268.681	228.44
268.913	214.44
269.145	242.44
269.377	276.44
269.609	258.44
269.841	261.44
270.073	245.44
270.306	262.44
270.538	289.44
270.77	294.44
271.002	277.44
271.234	273.44
271.466	278.44
271.698	282.44
271.93	290.44
272.162	291.44
272.394	287.44
272.626	261.44
272.858	264.44
273.09	253.44
273.322	275.44
273.553	234.44
273.785	256.44
274.017	241.44
274.249	241.44
274.481	262.44
274.713	264.44
274.945	249.44
275.176	248.44
275.408	273.44
275.64	264.44
275.872	253.44
276.104	249.44
276.335	261.44
276.567	268.44
276.799	255.44
277.031	291.44
277.262	293.44
277.494	290.44
277.726	295.44
277.957	294.44
278.189	271.44
278.421	259.44
278.652	271.44
278.884	246.44
279.115	242.44
279.347	255.44
279.579	264.44
279.81	262.44
280.042	272.44
280.273	270.44
280.505	272.44
280.736	261.44
280.968	261.44
281.199	262.44
281.431	246.44
281.662	263.44
281.894	272.44
282.125	257.44
282.356	300.44
282.588	293.44
282.819	300.44
283.051	273.44
283.282	268.44
283.513	263.44
283.745	279.44
283.976	264.44
284.207	282.44
284.439	272.44
284.67	268.44
284.901	279.44
285.132	282.44
285.364	275.44
285.595	268.44
285.826	267.44
286.057	264.44
286.288	267.44
286.52	264.44
286.751	265.44
286.982	271.44
287.213	257.44
287.444	297.44
287.675	295.44
287.906	296.44
288.138	296.44
288.369	306.44
288.6	293.44
288.831	287.44
289.062	296.44
289.293	289.44
289.524	283.44
289.755	279.44
289.986	294.44
290.217	292.44
290.448	275.44
290.679	288.44
290.91	281.44
291.141	284.44
291.371	277.44
291.602	283.44
291.833	295.44
292.064	292.44
292.295	290.44
292.526	294.44
292.757	285.44
292.987	293.44
293.218	269.44
293.449	289.44
293.68	273.44
293.91	300.44
294.141	303.44
294.372	269.44
294.603	283.44
294.833	298.44
295.064	309.44
295.295	293.44
295.525	300.44
295.756	292.44
295.987	299.44
296.217	319.44
296.448	335.44
296.679	306.44
296.909	299.44
297.14	305.44
297.37	310.44
297.601	279.44
297.831	291.44
298.062	304.44
298.292	292.44
298.523	303.44
298.753	304.44
298.984	299.44
299.214	308.44
299.445	304.44
299.675	304.44
299.905	318.44
300.136	308.44
300.366	300.44
300.597	319.44
300.827	296.44
301.057	307.44
301.288	317.44
301.518	319.44
301.748	317.44
301.979	313.44
302.209	326.44
302.439	330.44
302.669	328.44
302.9	325.44
303.13	326.44
303.36	330.44
303.59	326.44
303.82	332.44
304.051	324.44
304.281	324.44
304.511	315.44
304.741	315.44
304.971	312.44
305.201	325.44
305.431	315.44
305.661	322.44
305.891	334.44
306.121	328.44
306.352	329.44
306.582	323.44
306.812	320.44
307.042	338.44
307.272	326.44
307.502	327.44
307.731	331.44
307.961	327.44
308.191	331.44
308.421	337.44
308.651	340.44
308.881	340.44
309.111	340.44
309.341	341.44
309.571	345.44
309.8	336.44
310.03	351.44
310.26	353.44
310.49	362.44
310.72	375.44
310.949	373.44
311.179	391.44
311.409	375.44
311.639	360.44
311.868	385.44
312.098	385.44
312.328	380.44
312.557	389.44
312.787	390.44
313.017	405.44
313.246	374.44
313.476	353.44
313.706	356.44
313.935	373.44
314.165	395.44
314.394	376.44
314.624	386.44
314.853	391.44
315.083	383.44
315.312	374.44
315.542	346.44
315.771	371.44
316.001	344.44
316.23	349.44
316.46	376.44
316.689	391.44
316.919	388.44
317.148	402.44
317.377	388.44
317.607	380.44
317.836	381.44
318.065	380.44
318.295	353.44
318.524	358.44
318.753	351.44
318.983	356.44
319.212	392.44
319.441	370.44
319.67	387.44
319.9	383.44
320.129	378.44
320.358	383.44
320.587	382.44
320.816	386.44
321.046	387.44
321.275	389.44
321.504	382.44
321.733	393.44
321.962	397.44
322.191	404.44
322.42	431.44
322.649	444.44
322.878	437.44
323.108	460.44
323.337	458.44
323.566	487.44
323.795	512.44
324.024	535.44
324.253	636.44
324.482	886.44
324.71	1441.44
324.939	2142.44
325.168	1865.44
325.397	899.44
325.626	623.44
325.855	524.44
326.084	501.44
326.313	491.44
326.542	505.44
326.77	535.44
326.999	616.44
327.228	847.44
327.457	1315.44
327.686	1611.44
327.914	1038.44
328.143	700.44
328.372	599.44
328.6	539.44
328.829	504.44
329.058	546.44
329.287	560.44
329.515	509.44
329.744	496.44
329.972	483.44
330.201	523.44
330.43	554.44
330.658	550.44
330.887	571.44
331.115	565.44
331.344	517.44
331.572	493.44
331.801	471.44
332.03	473.44
332.258	488.44
332.486	468.44
332.715	459.44
332.943	444.44
333.172	457.44
333.4	463.44
333.629	492.44
333.857	492.44
334.085	474.44
334.314	491.44
334.542	542.44
334.771	561.44
334.999	497.44
335.227	475.44
335.455	453.44
335.684	471.44
335.912	467.44
336.14	457.44
336.369	459.44
336.597	467.44
336.825	446.44
337.053	462.44
337.281	463.44
337.51	433.44
337.738	451.44
337.966	444.44
338.194	457.44
338.422	458.44
338.65	421.44
338.878	448.44
339.106	421.44
339.334	425.44
339.562	420.44
339.79	448.44
340.018	435.44
340.246	437.44
340.474	435.44
340.702	442.44
340.93	424.44
341.158	429.44
341.386	422.44
341.614	424.44
341.842	442.44
342.07	423.44
342.298	415.44
342.526	443.44
342.754	424.44
342.981	414.44
343.209	400.44
343.437	420.44
343.665	434.44
343.893	426.44
344.12	482.44
344.348	445.44
344.576	455.44
344.804	433.44
345.031	462.44
345.259	458.44
345.487	443.44
345.714	434.44
345.942	435.44
346.17	435.44
346.397	424.44
346.625	414.44
346.853	448.44
347.08	424.44
347.308	434.44
347.535	431.44
347.763	435.44
347.99	425.44
348.218	435.44
348.445	423.44
348.673	425.44
348.9	441.44
349.128	418.44
349.355	414.44
349.583	411.44
349.81	409.44
350.037	422.44
350.265	416.44
350.492	397.44
350.72	410.44
350.947	411.44
351.174	403.44
351.402	420.44
351.629	426.44
351.856	420.44
352.083	443.44
352.311	423.44
352.538	428.44
352.765	440.44
352.992	444.44
353.22	411.44
353.447	419.44
353.674	424.44
353.901	401.44
354.128	399.44
354.355	368.44
354.583	413.44
354.81	392.44
355.037	390.44
355.264	390.44
355.491	411.44
355.718	375.44
355.945	402.44
356.172	399.44
356.399	394.44
356.626	399.44
356.853	386.44
357.08	405.44
357.307	395.44
357.534	383.44
357.761	383.44
357.988	395.44
358.215	418.44
358.441	397.44
358.668	395.44
358.895	403.44
359.122	400.44
359.349	421.44
359.576	435.44
359.802	458.44
360.029	460.44
360.256	475.44
360.483	462.44
360.709	425.44
360.936	433.44
361.163	415.44
361.39	415.44
361.616	408.44
361.843	428.44
362.07	434.44
362.296	433.44
362.523	430.44
362.749	422.44
362.976	417.44
363.203	404.44
363.429	386.44
363.656	430.44
363.882	406.44
364.109	414.44
364.335	415.44
364.562	397.44
364.788	411.44
365.015	412.44
365.241	378.44
365.468	394.44
365.694	404.44
365.92	421.44
366.147	411.44
366.373	409.44
366.599	417.44
366.826	410.44
367.052	414.44
367.278	413.44
367.505	410.44
367.731	433.44
367.957	392.44
368.184	403.44
368.41	433.44
368.636	447.44
368.862	443.44
369.089	396.44
369.315	429.44
369.541	424.44
369.767	412.44
369.993	407.44
370.219	415.44
370.445	424.44
370.672	403.44
370.898	421.44
371.124	403.44
371.35	400.44
371.576	408.44
371.802	387.44
372.028	427.44
372.254	420.44
372.48	397.44
372.706	429.44
372.932	417.44
373.158	404.44
373.384	433.44
373.61	412.44
373.835	423.44
374.061	423.44
374.287	431.44
374.513	421.44
374.739	435.44
374.965	428.44
375.191	426.44
375.416	453.44
375.642	440.44
375.868	424.44
376.094	443.44
376.319	416.44
376.545	437.44
376.771	403.44
376.997	416.44
377.222	431.44
377.448	417.44
377.674	407.44
377.899	416.44
378.125	404.44
378.35	428.44
378.576	417.44
378.802	409.44
379.027	417.44
379.253	421.44
379.478	427.44
379.704	421.44
379.929	423.44
380.155	432.44
380.38	420.44
380.606	424.44
380.831	416.44
381.057	436.44
381.282	428.44
381.507	425.44
381.733	432.44
381.958	423.44
382.184	425.44
382.409	432.44
382.634	437.44
382.86	422.44
383.085	434.44
383.31	439.44
383.535	455.44
383.761	429.44
383.986	450.44
384.211	445.44
384.436	460.44
384.662	447.44
384.887	455.44
385.112	447.44
385.337	446.44
385.562	492.44
385.787	449.44
386.013	464.44
386.238	500.44
386.463	475.44
386.688	478.44
386.913	467.44
387.138	468.44
387.363	469.44
387.588	488.44
387.813	458.44
388.038	464.44
388.263	472.44
388.488	480.44
388.713	476.44
388.938	487.44
389.163	466.44
389.387	471.44
389.612	451.44
389.837	447.44
390.062	460.44
390.287	462.44
390.512	477.44
390.736	455.44
390.961	478.44
391.186	473.44
391.411	471.44
391.636	499.44
391.86	511.44
392.085	497.44
392.31	497.44
392.534	495.44
392.759	479.44
392.984	479.44
393.208	478.44
393.433	474.44
393.658	480.44
393.882	482.44
394.107	474.44
394.331	485.44
394.556	482.44
394.78	466.44
395.005	499.44
395.229	485.44
395.454	508.44
395.678	511.44
395.903	507.44
396.127	524.44
396.352	531.44
396.576	504.44
396.801	483.44
397.025	523.44
397.249	516.44
397.474	525.44
397.698	518.44
397.922	511.44
398.147	524.44
398.371	546.44
398.595	539.44
398.82	527.44
399.044	571.44
399.268	599.44
399.492	618.44
399.717	661.44
399.941	698.44
400.165	683.44
400.389	701.44
400.613	612.44
400.837	577.44
401.062	580.44
401.286	580.44
401.51	536.44
401.734	554.44
401.958	563.44
402.182	583.44
402.406	597.44
402.63	576.44
402.854	583.44
403.078	548.44
403.302	593.44
403.526	569.44
403.75	582.44
403.974	571.44
404.198	609.44
404.422	627.44
404.645	599.44
404.869	605.44
405.093	651.44
405.317	667.44
405.541	681.44
405.765	642.44
405.988	593.44
406.212	617.44
406.436	634.44
406.66	645.44
406.883	651.44
407.107	656.44
407.331	711.44
407.555	751.44
407.778	776.44
408.002	714.44
408.226	674.44
408.449	645.44
408.673	645.44
408.896	681.44
409.12	728.44
409.344	666.44
409.567	604.44
409.791	632.44
410.014	572.44
410.238	640.44
410.461	584.44
410.685	618.44
410.908	601.44
411.132	635.44
411.355	679.44
411.578	645.44
411.802	579.44
412.025	576.44
412.249	585.44
412.472	615.44
412.695	649.44
412.919	601.44
413.142	605.44
413.365	607.44
413.589	569.44
413.812	575.44
414.035	585.44
414.258	554.44
414.482	545.44
414.705	555.44
414.928	553.44
415.151	558.44
415.374	561.44
415.597	562.44
415.821	557.44
416.044	559.44
416.267	553.44
416.49	544.44
416.713	571.44
416.936	547.44
417.159	529.44
417.382	537.44
417.605	547.44
417.828	561.44
418.051	599.44
418.274	566.44
418.497	557.44
418.72	573.44
418.943	572.44
419.166	590.44
419.389	603.44
419.611	598.44
419.834	569.44
420.057	607.44
420.28	589.44
420.503	553.44
420.726	565.44
420.948	577.44
421.171	602.44
421.394	683.44
421.617	582.44
421.839	575.44
422.062	578.44
422.285	604.44
422.507	682.44
422.73	717.44
422.953	697.44
423.175	620.44
423.398	592.44
423.621	584.44
423.843	638.44
424.066	621.44
424.288	618.44
424.511	645.44
424.733	669.44
424.956	760.44
425.178	739.44
425.401	723.44
425.623	788.44
425.846	677.44
426.068	621.44
426.291	597.44
426.513	589.44
426.735	619.44
426.958	649.44
427.18	742.44
427.402	890.44
427.625	959.44
427.847	815.44
428.069	707.44
428.292	652.44
428.514	603.44
428.736	608.44
428.958	576.44
429.181	552.44
429.403	569.44
429.625	567.44
429.847	631.44
430.069	657.44
430.292	658.44
430.514	597.44
430.736	561.44
430.958	571.44
431.18	544.44
431.402	548.44
431.624	531.44
431.846	536.44
432.068	533.44
432.29	554.44
432.512	523.44
432.734	547.44
432.956	569.44
433.178	559.44
433.4	570.44
433.622	548.44
433.844	568.44
434.066	550.44
434.287	542.44
434.509	553.44
434.731	560.44
434.953	566.44
435.175	575.44
435.397	614.44
435.618	616.44
435.84	644.44
436.062	742.44
436.284	845.44
436.505	691.44
436.727	604.44
436.949	585.44
437.17	575.44
437.392	578.44
437.614	583.44
437.835	612.44
438.057	722.44
438.278	775.44
438.5	811.44
438.721	891.44
438.943	845.44
439.165	667.44
439.386	624.44
439.608	639.44
439.829	609.44
440.05	626.44
440.272	699.44
440.493	650.44
440.715	595.44
440.936	568.44
441.158	581.44
441.379	610.44
441.6	590.44
441.822	608.44
442.043	648.44
442.264	745.44
442.486	769.44
442.707	671.44
442.928	637.44
443.149	628.44
443.371	634.44
443.592	696.44
443.813	791.44
444.034	850.44
444.255	713.44
444.476	659.44
444.698	627.44
444.919	629.44
445.14	732.44
445.361	712.44
445.582	667.44
445.803	742.44
446.024	839.44
446.245	820.44
446.466	753.44
446.687	672.44
446.908	616.44
447.129	567.44
447.35	553.44
447.571	560.44
447.792	552.44
448.013	567.44
448.234	591.44
448.455	600.44
448.675	730.44
448.896	875.44
449.117	717.44
449.338	682.44
449.559	773.44
449.779	881.44
450	701.44
450.221	613.44
450.442	554.44
450.662	570.44
450.883	555.44
451.104	567.44
451.324	547.44
451.545	531.44
451.766	526.44
451.986	520.44
452.207	489.44
452.428	496.44
452.648	497.44
452.869	511.44
453.089	519.44
453.31	526.44
453.53	513.44
453.751	502.44
453.971	503.44
454.192	539.44
454.412	507.44
454.633	527.44
454.853	477.44
455.073	498.44
455.294	531.44
455.514	623.44
455.734	586.44
455.955	508.44
456.175	488.44
456.395	475.44
456.616	506.44
456.836	481.44
457.056	475.44
457.276	494.44
457.497	488.44
457.717	473.44
457.937	513.44
458.157	498.44
458.377	484.44
458.598	523.44
458.818	559.44
459.038	657.44
459.258	695.44
459.478	593.44
459.698	546.44
459.918	552.44
460.138	546.44
460.358	571.44
460.578	547.44
460.798	574.44
461.018	575.44
461.238	585.44
461.458	564.44
461.678	562.44
461.898	589.44
462.118	576.44
462.338	581.44
462.558	597.44
462.777	589.44
462.997	616.44
463.217	636.44
463.437	643.44
463.657	629.44
463.876	619.44
464.096	620.44
464.316	610.44
464.536	634.44
464.755	636.44
464.975	621.44
465.195	655.44
465.414	711.44
465.634	643.44
465.854	597.44
466.073	576.44
466.293	566.44
466.512	520.44
466.732	523.44
466.951	523.44
467.171	526.44
467.391	536.44
467.61	510.44
467.829	521.44
468.049	536.44
468.268	540.44
468.488	524.44
468.707	516.44
468.927	508.44
469.146	533.44
469.365	507.44
469.585	523.44
469.804	530.44
470.023	535.44
470.243	520.44
470.462	537.44
470.681	532.44
470.901	554.44
471.12	549.44
471.339	531.44
471.558	517.44
471.777	537.44
471.997	535.44
472.216	545.44
472.435	580.44
472.654	562.44
472.873	528.44
473.092	540.44
473.311	543.44
473.53	534.44
473.749	554.44
473.968	572.44
474.187	666.44
474.406	689.44
474.625	594.44
474.844	533.44
475.063	519.44
475.282	533.44
475.501	553.44
475.72	552.44
475.939	540.44
476.158	535.44
476.377	540.44
476.596	548.44
476.814	567.44
477.033	553.44
477.252	571.44
477.471	567.44
477.69	574.44
477.908	581.44
478.127	581.44
478.346	581.44
478.564	608.44
478.783	622.44
479.002	623.44
479.22	609.44
479.439	618.44
479.658	641.44
479.876	655.44
480.095	642.44
480.313	667.44
480.532	646.44
480.751	651.44
480.969	662.44
481.188	722.44
481.406	753.44
481.624	649.44
481.843	624.44
482.061	620.44
482.28	614.44
482.498	615.44
482.717	632.44
482.935	629.44
483.153	599.44
483.372	593.44
483.59	636.44
483.808	639.44
484.027	629.44
484.245	630.44
484.463	617.44
484.681	631.44
484.9	645.44
485.118	634.44
485.336	608.44
485.554	631.44
485.772	632.44
485.99	662.44
486.209	639.44
486.427	648.44
486.645	650.44
486.863	657.44
487.081	641.44
487.299	662.44
487.517	665.44
487.735	676.44
487.953	688.44
488.171	643.44
488.389	673.44
488.607	660.44
488.825	628.44
489.043	653.44
489.261	662.44
489.479	687.44
489.696	647.44
489.914	683.44
490.132	701.44
490.35	675.44
490.568	699.44
490.786	700.44
491.003	721.44
491.221	737.44
491.439	697.44
491.657	747.44
491.874	737.44
492.092	762.44
492.31	743.44
492.527	757.44
492.745	749.44
492.963	767.44
493.18	752.44
493.398	771.44
493.615	767.44
493.833	785.44
494.05	774.44
494.268	786.44
494.485	785.44
494.703	758.44
494.92	792.44
495.138	774.44
495.355	767.44
495.573	766.44
495.79	781.44
496.008	779.44
496.225	770.44
496.442	775.44
496.66	794.44
496.877	801.44
497.094	815.44
497.312	797.44
497.529	819.44
497.746	831.44
497.963	816.44
498.181	877.44
498.398	871.44
498.615	892.44
498.832	935.44
499.049	943.44
499.267	959.44
499.484	1002.44
499.701	1090.44
499.918	1135.44
500.135	1126.44
500.352	1241.44
500.569	1233.44
500.786	1225.44
501.003	1212.44
501.22	1152.44
501.437	1125.44
501.654	1075.44
501.871	1065.44
