Data from 1979.PennyLincolnUp.Lamp.En5.5.200Scan.071719.P1_HRD10591_16-18-12-863.txt Node
Date: Thu Jul 18 16:18:12 EDT 2019
User: cochatt
Spectrometer: HR+D1059
Trigger mode: 1
Integration Time (sec): 1.000000E-1
Scans to average: 1
Electric dark correction enabled: true
Nonlinearity correction enabled: false
Boxcar width: 0
XAxis mode: Wavelengths
Number of Pixels in Spectrum: 2048
>>>>>Begin Spectral Data<<<<<
223.165	-21.94
223.4	-21.94
223.635	-21.94
223.869	-18.94
224.104	-27.94
224.338	-23.94
224.573	-15.94
224.808	-16.94
225.042	-15.94
225.277	-0.94
225.511	-9.94
225.746	8.06
225.98	12.06
226.215	-2.94
226.449	34.06
226.683	31.06
226.918	29.06
227.152	41.06
227.387	23.06
227.621	50.06
227.856	48.06
228.09	67.06
228.324	58.06
228.559	58.06
228.793	72.06
229.027	101.06
229.262	104.06
229.496	101.06
229.73	118.06
229.964	134.06
230.199	117.06
230.433	95.06
230.667	116.06
230.901	109.06
231.136	111.06
231.37	107.06
231.604	128.06
231.838	113.06
232.072	118.06
232.306	122.06
232.541	98.06
232.775	113.06
233.009	101.06
233.243	113.06
233.477	111.06
233.711	107.06
233.945	104.06
234.179	105.06
234.413	107.06
234.647	120.06
234.881	118.06
235.115	110.06
235.349	106.06
235.583	123.06
235.817	124.06
236.051	122.06
236.285	117.06
236.519	109.06
236.753	124.06
236.987	130.06
237.221	150.06
237.455	208.06
237.689	167.06
237.922	125.06
238.156	119.06
238.39	130.06
238.624	130.06
238.858	122.06
239.091	137.06
239.325	132.06
239.559	136.06
239.793	124.06
240.027	131.06
240.26	145.06
240.494	130.06
240.728	139.06
240.961	133.06
241.195	139.06
241.429	131.06
241.662	130.06
241.896	131.06
242.13	133.06
242.363	126.06
242.597	143.06
242.83	141.06
243.064	125.06
243.298	130.06
243.531	142.06
243.765	134.06
243.998	158.06
244.232	136.06
244.465	138.06
244.699	154.06
244.932	150.06
245.166	130.06
245.399	138.06
245.633	138.06
245.866	144.06
246.099	147.06
246.333	151.06
246.566	150.06
246.8	151.06
247.033	135.06
247.266	159.06
247.5	163.06
247.733	138.06
247.966	168.06
248.2	170.06
248.433	160.06
248.666	166.06
248.899	194.06
249.133	175.06
249.366	194.06
249.599	175.06
249.832	181.06
250.066	179.06
250.299	156.06
250.532	174.06
250.765	194.06
250.998	196.06
251.231	209.06
251.465	190.06
251.698	186.06
251.931	189.06
252.164	167.06
252.397	174.06
252.63	185.06
252.863	176.06
253.096	188.06
253.329	200.06
253.562	226.06
253.795	205.06
254.028	198.06
254.261	192.06
254.494	198.06
254.727	222.06
254.96	246.06
255.193	232.06
255.426	234.06
255.659	206.06
255.892	210.06
256.124	207.06
256.357	206.06
256.59	209.06
256.823	189.06
257.056	176.06
257.289	193.06
257.521	197.06
257.754	201.06
257.987	210.06
258.22	189.06
258.452	198.06
258.685	192.06
258.918	188.06
259.151	190.06
259.383	194.06
259.616	204.06
259.849	207.06
260.081	208.06
260.314	219.06
260.547	227.06
260.779	192.06
261.012	183.06
261.244	219.06
261.477	197.06
261.71	201.06
261.942	214.06
262.175	213.06
262.407	200.06
262.64	199.06
262.872	198.06
263.105	203.06
263.337	215.06
263.57	198.06
263.802	196.06
264.035	206.06
264.267	188.06
264.499	196.06
264.732	203.06
264.964	207.06
265.197	195.06
265.429	218.06
265.661	183.06
265.894	205.06
266.126	178.06
266.358	200.06
266.591	212.06
266.823	229.06
267.055	204.06
267.287	205.06
267.52	210.06
267.752	202.06
267.984	189.06
268.216	192.06
268.448	202.06
268.681	231.06
268.913	221.06
269.145	242.06
269.377	233.06
269.609	244.06
269.841	232.06
270.073	239.06
270.306	240.06
270.538	279.06
270.77	256.06
271.002	258.06
271.234	243.06
271.466	254.06
271.698	261.06
271.93	283.06
272.162	269.06
272.394	261.06
272.626	256.06
272.858	255.06
273.09	255.06
273.322	240.06
273.553	236.06
273.785	230.06
274.017	228.06
274.249	234.06
274.481	246.06
274.713	230.06
274.945	252.06
275.176	262.06
275.408	251.06
275.64	247.06
275.872	246.06
276.104	259.06
276.335	249.06
276.567	253.06
276.799	242.06
277.031	278.06
277.262	273.06
277.494	278.06
277.726	271.06
277.957	273.06
278.189	264.06
278.421	253.06
278.652	249.06
278.884	242.06
279.115	249.06
279.347	242.06
279.579	248.06
279.81	240.06
280.042	238.06
280.273	259.06
280.505	260.06
280.736	263.06
280.968	253.06
281.199	231.06
281.431	257.06
281.662	248.06
281.894	242.06
282.125	246.06
282.356	256.06
282.588	271.06
282.819	291.06
283.051	259.06
283.282	244.06
283.513	244.06
283.745	245.06
283.976	247.06
284.207	247.06
284.439	282.06
284.67	274.06
284.901	270.06
285.132	251.06
285.364	247.06
285.595	248.06
285.826	251.06
286.057	248.06
286.288	272.06
286.52	287.06
286.751	258.06
286.982	252.06
287.213	271.06
287.444	271.06
287.675	291.06
287.906	287.06
288.138	270.06
288.369	272.06
288.6	284.06
288.831	272.06
289.062	276.06
289.293	282.06
289.524	268.06
289.755	264.06
289.986	280.06
290.217	276.06
290.448	284.06
290.679	279.06
290.91	274.06
291.141	267.06
291.371	272.06
291.602	271.06
291.833	287.06
292.064	272.06
292.295	262.06
292.526	254.06
292.757	276.06
292.987	269.06
293.218	282.06
293.449	278.06
293.68	281.06
293.91	279.06
294.141	280.06
294.372	280.06
294.603	280.06
294.833	277.06
295.064	282.06
295.295	286.06
295.525	281.06
295.756	290.06
295.987	292.06
296.217	300.06
296.448	321.06
296.679	292.06
296.909	292.06
297.14	291.06
297.37	282.06
297.601	287.06
297.831	300.06
298.062	293.06
298.292	293.06
298.523	298.06
298.753	298.06
298.984	296.06
299.214	292.06
299.445	285.06
299.675	301.06
299.905	300.06
300.136	274.06
300.366	285.06
300.597	306.06
300.827	298.06
301.057	312.06
301.288	332.06
301.518	320.06
301.748	313.06
301.979	301.06
302.209	314.06
302.439	314.06
302.669	323.06
302.9	310.06
303.13	312.06
303.36	323.06
303.59	323.06
303.82	304.06
304.051	314.06
304.281	326.06
304.511	299.06
304.741	306.06
304.971	322.06
305.201	301.06
305.431	328.06
305.661	312.06
305.891	315.06
306.121	300.06
306.352	315.06
306.582	308.06
306.812	299.06
307.042	328.06
307.272	318.06
307.502	295.06
307.731	301.06
307.961	342.06
308.191	329.06
308.421	322.06
308.651	308.06
308.881	318.06
309.111	322.06
309.341	318.06
309.571	340.06
309.8	318.06
310.03	333.06
310.26	347.06
310.49	356.06
310.72	339.06
310.949	345.06
311.179	359.06
311.409	349.06
311.639	338.06
311.868	331.06
312.098	328.06
312.328	363.06
312.557	356.06
312.787	364.06
313.017	372.06
313.246	371.06
313.476	346.06
313.706	348.06
313.935	353.06
314.165	358.06
314.394	358.06
314.624	371.06
314.853	350.06
315.083	349.06
315.312	348.06
315.542	366.06
315.771	344.06
316.001	357.06
316.23	336.06
316.46	359.06
316.689	371.06
316.919	356.06
317.148	378.06
317.377	370.06
317.607	385.06
317.836	349.06
318.065	357.06
318.295	365.06
318.524	345.06
318.753	346.06
318.983	356.06
319.212	360.06
319.441	352.06
319.67	379.06
319.9	359.06
320.129	346.06
320.358	382.06
320.587	388.06
320.816	380.06
321.046	374.06
321.275	380.06
321.504	381.06
321.733	385.06
321.962	372.06
322.191	374.06
322.42	373.06
322.649	393.06
322.878	403.06
323.108	407.06
323.337	443.06
323.566	440.06
323.795	459.06
324.024	508.06
324.253	576.06
324.482	775.06
324.71	1238.06
324.939	1853.06
325.168	1609.06
325.397	794.06
325.626	570.06
325.855	483.06
326.084	457.06
326.313	446.06
326.542	448.06
326.77	492.06
326.999	563.06
327.228	751.06
327.457	1172.06
327.686	1422.06
327.914	913.06
328.143	638.06
328.372	541.06
328.6	484.06
328.829	481.06
329.058	508.06
329.287	510.06
329.515	492.06
329.744	464.06
329.972	452.06
330.201	448.06
330.43	490.06
330.658	502.06
330.887	553.06
331.115	522.06
331.344	482.06
331.572	445.06
331.801	447.06
332.03	445.06
332.258	450.06
332.486	442.06
332.715	442.06
332.943	423.06
333.172	434.06
333.4	453.06
333.629	464.06
333.857	444.06
334.085	454.06
334.314	473.06
334.542	479.06
334.771	484.06
334.999	486.06
335.227	459.06
335.455	454.06
335.684	424.06
335.912	420.06
336.14	418.06
336.369	410.06
336.597	430.06
336.825	428.06
337.053	431.06
337.281	424.06
337.51	411.06
337.738	434.06
337.966	430.06
338.194	437.06
338.422	406.06
338.65	426.06
338.878	437.06
339.106	430.06
339.334	418.06
339.562	426.06
339.79	425.06
340.018	410.06
340.246	393.06
340.474	410.06
340.702	425.06
340.93	403.06
341.158	426.06
341.386	398.06
341.614	400.06
341.842	420.06
342.07	426.06
342.298	422.06
342.526	388.06
342.754	401.06
342.981	408.06
343.209	394.06
343.437	418.06
343.665	417.06
343.893	412.06
344.12	442.06
344.348	430.06
344.576	415.06
344.804	437.06
345.031	434.06
345.259	397.06
345.487	425.06
345.714	393.06
345.942	421.06
346.17	393.06
346.397	386.06
346.625	411.06
346.853	419.06
347.08	404.06
347.308	412.06
347.535	397.06
347.763	399.06
347.99	431.06
348.218	390.06
348.445	422.06
348.673	406.06
348.9	390.06
349.128	408.06
349.355	403.06
349.583	399.06
349.81	404.06
350.037	396.06
350.265	394.06
350.492	373.06
350.72	369.06
350.947	401.06
351.174	399.06
351.402	407.06
351.629	388.06
351.856	390.06
352.083	407.06
352.311	422.06
352.538	403.06
352.765	424.06
352.992	410.06
353.22	405.06
353.447	406.06
353.674	413.06
353.901	396.06
354.128	379.06
354.355	359.06
354.583	374.06
354.81	382.06
355.037	373.06
355.264	376.06
355.491	367.06
355.718	376.06
355.945	377.06
356.172	377.06
356.399	361.06
356.626	396.06
356.853	364.06
357.08	387.06
357.307	382.06
357.534	372.06
357.761	378.06
357.988	378.06
358.215	395.06
358.441	389.06
358.668	361.06
358.895	375.06
359.122	376.06
359.349	378.06
359.576	408.06
359.802	414.06
360.029	408.06
360.256	440.06
360.483	449.06
360.709	413.06
360.936	390.06
361.163	391.06
361.39	403.06
361.616	392.06
361.843	427.06
362.07	412.06
362.296	415.06
362.523	408.06
362.749	391.06
362.976	390.06
363.203	387.06
363.429	387.06
363.656	389.06
363.882	393.06
364.109	404.06
364.335	401.06
364.562	395.06
364.788	404.06
365.015	376.06
365.241	365.06
365.468	400.06
365.694	382.06
365.92	394.06
366.147	390.06
366.373	389.06
366.599	395.06
366.826	406.06
367.052	385.06
367.278	387.06
367.505	391.06
367.731	407.06
367.957	388.06
368.184	396.06
368.41	403.06
368.636	400.06
368.862	421.06
369.089	399.06
369.315	403.06
369.541	386.06
369.767	408.06
369.993	408.06
370.219	405.06
370.445	400.06
370.672	395.06
370.898	415.06
371.124	382.06
371.35	429.06
371.576	408.06
371.802	401.06
372.028	415.06
372.254	408.06
372.48	397.06
372.706	399.06
372.932	398.06
373.158	401.06
373.384	415.06
373.61	405.06
373.835	387.06
374.061	395.06
374.287	418.06
374.513	412.06
374.739	406.06
374.965	428.06
375.191	422.06
375.416	422.06
375.642	415.06
375.868	396.06
376.094	415.06
376.319	406.06
376.545	411.06
376.771	390.06
376.997	399.06
377.222	397.06
377.448	381.06
377.674	392.06
377.899	423.06
378.125	380.06
378.35	399.06
378.576	401.06
378.802	406.06
379.027	411.06
379.253	412.06
379.478	411.06
379.704	374.06
379.929	399.06
380.155	382.06
380.38	401.06
380.606	397.06
380.831	396.06
381.057	401.06
381.282	410.06
381.507	396.06
381.733	403.06
381.958	398.06
382.184	426.06
382.409	417.06
382.634	414.06
382.86	412.06
383.085	411.06
383.31	399.06
383.535	429.06
383.761	419.06
383.986	409.06
384.211	420.06
384.436	436.06
384.662	425.06
384.887	436.06
385.112	443.06
385.337	446.06
385.562	434.06
385.787	467.06
386.013	477.06
386.238	467.06
386.463	439.06
386.688	456.06
386.913	444.06
387.138	450.06
387.363	446.06
387.588	461.06
387.813	446.06
388.038	437.06
388.263	432.06
388.488	468.06
388.713	455.06
388.938	464.06
389.163	443.06
389.387	461.06
389.612	467.06
389.837	459.06
390.062	448.06
390.287	448.06
390.512	438.06
390.736	451.06
390.961	472.06
391.186	456.06
391.411	470.06
391.636	459.06
391.86	484.06
392.085	484.06
392.31	471.06
392.534	459.06
392.759	459.06
392.984	471.06
393.208	477.06
393.433	484.06
393.658	485.06
393.882	480.06
394.107	438.06
394.331	480.06
394.556	454.06
394.78	471.06
395.005	477.06
395.229	468.06
395.454	488.06
395.678	472.06
395.903	503.06
396.127	519.06
396.352	499.06
396.576	484.06
396.801	474.06
397.025	488.06
397.249	479.06
397.474	485.06
397.698	492.06
397.922	523.06
398.147	514.06
398.371	513.06
398.595	534.06
398.82	528.06
399.044	528.06
399.268	563.06
399.492	609.06
399.717	636.06
399.941	652.06
400.165	649.06
400.389	656.06
400.613	593.06
400.837	591.06
401.062	559.06
401.286	531.06
401.51	543.06
401.734	534.06
401.958	551.06
402.182	537.06
402.406	566.06
402.63	534.06
402.854	548.06
403.078	559.06
403.302	562.06
403.526	596.06
403.75	569.06
403.974	536.06
404.198	532.06
404.422	586.06
404.645	571.06
404.869	578.06
405.093	613.06
405.317	627.06
405.541	643.06
405.765	600.06
405.988	598.06
406.212	590.06
406.436	615.06
406.66	645.06
406.883	605.06
407.107	621.06
407.331	669.06
407.555	709.06
407.778	710.06
408.002	664.06
408.226	638.06
408.449	632.06
408.673	630.06
408.896	629.06
409.12	691.06
409.344	673.06
409.567	580.06
409.791	605.06
410.014	569.06
410.238	570.06
410.461	575.06
410.685	575.06
410.908	602.06
411.132	612.06
411.355	635.06
411.578	603.06
411.802	579.06
412.025	556.06
412.249	567.06
412.472	593.06
412.695	628.06
412.919	610.06
413.142	578.06
413.365	556.06
413.589	548.06
413.812	555.06
414.035	524.06
414.258	522.06
414.482	539.06
414.705	542.06
414.928	556.06
415.151	548.06
415.374	528.06
415.597	530.06
415.821	544.06
416.044	542.06
416.267	539.06
416.49	536.06
416.713	527.06
416.936	542.06
417.159	520.06
417.382	526.06
417.605	520.06
417.828	556.06
418.051	558.06
418.274	550.06
418.497	540.06
418.72	534.06
418.943	536.06
419.166	546.06
419.389	596.06
419.611	588.06
419.834	576.06
420.057	584.06
420.28	565.06
420.503	539.06
420.726	532.06
420.948	554.06
421.171	595.06
421.394	624.06
421.617	538.06
421.839	559.06
422.062	561.06
422.285	555.06
422.507	594.06
422.73	680.06
422.953	670.06
423.175	587.06
423.398	572.06
423.621	542.06
423.843	596.06
424.066	598.06
424.288	584.06
424.511	584.06
424.733	639.06
424.956	720.06
425.178	694.06
425.401	682.06
425.623	717.06
425.846	617.06
426.068	606.06
426.291	599.06
426.513	587.06
426.735	581.06
426.958	614.06
427.18	686.06
427.402	810.06
427.625	879.06
427.847	758.06
428.069	677.06
428.292	591.06
428.514	579.06
428.736	537.06
428.958	564.06
429.181	555.06
429.403	557.06
429.625	530.06
429.847	554.06
430.069	630.06
430.292	630.06
430.514	563.06
430.736	546.06
430.958	553.06
431.18	528.06
431.402	536.06
431.624	521.06
431.846	510.06
432.068	538.06
432.29	506.06
432.512	523.06
432.734	498.06
432.956	519.06
433.178	542.06
433.4	546.06
433.622	527.06
433.844	541.06
434.066	509.06
434.287	526.06
434.509	527.06
434.731	539.06
434.953	546.06
435.175	551.06
435.397	574.06
435.618	580.06
435.84	607.06
436.062	688.06
436.284	758.06
436.505	655.06
436.727	584.06
436.949	572.06
437.17	538.06
437.392	547.06
437.614	534.06
437.835	560.06
438.057	644.06
438.278	766.06
438.5	749.06
438.721	832.06
438.943	766.06
439.165	619.06
439.386	578.06
439.608	572.06
439.829	562.06
440.05	615.06
440.272	649.06
440.493	588.06
440.715	550.06
440.936	555.06
441.158	533.06
441.379	553.06
441.6	576.06
441.822	570.06
442.043	638.06
442.264	698.06
442.486	732.06
442.707	651.06
442.928	608.06
443.149	586.06
443.371	636.06
443.592	668.06
443.813	740.06
444.034	792.06
444.255	698.06
444.476	642.06
444.698	585.06
444.919	577.06
445.14	725.06
445.361	655.06
445.582	631.06
445.803	655.06
446.024	762.06
446.245	776.06
446.466	684.06
446.687	614.06
446.908	587.06
447.129	554.06
447.35	543.06
447.571	542.06
447.792	535.06
448.013	517.06
448.234	536.06
448.455	578.06
448.675	670.06
448.896	790.06
449.117	675.06
449.338	644.06
449.559	733.06
449.779	838.06
450	663.06
450.221	587.06
450.442	520.06
450.662	524.06
450.883	533.06
451.104	539.06
451.324	514.06
451.545	501.06
451.766	478.06
451.986	462.06
452.207	471.06
452.428	470.06
452.648	488.06
452.869	479.06
453.089	518.06
453.31	494.06
453.53	482.06
453.751	483.06
453.971	490.06
454.192	470.06
454.412	488.06
454.633	476.06
454.853	471.06
455.073	481.06
455.294	518.06
455.514	548.06
455.734	574.06
455.955	502.06
456.175	472.06
456.395	452.06
456.616	450.06
456.836	464.06
457.056	474.06
457.276	451.06
457.497	469.06
457.717	454.06
457.937	459.06
458.157	461.06
458.377	471.06
458.598	518.06
458.818	541.06
459.038	634.06
459.258	632.06
459.478	555.06
459.698	540.06
459.918	523.06
460.138	527.06
460.358	542.06
460.578	532.06
460.798	540.06
461.018	542.06
461.238	557.06
461.458	552.06
461.678	550.06
461.898	569.06
462.118	542.06
462.338	581.06
462.558	566.06
462.777	592.06
462.997	615.06
463.217	613.06
463.437	635.06
463.657	614.06
463.876	606.06
464.096	603.06
464.316	568.06
464.536	580.06
464.755	585.06
464.975	586.06
465.195	614.06
465.414	656.06
465.634	607.06
465.854	544.06
466.073	562.06
466.293	516.06
466.512	510.06
466.732	539.06
466.951	502.06
467.171	498.06
467.391	511.06
467.61	506.06
467.829	531.06
468.049	523.06
468.268	509.06
468.488	495.06
468.707	487.06
468.927	493.06
469.146	502.06
469.365	481.06
469.585	473.06
469.804	501.06
470.023	520.06
470.243	500.06
470.462	507.06
470.681	521.06
470.901	540.06
471.12	502.06
471.339	506.06
471.558	519.06
471.777	516.06
471.997	503.06
472.216	507.06
472.435	538.06
472.654	536.06
472.873	490.06
473.092	491.06
473.311	523.06
473.53	507.06
473.749	532.06
473.968	555.06
474.187	641.06
474.406	627.06
474.625	553.06
474.844	518.06
475.063	511.06
475.282	520.06
475.501	515.06
475.72	521.06
475.939	506.06
476.158	533.06
476.377	508.06
476.596	512.06
476.814	518.06
477.033	522.06
477.252	547.06
477.471	545.06
477.69	549.06
477.908	571.06
478.127	536.06
478.346	556.06
478.564	564.06
478.783	559.06
479.002	582.06
479.22	605.06
479.439	620.06
479.658	627.06
479.876	598.06
480.095	596.06
480.313	646.06
480.532	640.06
480.751	628.06
480.969	636.06
481.188	675.06
481.406	715.06
481.624	628.06
481.843	607.06
482.061	613.06
482.28	622.06
482.498	582.06
482.717	608.06
482.935	590.06
483.153	575.06
483.372	591.06
483.59	593.06
483.808	594.06
484.027	595.06
484.245	605.06
484.463	599.06
484.681	615.06
484.9	603.06
485.118	600.06
485.336	603.06
485.554	616.06
485.772	616.06
485.99	612.06
486.209	635.06
486.427	628.06
486.645	622.06
486.863	629.06
487.081	644.06
487.299	633.06
487.517	638.06
487.735	620.06
487.953	632.06
488.171	620.06
488.389	613.06
488.607	626.06
488.825	634.06
489.043	643.06
489.261	639.06
489.479	644.06
489.696	636.06
489.914	639.06
490.132	649.06
490.35	633.06
490.568	643.06
490.786	683.06
491.003	685.06
491.221	671.06
491.439	694.06
491.657	685.06
491.874	708.06
492.092	708.06
492.31	730.06
492.527	717.06
492.745	721.06
492.963	704.06
493.18	704.06
493.398	719.06
493.615	742.06
493.833	722.06
494.05	727.06
494.268	732.06
494.485	723.06
494.703	736.06
494.92	734.06
495.138	742.06
495.355	719.06
495.573	743.06
495.79	756.06
496.008	728.06
496.225	767.06
496.442	774.06
496.66	758.06
496.877	750.06
497.094	778.06
497.312	755.06
497.529	811.06
497.746	766.06
497.963	784.06
498.181	803.06
498.398	836.06
498.615	830.06
498.832	869.06
499.049	878.06
499.267	900.06
499.484	986.06
499.701	1020.06
499.918	1034.06
500.135	1116.06
500.352	1154.06
500.569	1162.06
500.786	1184.06
501.003	1180.06
501.22	1135.06
501.437	1081.06
501.654	1052.06
501.871	984.06
