Data from 1979.PennyLincolnUp.Lamp.En5.5.200Scan.071719.P1_HRD10591_16-19-36-863.txt Node
Date: Thu Jul 18 16:19:36 EDT 2019
User: cochatt
Spectrometer: HR+D1059
Trigger mode: 1
Integration Time (sec): 1.000000E-1
Scans to average: 1
Electric dark correction enabled: true
Nonlinearity correction enabled: false
Boxcar width: 0
XAxis mode: Wavelengths
Number of Pixels in Spectrum: 2048
>>>>>Begin Spectral Data<<<<<
223.165	-12.31
223.4	-12.31
223.635	-12.31
223.869	-18.31
224.104	-8.31
224.338	0.69
224.573	-15.31
224.808	-15.31
225.042	-16.31
225.277	-4.31
225.511	-6.31
225.746	3.69
225.98	7.69
226.215	-0.31
226.449	22.69
226.683	17.69
226.918	16.69
227.152	27.69
227.387	30.69
227.621	30.69
227.856	45.69
228.09	38.69
228.324	50.69
228.559	52.69
228.793	69.69
229.027	98.69
229.262	93.69
229.496	113.69
229.73	122.69
229.964	141.69
230.199	120.69
230.433	113.69
230.667	103.69
230.901	105.69
231.136	96.69
231.37	115.69
231.604	99.69
231.838	115.69
232.072	98.69
232.306	97.69
232.541	108.69
232.775	117.69
233.009	120.69
233.243	118.69
233.477	117.69
233.711	121.69
233.945	105.69
234.179	115.69
234.413	119.69
234.647	104.69
234.881	114.69
235.115	117.69
235.349	119.69
235.583	109.69
235.817	112.69
236.051	114.69
236.285	131.69
236.519	116.69
236.753	111.69
236.987	146.69
237.221	168.69
237.455	220.69
237.689	164.69
237.922	137.69
238.156	128.69
238.39	136.69
238.624	120.69
238.858	124.69
239.091	120.69
239.325	137.69
239.559	122.69
239.793	137.69
240.027	142.69
240.26	129.69
240.494	131.69
240.728	152.69
240.961	141.69
241.195	141.69
241.429	140.69
241.662	125.69
241.896	123.69
242.13	136.69
242.363	123.69
242.597	137.69
242.83	138.69
243.064	138.69
243.298	135.69
243.531	141.69
243.765	122.69
243.998	120.69
244.232	140.69
244.465	130.69
244.699	142.69
244.932	145.69
245.166	132.69
245.399	128.69
245.633	131.69
245.866	129.69
246.099	142.69
246.333	149.69
246.566	163.69
246.8	141.69
247.033	170.69
247.266	154.69
247.5	167.69
247.733	161.69
247.966	149.69
248.2	157.69
248.433	166.69
248.666	166.69
248.899	187.69
249.133	185.69
249.366	183.69
249.599	194.69
249.832	192.69
250.066	187.69
250.299	175.69
250.532	180.69
250.765	196.69
250.998	211.69
251.231	211.69
251.465	199.69
251.698	213.69
251.931	183.69
252.164	181.69
252.397	197.69
252.63	181.69
252.863	190.69
253.096	204.69
253.329	197.69
253.562	215.69
253.795	199.69
254.028	201.69
254.261	215.69
254.494	210.69
254.727	223.69
254.96	241.69
255.193	235.69
255.426	225.69
255.659	208.69
255.892	225.69
256.124	216.69
256.357	213.69
256.59	212.69
256.823	205.69
257.056	185.69
257.289	201.69
257.521	212.69
257.754	207.69
257.987	211.69
258.22	207.69
258.452	192.69
258.685	196.69
258.918	197.69
259.151	202.69
259.383	211.69
259.616	226.69
259.849	213.69
260.081	220.69
260.314	241.69
260.547	228.69
260.779	230.69
261.012	208.69
261.244	202.69
261.477	213.69
261.71	219.69
261.942	202.69
262.175	229.69
262.407	226.69
262.64	193.69
262.872	207.69
263.105	221.69
263.337	211.69
263.57	217.69
263.802	219.69
264.035	190.69
264.267	196.69
264.499	219.69
264.732	200.69
264.964	205.69
265.197	210.69
265.429	208.69
265.661	211.69
265.894	202.69
266.126	220.69
266.358	219.69
266.591	211.69
266.823	201.69
267.055	209.69
267.287	209.69
267.52	200.69
267.752	223.69
267.984	210.69
268.216	230.69
268.448	234.69
268.681	225.69
268.913	238.69
269.145	253.69
269.377	242.69
269.609	251.69
269.841	265.69
270.073	241.69
270.306	272.69
270.538	286.69
270.77	282.69
271.002	280.69
271.234	273.69
271.466	287.69
271.698	295.69
271.93	275.69
272.162	281.69
272.394	295.69
272.626	267.69
272.858	263.69
273.09	269.69
273.322	263.69
273.553	257.69
273.785	247.69
274.017	259.69
274.249	257.69
274.481	264.69
274.713	280.69
274.945	268.69
275.176	248.69
275.408	252.69
275.64	261.69
275.872	250.69
276.104	246.69
276.335	249.69
276.567	240.69
276.799	268.69
277.031	279.69
277.262	284.69
277.494	290.69
277.726	263.69
277.957	273.69
278.189	288.69
278.421	253.69
278.652	269.69
278.884	263.69
279.115	245.69
279.347	268.69
279.579	261.69
279.81	266.69
280.042	265.69
280.273	264.69
280.505	255.69
280.736	254.69
280.968	248.69
281.199	256.69
281.431	248.69
281.662	263.69
281.894	255.69
282.125	261.69
282.356	295.69
282.588	291.69
282.819	284.69
283.051	284.69
283.282	251.69
283.513	261.69
283.745	266.69
283.976	277.69
284.207	267.69
284.439	281.69
284.67	291.69
284.901	269.69
285.132	273.69
285.364	267.69
285.595	267.69
285.826	285.69
286.057	287.69
286.288	287.69
286.52	257.69
286.751	272.69
286.982	284.69
287.213	266.69
287.444	280.69
287.675	270.69
287.906	274.69
288.138	287.69
288.369	275.69
288.6	292.69
288.831	299.69
289.062	300.69
289.293	300.69
289.524	285.69
289.755	281.69
289.986	282.69
290.217	281.69
290.448	277.69
290.679	287.69
290.91	283.69
291.141	266.69
291.371	268.69
291.602	277.69
291.833	279.69
292.064	288.69
292.295	281.69
292.526	264.69
292.757	285.69
292.987	280.69
293.218	277.69
293.449	289.69
293.68	288.69
293.91	292.69
294.141	283.69
294.372	281.69
294.603	275.69
294.833	283.69
295.064	287.69
295.295	307.69
295.525	312.69
295.756	295.69
295.987	291.69
296.217	295.69
296.448	325.69
296.679	308.69
296.909	282.69
297.14	307.69
297.37	303.69
297.601	297.69
297.831	280.69
298.062	288.69
298.292	296.69
298.523	311.69
298.753	297.69
298.984	303.69
299.214	303.69
299.445	306.69
299.675	301.69
299.905	312.69
300.136	315.69
300.366	313.69
300.597	321.69
300.827	325.69
301.057	328.69
301.288	323.69
301.518	318.69
301.748	329.69
301.979	322.69
302.209	311.69
302.439	311.69
302.669	308.69
302.9	316.69
303.13	329.69
303.36	333.69
303.59	336.69
303.82	316.69
304.051	339.69
304.281	328.69
304.511	333.69
304.741	319.69
304.971	335.69
305.201	322.69
305.431	323.69
305.661	315.69
305.891	310.69
306.121	319.69
306.352	313.69
306.582	343.69
306.812	322.69
307.042	348.69
307.272	332.69
307.502	336.69
307.731	332.69
307.961	308.69
308.191	311.69
308.421	339.69
308.651	348.69
308.881	327.69
309.111	330.69
309.341	342.69
309.571	353.69
309.8	357.69
310.03	358.69
310.26	352.69
310.49	352.69
310.72	370.69
310.949	387.69
311.179	384.69
311.409	364.69
311.639	363.69
311.868	364.69
312.098	370.69
312.328	373.69
312.557	361.69
312.787	380.69
313.017	365.69
313.246	385.69
313.476	370.69
313.706	369.69
313.935	360.69
314.165	379.69
314.394	406.69
314.624	385.69
314.853	382.69
315.083	367.69
315.312	364.69
315.542	371.69
315.771	373.69
316.001	376.69
316.23	380.69
316.46	370.69
316.689	365.69
316.919	377.69
317.148	393.69
317.377	386.69
317.607	380.69
317.836	362.69
318.065	365.69
318.295	356.69
318.524	368.69
318.753	369.69
318.983	379.69
319.212	387.69
319.441	381.69
319.67	372.69
319.9	361.69
320.129	369.69
320.358	375.69
320.587	367.69
320.816	388.69
321.046	362.69
321.275	403.69
321.504	383.69
321.733	409.69
321.962	407.69
322.191	401.69
322.42	413.69
322.649	413.69
322.878	424.69
323.108	452.69
323.337	450.69
323.566	466.69
323.795	497.69
324.024	551.69
324.253	639.69
324.482	908.69
324.71	1401.69
324.939	2123.69
325.168	1793.69
325.397	882.69
325.626	614.69
325.855	529.69
326.084	481.69
326.313	472.69
326.542	471.69
326.77	501.69
326.999	625.69
327.228	838.69
327.457	1292.69
327.686	1590.69
327.914	1031.69
328.143	649.69
328.372	588.69
328.6	544.69
328.829	529.69
329.058	539.69
329.287	543.69
329.515	505.69
329.744	477.69
329.972	488.69
330.201	490.69
330.43	533.69
330.658	545.69
330.887	551.69
331.115	573.69
331.344	517.69
331.572	467.69
331.801	482.69
332.03	469.69
332.258	457.69
332.486	446.69
332.715	451.69
332.943	456.69
333.172	473.69
333.4	460.69
333.629	492.69
333.857	488.69
334.085	491.69
334.314	489.69
334.542	525.69
334.771	553.69
334.999	517.69
335.227	458.69
335.455	476.69
335.684	467.69
335.912	444.69
336.14	451.69
336.369	454.69
336.597	468.69
336.825	458.69
337.053	447.69
337.281	458.69
337.51	432.69
337.738	451.69
337.966	416.69
338.194	434.69
338.422	449.69
338.65	428.69
338.878	403.69
339.106	410.69
339.334	432.69
339.562	424.69
339.79	437.69
340.018	434.69
340.246	437.69
340.474	430.69
340.702	422.69
340.93	444.69
341.158	409.69
341.386	432.69
341.614	438.69
341.842	420.69
342.07	415.69
342.298	410.69
342.526	401.69
342.754	415.69
342.981	429.69
343.209	404.69
343.437	421.69
343.665	426.69
343.893	439.69
344.12	460.69
344.348	445.69
344.576	459.69
344.804	456.69
345.031	458.69
345.259	451.69
345.487	452.69
345.714	407.69
345.942	420.69
346.17	419.69
346.397	423.69
346.625	416.69
346.853	406.69
347.08	416.69
347.308	407.69
347.535	425.69
347.763	435.69
347.99	438.69
348.218	437.69
348.445	436.69
348.673	419.69
348.9	406.69
349.128	403.69
349.355	394.69
349.583	396.69
349.81	415.69
350.037	416.69
350.265	406.69
350.492	406.69
350.72	410.69
350.947	403.69
351.174	415.69
351.402	421.69
351.629	418.69
351.856	428.69
352.083	419.69
352.311	407.69
352.538	428.69
352.765	444.69
352.992	439.69
353.22	415.69
353.447	398.69
353.674	394.69
353.901	402.69
354.128	412.69
354.355	401.69
354.583	383.69
354.81	400.69
355.037	406.69
355.264	398.69
355.491	385.69
355.718	397.69
355.945	409.69
356.172	395.69
356.399	385.69
356.626	387.69
356.853	423.69
357.08	384.69
357.307	421.69
357.534	394.69
357.761	408.69
357.988	394.69
358.215	399.69
358.441	385.69
358.668	385.69
358.895	412.69
359.122	421.69
359.349	404.69
359.576	422.69
359.802	439.69
360.029	461.69
360.256	442.69
360.483	450.69
360.709	435.69
360.936	412.69
361.163	434.69
361.39	403.69
361.616	427.69
361.843	431.69
362.07	408.69
362.296	408.69
362.523	412.69
362.749	413.69
362.976	409.69
363.203	416.69
363.429	407.69
363.656	397.69
363.882	413.69
364.109	390.69
364.335	418.69
364.562	402.69
364.788	406.69
365.015	415.69
365.241	406.69
365.468	408.69
365.694	411.69
365.92	411.69
366.147	429.69
366.373	401.69
366.599	405.69
366.826	419.69
367.052	403.69
367.278	422.69
367.505	422.69
367.731	422.69
367.957	405.69
368.184	420.69
368.41	403.69
368.636	431.69
368.862	447.69
369.089	414.69
369.315	399.69
369.541	407.69
369.767	402.69
369.993	426.69
370.219	408.69
370.445	387.69
370.672	417.69
370.898	410.69
371.124	415.69
371.35	423.69
371.576	416.69
371.802	404.69
372.028	401.69
372.254	407.69
372.48	421.69
372.706	410.69
372.932	403.69
373.158	407.69
373.384	416.69
373.61	421.69
373.835	419.69
374.061	414.69
374.287	418.69
374.513	437.69
374.739	433.69
374.965	435.69
375.191	433.69
375.416	441.69
375.642	442.69
375.868	442.69
376.094	421.69
376.319	422.69
376.545	419.69
376.771	418.69
376.997	410.69
377.222	429.69
377.448	427.69
377.674	433.69
377.899	417.69
378.125	394.69
378.35	404.69
378.576	427.69
378.802	415.69
379.027	404.69
379.253	417.69
379.478	403.69
379.704	410.69
379.929	418.69
380.155	408.69
380.38	422.69
380.606	423.69
380.831	413.69
381.057	443.69
381.282	420.69
381.507	393.69
381.733	416.69
381.958	419.69
382.184	423.69
382.409	431.69
382.634	445.69
382.86	415.69
383.085	432.69
383.31	423.69
383.535	444.69
383.761	421.69
383.986	435.69
384.211	440.69
384.436	467.69
384.662	447.69
384.887	452.69
385.112	439.69
385.337	447.69
385.562	451.69
385.787	432.69
386.013	463.69
386.238	458.69
386.463	466.69
386.688	461.69
386.913	457.69
387.138	449.69
387.363	465.69
387.588	451.69
387.813	481.69
388.038	481.69
388.263	461.69
388.488	471.69
388.713	471.69
388.938	468.69
389.163	478.69
389.387	471.69
389.612	469.69
389.837	434.69
390.062	482.69
390.287	448.69
390.512	457.69
390.736	449.69
390.961	450.69
391.186	467.69
391.411	490.69
391.636	486.69
391.86	485.69
392.085	489.69
392.31	502.69
392.534	501.69
392.759	491.69
392.984	482.69
393.208	490.69
393.433	487.69
393.658	497.69
393.882	460.69
394.107	473.69
394.331	486.69
394.556	480.69
394.78	480.69
395.005	493.69
395.229	464.69
395.454	478.69
395.678	483.69
395.903	524.69
396.127	521.69
396.352	534.69
396.576	483.69
396.801	514.69
397.025	492.69
397.249	511.69
397.474	533.69
397.698	508.69
397.922	531.69
398.147	521.69
398.371	559.69
398.595	535.69
398.82	540.69
399.044	575.69
399.268	577.69
399.492	624.69
399.717	661.69
399.941	691.69
400.165	696.69
400.389	665.69
400.613	636.69
400.837	583.69
401.062	583.69
401.286	551.69
401.51	575.69
401.734	546.69
401.958	567.69
402.182	586.69
402.406	589.69
402.63	593.69
402.854	557.69
403.078	577.69
403.302	591.69
403.526	556.69
403.75	582.69
403.974	563.69
404.198	563.69
404.422	572.69
404.645	583.69
404.869	606.69
405.093	624.69
405.317	658.69
405.541	692.69
405.765	637.69
405.988	607.69
406.212	628.69
406.436	639.69
406.66	637.69
406.883	618.69
407.107	663.69
407.331	707.69
407.555	771.69
407.778	741.69
408.002	704.69
408.226	663.69
408.449	659.69
408.673	648.69
408.896	682.69
409.12	681.69
409.344	679.69
409.567	583.69
409.791	602.69
410.014	602.69
410.238	582.69
410.461	600.69
410.685	601.69
410.908	584.69
411.132	616.69
411.355	663.69
411.578	649.69
411.802	583.69
412.025	598.69
412.249	593.69
412.472	627.69
412.695	621.69
412.919	639.69
413.142	589.69
413.365	590.69
413.589	577.69
413.812	558.69
414.035	561.69
414.258	564.69
414.482	570.69
414.705	550.69
414.928	555.69
415.151	539.69
415.374	561.69
415.597	540.69
415.821	557.69
416.044	548.69
416.267	562.69
416.49	565.69
416.713	551.69
416.936	564.69
417.159	554.69
417.382	560.69
417.605	570.69
417.828	568.69
418.051	582.69
418.274	569.69
418.497	551.69
418.72	535.69
418.943	553.69
419.166	576.69
419.389	597.69
419.611	587.69
419.834	585.69
420.057	559.69
420.28	586.69
420.503	567.69
420.726	556.69
420.948	561.69
421.171	608.69
421.394	646.69
421.617	583.69
421.839	576.69
422.062	594.69
422.285	577.69
422.507	644.69
422.73	716.69
422.953	696.69
423.175	649.69
423.398	623.69
423.621	610.69
423.843	596.69
424.066	616.69
424.288	601.69
424.511	600.69
424.733	674.69
424.956	767.69
425.178	713.69
425.401	717.69
425.623	738.69
425.846	648.69
426.068	596.69
426.291	594.69
426.513	595.69
426.735	608.69
426.958	647.69
427.18	733.69
427.402	849.69
427.625	937.69
427.847	807.69
428.069	710.69
428.292	633.69
428.514	611.69
428.736	572.69
428.958	566.69
429.181	561.69
429.403	541.69
429.625	571.69
429.847	597.69
430.069	664.69
430.292	649.69
430.514	584.69
430.736	546.69
430.958	561.69
431.18	556.69
431.402	548.69
431.624	512.69
431.846	502.69
432.068	548.69
432.29	530.69
432.512	542.69
432.734	552.69
432.956	552.69
433.178	551.69
433.4	572.69
433.622	579.69
433.844	543.69
434.066	534.69
434.287	517.69
434.509	556.69
434.731	548.69
434.953	561.69
435.175	579.69
435.397	593.69
435.618	625.69
435.84	646.69
436.062	722.69
436.284	795.69
436.505	683.69
436.727	620.69
436.949	573.69
437.17	568.69
437.392	540.69
437.614	565.69
437.835	600.69
438.057	711.69
438.278	808.69
438.5	793.69
438.721	864.69
438.943	856.69
439.165	681.69
439.386	612.69
439.608	621.69
439.829	615.69
440.05	634.69
440.272	693.69
440.493	649.69
440.715	605.69
440.936	564.69
441.158	572.69
441.379	566.69
441.6	598.69
441.822	597.69
442.043	640.69
442.264	716.69
442.486	759.69
442.707	653.69
442.928	628.69
443.149	614.69
443.371	655.69
443.592	703.69
443.813	773.69
444.034	855.69
444.255	693.69
444.476	624.69
444.698	636.69
444.919	635.69
445.14	741.69
445.361	655.69
445.582	659.69
445.803	710.69
446.024	842.69
446.245	828.69
446.466	755.69
446.687	637.69
446.908	594.69
447.129	582.69
447.35	555.69
447.571	573.69
447.792	543.69
448.013	561.69
448.234	589.69
448.455	624.69
448.675	730.69
448.896	859.69
449.117	747.69
449.338	681.69
449.559	780.69
449.779	867.69
450	711.69
450.221	601.69
450.442	555.69
450.662	539.69
450.883	574.69
451.104	572.69
451.324	531.69
451.545	507.69
451.766	536.69
451.986	518.69
452.207	480.69
452.428	486.69
452.648	499.69
452.869	506.69
453.089	523.69
453.31	513.69
453.53	495.69
453.751	473.69
453.971	496.69
454.192	523.69
454.412	497.69
454.633	493.69
454.853	491.69
455.073	502.69
455.294	521.69
455.514	586.69
455.734	580.69
455.955	520.69
456.175	507.69
456.395	488.69
456.616	497.69
456.836	482.69
457.056	467.69
457.276	462.69
457.497	498.69
457.717	463.69
457.937	483.69
458.157	491.69
458.377	485.69
458.598	502.69
458.818	579.69
459.038	628.69
459.258	652.69
459.478	582.69
459.698	543.69
459.918	526.69
460.138	559.69
460.358	553.69
460.578	585.69
460.798	592.69
461.018	588.69
461.238	550.69
461.458	568.69
461.678	572.69
461.898	558.69
462.118	576.69
462.338	576.69
462.558	575.69
462.777	614.69
462.997	614.69
463.217	608.69
463.437	616.69
463.657	640.69
463.876	631.69
464.096	611.69
464.316	606.69
464.536	620.69
464.755	601.69
464.975	587.69
465.195	632.69
465.414	701.69
465.634	623.69
465.854	595.69
466.073	566.69
466.293	534.69
466.512	541.69
466.732	519.69
466.951	520.69
467.171	535.69
467.391	532.69
467.61	539.69
467.829	534.69
468.049	535.69
468.268	522.69
468.488	530.69
468.707	519.69
468.927	523.69
469.146	506.69
469.365	525.69
469.585	524.69
469.804	510.69
470.023	526.69
470.243	514.69
470.462	527.69
470.681	536.69
470.901	563.69
471.12	538.69
471.339	534.69
471.558	516.69
471.777	526.69
471.997	539.69
472.216	523.69
472.435	556.69
472.654	553.69
472.873	535.69
473.092	501.69
473.311	536.69
473.53	519.69
473.749	513.69
473.968	567.69
474.187	669.69
474.406	660.69
474.625	600.69
474.844	546.69
475.063	543.69
475.282	532.69
475.501	517.69
475.72	552.69
475.939	553.69
476.158	554.69
476.377	544.69
476.596	532.69
476.814	537.69
477.033	563.69
477.252	549.69
477.471	554.69
477.69	575.69
477.908	564.69
478.127	601.69
478.346	592.69
478.564	578.69
478.783	601.69
479.002	613.69
479.22	600.69
479.439	614.69
479.658	630.69
479.876	647.69
480.095	627.69
480.313	679.69
480.532	664.69
480.751	639.69
480.969	664.69
481.188	693.69
481.406	737.69
481.624	667.69
481.843	637.69
482.061	631.69
482.28	621.69
482.498	613.69
482.717	618.69
482.935	617.69
483.153	637.69
483.372	627.69
483.59	639.69
483.808	635.69
484.027	618.69
484.245	629.69
484.463	618.69
484.681	635.69
484.9	617.69
485.118	633.69
485.336	612.69
485.554	628.69
485.772	615.69
485.99	620.69
486.209	640.69
486.427	657.69
486.645	667.69
486.863	659.69
487.081	678.69
487.299	659.69
487.517	653.69
487.735	673.69
487.953	663.69
488.171	682.69
488.389	647.69
488.607	669.69
488.825	663.69
489.043	649.69
489.261	672.69
489.479	658.69
489.696	683.69
489.914	684.69
490.132	694.69
490.35	704.69
490.568	701.69
490.786	710.69
491.003	709.69
491.221	728.69
491.439	718.69
491.657	727.69
491.874	724.69
492.092	721.69
492.31	717.69
492.527	744.69
492.745	746.69
492.963	757.69
493.18	751.69
493.398	751.69
493.615	792.69
493.833	762.69
494.05	755.69
494.268	769.69
494.485	783.69
494.703	775.69
494.92	740.69
495.138	787.69
495.355	775.69
495.573	782.69
495.79	786.69
496.008	778.69
496.225	769.69
496.442	779.69
496.66	790.69
496.877	764.69
497.094	780.69
497.312	821.69
497.529	817.69
497.746	816.69
497.963	847.69
498.181	858.69
498.398	864.69
498.615	915.69
498.832	903.69
499.049	925.69
499.267	971.69
499.484	987.69
499.701	1043.69
499.918	1087.69
500.135	1146.69
500.352	1211.69
500.569	1259.69
500.786	1228.69
501.003	1215.69
501.22	1184.69
501.437	1098.69
501.654	1075.69
501.871	1055.69
