Data from 1979.PennyLincolnUp.Lamp.En5.5.200Scan.071719.P1_HRD10591_16-17-37-862.txt Node
Date: Thu Jul 18 16:17:37 EDT 2019
User: cochatt
Spectrometer: HR+D1059
Trigger mode: 1
Integration Time (sec): 1.000000E-1
Scans to average: 1
Electric dark correction enabled: true
Nonlinearity correction enabled: false
Boxcar width: 0
XAxis mode: Wavelengths
Number of Pixels in Spectrum: 2048
>>>>>Begin Spectral Data<<<<<
223.165	-7.38
223.4	-7.38
223.635	-7.38
223.869	-9.38
224.104	-23.38
224.338	-8.38
224.573	-16.38
224.808	-10.38
225.042	-6.38
225.277	1.62
225.511	-1.38
225.746	4.62
225.98	8.62
226.215	12.62
226.449	8.62
226.683	-1.38
226.918	21.62
227.152	26.62
227.387	40.62
227.621	42.62
227.856	39.62
228.09	39.62
228.324	59.62
228.559	52.62
228.793	59.62
229.027	85.62
229.262	79.62
229.496	104.62
229.73	108.62
229.964	126.62
230.199	123.62
230.433	119.62
230.667	107.62
230.901	99.62
231.136	95.62
231.37	111.62
231.604	118.62
231.838	112.62
232.072	107.62
232.306	106.62
232.541	107.62
232.775	118.62
233.009	118.62
233.243	108.62
233.477	104.62
233.711	109.62
233.945	106.62
234.179	109.62
234.413	108.62
234.647	117.62
234.881	118.62
235.115	104.62
235.349	102.62
235.583	114.62
235.817	116.62
236.051	112.62
236.285	114.62
236.519	101.62
236.753	113.62
236.987	122.62
237.221	158.62
237.455	185.62
237.689	154.62
237.922	128.62
238.156	120.62
238.39	126.62
238.624	99.62
238.858	114.62
239.091	114.62
239.325	96.62
239.559	118.62
239.793	130.62
240.027	99.62
240.26	124.62
240.494	131.62
240.728	131.62
240.961	123.62
241.195	121.62
241.429	122.62
241.662	127.62
241.896	120.62
242.13	127.62
242.363	131.62
242.597	140.62
242.83	124.62
243.064	132.62
243.298	118.62
243.531	124.62
243.765	128.62
243.998	143.62
244.232	147.62
244.465	138.62
244.699	139.62
244.932	152.62
245.166	130.62
245.399	119.62
245.633	139.62
245.866	134.62
246.099	130.62
246.333	146.62
246.566	139.62
246.8	128.62
247.033	162.62
247.266	155.62
247.5	154.62
247.733	158.62
247.966	148.62
248.2	152.62
248.433	167.62
248.666	168.62
248.899	165.62
249.133	158.62
249.366	161.62
249.599	168.62
249.832	146.62
250.066	146.62
250.299	166.62
250.532	163.62
250.765	170.62
250.998	187.62
251.231	192.62
251.465	190.62
251.698	171.62
251.931	178.62
252.164	168.62
252.397	182.62
252.63	184.62
252.863	175.62
253.096	179.62
253.329	199.62
253.562	190.62
253.795	196.62
254.028	183.62
254.261	192.62
254.494	182.62
254.727	203.62
254.96	210.62
255.193	204.62
255.426	212.62
255.659	202.62
255.892	202.62
256.124	191.62
256.357	205.62
256.59	184.62
256.823	181.62
257.056	203.62
257.289	188.62
257.521	189.62
257.754	187.62
257.987	184.62
258.22	174.62
258.452	190.62
258.685	169.62
258.918	183.62
259.151	190.62
259.383	181.62
259.616	191.62
259.849	187.62
260.081	196.62
260.314	212.62
260.547	200.62
260.779	206.62
261.012	204.62
261.244	206.62
261.477	192.62
261.71	193.62
261.942	184.62
262.175	198.62
262.407	190.62
262.64	187.62
262.872	186.62
263.105	190.62
263.337	206.62
263.57	182.62
263.802	181.62
264.035	186.62
264.267	193.62
264.499	172.62
264.732	178.62
264.964	204.62
265.197	197.62
265.429	191.62
265.661	202.62
265.894	205.62
266.126	202.62
266.358	195.62
266.591	192.62
266.823	191.62
267.055	192.62
267.287	198.62
267.52	184.62
267.752	207.62
267.984	211.62
268.216	203.62
268.448	192.62
268.681	212.62
268.913	210.62
269.145	216.62
269.377	230.62
269.609	226.62
269.841	226.62
270.073	206.62
270.306	232.62
270.538	229.62
270.77	239.62
271.002	233.62
271.234	230.62
271.466	228.62
271.698	251.62
271.93	263.62
272.162	230.62
272.394	256.62
272.626	252.62
272.858	232.62
273.09	234.62
273.322	215.62
273.553	220.62
273.785	228.62
274.017	207.62
274.249	222.62
274.481	227.62
274.713	202.62
274.945	237.62
275.176	245.62
275.408	222.62
275.64	231.62
275.872	220.62
276.104	213.62
276.335	226.62
276.567	234.62
276.799	219.62
277.031	237.62
277.262	249.62
277.494	239.62
277.726	250.62
277.957	238.62
278.189	233.62
278.421	235.62
278.652	224.62
278.884	233.62
279.115	246.62
279.347	248.62
279.579	233.62
279.81	230.62
280.042	221.62
280.273	247.62
280.505	245.62
280.736	249.62
280.968	231.62
281.199	230.62
281.431	218.62
281.662	236.62
281.894	244.62
282.125	236.62
282.356	258.62
282.588	255.62
282.819	260.62
283.051	243.62
283.282	247.62
283.513	247.62
283.745	254.62
283.976	249.62
284.207	234.62
284.439	250.62
284.67	240.62
284.901	243.62
285.132	242.62
285.364	251.62
285.595	251.62
285.826	242.62
286.057	252.62
286.288	253.62
286.52	267.62
286.751	239.62
286.982	242.62
287.213	270.62
287.444	229.62
287.675	262.62
287.906	260.62
288.138	249.62
288.369	256.62
288.6	267.62
288.831	258.62
289.062	269.62
289.293	250.62
289.524	248.62
289.755	267.62
289.986	264.62
290.217	260.62
290.448	253.62
290.679	248.62
290.91	259.62
291.141	265.62
291.371	247.62
291.602	250.62
291.833	289.62
292.064	270.62
292.295	266.62
292.526	265.62
292.757	263.62
292.987	272.62
293.218	274.62
293.449	258.62
293.68	251.62
293.91	272.62
294.141	256.62
294.372	268.62
294.603	273.62
294.833	268.62
295.064	268.62
295.295	265.62
295.525	270.62
295.756	265.62
295.987	260.62
296.217	283.62
296.448	291.62
296.679	276.62
296.909	251.62
297.14	262.62
297.37	270.62
297.601	272.62
297.831	272.62
298.062	281.62
298.292	267.62
298.523	271.62
298.753	297.62
298.984	275.62
299.214	286.62
299.445	271.62
299.675	293.62
299.905	287.62
300.136	288.62
300.366	283.62
300.597	272.62
300.827	295.62
301.057	286.62
301.288	281.62
301.518	289.62
301.748	286.62
301.979	305.62
302.209	294.62
302.439	303.62
302.669	277.62
302.9	286.62
303.13	300.62
303.36	303.62
303.59	298.62
303.82	298.62
304.051	302.62
304.281	286.62
304.511	314.62
304.741	287.62
304.971	294.62
305.201	306.62
305.431	304.62
305.661	308.62
305.891	283.62
306.121	304.62
306.352	299.62
306.582	300.62
306.812	299.62
307.042	299.62
307.272	290.62
307.502	304.62
307.731	286.62
307.961	311.62
308.191	315.62
308.421	289.62
308.651	312.62
308.881	304.62
309.111	321.62
309.341	301.62
309.571	322.62
309.8	308.62
310.03	313.62
310.26	316.62
310.49	309.62
310.72	336.62
310.949	342.62
311.179	349.62
311.409	318.62
311.639	313.62
311.868	331.62
312.098	322.62
312.328	320.62
312.557	315.62
312.787	347.62
313.017	341.62
313.246	322.62
313.476	330.62
313.706	332.62
313.935	329.62
314.165	344.62
314.394	349.62
314.624	326.62
314.853	340.62
315.083	323.62
315.312	329.62
315.542	334.62
315.771	339.62
316.001	333.62
316.23	339.62
316.46	330.62
316.689	346.62
316.919	354.62
317.148	321.62
317.377	349.62
317.607	332.62
317.836	340.62
318.065	344.62
318.295	330.62
318.524	342.62
318.753	324.62
318.983	327.62
319.212	331.62
319.441	332.62
319.67	323.62
319.9	348.62
320.129	343.62
320.358	331.62
320.587	336.62
320.816	335.62
321.046	352.62
321.275	331.62
321.504	336.62
321.733	336.62
321.962	359.62
322.191	354.62
322.42	349.62
322.649	363.62
322.878	384.62
323.108	336.62
323.337	388.62
323.566	384.62
323.795	398.62
324.024	422.62
324.253	487.62
324.482	635.62
324.71	981.62
324.939	1486.62
325.168	1236.62
325.397	637.62
325.626	457.62
325.855	408.62
326.084	400.62
326.313	404.62
326.542	397.62
326.77	413.62
326.999	475.62
327.228	618.62
327.457	905.62
327.686	1104.62
327.914	702.62
328.143	506.62
328.372	440.62
328.6	448.62
328.829	420.62
329.058	443.62
329.287	446.62
329.515	426.62
329.744	410.62
329.972	399.62
330.201	415.62
330.43	440.62
330.658	441.62
330.887	442.62
331.115	465.62
331.344	426.62
331.572	420.62
331.801	414.62
332.03	414.62
332.258	387.62
332.486	396.62
332.715	390.62
332.943	406.62
333.172	402.62
333.4	413.62
333.629	411.62
333.857	425.62
334.085	421.62
334.314	428.62
334.542	442.62
334.771	474.62
334.999	447.62
335.227	426.62
335.455	420.62
335.684	392.62
335.912	409.62
336.14	400.62
336.369	420.62
336.597	422.62
336.825	394.62
337.053	414.62
337.281	426.62
337.51	416.62
337.738	410.62
337.966	406.62
338.194	396.62
338.422	410.62
338.65	390.62
338.878	402.62
339.106	388.62
339.334	387.62
339.562	402.62
339.79	398.62
340.018	410.62
340.246	381.62
340.474	365.62
340.702	374.62
340.93	382.62
341.158	383.62
341.386	395.62
341.614	386.62
341.842	389.62
342.07	376.62
342.298	380.62
342.526	382.62
342.754	375.62
342.981	380.62
343.209	356.62
343.437	400.62
343.665	399.62
343.893	382.62
344.12	412.62
344.348	408.62
344.576	392.62
344.804	396.62
345.031	408.62
345.259	399.62
345.487	401.62
345.714	381.62
345.942	375.62
346.17	378.62
346.397	394.62
346.625	376.62
346.853	386.62
347.08	355.62
347.308	376.62
347.535	378.62
347.763	364.62
347.99	366.62
348.218	383.62
348.445	396.62
348.673	402.62
348.9	380.62
349.128	386.62
349.355	351.62
349.583	366.62
349.81	356.62
350.037	368.62
350.265	344.62
350.492	375.62
350.72	354.62
350.947	390.62
351.174	390.62
351.402	359.62
351.629	391.62
351.856	364.62
352.083	378.62
352.311	381.62
352.538	388.62
352.765	383.62
352.992	381.62
353.22	361.62
353.447	358.62
353.674	363.62
353.901	358.62
354.128	376.62
354.355	365.62
354.583	343.62
354.81	357.62
355.037	359.62
355.264	375.62
355.491	370.62
355.718	370.62
355.945	376.62
356.172	345.62
356.399	378.62
356.626	358.62
356.853	367.62
357.08	367.62
357.307	372.62
357.534	376.62
357.761	352.62
357.988	390.62
358.215	350.62
358.441	353.62
358.668	356.62
358.895	382.62
359.122	381.62
359.349	358.62
359.576	357.62
359.802	387.62
360.029	407.62
360.256	396.62
360.483	382.62
360.709	372.62
360.936	368.62
361.163	385.62
361.39	375.62
361.616	353.62
361.843	390.62
362.07	348.62
362.296	373.62
362.523	388.62
362.749	362.62
362.976	390.62
363.203	361.62
363.429	380.62
363.656	368.62
363.882	386.62
364.109	359.62
364.335	364.62
364.562	382.62
364.788	342.62
365.015	375.62
365.241	375.62
365.468	373.62
365.694	368.62
365.92	374.62
366.147	369.62
366.373	389.62
366.599	383.62
366.826	380.62
367.052	348.62
367.278	378.62
367.505	384.62
367.731	381.62
367.957	371.62
368.184	366.62
368.41	384.62
368.636	387.62
368.862	403.62
369.089	386.62
369.315	355.62
369.541	363.62
369.767	393.62
369.993	379.62
370.219	379.62
370.445	357.62
370.672	374.62
370.898	366.62
371.124	386.62
371.35	388.62
371.576	385.62
371.802	384.62
372.028	401.62
372.254	394.62
372.48	383.62
372.706	407.62
372.932	402.62
373.158	389.62
373.384	395.62
373.61	383.62
373.835	384.62
374.061	388.62
374.287	383.62
374.513	388.62
374.739	409.62
374.965	420.62
375.191	381.62
375.416	406.62
375.642	407.62
375.868	423.62
376.094	390.62
376.319	377.62
376.545	394.62
376.771	375.62
376.997	375.62
377.222	366.62
377.448	376.62
377.674	356.62
377.899	386.62
378.125	386.62
378.35	378.62
378.576	362.62
378.802	387.62
379.027	384.62
379.253	391.62
379.478	408.62
379.704	392.62
379.929	402.62
380.155	394.62
380.38	392.62
380.606	404.62
380.831	367.62
381.057	397.62
381.282	406.62
381.507	404.62
381.733	399.62
381.958	408.62
382.184	412.62
382.409	411.62
382.634	410.62
382.86	429.62
383.085	412.62
383.31	385.62
383.535	402.62
383.761	413.62
383.986	403.62
384.211	415.62
384.436	415.62
384.662	429.62
384.887	414.62
385.112	402.62
385.337	416.62
385.562	436.62
385.787	428.62
386.013	444.62
386.238	431.62
386.463	441.62
386.688	426.62
386.913	436.62
387.138	428.62
387.363	441.62
387.588	442.62
387.813	447.62
388.038	434.62
388.263	438.62
388.488	443.62
388.713	421.62
388.938	454.62
389.163	434.62
389.387	452.62
389.612	416.62
389.837	438.62
390.062	446.62
390.287	446.62
390.512	439.62
390.736	429.62
390.961	432.62
391.186	455.62
391.411	450.62
391.636	462.62
391.86	448.62
392.085	469.62
392.31	469.62
392.534	479.62
392.759	450.62
392.984	448.62
393.208	472.62
393.433	464.62
393.658	479.62
393.882	436.62
394.107	447.62
394.331	468.62
394.556	456.62
394.78	439.62
395.005	455.62
395.229	441.62
395.454	452.62
395.678	457.62
395.903	474.62
396.127	500.62
396.352	492.62
396.576	480.62
396.801	480.62
397.025	466.62
397.249	478.62
397.474	485.62
397.698	467.62
397.922	501.62
398.147	502.62
398.371	516.62
398.595	497.62
398.82	510.62
399.044	510.62
399.268	551.62
399.492	570.62
399.717	636.62
399.941	614.62
400.165	634.62
400.389	648.62
400.613	574.62
400.837	543.62
401.062	544.62
401.286	533.62
401.51	527.62
401.734	519.62
401.958	511.62
402.182	514.62
402.406	515.62
402.63	503.62
402.854	540.62
403.078	527.62
403.302	516.62
403.526	551.62
403.75	543.62
403.974	540.62
404.198	526.62
404.422	552.62
404.645	531.62
404.869	566.62
405.093	585.62
405.317	596.62
405.541	655.62
405.765	576.62
405.988	558.62
406.212	540.62
406.436	576.62
406.66	581.62
406.883	554.62
407.107	598.62
407.331	633.62
407.555	682.62
407.778	690.62
408.002	642.62
408.226	586.62
408.449	573.62
408.673	619.62
408.896	600.62
409.12	658.62
409.344	597.62
409.567	564.62
409.791	576.62
410.014	556.62
410.238	556.62
410.461	556.62
410.685	570.62
410.908	571.62
411.132	603.62
411.355	604.62
411.578	597.62
411.802	557.62
412.025	549.62
412.249	545.62
412.472	562.62
412.695	593.62
412.919	590.62
413.142	542.62
413.365	526.62
413.589	523.62
413.812	506.62
414.035	527.62
414.258	520.62
414.482	526.62
414.705	533.62
414.928	534.62
415.151	523.62
415.374	517.62
415.597	520.62
415.821	518.62
416.044	536.62
416.267	510.62
416.49	523.62
416.713	499.62
416.936	522.62
417.159	514.62
417.382	525.62
417.605	520.62
417.828	532.62
418.051	546.62
418.274	527.62
418.497	523.62
418.72	520.62
418.943	510.62
419.166	522.62
419.389	529.62
419.611	564.62
419.834	562.62
420.057	560.62
420.28	533.62
420.503	556.62
420.726	520.62
420.948	529.62
421.171	565.62
421.394	596.62
421.617	526.62
421.839	541.62
422.062	508.62
422.285	538.62
422.507	592.62
422.73	650.62
422.953	637.62
423.175	562.62
423.398	555.62
423.621	542.62
423.843	551.62
424.066	569.62
424.288	540.62
424.511	577.62
424.733	621.62
424.956	683.62
425.178	636.62
425.401	663.62
425.623	682.62
425.846	551.62
426.068	541.62
426.291	548.62
426.513	528.62
426.735	534.62
426.958	578.62
427.18	632.62
427.402	770.62
427.625	799.62
427.847	671.62
428.069	612.62
428.292	580.62
428.514	532.62
428.736	532.62
428.958	486.62
429.181	511.62
429.403	508.62
429.625	490.62
429.847	536.62
430.069	583.62
430.292	587.62
430.514	517.62
430.736	498.62
430.958	505.62
431.18	514.62
431.402	503.62
431.624	489.62
431.846	512.62
432.068	508.62
432.29	486.62
432.512	489.62
432.734	483.62
432.956	486.62
433.178	504.62
433.4	500.62
433.622	490.62
433.844	544.62
434.066	511.62
434.287	495.62
434.509	521.62
434.731	503.62
434.953	528.62
435.175	549.62
435.397	567.62
435.618	540.62
435.84	580.62
436.062	654.62
436.284	711.62
436.505	623.62
436.727	568.62
436.949	537.62
437.17	525.62
437.392	509.62
437.614	527.62
437.835	516.62
438.057	611.62
438.278	681.62
438.5	685.62
438.721	746.62
438.943	725.62
439.165	583.62
439.386	554.62
439.608	544.62
439.829	546.62
440.05	547.62
440.272	568.62
440.493	560.62
440.715	518.62
440.936	539.62
441.158	528.62
441.379	508.62
441.6	535.62
441.822	555.62
442.043	558.62
442.264	652.62
442.486	673.62
442.707	593.62
442.928	554.62
443.149	570.62
443.371	607.62
443.592	607.62
443.813	679.62
444.034	745.62
444.255	630.62
444.476	582.62
444.698	578.62
444.919	578.62
445.14	686.62
445.361	612.62
445.582	585.62
445.803	623.62
446.024	695.62
446.245	690.62
446.466	639.62
446.687	560.62
446.908	542.62
447.129	520.62
447.35	520.62
447.571	495.62
447.792	502.62
448.013	486.62
448.234	504.62
448.455	554.62
448.675	642.62
448.896	724.62
449.117	634.62
449.338	588.62
449.559	652.62
449.779	772.62
450	608.62
450.221	532.62
450.442	490.62
450.662	495.62
450.883	493.62
451.104	474.62
451.324	498.62
451.545	483.62
451.766	476.62
451.986	467.62
452.207	454.62
452.428	460.62
452.648	455.62
452.869	434.62
453.089	461.62
453.31	490.62
453.53	471.62
453.751	466.62
453.971	452.62
454.192	464.62
454.412	448.62
454.633	450.62
454.853	430.62
455.073	436.62
455.294	469.62
455.514	502.62
455.734	508.62
455.955	457.62
456.175	455.62
456.395	441.62
456.616	412.62
456.836	434.62
457.056	444.62
457.276	439.62
457.497	459.62
457.717	446.62
457.937	441.62
458.157	437.62
458.377	456.62
458.598	475.62
458.818	507.62
459.038	564.62
459.258	590.62
459.478	521.62
459.698	495.62
459.918	491.62
460.138	501.62
460.358	507.62
460.578	506.62
460.798	526.62
461.018	509.62
461.238	527.62
461.458	527.62
461.678	533.62
461.898	535.62
462.118	511.62
462.338	549.62
462.558	534.62
462.777	552.62
462.997	568.62
463.217	572.62
463.437	587.62
463.657	562.62
463.876	567.62
464.096	545.62
464.316	562.62
464.536	567.62
464.755	581.62
464.975	554.62
465.195	570.62
465.414	606.62
465.634	548.62
465.854	507.62
466.073	530.62
466.293	487.62
466.512	486.62
466.732	475.62
466.951	471.62
467.171	473.62
467.391	483.62
467.61	477.62
467.829	491.62
468.049	505.62
468.268	489.62
468.488	479.62
468.707	459.62
468.927	447.62
469.146	452.62
469.365	477.62
469.585	449.62
469.804	474.62
470.023	506.62
470.243	484.62
470.462	498.62
470.681	522.62
470.901	496.62
471.12	501.62
471.339	484.62
471.558	496.62
471.777	481.62
471.997	471.62
472.216	496.62
472.435	506.62
472.654	506.62
472.873	478.62
473.092	501.62
473.311	475.62
473.53	462.62
473.749	484.62
473.968	490.62
474.187	578.62
474.406	555.62
474.625	522.62
474.844	489.62
475.063	501.62
475.282	487.62
475.501	491.62
475.72	489.62
475.939	501.62
476.158	508.62
476.377	503.62
476.596	483.62
476.814	524.62
477.033	518.62
477.252	518.62
477.471	508.62
477.69	539.62
477.908	536.62
478.127	535.62
478.346	545.62
478.564	541.62
478.783	556.62
479.002	572.62
479.22	553.62
479.439	563.62
479.658	567.62
479.876	591.62
480.095	570.62
480.313	598.62
480.532	597.62
480.751	612.62
480.969	603.62
481.188	618.62
481.406	640.62
481.624	615.62
481.843	565.62
482.061	592.62
482.28	574.62
482.498	571.62
482.717	552.62
482.935	584.62
483.153	584.62
483.372	552.62
483.59	586.62
483.808	572.62
484.027	573.62
484.245	563.62
484.463	574.62
484.681	605.62
484.9	595.62
485.118	585.62
485.336	573.62
485.554	591.62
485.772	583.62
485.99	600.62
486.209	602.62
486.427	629.62
486.645	580.62
486.863	613.62
487.081	601.62
487.299	606.62
487.517	624.62
487.735	610.62
487.953	604.62
488.171	613.62
488.389	610.62
488.607	619.62
488.825	609.62
489.043	600.62
489.261	604.62
489.479	608.62
489.696	608.62
489.914	622.62
490.132	629.62
490.35	626.62
490.568	621.62
490.786	634.62
491.003	635.62
491.221	657.62
491.439	655.62
491.657	654.62
491.874	660.62
492.092	682.62
492.31	650.62
492.527	676.62
492.745	662.62
492.963	667.62
493.18	676.62
493.398	722.62
493.615	709.62
493.833	691.62
494.05	697.62
494.268	697.62
494.485	671.62
494.703	672.62
494.92	678.62
495.138	697.62
495.355	703.62
495.573	709.62
495.79	708.62
496.008	713.62
496.225	716.62
496.442	703.62
496.66	739.62
496.877	729.62
497.094	725.62
497.312	710.62
497.529	735.62
497.746	752.62
497.963	768.62
498.181	758.62
498.398	790.62
498.615	822.62
498.832	877.62
499.049	855.62
499.267	867.62
499.484	953.62
499.701	984.62
499.918	1046.62
500.135	1091.62
500.352	1125.62
500.569	1146.62
500.786	1151.62
501.003	1120.62
501.22	1078.62
501.437	1018.62
501.654	993.62
501.871	974.62
502.088	913.62
