Data from 1979.PennyLincolnUp.Lamp.En5.5.200Scan.071719.P1_HRD10591_16-19-09-864.txt Node
Date: Thu Jul 18 16:19:09 EDT 2019
User: cochatt
Spectrometer: HR+D1059
Trigger mode: 1
Integration Time (sec): 1.000000E-1
Scans to average: 1
Electric dark correction enabled: true
Nonlinearity correction enabled: false
Boxcar width: 0
XAxis mode: Wavelengths
Number of Pixels in Spectrum: 2048
>>>>>Begin Spectral Data<<<<<
223.165	-17.69
223.4	-17.69
223.635	-17.69
223.869	-4.69
224.104	-5.69
224.338	-13.69
224.573	-18.69
224.808	-2.69
225.042	-22.69
225.277	-9.69
225.511	-5.69
225.746	2.31
225.98	-9.69
226.215	19.31
226.449	22.31
226.683	27.31
226.918	14.31
227.152	25.31
227.387	28.31
227.621	39.31
227.856	41.31
228.09	50.31
228.324	42.31
228.559	55.31
228.793	60.31
229.027	87.31
229.262	100.31
229.496	93.31
229.73	123.31
229.964	140.31
230.199	129.31
230.433	120.31
230.667	99.31
230.901	103.31
231.136	106.31
231.37	96.31
231.604	104.31
231.838	112.31
232.072	105.31
232.306	110.31
232.541	111.31
232.775	103.31
233.009	125.31
233.243	118.31
233.477	121.31
233.711	116.31
233.945	108.31
234.179	116.31
234.413	112.31
234.647	110.31
234.881	103.31
235.115	97.31
235.349	122.31
235.583	119.31
235.817	114.31
236.051	118.31
236.285	125.31
236.519	130.31
236.753	113.31
236.987	126.31
237.221	174.31
237.455	210.31
237.689	190.31
237.922	134.31
238.156	133.31
238.39	131.31
238.624	123.31
238.858	130.31
239.091	121.31
239.325	126.31
239.559	133.31
239.793	127.31
240.027	127.31
240.26	142.31
240.494	139.31
240.728	146.31
240.961	141.31
241.195	130.31
241.429	137.31
241.662	128.31
241.896	126.31
242.13	144.31
242.363	136.31
242.597	117.31
242.83	131.31
243.064	136.31
243.298	130.31
243.531	128.31
243.765	124.31
243.998	137.31
244.232	154.31
244.465	140.31
244.699	140.31
244.932	145.31
245.166	159.31
245.399	146.31
245.633	148.31
245.866	156.31
246.099	159.31
246.333	143.31
246.566	138.31
246.8	149.31
247.033	139.31
247.266	160.31
247.5	147.31
247.733	159.31
247.966	160.31
248.2	154.31
248.433	155.31
248.666	158.31
248.899	161.31
249.133	163.31
249.366	199.31
249.599	186.31
249.832	160.31
250.066	190.31
250.299	164.31
250.532	172.31
250.765	187.31
250.998	191.31
251.231	212.31
251.465	188.31
251.698	191.31
251.931	186.31
252.164	196.31
252.397	191.31
252.63	179.31
252.863	177.31
253.096	202.31
253.329	216.31
253.562	207.31
253.795	197.31
254.028	190.31
254.261	207.31
254.494	210.31
254.727	242.31
254.96	244.31
255.193	242.31
255.426	221.31
255.659	206.31
255.892	197.31
256.124	215.31
256.357	222.31
256.59	208.31
256.823	220.31
257.056	197.31
257.289	209.31
257.521	208.31
257.754	183.31
257.987	192.31
258.22	195.31
258.452	211.31
258.685	195.31
258.918	202.31
259.151	190.31
259.383	202.31
259.616	210.31
259.849	207.31
260.081	224.31
260.314	237.31
260.547	238.31
260.779	223.31
261.012	198.31
261.244	242.31
261.477	204.31
261.71	215.31
261.942	215.31
262.175	216.31
262.407	212.31
262.64	201.31
262.872	215.31
263.105	197.31
263.337	206.31
263.57	210.31
263.802	200.31
264.035	200.31
264.267	206.31
264.499	194.31
264.732	212.31
264.964	203.31
265.197	197.31
265.429	202.31
265.661	204.31
265.894	208.31
266.126	199.31
266.358	204.31
266.591	209.31
266.823	221.31
267.055	214.31
267.287	208.31
267.52	203.31
267.752	217.31
267.984	225.31
268.216	214.31
268.448	227.31
268.681	219.31
268.913	231.31
269.145	248.31
269.377	258.31
269.609	257.31
269.841	231.31
270.073	252.31
270.306	273.31
270.538	284.31
270.77	299.31
271.002	260.31
271.234	265.31
271.466	250.31
271.698	281.31
271.93	274.31
272.162	284.31
272.394	291.31
272.626	268.31
272.858	262.31
273.09	239.31
273.322	263.31
273.553	242.31
273.785	239.31
274.017	243.31
274.249	260.31
274.481	262.31
274.713	252.31
274.945	256.31
275.176	266.31
275.408	250.31
275.64	251.31
275.872	254.31
276.104	243.31
276.335	243.31
276.567	254.31
276.799	267.31
277.031	274.31
277.262	284.31
277.494	287.31
277.726	281.31
277.957	256.31
278.189	256.31
278.421	268.31
278.652	248.31
278.884	266.31
279.115	257.31
279.347	260.31
279.579	278.31
279.81	244.31
280.042	263.31
280.273	256.31
280.505	259.31
280.736	252.31
280.968	263.31
281.199	256.31
281.431	261.31
281.662	267.31
281.894	263.31
282.125	282.31
282.356	286.31
282.588	297.31
282.819	290.31
283.051	262.31
283.282	266.31
283.513	268.31
283.745	268.31
283.976	275.31
284.207	269.31
284.439	271.31
284.67	278.31
284.901	262.31
285.132	288.31
285.364	266.31
285.595	262.31
285.826	277.31
286.057	272.31
286.288	290.31
286.52	281.31
286.751	262.31
286.982	268.31
287.213	267.31
287.444	264.31
287.675	272.31
287.906	290.31
288.138	297.31
288.369	288.31
288.6	283.31
288.831	291.31
289.062	294.31
289.293	286.31
289.524	279.31
289.755	278.31
289.986	282.31
290.217	270.31
290.448	282.31
290.679	286.31
290.91	277.31
291.141	281.31
291.371	271.31
291.602	275.31
291.833	274.31
292.064	277.31
292.295	269.31
292.526	289.31
292.757	300.31
292.987	282.31
293.218	294.31
293.449	281.31
293.68	285.31
293.91	287.31
294.141	292.31
294.372	275.31
294.603	288.31
294.833	293.31
295.064	274.31
295.295	304.31
295.525	298.31
295.756	304.31
295.987	307.31
296.217	306.31
296.448	317.31
296.679	318.31
296.909	311.31
297.14	300.31
297.37	297.31
297.601	313.31
297.831	298.31
298.062	300.31
298.292	297.31
298.523	311.31
298.753	299.31
298.984	280.31
299.214	296.31
299.445	285.31
299.675	311.31
299.905	310.31
300.136	303.31
300.366	303.31
300.597	321.31
300.827	316.31
301.057	324.31
301.288	328.31
301.518	309.31
301.748	323.31
301.979	335.31
302.209	322.31
302.439	336.31
302.669	297.31
302.9	307.31
303.13	301.31
303.36	327.31
303.59	336.31
303.82	332.31
304.051	350.31
304.281	319.31
304.511	322.31
304.741	318.31
304.971	325.31
305.201	310.31
305.431	306.31
305.661	310.31
305.891	331.31
306.121	328.31
306.352	339.31
306.582	330.31
306.812	328.31
307.042	342.31
307.272	307.31
307.502	334.31
307.731	328.31
307.961	330.31
308.191	329.31
308.421	330.31
308.651	326.31
308.881	330.31
309.111	334.31
309.341	350.31
309.571	351.31
309.8	346.31
310.03	352.31
310.26	368.31
310.49	358.31
310.72	357.31
310.949	372.31
311.179	390.31
311.409	373.31
311.639	366.31
311.868	379.31
312.098	375.31
312.328	392.31
312.557	386.31
312.787	394.31
313.017	374.31
313.246	384.31
313.476	364.31
313.706	378.31
313.935	388.31
314.165	388.31
314.394	383.31
314.624	376.31
314.853	378.31
315.083	384.31
315.312	373.31
315.542	362.31
315.771	377.31
316.001	363.31
316.23	366.31
316.46	361.31
316.689	378.31
316.919	364.31
317.148	384.31
317.377	392.31
317.607	386.31
317.836	372.31
318.065	375.31
318.295	365.31
318.524	376.31
318.753	378.31
318.983	367.31
319.212	361.31
319.441	384.31
319.67	406.31
319.9	363.31
320.129	370.31
320.358	375.31
320.587	389.31
320.816	378.31
321.046	394.31
321.275	377.31
321.504	383.31
321.733	373.31
321.962	405.31
322.191	412.31
322.42	421.31
322.649	417.31
322.878	431.31
323.108	436.31
323.337	459.31
323.566	478.31
323.795	494.31
324.024	514.31
324.253	633.31
324.482	903.31
324.71	1413.31
324.939	2062.31
325.168	1775.31
325.397	882.31
325.626	590.31
325.855	535.31
326.084	479.31
326.313	500.31
326.542	482.31
326.77	522.31
326.999	578.31
327.228	803.31
327.457	1262.31
327.686	1596.31
327.914	1006.31
328.143	689.31
328.372	598.31
328.6	543.31
328.829	518.31
329.058	526.31
329.287	547.31
329.515	525.31
329.744	494.31
329.972	486.31
330.201	510.31
330.43	528.31
330.658	555.31
330.887	574.31
331.115	568.31
331.344	527.31
331.572	472.31
331.801	475.31
332.03	485.31
332.258	453.31
332.486	441.31
332.715	448.31
332.943	463.31
333.172	436.31
333.4	463.31
333.629	470.31
333.857	481.31
334.085	514.31
334.314	506.31
334.542	533.31
334.771	537.31
334.999	503.31
335.227	501.31
335.455	469.31
335.684	489.31
335.912	483.31
336.14	470.31
336.369	460.31
336.597	466.31
336.825	466.31
337.053	441.31
337.281	452.31
337.51	449.31
337.738	440.31
337.966	432.31
338.194	436.31
338.422	449.31
338.65	442.31
338.878	452.31
339.106	441.31
339.334	438.31
339.562	424.31
339.79	422.31
340.018	439.31
340.246	424.31
340.474	442.31
340.702	446.31
340.93	434.31
341.158	412.31
341.386	406.31
341.614	431.31
341.842	451.31
342.07	419.31
342.298	427.31
342.526	432.31
342.754	414.31
342.981	406.31
343.209	407.31
343.437	436.31
343.665	445.31
343.893	459.31
344.12	464.31
344.348	455.31
344.576	452.31
344.804	439.31
345.031	448.31
345.259	457.31
345.487	436.31
345.714	458.31
345.942	439.31
346.17	416.31
346.397	412.31
346.625	411.31
346.853	427.31
347.08	416.31
347.308	409.31
347.535	402.31
347.763	435.31
347.99	420.31
348.218	407.31
348.445	422.31
348.673	432.31
348.9	398.31
349.128	403.31
349.355	414.31
349.583	408.31
349.81	411.31
350.037	389.31
350.265	408.31
350.492	418.31
350.72	419.31
350.947	412.31
351.174	432.31
351.402	441.31
351.629	436.31
351.856	434.31
352.083	426.31
352.311	430.31
352.538	428.31
352.765	422.31
352.992	408.31
353.22	418.31
353.447	402.31
353.674	422.31
353.901	406.31
354.128	421.31
354.355	384.31
354.583	387.31
354.81	392.31
355.037	423.31
355.264	396.31
355.491	396.31
355.718	393.31
355.945	388.31
356.172	392.31
356.399	375.31
356.626	395.31
356.853	379.31
357.08	406.31
357.307	400.31
357.534	373.31
357.761	422.31
357.988	374.31
358.215	390.31
358.441	393.31
358.668	394.31
358.895	419.31
359.122	401.31
359.349	406.31
359.576	418.31
359.802	440.31
360.029	427.31
360.256	459.31
360.483	470.31
360.709	414.31
360.936	419.31
361.163	418.31
361.39	435.31
361.616	439.31
361.843	411.31
362.07	395.31
362.296	421.31
362.523	406.31
362.749	410.31
362.976	444.31
363.203	403.31
363.429	396.31
363.656	386.31
363.882	406.31
364.109	408.31
364.335	409.31
364.562	402.31
364.788	417.31
365.015	395.31
365.241	414.31
365.468	402.31
365.694	411.31
365.92	425.31
366.147	418.31
366.373	413.31
366.599	410.31
366.826	408.31
367.052	400.31
367.278	387.31
367.505	410.31
367.731	388.31
367.957	417.31
368.184	421.31
368.41	418.31
368.636	416.31
368.862	418.31
369.089	419.31
369.315	394.31
369.541	419.31
369.767	410.31
369.993	407.31
370.219	431.31
370.445	424.31
370.672	421.31
370.898	401.31
371.124	409.31
371.35	422.31
371.576	416.31
371.802	441.31
372.028	434.31
372.254	411.31
372.48	425.31
372.706	418.31
372.932	439.31
373.158	425.31
373.384	406.31
373.61	406.31
373.835	424.31
374.061	435.31
374.287	428.31
374.513	401.31
374.739	418.31
374.965	433.31
375.191	455.31
375.416	432.31
375.642	447.31
375.868	414.31
376.094	444.31
376.319	422.31
376.545	406.31
376.771	408.31
376.997	404.31
377.222	430.31
377.448	409.31
377.674	423.31
377.899	417.31
378.125	421.31
378.35	397.31
378.576	426.31
378.802	415.31
379.027	394.31
379.253	421.31
379.478	422.31
379.704	423.31
379.929	402.31
380.155	414.31
380.38	424.31
380.606	418.31
380.831	419.31
381.057	454.31
381.282	418.31
381.507	407.31
381.733	440.31
381.958	416.31
382.184	410.31
382.409	436.31
382.634	431.31
382.86	416.31
383.085	438.31
383.31	435.31
383.535	436.31
383.761	436.31
383.986	434.31
384.211	451.31
384.436	443.31
384.662	457.31
384.887	453.31
385.112	447.31
385.337	488.31
385.562	464.31
385.787	450.31
386.013	471.31
386.238	477.31
386.463	478.31
386.688	458.31
386.913	452.31
387.138	456.31
387.363	463.31
387.588	470.31
387.813	476.31
388.038	464.31
388.263	469.31
388.488	489.31
388.713	472.31
388.938	452.31
389.163	462.31
389.387	481.31
389.612	458.31
389.837	473.31
390.062	482.31
390.287	484.31
390.512	481.31
390.736	461.31
390.961	470.31
391.186	468.31
391.411	478.31
391.636	473.31
391.86	500.31
392.085	499.31
392.31	475.31
392.534	489.31
392.759	482.31
392.984	512.31
393.208	463.31
393.433	475.31
393.658	473.31
393.882	486.31
394.107	464.31
394.331	497.31
394.556	470.31
394.78	501.31
395.005	468.31
395.229	489.31
395.454	485.31
395.678	494.31
395.903	500.31
396.127	521.31
396.352	511.31
396.576	502.31
396.801	500.31
397.025	495.31
397.249	514.31
397.474	509.31
397.698	514.31
397.922	529.31
398.147	539.31
398.371	555.31
398.595	519.31
398.82	530.31
399.044	556.31
399.268	587.31
399.492	616.31
399.717	666.31
399.941	679.31
400.165	692.31
400.389	699.31
400.613	658.31
400.837	616.31
401.062	576.31
401.286	568.31
401.51	568.31
401.734	569.31
401.958	584.31
402.182	576.31
402.406	576.31
402.63	571.31
402.854	564.31
403.078	563.31
403.302	587.31
403.526	577.31
403.75	588.31
403.974	574.31
404.198	596.31
404.422	584.31
404.645	573.31
404.869	619.31
405.093	633.31
405.317	672.31
405.541	712.31
405.765	617.31
405.988	596.31
406.212	599.31
406.436	625.31
406.66	651.31
406.883	604.31
407.107	665.31
407.331	688.31
407.555	764.31
407.778	754.31
408.002	713.31
408.226	648.31
408.449	667.31
408.673	641.31
408.896	657.31
409.12	711.31
409.344	710.31
409.567	638.31
409.791	604.31
410.014	608.31
410.238	602.31
410.461	598.31
410.685	597.31
410.908	604.31
411.132	654.31
411.355	656.31
411.578	630.31
411.802	576.31
412.025	560.31
412.249	590.31
412.472	616.31
412.695	644.31
412.919	645.31
413.142	596.31
413.365	562.31
413.589	575.31
413.812	564.31
414.035	568.31
414.258	551.31
414.482	532.31
414.705	589.31
414.928	540.31
415.151	579.31
415.374	555.31
415.597	552.31
415.821	553.31
416.044	569.31
416.267	534.31
416.49	558.31
416.713	543.31
416.936	568.31
417.159	550.31
417.382	562.31
417.605	548.31
417.828	567.31
418.051	587.31
418.274	562.31
418.497	566.31
418.72	567.31
418.943	563.31
419.166	577.31
419.389	617.31
419.611	605.31
419.834	598.31
420.057	626.31
420.28	606.31
420.503	584.31
420.726	576.31
420.948	592.31
421.171	645.31
421.394	656.31
421.617	619.31
421.839	570.31
422.062	577.31
422.285	572.31
422.507	632.31
422.73	714.31
422.953	688.31
423.175	606.31
423.398	594.31
423.621	582.31
423.843	622.31
424.066	594.31
424.288	599.31
424.511	628.31
424.733	687.31
424.956	758.31
425.178	746.31
425.401	735.31
425.623	749.31
425.846	626.31
426.068	613.31
426.291	603.31
426.513	600.31
426.735	580.31
426.958	638.31
427.18	728.31
427.402	861.31
427.625	947.31
427.847	822.31
428.069	729.31
428.292	626.31
428.514	599.31
428.736	578.31
428.958	548.31
429.181	562.31
429.403	542.31
429.625	561.31
429.847	607.31
430.069	661.31
430.292	673.31
430.514	568.31
430.736	562.31
430.958	555.31
431.18	542.31
431.402	515.31
431.624	533.31
431.846	517.31
432.068	542.31
432.29	558.31
432.512	542.31
432.734	544.31
432.956	561.31
433.178	564.31
433.4	551.31
433.622	528.31
433.844	524.31
434.066	548.31
434.287	561.31
434.509	566.31
434.731	562.31
434.953	570.31
435.175	578.31
435.397	603.31
435.618	597.31
435.84	621.31
436.062	739.31
436.284	784.31
436.505	681.31
436.727	611.31
436.949	572.31
437.17	552.31
437.392	571.31
437.614	570.31
437.835	580.31
438.057	681.31
438.278	792.31
438.5	807.31
438.721	870.31
438.943	836.31
439.165	682.31
439.386	625.31
439.608	593.31
439.829	592.31
440.05	623.31
440.272	681.31
440.493	629.31
440.715	608.31
440.936	564.31
441.158	585.31
441.379	570.31
441.6	606.31
441.822	621.31
442.043	636.31
442.264	733.31
442.486	774.31
442.707	656.31
442.928	630.31
443.149	628.31
443.371	648.31
443.592	701.31
443.813	786.31
444.034	868.31
444.255	697.31
444.476	646.31
444.698	615.31
444.919	632.31
445.14	727.31
445.361	675.31
445.582	654.31
445.803	716.31
446.024	816.31
446.245	803.31
446.466	744.31
446.687	650.31
446.908	612.31
447.129	562.31
447.35	554.31
447.571	544.31
447.792	534.31
448.013	561.31
448.234	556.31
448.455	588.31
448.675	711.31
448.896	842.31
449.117	712.31
449.338	662.31
449.559	760.31
449.779	914.31
450	710.31
450.221	612.31
450.442	560.31
450.662	540.31
450.883	526.31
451.104	545.31
451.324	552.31
451.545	526.31
451.766	514.31
451.986	499.31
452.207	517.31
452.428	479.31
452.648	486.31
452.869	510.31
453.089	490.31
453.31	533.31
453.53	519.31
453.751	500.31
453.971	504.31
454.192	535.31
454.412	513.31
454.633	489.31
454.853	509.31
455.073	487.31
455.294	501.31
455.514	551.31
455.734	570.31
455.955	512.31
456.175	473.31
456.395	489.31
456.616	476.31
456.836	488.31
457.056	463.31
457.276	468.31
457.497	490.31
457.717	514.31
457.937	487.31
458.157	495.31
458.377	478.31
458.598	522.31
458.818	578.31
459.038	672.31
459.258	650.31
459.478	602.31
459.698	552.31
459.918	550.31
460.138	576.31
460.358	566.31
460.578	556.31
460.798	579.31
461.018	606.31
461.238	563.31
461.458	586.31
461.678	587.31
461.898	546.31
462.118	558.31
462.338	603.31
462.558	610.31
462.777	594.31
462.997	619.31
463.217	615.31
463.437	632.31
463.657	611.31
463.876	624.31
464.096	619.31
464.316	617.31
464.536	625.31
464.755	600.31
464.975	631.31
465.195	633.31
465.414	689.31
465.634	631.31
465.854	598.31
466.073	578.31
466.293	568.31
466.512	553.31
466.732	524.31
466.951	516.31
467.171	545.31
467.391	522.31
467.61	533.31
467.829	523.31
468.049	540.31
468.268	516.31
468.488	506.31
468.707	507.31
468.927	506.31
469.146	501.31
469.365	506.31
469.585	517.31
469.804	528.31
470.023	542.31
470.243	544.31
470.462	544.31
470.681	566.31
470.901	547.31
471.12	533.31
471.339	520.31
471.558	562.31
471.777	516.31
471.997	530.31
472.216	534.31
472.435	535.31
472.654	524.31
472.873	528.31
473.092	536.31
473.311	515.31
473.53	534.31
473.749	540.31
473.968	578.31
474.187	646.31
474.406	673.31
474.625	578.31
474.844	546.31
475.063	528.31
475.282	533.31
475.501	548.31
475.72	532.31
475.939	520.31
476.158	530.31
476.377	532.31
476.596	536.31
476.814	564.31
477.033	570.31
477.252	591.31
477.471	576.31
477.69	560.31
477.908	570.31
478.127	575.31
478.346	574.31
478.564	585.31
478.783	594.31
479.002	581.31
479.22	607.31
479.439	619.31
479.658	630.31
479.876	626.31
480.095	645.31
480.313	670.31
480.532	662.31
480.751	646.31
480.969	631.31
481.188	702.31
481.406	711.31
481.624	646.31
481.843	643.31
482.061	626.31
482.28	670.31
482.498	651.31
482.717	603.31
482.935	608.31
483.153	628.31
483.372	608.31
483.59	601.31
483.808	595.31
484.027	641.31
484.245	638.31
484.463	626.31
484.681	624.31
484.9	630.31
485.118	628.31
485.336	642.31
485.554	634.31
485.772	631.31
485.99	636.31
486.209	644.31
486.427	630.31
486.645	643.31
486.863	655.31
487.081	683.31
487.299	658.31
487.517	634.31
487.735	634.31
487.953	653.31
488.171	676.31
488.389	657.31
488.607	664.31
488.825	684.31
489.043	660.31
489.261	674.31
489.479	639.31
489.696	668.31
489.914	668.31
490.132	720.31
490.35	675.31
490.568	688.31
490.786	711.31
491.003	694.31
491.221	726.31
491.439	751.31
491.657	747.31
491.874	738.31
492.092	729.31
492.31	740.31
492.527	738.31
492.745	735.31
492.963	741.31
493.18	763.31
493.398	776.31
493.615	784.31
493.833	780.31
494.05	766.31
494.268	763.31
494.485	778.31
494.703	766.31
494.92	750.31
495.138	766.31
495.355	761.31
495.573	783.31
495.79	759.31
496.008	780.31
496.225	784.31
496.442	770.31
496.66	772.31
496.877	772.31
497.094	830.31
497.312	821.31
497.529	788.31
497.746	823.31
497.963	838.31
498.181	870.31
498.398	890.31
498.615	914.31
498.832	931.31
499.049	918.31
499.267	960.31
499.484	1022.31
499.701	1054.31
499.918	1082.31
500.135	1146.31
500.352	1218.31
500.569	1235.31
500.786	1247.31
501.003	1230.31
501.22	1137.31
501.437	1108.31
501.654	1058.31
501.871	1039.31
