Data from 1979.PennyLincolnUp.Lamp.En5.5.200Scan.071719.P1_HRD10591_16-18-41-863.txt Node
Date: Thu Jul 18 16:18:41 EDT 2019
User: cochatt
Spectrometer: HR+D1059
Trigger mode: 1
Integration Time (sec): 1.000000E-1
Scans to average: 1
Electric dark correction enabled: true
Nonlinearity correction enabled: false
Boxcar width: 0
XAxis mode: Wavelengths
Number of Pixels in Spectrum: 2048
>>>>>Begin Spectral Data<<<<<
223.165	-17.69
223.4	-17.69
223.635	-17.69
223.869	-23.69
224.104	-19.69
224.338	-22.69
224.573	-22.69
224.808	-2.69
225.042	1.31
225.277	-3.69
225.511	-15.69
225.746	3.31
225.98	4.31
226.215	20.31
226.449	28.31
226.683	18.31
226.918	14.31
227.152	38.31
227.387	37.31
227.621	46.31
227.856	38.31
228.09	36.31
228.324	35.31
228.559	46.31
228.793	64.31
229.027	86.31
229.262	113.31
229.496	101.31
229.73	112.31
229.964	130.31
230.199	123.31
230.433	112.31
230.667	105.31
230.901	104.31
231.136	103.31
231.37	120.31
231.604	116.31
231.838	114.31
232.072	109.31
232.306	124.31
232.541	101.31
232.775	108.31
233.009	108.31
233.243	126.31
233.477	103.31
233.711	116.31
233.945	105.31
234.179	108.31
234.413	114.31
234.647	133.31
234.881	119.31
235.115	107.31
235.349	112.31
235.583	120.31
235.817	130.31
236.051	122.31
236.285	117.31
236.519	113.31
236.753	132.31
236.987	130.31
237.221	154.31
237.455	189.31
237.689	178.31
237.922	129.31
238.156	121.31
238.39	133.31
238.624	113.31
238.858	117.31
239.091	122.31
239.325	118.31
239.559	126.31
239.793	127.31
240.027	125.31
240.26	125.31
240.494	142.31
240.728	156.31
240.961	142.31
241.195	134.31
241.429	140.31
241.662	132.31
241.896	126.31
242.13	122.31
242.363	127.31
242.597	120.31
242.83	145.31
243.064	142.31
243.298	136.31
243.531	128.31
243.765	133.31
243.998	134.31
244.232	134.31
244.465	126.31
244.699	138.31
244.932	142.31
245.166	140.31
245.399	143.31
245.633	143.31
245.866	124.31
246.099	134.31
246.333	147.31
246.566	165.31
246.8	139.31
247.033	158.31
247.266	164.31
247.5	161.31
247.733	154.31
247.966	148.31
248.2	159.31
248.433	178.31
248.666	161.31
248.899	178.31
249.133	183.31
249.366	168.31
249.599	178.31
249.832	183.31
250.066	167.31
250.299	167.31
250.532	179.31
250.765	180.31
250.998	205.31
251.231	193.31
251.465	184.31
251.698	177.31
251.931	184.31
252.164	169.31
252.397	182.31
252.63	172.31
252.863	192.31
253.096	212.31
253.329	199.31
253.562	219.31
253.795	204.31
254.028	182.31
254.261	195.31
254.494	208.31
254.727	229.31
254.96	244.31
255.193	241.31
255.426	219.31
255.659	191.31
255.892	208.31
256.124	205.31
256.357	213.31
256.59	203.31
256.823	192.31
257.056	188.31
257.289	199.31
257.521	197.31
257.754	198.31
257.987	184.31
258.22	190.31
258.452	194.31
258.685	183.31
258.918	190.31
259.151	201.31
259.383	210.31
259.616	220.31
259.849	210.31
260.081	212.31
260.314	258.31
260.547	233.31
260.779	220.31
261.012	209.31
261.244	211.31
261.477	204.31
261.71	194.31
261.942	210.31
262.175	220.31
262.407	212.31
262.64	197.31
262.872	200.31
263.105	205.31
263.337	201.31
263.57	202.31
263.802	209.31
264.035	206.31
264.267	202.31
264.499	196.31
264.732	198.31
264.964	199.31
265.197	210.31
265.429	197.31
265.661	197.31
265.894	204.31
266.126	215.31
266.358	210.31
266.591	203.31
266.823	202.31
267.055	210.31
267.287	232.31
267.52	218.31
267.752	228.31
267.984	212.31
268.216	212.31
268.448	214.31
268.681	206.31
268.913	220.31
269.145	244.31
269.377	242.31
269.609	245.31
269.841	246.31
270.073	256.31
270.306	257.31
270.538	278.31
270.77	276.31
271.002	289.31
271.234	258.31
271.466	265.31
271.698	282.31
271.93	269.31
272.162	272.31
272.394	290.31
272.626	248.31
272.858	263.31
273.09	261.31
273.322	261.31
273.553	242.31
273.785	243.31
274.017	260.31
274.249	255.31
274.481	253.31
274.713	262.31
274.945	248.31
275.176	258.31
275.408	245.31
275.64	248.31
275.872	246.31
276.104	240.31
276.335	248.31
276.567	246.31
276.799	258.31
277.031	283.31
277.262	296.31
277.494	298.31
277.726	285.31
277.957	246.31
278.189	266.31
278.421	264.31
278.652	282.31
278.884	265.31
279.115	256.31
279.347	245.31
279.579	256.31
279.81	255.31
280.042	247.31
280.273	247.31
280.505	258.31
280.736	248.31
280.968	256.31
281.199	270.31
281.431	264.31
281.662	264.31
281.894	260.31
282.125	284.31
282.356	258.31
282.588	284.31
282.819	292.31
283.051	281.31
283.282	253.31
283.513	269.31
283.745	257.31
283.976	272.31
284.207	243.31
284.439	266.31
284.67	271.31
284.901	277.31
285.132	280.31
285.364	266.31
285.595	264.31
285.826	274.31
286.057	270.31
286.288	280.31
286.52	261.31
286.751	269.31
286.982	248.31
287.213	267.31
287.444	279.31
287.675	274.31
287.906	282.31
288.138	276.31
288.369	277.31
288.6	278.31
288.831	292.31
289.062	284.31
289.293	284.31
289.524	260.31
289.755	281.31
289.986	264.31
290.217	271.31
290.448	269.31
290.679	275.31
290.91	289.31
291.141	268.31
291.371	284.31
291.602	277.31
291.833	279.31
292.064	293.31
292.295	290.31
292.526	282.31
292.757	276.31
292.987	278.31
293.218	270.31
293.449	286.31
293.68	274.31
293.91	281.31
294.141	286.31
294.372	286.31
294.603	287.31
294.833	271.31
295.064	283.31
295.295	300.31
295.525	266.31
295.756	281.31
295.987	283.31
296.217	313.31
296.448	325.31
296.679	300.31
296.909	278.31
297.14	275.31
297.37	296.31
297.601	296.31
297.831	296.31
298.062	302.31
298.292	305.31
298.523	297.31
298.753	299.31
298.984	310.31
299.214	299.31
299.445	297.31
299.675	307.31
299.905	308.31
300.136	312.31
300.366	322.31
300.597	300.31
300.827	313.31
301.057	329.31
301.288	319.31
301.518	321.31
301.748	318.31
301.979	305.31
302.209	309.31
302.439	330.31
302.669	324.31
302.9	320.31
303.13	327.31
303.36	319.31
303.59	322.31
303.82	320.31
304.051	321.31
304.281	351.31
304.511	329.31
304.741	319.31
304.971	317.31
305.201	315.31
305.431	312.31
305.661	314.31
305.891	323.31
306.121	334.31
306.352	336.31
306.582	323.31
306.812	313.31
307.042	326.31
307.272	349.31
307.502	330.31
307.731	321.31
307.961	332.31
308.191	323.31
308.421	318.31
308.651	322.31
308.881	317.31
309.111	330.31
309.341	340.31
309.571	332.31
309.8	346.31
310.03	335.31
310.26	353.31
310.49	348.31
310.72	343.31
310.949	375.31
311.179	388.31
311.409	372.31
311.639	372.31
311.868	356.31
312.098	360.31
312.328	355.31
312.557	390.31
312.787	396.31
313.017	379.31
313.246	365.31
313.476	351.31
313.706	362.31
313.935	360.31
314.165	382.31
314.394	381.31
314.624	381.31
314.853	385.31
315.083	362.31
315.312	364.31
315.542	352.31
315.771	371.31
316.001	357.31
316.23	368.31
316.46	359.31
316.689	356.31
316.919	383.31
317.148	360.31
317.377	387.31
317.607	380.31
317.836	365.31
318.065	365.31
318.295	357.31
318.524	360.31
318.753	379.31
318.983	372.31
319.212	392.31
319.441	377.31
319.67	385.31
319.9	377.31
320.129	376.31
320.358	356.31
320.587	370.31
320.816	350.31
321.046	384.31
321.275	378.31
321.504	378.31
321.733	375.31
321.962	390.31
322.191	394.31
322.42	390.31
322.649	424.31
322.878	434.31
323.108	447.31
323.337	455.31
323.566	441.31
323.795	472.31
324.024	541.31
324.253	617.31
324.482	852.31
324.71	1315.31
324.939	1933.31
325.168	1712.31
325.397	846.31
325.626	575.31
325.855	498.31
326.084	476.31
326.313	471.31
326.542	477.31
326.77	497.31
326.999	556.31
327.228	785.31
327.457	1204.31
327.686	1512.31
327.914	982.31
328.143	642.31
328.372	566.31
328.6	540.31
328.829	497.31
329.058	524.31
329.287	532.31
329.515	489.31
329.744	481.31
329.972	475.31
330.201	490.31
330.43	525.31
330.658	567.31
330.887	551.31
331.115	558.31
331.344	488.31
331.572	464.31
331.801	479.31
332.03	470.31
332.258	452.31
332.486	446.31
332.715	422.31
332.943	453.31
333.172	465.31
333.4	468.31
333.629	468.31
333.857	472.31
334.085	494.31
334.314	480.31
334.542	492.31
334.771	541.31
334.999	497.31
335.227	458.31
335.455	440.31
335.684	454.31
335.912	438.31
336.14	440.31
336.369	436.31
336.597	471.31
336.825	469.31
337.053	452.31
337.281	434.31
337.51	437.31
337.738	449.31
337.966	444.31
338.194	448.31
338.422	446.31
338.65	428.31
338.878	427.31
339.106	426.31
339.334	411.31
339.562	438.31
339.79	416.31
340.018	432.31
340.246	440.31
340.474	441.31
340.702	418.31
340.93	419.31
341.158	429.31
341.386	413.31
341.614	424.31
341.842	436.31
342.07	426.31
342.298	443.31
342.526	419.31
342.754	420.31
342.981	411.31
343.209	415.31
343.437	427.31
343.665	433.31
343.893	424.31
344.12	460.31
344.348	459.31
344.576	441.31
344.804	433.31
345.031	445.31
345.259	446.31
345.487	447.31
345.714	430.31
345.942	440.31
346.17	406.31
346.397	414.31
346.625	420.31
346.853	404.31
347.08	404.31
347.308	414.31
347.535	427.31
347.763	432.31
347.99	416.31
348.218	409.31
348.445	430.31
348.673	409.31
348.9	418.31
349.128	424.31
349.355	397.31
349.583	410.31
349.81	414.31
350.037	386.31
350.265	402.31
350.492	404.31
350.72	404.31
350.947	415.31
351.174	411.31
351.402	415.31
351.629	409.31
351.856	420.31
352.083	390.31
352.311	437.31
352.538	421.31
352.765	435.31
352.992	406.31
353.22	421.31
353.447	417.31
353.674	395.31
353.901	400.31
354.128	383.31
354.355	389.31
354.583	383.31
354.81	397.31
355.037	413.31
355.264	389.31
355.491	372.31
355.718	381.31
355.945	399.31
356.172	377.31
356.399	372.31
356.626	380.31
356.853	390.31
357.08	399.31
357.307	408.31
357.534	400.31
357.761	392.31
357.988	404.31
358.215	398.31
358.441	395.31
358.668	400.31
358.895	405.31
359.122	384.31
359.349	396.31
359.576	408.31
359.802	428.31
360.029	454.31
360.256	476.31
360.483	444.31
360.709	405.31
360.936	413.31
361.163	420.31
361.39	412.31
361.616	407.31
361.843	420.31
362.07	433.31
362.296	414.31
362.523	394.31
362.749	425.31
362.976	393.31
363.203	403.31
363.429	404.31
363.656	390.31
363.882	385.31
364.109	396.31
364.335	388.31
364.562	409.31
364.788	403.31
365.015	408.31
365.241	411.31
365.468	408.31
365.694	425.31
365.92	395.31
366.147	391.31
366.373	394.31
366.599	424.31
366.826	388.31
367.052	396.31
367.278	393.31
367.505	392.31
367.731	405.31
367.957	415.31
368.184	398.31
368.41	425.31
368.636	417.31
368.862	419.31
369.089	419.31
369.315	405.31
369.541	397.31
369.767	398.31
369.993	410.31
370.219	429.31
370.445	417.31
370.672	397.31
370.898	391.31
371.124	404.31
371.35	421.31
371.576	410.31
371.802	429.31
372.028	428.31
372.254	414.31
372.48	437.31
372.706	410.31
372.932	434.31
373.158	419.31
373.384	416.31
373.61	427.31
373.835	429.31
374.061	397.31
374.287	417.31
374.513	413.31
374.739	427.31
374.965	423.31
375.191	419.31
375.416	441.31
375.642	430.31
375.868	409.31
376.094	411.31
376.319	422.31
376.545	431.31
376.771	412.31
376.997	416.31
377.222	411.31
377.448	410.31
377.674	407.31
377.899	401.31
378.125	392.31
378.35	426.31
378.576	424.31
378.802	396.31
379.027	416.31
379.253	418.31
379.478	408.31
379.704	396.31
379.929	409.31
380.155	402.31
380.38	420.31
380.606	412.31
380.831	419.31
381.057	419.31
381.282	419.31
381.507	424.31
381.733	440.31
381.958	417.31
382.184	422.31
382.409	426.31
382.634	451.31
382.86	423.31
383.085	436.31
383.31	436.31
383.535	429.31
383.761	436.31
383.986	449.31
384.211	438.31
384.436	445.31
384.662	434.31
384.887	450.31
385.112	452.31
385.337	441.31
385.562	456.31
385.787	471.31
386.013	471.31
386.238	471.31
386.463	487.31
386.688	448.31
386.913	450.31
387.138	468.31
387.363	463.31
387.588	461.31
387.813	478.31
388.038	488.31
388.263	466.31
388.488	464.31
388.713	458.31
388.938	458.31
389.163	467.31
389.387	456.31
389.612	467.31
389.837	477.31
390.062	456.31
390.287	472.31
390.512	466.31
390.736	459.31
390.961	464.31
391.186	455.31
391.411	453.31
391.636	487.31
391.86	484.31
392.085	502.31
392.31	488.31
392.534	498.31
392.759	480.31
392.984	484.31
393.208	481.31
393.433	510.31
393.658	491.31
393.882	473.31
394.107	484.31
394.331	479.31
394.556	472.31
394.78	472.31
395.005	468.31
395.229	471.31
395.454	481.31
395.678	483.31
395.903	490.31
396.127	508.31
396.352	533.31
396.576	498.31
396.801	480.31
397.025	502.31
397.249	518.31
397.474	502.31
397.698	513.31
397.922	520.31
398.147	528.31
398.371	541.31
398.595	549.31
398.82	558.31
399.044	548.31
399.268	586.31
399.492	638.31
399.717	661.31
399.941	668.31
400.165	690.31
400.389	662.31
400.613	645.31
400.837	588.31
401.062	569.31
401.286	562.31
401.51	567.31
401.734	547.31
401.958	562.31
402.182	564.31
402.406	573.31
402.63	580.31
402.854	582.31
403.078	564.31
403.302	579.31
403.526	585.31
403.75	567.31
403.974	577.31
404.198	583.31
404.422	577.31
404.645	603.31
404.869	592.31
405.093	637.31
405.317	652.31
405.541	697.31
405.765	673.31
405.988	610.31
406.212	589.31
406.436	619.31
406.66	636.31
406.883	622.31
407.107	631.31
407.331	684.31
407.555	742.31
407.778	729.31
408.002	698.31
408.226	669.31
408.449	628.31
408.673	634.31
408.896	662.31
409.12	706.31
409.344	652.31
409.567	606.31
409.791	608.31
410.014	611.31
410.238	580.31
410.461	601.31
410.685	587.31
410.908	612.31
411.132	611.31
411.355	644.31
411.578	642.31
411.802	601.31
412.025	588.31
412.249	584.31
412.472	611.31
412.695	660.31
412.919	613.31
413.142	602.31
413.365	585.31
413.589	566.31
413.812	553.31
414.035	560.31
414.258	549.31
414.482	532.31
414.705	534.31
414.928	570.31
415.151	560.31
415.374	541.31
415.597	537.31
415.821	520.31
416.044	565.31
416.267	551.31
416.49	564.31
416.713	562.31
416.936	554.31
417.159	553.31
417.382	545.31
417.605	539.31
417.828	567.31
418.051	591.31
418.274	580.31
418.497	564.31
418.72	563.31
418.943	540.31
419.166	589.31
419.389	611.31
419.611	611.31
419.834	592.31
420.057	583.31
420.28	552.31
420.503	545.31
420.726	563.31
420.948	576.31
421.171	621.31
421.394	658.31
421.617	614.31
421.839	578.31
422.062	564.31
422.285	580.31
422.507	641.31
422.73	690.31
422.953	700.31
423.175	589.31
423.398	584.31
423.621	604.31
423.843	598.31
424.066	612.31
424.288	578.31
424.511	609.31
424.733	656.31
424.956	733.31
425.178	709.31
425.401	696.31
425.623	736.31
425.846	634.31
426.068	586.31
426.291	625.31
426.513	590.31
426.735	600.31
426.958	612.31
427.18	712.31
427.402	830.31
427.625	916.31
427.847	796.31
428.069	716.31
428.292	643.31
428.514	580.31
428.736	580.31
428.958	585.31
429.181	541.31
429.403	550.31
429.625	569.31
429.847	609.31
430.069	645.31
430.292	637.31
430.514	582.31
430.736	554.31
430.958	532.31
431.18	548.31
431.402	536.31
431.624	548.31
431.846	530.31
432.068	532.31
432.29	536.31
432.512	538.31
432.734	540.31
432.956	538.31
433.178	573.31
433.4	563.31
433.622	545.31
433.844	521.31
434.066	531.31
434.287	517.31
434.509	539.31
434.731	563.31
434.953	565.31
435.175	569.31
435.397	608.31
435.618	607.31
435.84	643.31
436.062	726.31
436.284	777.31
436.505	678.31
436.727	602.31
436.949	592.31
437.17	577.31
437.392	542.31
437.614	542.31
437.835	576.31
438.057	684.31
438.278	756.31
438.5	764.31
438.721	845.31
438.943	799.31
439.165	657.31
439.386	610.31
439.608	595.31
439.829	608.31
440.05	637.31
440.272	662.31
440.493	629.31
440.715	602.31
440.936	568.31
441.158	560.31
441.379	562.31
441.6	569.31
441.822	616.31
442.043	645.31
442.264	716.31
442.486	731.31
442.707	676.31
442.928	618.31
443.149	624.31
443.371	640.31
443.592	684.31
443.813	768.31
444.034	822.31
444.255	712.31
444.476	654.31
444.698	639.31
444.919	620.31
445.14	724.31
445.361	666.31
445.582	650.31
445.803	691.31
446.024	772.31
446.245	817.31
446.466	737.31
446.687	649.31
446.908	601.31
447.129	564.31
447.35	567.31
447.571	555.31
447.792	548.31
448.013	554.31
448.234	567.31
448.455	576.31
448.675	703.31
448.896	827.31
449.117	680.31
449.338	665.31
449.559	778.31
449.779	852.31
450	698.31
450.221	572.31
450.442	560.31
450.662	534.31
450.883	556.31
451.104	558.31
451.324	549.31
451.545	551.31
451.766	517.31
451.986	485.31
452.207	509.31
452.428	497.31
452.648	485.31
452.869	496.31
453.089	500.31
453.31	514.31
453.53	499.31
453.751	496.31
453.971	492.31
454.192	518.31
454.412	489.31
454.633	486.31
454.853	489.31
455.073	499.31
455.294	500.31
455.514	578.31
455.734	576.31
455.955	515.31
456.175	473.31
456.395	454.31
456.616	460.31
456.836	464.31
457.056	473.31
457.276	473.31
457.497	489.31
457.717	482.31
457.937	489.31
458.157	478.31
458.377	486.31
458.598	493.31
458.818	539.31
459.038	618.31
459.258	640.31
459.478	578.31
459.698	534.31
459.918	563.31
460.138	535.31
460.358	537.31
460.578	553.31
460.798	532.31
461.018	550.31
461.238	562.31
461.458	557.31
461.678	544.31
461.898	581.31
462.118	588.31
462.338	590.31
462.558	593.31
462.777	613.31
462.997	619.31
463.217	631.31
463.437	644.31
463.657	624.31
463.876	616.31
464.096	596.31
464.316	618.31
464.536	635.31
464.755	612.31
464.975	599.31
465.195	612.31
465.414	680.31
465.634	622.31
465.854	573.31
466.073	569.31
466.293	573.31
466.512	532.31
466.732	534.31
466.951	515.31
467.171	511.31
467.391	505.31
467.61	528.31
467.829	560.31
468.049	515.31
468.268	513.31
468.488	532.31
468.707	524.31
468.927	512.31
469.146	513.31
469.365	522.31
469.585	509.31
469.804	518.31
470.023	517.31
470.243	520.31
470.462	508.31
470.681	542.31
470.901	569.31
471.12	540.31
471.339	527.31
471.558	546.31
471.777	519.31
471.997	524.31
472.216	548.31
472.435	560.31
472.654	541.31
472.873	538.31
473.092	530.31
473.311	507.31
473.53	508.31
473.749	520.31
473.968	572.31
474.187	639.31
474.406	652.31
474.625	587.31
474.844	538.31
475.063	529.31
475.282	528.31
475.501	535.31
475.72	548.31
475.939	525.31
476.158	521.31
476.377	545.31
476.596	549.31
476.814	560.31
477.033	559.31
477.252	552.31
477.471	566.31
477.69	568.31
477.908	562.31
478.127	589.31
478.346	573.31
478.564	577.31
478.783	583.31
479.002	607.31
479.22	595.31
479.439	624.31
479.658	620.31
479.876	626.31
480.095	652.31
480.313	664.31
480.532	669.31
480.751	646.31
480.969	643.31
481.188	691.31
481.406	731.31
481.624	669.31
481.843	627.31
482.061	620.31
482.28	604.31
482.498	593.31
482.717	593.31
482.935	606.31
483.153	607.31
483.372	591.31
483.59	620.31
483.808	572.31
484.027	592.31
484.245	598.31
484.463	624.31
484.681	630.31
484.9	602.31
485.118	608.31
485.336	643.31
485.554	651.31
485.772	641.31
485.99	620.31
486.209	642.31
486.427	625.31
486.645	615.31
486.863	637.31
487.081	662.31
487.299	651.31
487.517	657.31
487.735	640.31
487.953	639.31
488.171	636.31
488.389	634.31
488.607	658.31
488.825	676.31
489.043	638.31
489.261	658.31
489.479	658.31
489.696	659.31
489.914	639.31
490.132	676.31
490.35	673.31
490.568	686.31
490.786	681.31
491.003	704.31
491.221	706.31
491.439	701.31
491.657	701.31
491.874	713.31
492.092	743.31
492.31	722.31
492.527	747.31
492.745	724.31
492.963	747.31
493.18	743.31
493.398	764.31
493.615	768.31
493.833	739.31
494.05	760.31
494.268	743.31
494.485	752.31
494.703	772.31
494.92	753.31
495.138	764.31
495.355	737.31
495.573	764.31
495.79	772.31
496.008	755.31
496.225	739.31
496.442	758.31
496.66	782.31
496.877	801.31
497.094	791.31
497.312	791.31
497.529	788.31
497.746	824.31
497.963	823.31
498.181	843.31
498.398	862.31
498.615	872.31
498.832	921.31
499.049	898.31
499.267	960.31
499.484	1008.31
499.701	1049.31
499.918	1043.31
500.135	1133.31
500.352	1208.31
500.569	1239.31
500.786	1239.31
501.003	1212.31
501.22	1142.31
501.437	1115.31
501.654	1066.31
501.871	1003.31
