Data from 1979.PennyLincolnUp.Lamp.En5.5.200Scan.071719.P1_HRD10591_16-17-27-863.txt Node
Date: Thu Jul 18 16:17:27 EDT 2019
User: cochatt
Spectrometer: HR+D1059
Trigger mode: 1
Integration Time (sec): 1.000000E-1
Scans to average: 1
Electric dark correction enabled: true
Nonlinearity correction enabled: false
Boxcar width: 0
XAxis mode: Wavelengths
Number of Pixels in Spectrum: 2048
>>>>>Begin Spectral Data<<<<<
223.165	4.06
223.4	4.06
223.635	4.06
223.869	-15.94
224.104	-23.94
224.338	-22.94
224.573	-10.94
224.808	-9.94
225.042	-5.94
225.277	-8.94
225.511	-5.94
225.746	10.06
225.98	8.06
226.215	6.06
226.449	6.06
226.683	20.06
226.918	14.06
227.152	36.06
227.387	36.06
227.621	34.06
227.856	41.06
228.09	58.06
228.324	55.06
228.559	61.06
228.793	75.06
229.027	93.06
229.262	110.06
229.496	89.06
229.73	97.06
229.964	119.06
230.199	116.06
230.433	110.06
230.667	90.06
230.901	107.06
231.136	105.06
231.37	92.06
231.604	94.06
231.838	108.06
232.072	97.06
232.306	101.06
232.541	112.06
232.775	106.06
233.009	105.06
233.243	103.06
233.477	113.06
233.711	122.06
233.945	116.06
234.179	101.06
234.413	109.06
234.647	109.06
234.881	98.06
235.115	110.06
235.349	97.06
235.583	110.06
235.817	119.06
236.051	100.06
236.285	117.06
236.519	118.06
236.753	124.06
236.987	119.06
237.221	129.06
237.455	152.06
237.689	136.06
237.922	127.06
238.156	117.06
238.39	120.06
238.624	116.06
238.858	115.06
239.091	109.06
239.325	105.06
239.559	108.06
239.793	114.06
240.027	123.06
240.26	122.06
240.494	125.06
240.728	125.06
240.961	129.06
241.195	109.06
241.429	120.06
241.662	120.06
241.896	129.06
242.13	120.06
242.363	130.06
242.597	119.06
242.83	122.06
243.064	114.06
243.298	134.06
243.531	123.06
243.765	122.06
243.998	133.06
244.232	132.06
244.465	117.06
244.699	140.06
244.932	144.06
245.166	136.06
245.399	132.06
245.633	139.06
245.866	135.06
246.099	131.06
246.333	135.06
246.566	119.06
246.8	131.06
247.033	142.06
247.266	150.06
247.5	132.06
247.733	149.06
247.966	158.06
248.2	150.06
248.433	146.06
248.666	138.06
248.899	141.06
249.133	162.06
249.366	170.06
249.599	161.06
249.832	165.06
250.066	154.06
250.299	155.06
250.532	173.06
250.765	157.06
250.998	171.06
251.231	188.06
251.465	163.06
251.698	168.06
251.931	173.06
252.164	153.06
252.397	174.06
252.63	162.06
252.863	172.06
253.096	183.06
253.329	176.06
253.562	181.06
253.795	161.06
254.028	183.06
254.261	180.06
254.494	203.06
254.727	196.06
254.96	199.06
255.193	192.06
255.426	194.06
255.659	180.06
255.892	174.06
256.124	178.06
256.357	169.06
256.59	176.06
256.823	168.06
257.056	179.06
257.289	170.06
257.521	194.06
257.754	172.06
257.987	178.06
258.22	179.06
258.452	177.06
258.685	186.06
258.918	195.06
259.151	176.06
259.383	188.06
259.616	179.06
259.849	193.06
260.081	184.06
260.314	204.06
260.547	205.06
260.779	191.06
261.012	197.06
261.244	169.06
261.477	179.06
261.71	194.06
261.942	180.06
262.175	187.06
262.407	184.06
262.64	184.06
262.872	171.06
263.105	181.06
263.337	208.06
263.57	192.06
263.802	186.06
264.035	186.06
264.267	176.06
264.499	183.06
264.732	190.06
264.964	190.06
265.197	173.06
265.429	193.06
265.661	194.06
265.894	212.06
266.126	198.06
266.358	193.06
266.591	189.06
266.823	181.06
267.055	182.06
267.287	206.06
267.52	213.06
267.752	200.06
267.984	193.06
268.216	207.06
268.448	194.06
268.681	199.06
268.913	206.06
269.145	200.06
269.377	219.06
269.609	220.06
269.841	205.06
270.073	225.06
270.306	218.06
270.538	234.06
270.77	248.06
271.002	229.06
271.234	227.06
271.466	231.06
271.698	230.06
271.93	222.06
272.162	246.06
272.394	250.06
272.626	246.06
272.858	233.06
273.09	233.06
273.322	228.06
273.553	220.06
273.785	212.06
274.017	211.06
274.249	238.06
274.481	221.06
274.713	224.06
274.945	227.06
275.176	236.06
275.408	234.06
275.64	226.06
275.872	215.06
276.104	224.06
276.335	217.06
276.567	231.06
276.799	234.06
277.031	249.06
277.262	254.06
277.494	250.06
277.726	253.06
277.957	244.06
278.189	258.06
278.421	208.06
278.652	246.06
278.884	238.06
279.115	244.06
279.347	257.06
279.579	286.06
279.81	319.06
280.042	317.06
280.273	274.06
280.505	299.06
280.736	274.06
280.968	238.06
281.199	229.06
281.431	248.06
281.662	246.06
281.894	241.06
282.125	233.06
282.356	254.06
282.588	249.06
282.819	262.06
283.051	252.06
283.282	249.06
283.513	248.06
283.745	236.06
283.976	250.06
284.207	251.06
284.439	222.06
284.67	228.06
284.901	246.06
285.132	248.06
285.364	241.06
285.595	243.06
285.826	265.06
286.057	240.06
286.288	253.06
286.52	261.06
286.751	237.06
286.982	241.06
287.213	230.06
287.444	254.06
287.675	242.06
287.906	269.06
288.138	264.06
288.369	246.06
288.6	278.06
288.831	261.06
289.062	274.06
289.293	257.06
289.524	238.06
289.755	260.06
289.986	254.06
290.217	261.06
290.448	243.06
290.679	268.06
290.91	251.06
291.141	260.06
291.371	260.06
291.602	260.06
291.833	265.06
292.064	258.06
292.295	264.06
292.526	276.06
292.757	264.06
292.987	265.06
293.218	267.06
293.449	271.06
293.68	275.06
293.91	264.06
294.141	258.06
294.372	264.06
294.603	259.06
294.833	258.06
295.064	269.06
295.295	268.06
295.525	263.06
295.756	268.06
295.987	269.06
296.217	269.06
296.448	297.06
296.679	278.06
296.909	289.06
297.14	277.06
297.37	258.06
297.601	284.06
297.831	260.06
298.062	277.06
298.292	271.06
298.523	288.06
298.753	276.06
298.984	260.06
299.214	277.06
299.445	274.06
299.675	276.06
299.905	279.06
300.136	260.06
300.366	274.06
300.597	284.06
300.827	292.06
301.057	299.06
301.288	297.06
301.518	284.06
301.748	289.06
301.979	312.06
302.209	296.06
302.439	304.06
302.669	288.06
302.9	270.06
303.13	301.06
303.36	297.06
303.59	286.06
303.82	292.06
304.051	280.06
304.281	297.06
304.511	276.06
304.741	301.06
304.971	292.06
305.201	287.06
305.431	279.06
305.661	306.06
305.891	300.06
306.121	315.06
306.352	304.06
306.582	299.06
306.812	297.06
307.042	309.06
307.272	307.06
307.502	310.06
307.731	305.06
307.961	315.06
308.191	300.06
308.421	289.06
308.651	323.06
308.881	323.06
309.111	323.06
309.341	301.06
309.571	308.06
309.8	315.06
310.03	293.06
310.26	316.06
310.49	327.06
310.72	322.06
310.949	325.06
311.179	322.06
311.409	316.06
311.639	322.06
311.868	322.06
312.098	324.06
312.328	332.06
312.557	331.06
312.787	342.06
313.017	336.06
313.246	336.06
313.476	327.06
313.706	339.06
313.935	315.06
314.165	329.06
314.394	332.06
314.624	330.06
314.853	336.06
315.083	337.06
315.312	320.06
315.542	336.06
315.771	333.06
316.001	342.06
316.23	326.06
316.46	344.06
316.689	337.06
316.919	330.06
317.148	352.06
317.377	342.06
317.607	321.06
317.836	330.06
318.065	334.06
318.295	333.06
318.524	357.06
318.753	313.06
318.983	341.06
319.212	334.06
319.441	342.06
319.67	342.06
319.9	328.06
320.129	326.06
320.358	333.06
320.587	326.06
320.816	340.06
321.046	348.06
321.275	351.06
321.504	343.06
321.733	332.06
321.962	348.06
322.191	338.06
322.42	348.06
322.649	373.06
322.878	357.06
323.108	363.06
323.337	396.06
323.566	386.06
323.795	401.06
324.024	432.06
324.253	468.06
324.482	631.06
324.71	962.06
324.939	1401.06
325.168	1217.06
325.397	626.06
325.626	457.06
325.855	394.06
326.084	390.06
326.313	394.06
326.542	382.06
326.77	416.06
326.999	477.06
327.228	602.06
327.457	899.06
327.686	1088.06
327.914	734.06
328.143	490.06
328.372	472.06
328.6	447.06
328.829	411.06
329.058	416.06
329.287	425.06
329.515	375.06
329.744	388.06
329.972	385.06
330.201	407.06
330.43	414.06
330.658	430.06
330.887	442.06
331.115	437.06
331.344	398.06
331.572	374.06
331.801	402.06
332.03	410.06
332.258	395.06
332.486	386.06
332.715	372.06
332.943	399.06
333.172	402.06
333.4	410.06
333.629	414.06
333.857	444.06
334.085	430.06
334.314	436.06
334.542	432.06
334.771	464.06
334.999	436.06
335.227	412.06
335.455	418.06
335.684	418.06
335.912	406.06
336.14	403.06
336.369	398.06
336.597	414.06
336.825	419.06
337.053	410.06
337.281	400.06
337.51	381.06
337.738	389.06
337.966	401.06
338.194	405.06
338.422	401.06
338.65	393.06
338.878	394.06
339.106	395.06
339.334	382.06
339.562	394.06
339.79	387.06
340.018	376.06
340.246	389.06
340.474	395.06
340.702	368.06
340.93	392.06
341.158	382.06
341.386	389.06
341.614	374.06
341.842	390.06
342.07	373.06
342.298	364.06
342.526	370.06
342.754	380.06
342.981	370.06
343.209	386.06
343.437	385.06
343.665	392.06
343.893	408.06
344.12	414.06
344.348	421.06
344.576	394.06
344.804	400.06
345.031	410.06
345.259	380.06
345.487	389.06
345.714	410.06
345.942	382.06
346.17	391.06
346.397	393.06
346.625	363.06
346.853	375.06
347.08	371.06
347.308	348.06
347.535	357.06
347.763	376.06
347.99	366.06
348.218	398.06
348.445	386.06
348.673	398.06
348.9	369.06
349.128	376.06
349.355	369.06
349.583	378.06
349.81	360.06
350.037	383.06
350.265	360.06
350.492	355.06
350.72	364.06
350.947	390.06
351.174	350.06
351.402	384.06
351.629	378.06
351.856	366.06
352.083	384.06
352.311	387.06
352.538	392.06
352.765	373.06
352.992	378.06
353.22	376.06
353.447	381.06
353.674	374.06
353.901	366.06
354.128	373.06
354.355	347.06
354.583	376.06
354.81	358.06
355.037	354.06
355.264	366.06
355.491	345.06
355.718	345.06
355.945	384.06
356.172	350.06
356.399	355.06
356.626	356.06
356.853	372.06
357.08	357.06
357.307	344.06
357.534	372.06
357.761	354.06
357.988	352.06
358.215	364.06
358.441	380.06
358.668	381.06
358.895	393.06
359.122	370.06
359.349	364.06
359.576	371.06
359.802	378.06
360.029	395.06
360.256	408.06
360.483	383.06
360.709	384.06
360.936	393.06
361.163	391.06
361.39	387.06
361.616	380.06
361.843	381.06
362.07	365.06
362.296	378.06
362.523	386.06
362.749	380.06
362.976	372.06
363.203	380.06
363.429	381.06
363.656	364.06
363.882	368.06
364.109	378.06
364.335	378.06
364.562	375.06
364.788	366.06
365.015	356.06
365.241	388.06
365.468	372.06
365.694	377.06
365.92	363.06
366.147	378.06
366.373	367.06
366.599	366.06
366.826	372.06
367.052	371.06
367.278	355.06
367.505	370.06
367.731	374.06
367.957	377.06
368.184	374.06
368.41	381.06
368.636	372.06
368.862	403.06
369.089	386.06
369.315	391.06
369.541	374.06
369.767	386.06
369.993	388.06
370.219	362.06
370.445	380.06
370.672	382.06
370.898	379.06
371.124	388.06
371.35	378.06
371.576	388.06
371.802	386.06
372.028	391.06
372.254	406.06
372.48	397.06
372.706	386.06
372.932	382.06
373.158	417.06
373.384	388.06
373.61	405.06
373.835	399.06
374.061	391.06
374.287	393.06
374.513	395.06
374.739	392.06
374.965	419.06
375.191	418.06
375.416	411.06
375.642	399.06
375.868	422.06
376.094	417.06
376.319	393.06
376.545	390.06
376.771	409.06
376.997	385.06
377.222	372.06
377.448	401.06
377.674	413.06
377.899	393.06
378.125	383.06
378.35	397.06
378.576	394.06
378.802	399.06
379.027	402.06
379.253	386.06
379.478	377.06
379.704	386.06
379.929	428.06
380.155	406.06
380.38	383.06
380.606	380.06
380.831	390.06
381.057	404.06
381.282	405.06
381.507	418.06
381.733	397.06
381.958	386.06
382.184	412.06
382.409	402.06
382.634	411.06
382.86	397.06
383.085	410.06
383.31	410.06
383.535	416.06
383.761	418.06
383.986	412.06
384.211	426.06
384.436	427.06
384.662	428.06
384.887	455.06
385.112	424.06
385.337	443.06
385.562	424.06
385.787	451.06
386.013	456.06
386.238	470.06
386.463	462.06
386.688	449.06
386.913	448.06
387.138	468.06
387.363	450.06
387.588	457.06
387.813	453.06
388.038	454.06
388.263	457.06
388.488	468.06
388.713	430.06
388.938	450.06
389.163	444.06
389.387	444.06
389.612	423.06
389.837	452.06
390.062	445.06
390.287	432.06
390.512	432.06
390.736	470.06
390.961	438.06
391.186	427.06
391.411	460.06
391.636	455.06
391.86	448.06
392.085	460.06
392.31	486.06
392.534	450.06
392.759	460.06
392.984	492.06
393.208	528.06
393.433	567.06
393.658	593.06
393.882	478.06
394.107	437.06
394.331	467.06
394.556	447.06
394.78	461.06
395.005	479.06
395.229	456.06
395.454	460.06
395.678	473.06
395.903	474.06
396.127	517.06
396.352	484.06
396.576	465.06
396.801	506.06
397.025	541.06
397.249	523.06
397.474	490.06
397.698	467.06
397.922	480.06
398.147	513.06
398.371	500.06
398.595	514.06
398.82	534.06
399.044	537.06
399.268	520.06
399.492	573.06
399.717	629.06
399.941	664.06
400.165	632.06
400.389	645.06
400.613	573.06
400.837	549.06
401.062	534.06
401.286	533.06
401.51	513.06
401.734	528.06
401.958	516.06
402.182	546.06
402.406	524.06
402.63	516.06
402.854	541.06
403.078	534.06
403.302	553.06
403.526	546.06
403.75	570.06
403.974	547.06
404.198	532.06
404.422	558.06
404.645	566.06
404.869	567.06
405.093	579.06
405.317	587.06
405.541	590.06
405.765	588.06
405.988	567.06
406.212	571.06
406.436	574.06
406.66	581.06
406.883	584.06
407.107	613.06
407.331	633.06
407.555	681.06
407.778	691.06
408.002	656.06
408.226	616.06
408.449	600.06
408.673	592.06
408.896	633.06
409.12	638.06
409.344	620.06
409.567	575.06
409.791	555.06
410.014	554.06
410.238	540.06
410.461	566.06
410.685	556.06
410.908	550.06
411.132	600.06
411.355	616.06
411.578	585.06
411.802	555.06
412.025	522.06
412.249	547.06
412.472	542.06
412.695	570.06
412.919	589.06
413.142	528.06
413.365	541.06
413.589	516.06
413.812	522.06
414.035	541.06
414.258	551.06
414.482	524.06
414.705	517.06
414.928	531.06
415.151	526.06
415.374	560.06
415.597	516.06
415.821	503.06
416.044	518.06
416.267	535.06
416.49	526.06
416.713	515.06
416.936	525.06
417.159	517.06
417.382	507.06
417.605	507.06
417.828	535.06
418.051	527.06
418.274	507.06
418.497	529.06
418.72	538.06
418.943	499.06
419.166	538.06
419.389	592.06
419.611	564.06
419.834	548.06
420.057	573.06
420.28	527.06
420.503	521.06
420.726	534.06
420.948	538.06
421.171	555.06
421.394	599.06
421.617	534.06
421.839	521.06
422.062	566.06
422.285	526.06
422.507	568.06
422.73	634.06
422.953	654.06
423.175	569.06
423.398	553.06
423.621	527.06
423.843	572.06
424.066	554.06
424.288	531.06
424.511	551.06
424.733	600.06
424.956	644.06
425.178	648.06
425.401	645.06
425.623	657.06
425.846	566.06
426.068	549.06
426.291	568.06
426.513	544.06
426.735	559.06
426.958	595.06
427.18	625.06
427.402	715.06
427.625	790.06
427.847	664.06
428.069	598.06
428.292	552.06
428.514	541.06
428.736	518.06
428.958	536.06
429.181	516.06
429.403	519.06
429.625	540.06
429.847	553.06
430.069	587.06
430.292	576.06
430.514	513.06
430.736	514.06
430.958	509.06
431.18	523.06
431.402	514.06
431.624	458.06
431.846	493.06
432.068	509.06
432.29	512.06
432.512	481.06
432.734	502.06
432.956	496.06
433.178	499.06
433.4	506.06
433.622	512.06
433.844	486.06
434.066	504.06
434.287	501.06
434.509	498.06
434.731	504.06
434.953	528.06
435.175	521.06
435.397	551.06
435.618	557.06
435.84	579.06
436.062	640.06
436.284	691.06
436.505	591.06
436.727	558.06
436.949	508.06
437.17	528.06
437.392	516.06
437.614	509.06
437.835	540.06
438.057	582.06
438.278	682.06
438.5	668.06
438.721	720.06
438.943	709.06
439.165	588.06
439.386	562.06
439.608	540.06
439.829	545.06
440.05	540.06
440.272	565.06
440.493	546.06
440.715	511.06
440.936	524.06
441.158	518.06
441.379	529.06
441.6	528.06
441.822	558.06
442.043	586.06
442.264	632.06
442.486	658.06
442.707	592.06
442.928	557.06
443.149	582.06
443.371	554.06
443.592	605.06
443.813	667.06
444.034	716.06
444.255	641.06
444.476	586.06
444.698	580.06
444.919	581.06
445.14	655.06
445.361	640.06
445.582	579.06
445.803	619.06
446.024	683.06
446.245	694.06
446.466	642.06
446.687	556.06
446.908	540.06
447.129	518.06
447.35	525.06
447.571	505.06
447.792	502.06
448.013	504.06
448.234	508.06
448.455	549.06
448.675	634.06
448.896	725.06
449.117	608.06
449.338	590.06
449.559	659.06
449.779	736.06
450	626.06
450.221	516.06
450.442	524.06
450.662	478.06
450.883	482.06
451.104	514.06
451.324	480.06
451.545	472.06
451.766	456.06
451.986	445.06
452.207	447.06
452.428	456.06
452.648	438.06
452.869	459.06
453.089	451.06
453.31	479.06
453.53	449.06
453.751	457.06
453.971	459.06
454.192	482.06
454.412	462.06
454.633	450.06
454.853	449.06
455.073	440.06
455.294	469.06
455.514	506.06
455.734	534.06
455.955	466.06
456.175	448.06
456.395	434.06
456.616	440.06
456.836	422.06
457.056	442.06
457.276	446.06
457.497	452.06
457.717	464.06
457.937	422.06
458.157	453.06
458.377	473.06
458.598	469.06
458.818	513.06
459.038	526.06
459.258	553.06
459.478	530.06
459.698	522.06
459.918	519.06
460.138	532.06
460.358	522.06
460.578	525.06
460.798	522.06
461.018	545.06
461.238	541.06
461.458	555.06
461.678	545.06
461.898	553.06
462.118	529.06
462.338	545.06
462.558	537.06
462.777	564.06
462.997	586.06
463.217	587.06
463.437	616.06
463.657	578.06
463.876	617.06
464.096	587.06
464.316	601.06
464.536	595.06
464.755	611.06
464.975	573.06
465.195	596.06
465.414	616.06
465.634	552.06
465.854	523.06
466.073	532.06
466.293	500.06
466.512	490.06
466.732	488.06
466.951	494.06
467.171	485.06
467.391	507.06
467.61	483.06
467.829	488.06
468.049	517.06
468.268	512.06
468.488	493.06
468.707	477.06
468.927	475.06
469.146	471.06
469.365	471.06
469.585	471.06
469.804	476.06
470.023	486.06
470.243	474.06
470.462	509.06
470.681	515.06
470.901	508.06
471.12	501.06
471.339	497.06
471.558	470.06
471.777	507.06
471.997	498.06
472.216	477.06
472.435	493.06
472.654	511.06
472.873	484.06
473.092	484.06
473.311	475.06
473.53	482.06
473.749	490.06
473.968	502.06
474.187	568.06
474.406	569.06
474.625	547.06
474.844	490.06
475.063	496.06
475.282	510.06
475.501	496.06
475.72	520.06
475.939	498.06
476.158	493.06
476.377	524.06
476.596	484.06
476.814	513.06
477.033	514.06
477.252	528.06
477.471	546.06
477.69	524.06
477.908	543.06
478.127	558.06
478.346	565.06
478.564	570.06
478.783	574.06
479.002	585.06
479.22	574.06
479.439	588.06
479.658	609.06
479.876	605.06
480.095	594.06
480.313	634.06
480.532	605.06
480.751	618.06
480.969	614.06
481.188	634.06
481.406	630.06
481.624	582.06
481.843	584.06
482.061	581.06
482.28	580.06
482.498	566.06
482.717	562.06
482.935	580.06
483.153	555.06
483.372	589.06
483.59	573.06
483.808	591.06
484.027	606.06
484.245	579.06
484.463	587.06
484.681	587.06
484.9	599.06
485.118	608.06
485.336	607.06
485.554	608.06
485.772	597.06
485.99	601.06
486.209	618.06
486.427	607.06
486.645	594.06
486.863	610.06
487.081	613.06
487.299	644.06
487.517	632.06
487.735	604.06
487.953	610.06
488.171	618.06
488.389	632.06
488.607	628.06
488.825	610.06
489.043	608.06
489.261	615.06
489.479	622.06
489.696	640.06
489.914	606.06
490.132	618.06
490.35	623.06
490.568	652.06
490.786	656.06
491.003	656.06
491.221	678.06
491.439	669.06
491.657	654.06
491.874	658.06
492.092	674.06
492.31	662.06
492.527	662.06
492.745	685.06
492.963	698.06
493.18	692.06
493.398	694.06
493.615	693.06
493.833	707.06
494.05	694.06
494.268	673.06
494.485	675.06
494.703	703.06
494.92	712.06
495.138	700.06
495.355	703.06
495.573	701.06
495.79	712.06
496.008	714.06
496.225	713.06
496.442	713.06
496.66	701.06
496.877	723.06
497.094	717.06
497.312	745.06
497.529	722.06
497.746	747.06
497.963	747.06
498.181	786.06
498.398	826.06
498.615	832.06
498.832	873.06
499.049	872.06
499.267	887.06
499.484	956.06
499.701	982.06
499.918	1042.06
500.135	1099.06
500.352	1176.06
500.569	1170.06
500.786	1193.06
501.003	1142.06
501.22	1131.06
501.437	1069.06
501.654	1000.06
501.871	962.06
502.088	943.06
