Data from 1979.PennyLincolnUp.Lamp.En5.5.200Scan.071719.P1_HRD10591_16-19-46-863.txt Node
Date: Thu Jul 18 16:19:46 EDT 2019
User: cochatt
Spectrometer: HR+D1059
Trigger mode: 1
Integration Time (sec): 1.000000E-1
Scans to average: 1
Electric dark correction enabled: true
Nonlinearity correction enabled: false
Boxcar width: 0
XAxis mode: Wavelengths
Number of Pixels in Spectrum: 2048
>>>>>Begin Spectral Data<<<<<
223.165	-16.69
223.4	-16.69
223.635	-16.69
223.869	-18.69
224.104	-15.69
224.338	-11.69
224.573	-22.69
224.808	-25.69
225.042	-6.69
225.277	-2.69
225.511	-17.69
225.746	5.31
225.98	16.31
226.215	11.31
226.449	19.31
226.683	25.31
226.918	23.31
227.152	37.31
227.387	30.31
227.621	49.31
227.856	43.31
228.09	47.31
228.324	49.31
228.559	61.31
228.793	60.31
229.027	98.31
229.262	115.31
229.496	105.31
229.73	129.31
229.964	153.31
230.199	121.31
230.433	108.31
230.667	115.31
230.901	114.31
231.136	114.31
231.37	111.31
231.604	100.31
231.838	109.31
232.072	105.31
232.306	105.31
232.541	122.31
232.775	111.31
233.009	108.31
233.243	107.31
233.477	116.31
233.711	100.31
233.945	116.31
234.179	109.31
234.413	98.31
234.647	131.31
234.881	115.31
235.115	137.31
235.349	119.31
235.583	125.31
235.817	113.31
236.051	121.31
236.285	115.31
236.519	126.31
236.753	122.31
236.987	135.31
237.221	181.31
237.455	221.31
237.689	182.31
237.922	144.31
238.156	142.31
238.39	129.31
238.624	121.31
238.858	126.31
239.091	117.31
239.325	124.31
239.559	147.31
239.793	125.31
240.027	149.31
240.26	133.31
240.494	155.31
240.728	155.31
240.961	144.31
241.195	135.31
241.429	141.31
241.662	125.31
241.896	133.31
242.13	136.31
242.363	148.31
242.597	149.31
242.83	136.31
243.064	129.31
243.298	137.31
243.531	143.31
243.765	133.31
243.998	150.31
244.232	129.31
244.465	149.31
244.699	167.31
244.932	154.31
245.166	141.31
245.399	143.31
245.633	156.31
245.866	140.31
246.099	137.31
246.333	149.31
246.566	161.31
246.8	166.31
247.033	151.31
247.266	142.31
247.5	148.31
247.733	172.31
247.966	170.31
248.2	157.31
248.433	169.31
248.666	180.31
248.899	184.31
249.133	202.31
249.366	212.31
249.599	193.31
249.832	158.31
250.066	190.31
250.299	174.31
250.532	196.31
250.765	195.31
250.998	214.31
251.231	230.31
251.465	193.31
251.698	185.31
251.931	202.31
252.164	191.31
252.397	212.31
252.63	178.31
252.863	211.31
253.096	204.31
253.329	223.31
253.562	239.31
253.795	194.31
254.028	191.31
254.261	204.31
254.494	215.31
254.727	237.31
254.96	267.31
255.193	245.31
255.426	223.31
255.659	218.31
255.892	219.31
256.124	220.31
256.357	229.31
256.59	223.31
256.823	206.31
257.056	200.31
257.289	206.31
257.521	201.31
257.754	209.31
257.987	187.31
258.22	205.31
258.452	218.31
258.685	214.31
258.918	205.31
259.151	199.31
259.383	211.31
259.616	198.31
259.849	219.31
260.081	226.31
260.314	236.31
260.547	266.31
260.779	237.31
261.012	248.31
261.244	219.31
261.477	214.31
261.71	223.31
261.942	232.31
262.175	236.31
262.407	237.31
262.64	218.31
262.872	215.31
263.105	215.31
263.337	215.31
263.57	222.31
263.802	218.31
264.035	222.31
264.267	209.31
264.499	196.31
264.732	218.31
264.964	209.31
265.197	211.31
265.429	238.31
265.661	216.31
265.894	215.31
266.126	201.31
266.358	206.31
266.591	227.31
266.823	222.31
267.055	227.31
267.287	241.31
267.52	214.31
267.752	221.31
267.984	221.31
268.216	222.31
268.448	229.31
268.681	230.31
268.913	226.31
269.145	267.31
269.377	286.31
269.609	275.31
269.841	271.31
270.073	248.31
270.306	268.31
270.538	288.31
270.77	310.31
271.002	293.31
271.234	257.31
271.466	285.31
271.698	302.31
271.93	306.31
272.162	292.31
272.394	303.31
272.626	287.31
272.858	269.31
273.09	266.31
273.322	259.31
273.553	235.31
273.785	249.31
274.017	273.31
274.249	280.31
274.481	274.31
274.713	254.31
274.945	269.31
275.176	275.31
275.408	267.31
275.64	266.31
275.872	257.31
276.104	257.31
276.335	259.31
276.567	262.31
276.799	277.31
277.031	305.31
277.262	306.31
277.494	299.31
277.726	284.31
277.957	279.31
278.189	289.31
278.421	273.31
278.652	266.31
278.884	260.31
279.115	267.31
279.347	274.31
279.579	250.31
279.81	252.31
280.042	272.31
280.273	264.31
280.505	270.31
280.736	290.31
280.968	246.31
281.199	267.31
281.431	261.31
281.662	279.31
281.894	284.31
282.125	283.31
282.356	299.31
282.588	307.31
282.819	291.31
283.051	278.31
283.282	271.31
283.513	289.31
283.745	276.31
283.976	303.31
284.207	277.31
284.439	286.31
284.67	291.31
284.901	282.31
285.132	278.31
285.364	279.31
285.595	291.31
285.826	274.31
286.057	285.31
286.288	282.31
286.52	288.31
286.751	275.31
286.982	279.31
287.213	274.31
287.444	286.31
287.675	313.31
287.906	281.31
288.138	297.31
288.369	291.31
288.6	319.31
288.831	313.31
289.062	301.31
289.293	294.31
289.524	271.31
289.755	296.31
289.986	283.31
290.217	293.31
290.448	294.31
290.679	287.31
290.91	295.31
291.141	284.31
291.371	305.31
291.602	283.31
291.833	274.31
292.064	291.31
292.295	288.31
292.526	290.31
292.757	303.31
292.987	292.31
293.218	271.31
293.449	309.31
293.68	297.31
293.91	286.31
294.141	296.31
294.372	300.31
294.603	297.31
294.833	289.31
295.064	289.31
295.295	306.31
295.525	291.31
295.756	299.31
295.987	327.31
296.217	317.31
296.448	324.31
296.679	320.31
296.909	295.31
297.14	297.31
297.37	326.31
297.601	334.31
297.831	338.31
298.062	313.31
298.292	332.31
298.523	312.31
298.753	345.31
298.984	332.31
299.214	315.31
299.445	335.31
299.675	327.31
299.905	321.31
300.136	331.31
300.366	300.31
300.597	324.31
300.827	316.31
301.057	339.31
301.288	346.31
301.518	319.31
301.748	340.31
301.979	347.31
302.209	338.31
302.439	335.31
302.669	337.31
302.9	343.31
303.13	330.31
303.36	334.31
303.59	344.31
303.82	337.31
304.051	350.31
304.281	349.31
304.511	330.31
304.741	344.31
304.971	342.31
305.201	318.31
305.431	325.31
305.661	334.31
305.891	342.31
306.121	361.31
306.352	355.31
306.582	331.31
306.812	341.31
307.042	322.31
307.272	366.31
307.502	329.31
307.731	339.31
307.961	328.31
308.191	348.31
308.421	350.31
308.651	360.31
308.881	331.31
309.111	350.31
309.341	346.31
309.571	360.31
309.8	341.31
310.03	368.31
310.26	374.31
310.49	397.31
310.72	379.31
310.949	403.31
311.179	372.31
311.409	364.31
311.639	376.31
311.868	385.31
312.098	390.31
312.328	385.31
312.557	395.31
312.787	396.31
313.017	408.31
313.246	405.31
313.476	373.31
313.706	380.31
313.935	373.31
314.165	406.31
314.394	401.31
314.624	403.31
314.853	389.31
315.083	396.31
315.312	380.31
315.542	391.31
315.771	367.31
316.001	361.31
316.23	393.31
316.46	397.31
316.689	388.31
316.919	391.31
317.148	400.31
317.377	384.31
317.607	386.31
317.836	397.31
318.065	393.31
318.295	408.31
318.524	391.31
318.753	385.31
318.983	383.31
319.212	354.31
319.441	393.31
319.67	397.31
319.9	388.31
320.129	388.31
320.358	382.31
320.587	396.31
320.816	413.31
321.046	401.31
321.275	417.31
321.504	398.31
321.733	403.31
321.962	406.31
322.191	427.31
322.42	447.31
322.649	455.31
322.878	449.31
323.108	462.31
323.337	471.31
323.566	479.31
323.795	542.31
324.024	583.31
324.253	658.31
324.482	903.31
324.71	1466.31
324.939	2171.31
325.168	1849.31
325.397	919.31
325.626	621.31
325.855	537.31
326.084	507.31
326.313	490.31
326.542	504.31
326.77	548.31
326.999	653.31
327.228	874.31
327.457	1310.31
327.686	1678.31
327.914	1052.31
328.143	684.31
328.372	606.31
328.6	579.31
328.829	552.31
329.058	573.31
329.287	573.31
329.515	551.31
329.744	522.31
329.972	529.31
330.201	505.31
330.43	566.31
330.658	594.31
330.887	601.31
331.115	600.31
331.344	541.31
331.572	493.31
331.801	510.31
332.03	484.31
332.258	473.31
332.486	464.31
332.715	463.31
332.943	484.31
333.172	495.31
333.4	489.31
333.629	451.31
333.857	491.31
334.085	524.31
334.314	510.31
334.542	542.31
334.771	567.31
334.999	541.31
335.227	510.31
335.455	485.31
335.684	472.31
335.912	476.31
336.14	477.31
336.369	455.31
336.597	467.31
336.825	480.31
337.053	471.31
337.281	453.31
337.51	459.31
337.738	473.31
337.966	434.31
338.194	463.31
338.422	469.31
338.65	469.31
338.878	461.31
339.106	437.31
339.334	438.31
339.562	435.31
339.79	442.31
340.018	475.31
340.246	451.31
340.474	435.31
340.702	443.31
340.93	443.31
341.158	438.31
341.386	455.31
341.614	466.31
341.842	417.31
342.07	435.31
342.298	433.31
342.526	438.31
342.754	452.31
342.981	442.31
343.209	428.31
343.437	445.31
343.665	435.31
343.893	464.31
344.12	464.31
344.348	461.31
344.576	469.31
344.804	461.31
345.031	473.31
345.259	458.31
345.487	467.31
345.714	455.31
345.942	447.31
346.17	440.31
346.397	439.31
346.625	429.31
346.853	453.31
347.08	440.31
347.308	435.31
347.535	442.31
347.763	438.31
347.99	430.31
348.218	427.31
348.445	457.31
348.673	471.31
348.9	432.31
349.128	419.31
349.355	437.31
349.583	405.31
349.81	415.31
350.037	439.31
350.265	410.31
350.492	424.31
350.72	435.31
350.947	424.31
351.174	456.31
351.402	458.31
351.629	435.31
351.856	425.31
352.083	420.31
352.311	438.31
352.538	469.31
352.765	445.31
352.992	450.31
353.22	442.31
353.447	413.31
353.674	429.31
353.901	429.31
354.128	422.31
354.355	434.31
354.583	443.31
354.81	438.31
355.037	417.31
355.264	417.31
355.491	414.31
355.718	396.31
355.945	402.31
356.172	393.31
356.399	395.31
356.626	391.31
356.853	413.31
357.08	417.31
357.307	397.31
357.534	403.31
357.761	415.31
357.988	407.31
358.215	392.31
358.441	400.31
358.668	415.31
358.895	433.31
359.122	430.31
359.349	414.31
359.576	426.31
359.802	455.31
360.029	469.31
360.256	477.31
360.483	485.31
360.709	439.31
360.936	431.31
361.163	449.31
361.39	447.31
361.616	422.31
361.843	438.31
362.07	456.31
362.296	451.31
362.523	430.31
362.749	423.31
362.976	430.31
363.203	431.31
363.429	425.31
363.656	433.31
363.882	419.31
364.109	422.31
364.335	412.31
364.562	419.31
364.788	427.31
365.015	437.31
365.241	440.31
365.468	422.31
365.694	434.31
365.92	412.31
366.147	445.31
366.373	408.31
366.599	425.31
366.826	401.31
367.052	420.31
367.278	433.31
367.505	436.31
367.731	421.31
367.957	422.31
368.184	417.31
368.41	435.31
368.636	433.31
368.862	452.31
369.089	433.31
369.315	429.31
369.541	409.31
369.767	427.31
369.993	428.31
370.219	436.31
370.445	428.31
370.672	437.31
370.898	421.31
371.124	436.31
371.35	433.31
371.576	439.31
371.802	439.31
372.028	410.31
372.254	433.31
372.48	437.31
372.706	438.31
372.932	443.31
373.158	434.31
373.384	442.31
373.61	426.31
373.835	465.31
374.061	429.31
374.287	438.31
374.513	447.31
374.739	451.31
374.965	452.31
375.191	453.31
375.416	438.31
375.642	424.31
375.868	452.31
376.094	442.31
376.319	422.31
376.545	445.31
376.771	426.31
376.997	451.31
377.222	436.31
377.448	448.31
377.674	423.31
377.899	408.31
378.125	426.31
378.35	427.31
378.576	421.31
378.802	436.31
379.027	422.31
379.253	425.31
379.478	413.31
379.704	427.31
379.929	440.31
380.155	436.31
380.38	437.31
380.606	431.31
380.831	416.31
381.057	429.31
381.282	425.31
381.507	437.31
381.733	436.31
381.958	420.31
382.184	442.31
382.409	457.31
382.634	442.31
382.86	441.31
383.085	438.31
383.31	422.31
383.535	443.31
383.761	452.31
383.986	463.31
384.211	469.31
384.436	468.31
384.662	469.31
384.887	469.31
385.112	463.31
385.337	488.31
385.562	483.31
385.787	482.31
386.013	493.31
386.238	513.31
386.463	491.31
386.688	476.31
386.913	479.31
387.138	459.31
387.363	490.31
387.588	485.31
387.813	485.31
388.038	474.31
388.263	473.31
388.488	469.31
388.713	474.31
388.938	475.31
389.163	473.31
389.387	482.31
389.612	485.31
389.837	504.31
390.062	483.31
390.287	493.31
390.512	477.31
390.736	497.31
390.961	487.31
391.186	507.31
391.411	475.31
391.636	497.31
391.86	507.31
392.085	490.31
392.31	530.31
392.534	512.31
392.759	497.31
392.984	475.31
393.208	508.31
393.433	488.31
393.658	518.31
393.882	505.31
394.107	501.31
394.331	497.31
394.556	505.31
394.78	494.31
395.005	494.31
395.229	511.31
395.454	493.31
395.678	510.31
395.903	524.31
396.127	541.31
396.352	538.31
396.576	518.31
396.801	524.31
397.025	501.31
397.249	532.31
397.474	540.31
397.698	517.31
397.922	546.31
398.147	572.31
398.371	560.31
398.595	562.31
398.82	549.31
399.044	570.31
399.268	607.31
399.492	627.31
399.717	669.31
399.941	689.31
400.165	723.31
400.389	703.31
400.613	644.31
400.837	607.31
401.062	612.31
401.286	565.31
401.51	582.31
401.734	575.31
401.958	576.31
402.182	577.31
402.406	580.31
402.63	594.31
402.854	581.31
403.078	595.31
403.302	613.31
403.526	607.31
403.75	605.31
403.974	613.31
404.198	603.31
404.422	606.31
404.645	625.31
404.869	643.31
405.093	637.31
405.317	679.31
405.541	712.31
405.765	676.31
405.988	631.31
406.212	638.31
406.436	638.31
406.66	690.31
406.883	666.31
407.107	691.31
407.331	719.31
407.555	782.31
407.778	793.31
408.002	756.31
408.226	682.31
408.449	677.31
408.673	672.31
408.896	686.31
409.12	722.31
409.344	691.31
409.567	636.31
409.791	615.31
410.014	609.31
410.238	613.31
410.461	636.31
410.685	634.31
410.908	630.31
411.132	652.31
411.355	697.31
411.578	679.31
411.802	627.31
412.025	601.31
412.249	621.31
412.472	630.31
412.695	665.31
412.919	643.31
413.142	612.31
413.365	605.31
413.589	574.31
413.812	577.31
414.035	573.31
414.258	584.31
414.482	586.31
414.705	601.31
414.928	579.31
415.151	555.31
415.374	582.31
415.597	570.31
415.821	558.31
416.044	557.31
416.267	584.31
416.49	587.31
416.713	552.31
416.936	583.31
417.159	574.31
417.382	585.31
417.605	560.31
417.828	603.31
418.051	601.31
418.274	559.31
418.497	557.31
418.72	574.31
418.943	553.31
419.166	594.31
419.389	629.31
419.611	626.31
419.834	615.31
420.057	613.31
420.28	595.31
420.503	617.31
420.726	595.31
420.948	609.31
421.171	660.31
421.394	677.31
421.617	600.31
421.839	598.31
422.062	600.31
422.285	595.31
422.507	686.31
422.73	744.31
422.953	739.31
423.175	629.31
423.398	625.31
423.621	605.31
423.843	613.31
424.066	637.31
424.288	606.31
424.511	655.31
424.733	692.31
424.956	778.31
425.178	744.31
425.401	754.31
425.623	777.31
425.846	683.31
426.068	644.31
426.291	633.31
426.513	600.31
426.735	649.31
426.958	666.31
427.18	736.31
427.402	873.31
427.625	992.31
427.847	863.31
428.069	738.31
428.292	665.31
428.514	628.31
428.736	592.31
428.958	606.31
429.181	598.31
429.403	581.31
429.625	606.31
429.847	601.31
430.069	697.31
430.292	675.31
430.514	609.31
430.736	607.31
430.958	575.31
431.18	549.31
431.402	586.31
431.624	557.31
431.846	586.31
432.068	571.31
432.29	578.31
432.512	580.31
432.734	575.31
432.956	575.31
433.178	568.31
433.4	585.31
433.622	562.31
433.844	554.31
434.066	553.31
434.287	555.31
434.509	561.31
434.731	585.31
434.953	585.31
435.175	600.31
435.397	631.31
435.618	626.31
435.84	691.31
436.062	750.31
436.284	847.31
436.505	678.31
436.727	635.31
436.949	591.31
437.17	595.31
437.392	581.31
437.614	586.31
437.835	607.31
438.057	723.31
438.278	801.31
438.5	838.31
438.721	917.31
438.943	863.31
439.165	677.31
439.386	641.31
439.608	637.31
439.829	637.31
440.05	639.31
440.272	698.31
440.493	676.31
440.715	603.31
440.936	581.31
441.158	605.31
441.379	610.31
441.6	613.31
441.822	641.31
442.043	679.31
442.264	716.31
442.486	793.31
442.707	691.31
442.928	657.31
443.149	682.31
443.371	670.31
443.592	696.31
443.813	799.31
444.034	853.31
444.255	745.31
444.476	665.31
444.698	646.31
444.919	647.31
445.14	728.31
445.361	681.31
445.582	669.31
445.803	728.31
446.024	844.31
446.245	847.31
446.466	780.31
446.687	676.31
446.908	614.31
447.129	609.31
447.35	585.31
447.571	571.31
447.792	587.31
448.013	595.31
448.234	602.31
448.455	625.31
448.675	750.31
448.896	865.31
449.117	730.31
449.338	698.31
449.559	819.31
449.779	908.31
450	745.31
450.221	632.31
450.442	582.31
450.662	554.31
450.883	563.31
451.104	593.31
451.324	557.31
451.545	545.31
451.766	534.31
451.986	531.31
452.207	527.31
452.428	506.31
452.648	527.31
452.869	528.31
453.089	537.31
453.31	537.31
453.53	530.31
453.751	533.31
453.971	538.31
454.192	530.31
454.412	516.31
454.633	508.31
454.853	500.31
455.073	505.31
455.294	537.31
455.514	609.31
455.734	582.31
455.955	539.31
456.175	514.31
456.395	492.31
456.616	488.31
456.836	494.31
457.056	514.31
457.276	476.31
457.497	509.31
457.717	531.31
457.937	501.31
458.157	509.31
458.377	538.31
458.598	541.31
458.818	597.31
459.038	661.31
459.258	673.31
459.478	593.31
459.698	574.31
459.918	574.31
460.138	561.31
460.358	573.31
460.578	566.31
460.798	580.31
461.018	575.31
461.238	570.31
461.458	556.31
461.678	558.31
461.898	565.31
462.118	579.31
462.338	620.31
462.558	612.31
462.777	620.31
462.997	631.31
463.217	654.31
463.437	695.31
463.657	635.31
463.876	621.31
464.096	638.31
464.316	641.31
464.536	627.31
464.755	651.31
464.975	601.31
465.195	670.31
465.414	731.31
465.634	652.31
465.854	598.31
466.073	581.31
466.293	557.31
466.512	559.31
466.732	545.31
466.951	555.31
467.171	547.31
467.391	549.31
467.61	571.31
467.829	582.31
468.049	547.31
468.268	545.31
468.488	515.31
468.707	536.31
468.927	533.31
469.146	513.31
469.365	535.31
469.585	522.31
469.804	534.31
470.023	567.31
470.243	565.31
470.462	552.31
470.681	555.31
470.901	561.31
471.12	533.31
471.339	529.31
471.558	549.31
471.777	534.31
471.997	542.31
472.216	558.31
472.435	583.31
472.654	578.31
472.873	561.31
473.092	525.31
473.311	500.31
473.53	537.31
473.749	533.31
473.968	589.31
474.187	680.31
474.406	697.31
474.625	595.31
474.844	550.31
475.063	548.31
475.282	572.31
475.501	554.31
475.72	557.31
475.939	551.31
476.158	542.31
476.377	563.31
476.596	557.31
476.814	571.31
477.033	580.31
477.252	574.31
477.471	595.31
477.69	599.31
477.908	609.31
478.127	595.31
478.346	611.31
478.564	632.31
478.783	638.31
479.002	645.31
479.22	635.31
479.439	652.31
479.658	661.31
479.876	681.31
480.095	677.31
480.313	693.31
480.532	679.31
480.751	689.31
480.969	706.31
481.188	723.31
481.406	793.31
481.624	701.31
481.843	676.31
482.061	627.31
482.28	653.31
482.498	634.31
482.717	629.31
482.935	634.31
483.153	628.31
483.372	623.31
483.59	634.31
483.808	628.31
484.027	632.31
484.245	649.31
484.463	639.31
484.681	663.31
484.9	648.31
485.118	645.31
485.336	641.31
485.554	673.31
485.772	635.31
485.99	666.31
486.209	682.31
486.427	680.31
486.645	675.31
486.863	689.31
487.081	690.31
487.299	673.31
487.517	697.31
487.735	670.31
487.953	669.31
488.171	677.31
488.389	701.31
488.607	664.31
488.825	679.31
489.043	689.31
489.261	680.31
489.479	693.31
489.696	680.31
489.914	696.31
490.132	717.31
490.35	717.31
490.568	734.31
490.786	710.31
491.003	732.31
491.221	729.31
491.439	754.31
491.657	748.31
491.874	778.31
492.092	755.31
492.31	771.31
492.527	790.31
492.745	807.31
492.963	783.31
493.18	794.31
493.398	785.31
493.615	812.31
493.833	802.31
494.05	822.31
494.268	817.31
494.485	787.31
494.703	775.31
494.92	797.31
495.138	792.31
495.355	787.31
495.573	791.31
495.79	823.31
496.008	814.31
496.225	774.31
496.442	789.31
496.66	809.31
496.877	837.31
497.094	823.31
497.312	805.31
497.529	824.31
497.746	857.31
497.963	843.31
498.181	895.31
498.398	906.31
498.615	930.31
498.832	957.31
499.049	982.31
499.267	986.31
499.484	1045.31
499.701	1073.31
499.918	1149.31
500.135	1197.31
500.352	1260.31
500.569	1285.31
500.786	1274.31
501.003	1227.31
501.22	1205.31
501.437	1171.31
501.654	1094.31
