Data from 1979.PennyLincolnUp.Lamp.En5.5.200Scan.071719.P1_HRD10591_16-17-30-863.txt Node
Date: Thu Jul 18 16:17:30 EDT 2019
User: cochatt
Spectrometer: HR+D1059
Trigger mode: 1
Integration Time (sec): 1.000000E-1
Scans to average: 1
Electric dark correction enabled: true
Nonlinearity correction enabled: false
Boxcar width: 0
XAxis mode: Wavelengths
Number of Pixels in Spectrum: 2048
>>>>>Begin Spectral Data<<<<<
223.165	-17.44
223.4	-17.44
223.635	-17.44
223.869	-12.44
224.104	-1.44
224.338	-15.44
224.573	-8.44
224.808	-22.44
225.042	-8.44
225.277	-16.44
225.511	-1.44
225.746	4.56
225.98	12.56
226.215	9.56
226.449	28.56
226.683	11.56
226.918	25.56
227.152	11.56
227.387	33.56
227.621	52.56
227.856	29.56
228.09	53.56
228.324	47.56
228.559	50.56
228.793	71.56
229.027	78.56
229.262	74.56
229.496	115.56
229.73	106.56
229.964	124.56
230.199	99.56
230.433	81.56
230.667	90.56
230.901	85.56
231.136	101.56
231.37	112.56
231.604	108.56
231.838	110.56
232.072	111.56
232.306	103.56
232.541	104.56
232.775	102.56
233.009	105.56
233.243	111.56
233.477	110.56
233.711	117.56
233.945	106.56
234.179	107.56
234.413	119.56
234.647	106.56
234.881	105.56
235.115	119.56
235.349	111.56
235.583	118.56
235.817	115.56
236.051	107.56
236.285	109.56
236.519	102.56
236.753	108.56
236.987	120.56
237.221	130.56
237.455	156.56
237.689	147.56
237.922	119.56
238.156	123.56
238.39	113.56
238.624	116.56
238.858	109.56
239.091	107.56
239.325	126.56
239.559	104.56
239.793	116.56
240.027	130.56
240.26	121.56
240.494	128.56
240.728	126.56
240.961	115.56
241.195	119.56
241.429	117.56
241.662	132.56
241.896	122.56
242.13	138.56
242.363	102.56
242.597	132.56
242.83	116.56
243.064	120.56
243.298	119.56
243.531	122.56
243.765	122.56
243.998	141.56
244.232	132.56
244.465	130.56
244.699	130.56
244.932	136.56
245.166	133.56
245.399	129.56
245.633	137.56
245.866	124.56
246.099	127.56
246.333	118.56
246.566	138.56
246.8	126.56
247.033	145.56
247.266	143.56
247.5	136.56
247.733	143.56
247.966	145.56
248.2	147.56
248.433	136.56
248.666	147.56
248.899	140.56
249.133	149.56
249.366	150.56
249.599	159.56
249.832	136.56
250.066	142.56
250.299	140.56
250.532	158.56
250.765	167.56
250.998	173.56
251.231	183.56
251.465	156.56
251.698	166.56
251.931	179.56
252.164	159.56
252.397	167.56
252.63	157.56
252.863	156.56
253.096	181.56
253.329	185.56
253.562	177.56
253.795	174.56
254.028	175.56
254.261	161.56
254.494	170.56
254.727	193.56
254.96	188.56
255.193	200.56
255.426	172.56
255.659	178.56
255.892	195.56
256.124	180.56
256.357	179.56
256.59	180.56
256.823	175.56
257.056	154.56
257.289	164.56
257.521	178.56
257.754	161.56
257.987	164.56
258.22	171.56
258.452	175.56
258.685	168.56
258.918	174.56
259.151	171.56
259.383	179.56
259.616	167.56
259.849	179.56
260.081	195.56
260.314	197.56
260.547	188.56
260.779	193.56
261.012	190.56
261.244	197.56
261.477	180.56
261.71	191.56
261.942	179.56
262.175	184.56
262.407	188.56
262.64	188.56
262.872	182.56
263.105	177.56
263.337	179.56
263.57	192.56
263.802	198.56
264.035	187.56
264.267	185.56
264.499	180.56
264.732	182.56
264.964	170.56
265.197	178.56
265.429	202.56
265.661	184.56
265.894	175.56
266.126	182.56
266.358	188.56
266.591	203.56
266.823	190.56
267.055	184.56
267.287	188.56
267.52	197.56
267.752	191.56
267.984	202.56
268.216	179.56
268.448	187.56
268.681	178.56
268.913	202.56
269.145	204.56
269.377	206.56
269.609	193.56
269.841	207.56
270.073	208.56
270.306	210.56
270.538	228.56
270.77	229.56
271.002	237.56
271.234	211.56
271.466	230.56
271.698	231.56
271.93	234.56
272.162	244.56
272.394	214.56
272.626	214.56
272.858	213.56
273.09	223.56
273.322	224.56
273.553	223.56
273.785	200.56
274.017	225.56
274.249	205.56
274.481	203.56
274.713	223.56
274.945	222.56
275.176	203.56
275.408	205.56
275.64	218.56
275.872	214.56
276.104	219.56
276.335	214.56
276.567	202.56
276.799	211.56
277.031	250.56
277.262	261.56
277.494	248.56
277.726	234.56
277.957	219.56
278.189	220.56
278.421	232.56
278.652	221.56
278.884	213.56
279.115	229.56
279.347	221.56
279.579	244.56
279.81	221.56
280.042	226.56
280.273	229.56
280.505	226.56
280.736	223.56
280.968	216.56
281.199	226.56
281.431	243.56
281.662	232.56
281.894	208.56
282.125	230.56
282.356	238.56
282.588	249.56
282.819	245.56
283.051	236.56
283.282	227.56
283.513	233.56
283.745	229.56
283.976	234.56
284.207	244.56
284.439	246.56
284.67	264.56
284.901	248.56
285.132	229.56
285.364	221.56
285.595	239.56
285.826	224.56
286.057	244.56
286.288	247.56
286.52	224.56
286.751	245.56
286.982	231.56
287.213	240.56
287.444	223.56
287.675	246.56
287.906	243.56
288.138	231.56
288.369	262.56
288.6	246.56
288.831	253.56
289.062	246.56
289.293	237.56
289.524	260.56
289.755	237.56
289.986	245.56
290.217	239.56
290.448	253.56
290.679	251.56
290.91	242.56
291.141	260.56
291.371	231.56
291.602	247.56
291.833	239.56
292.064	244.56
292.295	258.56
292.526	238.56
292.757	246.56
292.987	255.56
293.218	252.56
293.449	254.56
293.68	244.56
293.91	245.56
294.141	247.56
294.372	257.56
294.603	264.56
294.833	243.56
295.064	237.56
295.295	260.56
295.525	267.56
295.756	239.56
295.987	264.56
296.217	270.56
296.448	271.56
296.679	285.56
296.909	262.56
297.14	264.56
297.37	276.56
297.601	262.56
297.831	247.56
298.062	254.56
298.292	247.56
298.523	256.56
298.753	264.56
298.984	276.56
299.214	262.56
299.445	266.56
299.675	259.56
299.905	277.56
300.136	261.56
300.366	257.56
300.597	254.56
300.827	283.56
301.057	263.56
301.288	286.56
301.518	286.56
301.748	284.56
301.979	276.56
302.209	278.56
302.439	293.56
302.669	282.56
302.9	276.56
303.13	277.56
303.36	273.56
303.59	293.56
303.82	293.56
304.051	300.56
304.281	303.56
304.511	291.56
304.741	290.56
304.971	294.56
305.201	277.56
305.431	268.56
305.661	264.56
305.891	271.56
306.121	279.56
306.352	299.56
306.582	284.56
306.812	296.56
307.042	286.56
307.272	290.56
307.502	293.56
307.731	292.56
307.961	276.56
308.191	283.56
308.421	280.56
308.651	302.56
308.881	288.56
309.111	293.56
309.341	282.56
309.571	287.56
309.8	296.56
310.03	294.56
310.26	292.56
310.49	292.56
310.72	301.56
310.949	308.56
311.179	294.56
311.409	301.56
311.639	313.56
311.868	310.56
312.098	300.56
312.328	299.56
312.557	315.56
312.787	327.56
313.017	323.56
313.246	312.56
313.476	327.56
313.706	302.56
313.935	310.56
314.165	296.56
314.394	324.56
314.624	334.56
314.853	323.56
315.083	320.56
315.312	310.56
315.542	316.56
315.771	329.56
316.001	317.56
316.23	328.56
316.46	335.56
316.689	314.56
316.919	310.56
317.148	328.56
317.377	309.56
317.607	342.56
317.836	333.56
318.065	318.56
318.295	314.56
318.524	323.56
318.753	315.56
318.983	305.56
319.212	319.56
319.441	327.56
319.67	325.56
319.9	320.56
320.129	299.56
320.358	306.56
320.587	342.56
320.816	311.56
321.046	325.56
321.275	323.56
321.504	308.56
321.733	330.56
321.962	340.56
322.191	340.56
322.42	316.56
322.649	339.56
322.878	345.56
323.108	333.56
323.337	344.56
323.566	363.56
323.795	380.56
324.024	404.56
324.253	440.56
324.482	578.56
324.71	847.56
324.939	1283.56
325.168	1110.56
325.397	574.56
325.626	431.56
325.855	385.56
326.084	372.56
326.313	371.56
326.542	378.56
326.77	411.56
326.999	432.56
327.228	550.56
327.457	828.56
327.686	966.56
327.914	650.56
328.143	463.56
328.372	426.56
328.6	423.56
328.829	404.56
329.058	401.56
329.287	421.56
329.515	386.56
329.744	376.56
329.972	379.56
330.201	385.56
330.43	382.56
330.658	394.56
330.887	410.56
331.115	421.56
331.344	375.56
331.572	391.56
331.801	391.56
332.03	383.56
332.258	368.56
332.486	376.56
332.715	366.56
332.943	390.56
333.172	380.56
333.4	397.56
333.629	406.56
333.857	390.56
334.085	393.56
334.314	402.56
334.542	414.56
334.771	418.56
334.999	417.56
335.227	397.56
335.455	398.56
335.684	391.56
335.912	362.56
336.14	386.56
336.369	395.56
336.597	396.56
336.825	408.56
337.053	386.56
337.281	359.56
337.51	378.56
337.738	385.56
337.966	378.56
338.194	380.56
338.422	384.56
338.65	388.56
338.878	376.56
339.106	361.56
339.334	372.56
339.562	369.56
339.79	364.56
340.018	365.56
340.246	376.56
340.474	383.56
340.702	365.56
340.93	378.56
341.158	373.56
341.386	369.56
341.614	373.56
341.842	371.56
342.07	377.56
342.298	363.56
342.526	357.56
342.754	376.56
342.981	350.56
343.209	377.56
343.437	386.56
343.665	385.56
343.893	381.56
344.12	388.56
344.348	388.56
344.576	382.56
344.804	388.56
345.031	373.56
345.259	362.56
345.487	358.56
345.714	368.56
345.942	351.56
346.17	367.56
346.397	356.56
346.625	363.56
346.853	350.56
347.08	362.56
347.308	363.56
347.535	366.56
347.763	371.56
347.99	340.56
348.218	354.56
348.445	353.56
348.673	355.56
348.9	348.56
349.128	346.56
349.355	342.56
349.583	364.56
349.81	350.56
350.037	345.56
350.265	335.56
350.492	359.56
350.72	351.56
350.947	354.56
351.174	349.56
351.402	355.56
351.629	349.56
351.856	336.56
352.083	348.56
352.311	359.56
352.538	349.56
352.765	347.56
352.992	337.56
353.22	362.56
353.447	355.56
353.674	355.56
353.901	336.56
354.128	345.56
354.355	328.56
354.583	340.56
354.81	344.56
355.037	358.56
355.264	341.56
355.491	358.56
355.718	333.56
355.945	342.56
356.172	335.56
356.399	334.56
356.626	347.56
356.853	360.56
357.08	334.56
357.307	347.56
357.534	340.56
357.761	344.56
357.988	355.56
358.215	356.56
358.441	370.56
358.668	349.56
358.895	346.56
359.122	379.56
359.349	364.56
359.576	361.56
359.802	370.56
360.029	364.56
360.256	366.56
360.483	392.56
360.709	366.56
360.936	347.56
361.163	351.56
361.39	364.56
361.616	358.56
361.843	374.56
362.07	340.56
362.296	356.56
362.523	349.56
362.749	354.56
362.976	382.56
363.203	347.56
363.429	348.56
363.656	350.56
363.882	327.56
364.109	355.56
364.335	360.56
364.562	351.56
364.788	348.56
365.015	355.56
365.241	356.56
365.468	356.56
365.694	356.56
365.92	341.56
366.147	347.56
366.373	348.56
366.599	339.56
366.826	356.56
367.052	384.56
367.278	380.56
367.505	358.56
367.731	359.56
367.957	363.56
368.184	364.56
368.41	359.56
368.636	347.56
368.862	369.56
369.089	372.56
369.315	368.56
369.541	384.56
369.767	367.56
369.993	347.56
370.219	357.56
370.445	359.56
370.672	358.56
370.898	355.56
371.124	362.56
371.35	372.56
371.576	384.56
371.802	365.56
372.028	368.56
372.254	360.56
372.48	359.56
372.706	370.56
372.932	368.56
373.158	367.56
373.384	378.56
373.61	378.56
373.835	386.56
374.061	367.56
374.287	370.56
374.513	376.56
374.739	382.56
374.965	365.56
375.191	377.56
375.416	394.56
375.642	378.56
375.868	373.56
376.094	389.56
376.319	379.56
376.545	363.56
376.771	394.56
376.997	368.56
377.222	375.56
377.448	383.56
377.674	376.56
377.899	370.56
378.125	363.56
378.35	360.56
378.576	374.56
378.802	379.56
379.027	390.56
379.253	386.56
379.478	383.56
379.704	370.56
379.929	367.56
380.155	341.56
380.38	376.56
380.606	357.56
380.831	356.56
381.057	367.56
381.282	361.56
381.507	350.56
381.733	367.56
381.958	404.56
382.184	376.56
382.409	385.56
382.634	399.56
382.86	379.56
383.085	393.56
383.31	398.56
383.535	408.56
383.761	412.56
383.986	397.56
384.211	406.56
384.436	429.56
384.662	393.56
384.887	426.56
385.112	428.56
385.337	423.56
385.562	416.56
385.787	423.56
386.013	425.56
386.238	427.56
386.463	447.56
386.688	436.56
386.913	445.56
387.138	419.56
387.363	414.56
387.588	408.56
387.813	415.56
388.038	414.56
388.263	420.56
388.488	423.56
388.713	425.56
388.938	425.56
389.163	436.56
389.387	418.56
389.612	436.56
389.837	419.56
390.062	404.56
390.287	439.56
390.512	419.56
390.736	413.56
390.961	404.56
391.186	413.56
391.411	434.56
391.636	442.56
391.86	458.56
392.085	430.56
392.31	436.56
392.534	444.56
392.759	441.56
392.984	436.56
393.208	440.56
393.433	488.56
393.658	508.56
393.882	439.56
394.107	413.56
394.331	411.56
394.556	447.56
394.78	438.56
395.005	448.56
395.229	431.56
395.454	446.56
395.678	446.56
395.903	447.56
396.127	462.56
396.352	445.56
396.576	447.56
396.801	471.56
397.025	486.56
397.249	464.56
397.474	455.56
397.698	472.56
397.922	481.56
398.147	506.56
398.371	475.56
398.595	476.56
398.82	477.56
399.044	507.56
399.268	539.56
399.492	566.56
399.717	575.56
399.941	629.56
400.165	606.56
400.389	614.56
400.613	559.56
400.837	528.56
401.062	536.56
401.286	507.56
401.51	510.56
401.734	485.56
401.958	494.56
402.182	520.56
402.406	491.56
402.63	502.56
402.854	502.56
403.078	519.56
403.302	511.56
403.526	525.56
403.75	515.56
403.974	513.56
404.198	501.56
404.422	520.56
404.645	509.56
404.869	531.56
405.093	555.56
405.317	551.56
405.541	592.56
405.765	550.56
405.988	519.56
406.212	549.56
406.436	554.56
406.66	574.56
406.883	554.56
407.107	587.56
407.331	583.56
407.555	652.56
407.778	651.56
408.002	628.56
408.226	574.56
408.449	554.56
408.673	556.56
408.896	565.56
409.12	604.56
409.344	581.56
409.567	560.56
409.791	544.56
410.014	511.56
410.238	494.56
410.461	511.56
410.685	534.56
410.908	544.56
411.132	531.56
411.355	581.56
411.578	554.56
411.802	516.56
412.025	529.56
412.249	538.56
412.472	538.56
412.695	567.56
412.919	542.56
413.142	522.56
413.365	504.56
413.589	507.56
413.812	520.56
414.035	532.56
414.258	502.56
414.482	486.56
414.705	507.56
414.928	523.56
415.151	512.56
415.374	494.56
415.597	493.56
415.821	483.56
416.044	492.56
416.267	486.56
416.49	489.56
416.713	503.56
416.936	494.56
417.159	512.56
417.382	478.56
417.605	484.56
417.828	496.56
418.051	520.56
418.274	498.56
418.497	513.56
418.72	478.56
418.943	479.56
419.166	515.56
419.389	555.56
419.611	525.56
419.834	516.56
420.057	508.56
420.28	507.56
420.503	506.56
420.726	487.56
420.948	514.56
421.171	539.56
421.394	550.56
421.617	504.56
421.839	492.56
422.062	506.56
422.285	508.56
422.507	566.56
422.73	617.56
422.953	591.56
423.175	527.56
423.398	523.56
423.621	520.56
423.843	508.56
424.066	524.56
424.288	522.56
424.511	536.56
424.733	550.56
424.956	623.56
425.178	610.56
425.401	608.56
425.623	623.56
425.846	556.56
426.068	536.56
426.291	504.56
426.513	517.56
426.735	525.56
426.958	533.56
427.18	565.56
427.402	704.56
427.625	754.56
427.847	629.56
428.069	570.56
428.292	546.56
428.514	526.56
428.736	479.56
428.958	509.56
429.181	502.56
429.403	492.56
429.625	477.56
429.847	512.56
430.069	550.56
430.292	552.56
430.514	476.56
430.736	484.56
430.958	480.56
431.18	494.56
431.402	484.56
431.624	470.56
431.846	478.56
432.068	479.56
432.29	485.56
432.512	485.56
432.734	479.56
432.956	462.56
433.178	492.56
433.4	493.56
433.622	466.56
433.844	494.56
434.066	488.56
434.287	487.56
434.509	500.56
434.731	496.56
434.953	511.56
435.175	487.56
435.397	503.56
435.618	542.56
435.84	554.56
436.062	597.56
436.284	679.56
436.505	551.56
436.727	495.56
436.949	517.56
437.17	489.56
437.392	496.56
437.614	496.56
437.835	503.56
438.057	570.56
438.278	622.56
438.5	629.56
438.721	692.56
438.943	654.56
439.165	553.56
439.386	507.56
439.608	501.56
439.829	534.56
440.05	551.56
440.272	554.56
440.493	525.56
440.715	500.56
440.936	490.56
441.158	494.56
441.379	502.56
441.6	525.56
441.822	547.56
442.043	563.56
442.264	594.56
442.486	636.56
442.707	546.56
442.928	539.56
443.149	526.56
443.371	529.56
443.592	554.56
443.813	606.56
444.034	685.56
444.255	567.56
444.476	564.56
444.698	542.56
444.919	530.56
445.14	631.56
445.361	575.56
445.582	539.56
445.803	602.56
446.024	631.56
446.245	664.56
446.466	609.56
446.687	540.56
446.908	515.56
447.129	500.56
447.35	479.56
447.571	480.56
447.792	474.56
448.013	467.56
448.234	475.56
448.455	515.56
448.675	588.56
448.896	658.56
449.117	602.56
449.338	562.56
449.559	624.56
449.779	702.56
450	582.56
450.221	525.56
450.442	466.56
450.662	477.56
450.883	462.56
451.104	475.56
451.324	460.56
451.545	458.56
451.766	452.56
451.986	421.56
452.207	440.56
452.428	453.56
452.648	430.56
452.869	426.56
453.089	429.56
453.31	441.56
453.53	437.56
453.751	404.56
453.971	421.56
454.192	434.56
454.412	437.56
454.633	429.56
454.853	426.56
455.073	436.56
455.294	452.56
455.514	495.56
455.734	469.56
455.955	437.56
456.175	445.56
456.395	428.56
456.616	418.56
456.836	425.56
457.056	423.56
457.276	413.56
457.497	405.56
457.717	406.56
457.937	412.56
458.157	414.56
458.377	440.56
458.598	451.56
458.818	476.56
459.038	501.56
459.258	548.56
459.478	495.56
459.698	500.56
459.918	480.56
460.138	509.56
460.358	485.56
460.578	489.56
460.798	505.56
461.018	513.56
461.238	504.56
461.458	530.56
461.678	525.56
461.898	522.56
462.118	500.56
462.338	539.56
462.558	538.56
462.777	536.56
462.997	553.56
463.217	583.56
463.437	587.56
463.657	560.56
463.876	542.56
464.096	564.56
464.316	546.56
464.536	540.56
464.755	532.56
464.975	539.56
465.195	544.56
465.414	563.56
465.634	537.56
465.854	514.56
466.073	500.56
466.293	482.56
466.512	454.56
466.732	455.56
466.951	459.56
467.171	462.56
467.391	475.56
467.61	457.56
467.829	483.56
468.049	467.56
468.268	445.56
468.488	454.56
468.707	447.56
468.927	429.56
469.146	443.56
469.365	465.56
469.585	453.56
469.804	470.56
470.023	461.56
470.243	455.56
470.462	480.56
470.681	455.56
470.901	477.56
471.12	470.56
471.339	472.56
471.558	483.56
471.777	444.56
471.997	459.56
472.216	449.56
472.435	455.56
472.654	483.56
472.873	480.56
473.092	475.56
473.311	469.56
473.53	478.56
473.749	470.56
473.968	475.56
474.187	539.56
474.406	549.56
474.625	487.56
474.844	469.56
475.063	450.56
475.282	465.56
475.501	470.56
475.72	488.56
475.939	487.56
476.158	499.56
476.377	468.56
476.596	459.56
476.814	477.56
477.033	479.56
477.252	485.56
477.471	489.56
477.69	513.56
477.908	515.56
478.127	515.56
478.346	521.56
478.564	539.56
478.783	532.56
479.002	561.56
479.22	535.56
479.439	540.56
479.658	556.56
479.876	556.56
480.095	539.56
480.313	590.56
480.532	593.56
480.751	569.56
480.969	587.56
481.188	585.56
481.406	610.56
481.624	570.56
481.843	569.56
482.061	557.56
482.28	552.56
482.498	555.56
482.717	552.56
482.935	542.56
483.153	546.56
483.372	549.56
483.59	550.56
483.808	547.56
484.027	532.56
484.245	558.56
484.463	551.56
484.681	557.56
484.9	559.56
485.118	575.56
485.336	567.56
485.554	582.56
485.772	558.56
485.99	552.56
486.209	555.56
486.427	564.56
486.645	579.56
486.863	584.56
487.081	590.56
487.299	584.56
487.517	581.56
487.735	566.56
487.953	590.56
488.171	597.56
488.389	566.56
488.607	592.56
488.825	570.56
489.043	588.56
489.261	578.56
489.479	585.56
489.696	584.56
489.914	581.56
490.132	595.56
490.35	588.56
490.568	610.56
490.786	606.56
491.003	612.56
491.221	614.56
491.439	621.56
491.657	633.56
491.874	648.56
492.092	623.56
492.31	633.56
492.527	666.56
492.745	637.56
492.963	642.56
493.18	646.56
493.398	622.56
493.615	644.56
493.833	675.56
494.05	646.56
494.268	661.56
494.485	640.56
494.703	634.56
494.92	641.56
495.138	673.56
495.355	659.56
495.573	666.56
495.79	660.56
496.008	674.56
496.225	665.56
496.442	665.56
496.66	694.56
496.877	685.56
497.094	699.56
497.312	688.56
497.529	715.56
497.746	723.56
497.963	714.56
498.181	729.56
498.398	752.56
498.615	763.56
498.832	820.56
499.049	827.56
499.267	861.56
499.484	898.56
499.701	932.56
499.918	972.56
500.135	1036.56
500.352	1095.56
500.569	1136.56
500.786	1121.56
501.003	1063.56
501.22	1052.56
501.437	997.56
501.654	924.56
501.871	916.56
502.088	874.56
