Data from 1979.PennyLincolnUp.Lamp.En5.5.200Scan.071719.P1_HRD10591_16-19-43-863.txt Node
Date: Thu Jul 18 16:19:43 EDT 2019
User: cochatt
Spectrometer: HR+D1059
Trigger mode: 1
Integration Time (sec): 1.000000E-1
Scans to average: 1
Electric dark correction enabled: true
Nonlinearity correction enabled: false
Boxcar width: 0
XAxis mode: Wavelengths
Number of Pixels in Spectrum: 2048
>>>>>Begin Spectral Data<<<<<
223.165	-16.88
223.4	-16.88
223.635	-16.88
223.869	-22.88
224.104	-8.88
224.338	-17.88
224.573	-9.88
224.808	-14.88
225.042	-20.88
225.277	-11.88
225.511	-9.88
225.746	9.12
225.98	18.12
226.215	12.12
226.449	18.12
226.683	29.12
226.918	19.12
227.152	28.12
227.387	24.12
227.621	30.12
227.856	21.12
228.09	45.12
228.324	46.12
228.559	41.12
228.793	62.12
229.027	85.12
229.262	99.12
229.496	88.12
229.73	125.12
229.964	150.12
230.199	117.12
230.433	102.12
230.667	99.12
230.901	85.12
231.136	116.12
231.37	108.12
231.604	98.12
231.838	112.12
232.072	100.12
232.306	99.12
232.541	103.12
232.775	88.12
233.009	86.12
233.243	98.12
233.477	99.12
233.711	116.12
233.945	116.12
234.179	106.12
234.413	109.12
234.647	116.12
234.881	109.12
235.115	111.12
235.349	109.12
235.583	112.12
235.817	121.12
236.051	116.12
236.285	107.12
236.519	126.12
236.753	122.12
236.987	128.12
237.221	179.12
237.455	205.12
237.689	164.12
237.922	121.12
238.156	119.12
238.39	126.12
238.624	126.12
238.858	111.12
239.091	122.12
239.325	116.12
239.559	120.12
239.793	129.12
240.027	108.12
240.26	127.12
240.494	142.12
240.728	135.12
240.961	136.12
241.195	129.12
241.429	129.12
241.662	125.12
241.896	128.12
242.13	116.12
242.363	135.12
242.597	118.12
242.83	133.12
243.064	132.12
243.298	116.12
243.531	118.12
243.765	136.12
243.998	145.12
244.232	128.12
244.465	134.12
244.699	127.12
244.932	141.12
245.166	151.12
245.399	134.12
245.633	144.12
245.866	138.12
246.099	144.12
246.333	149.12
246.566	134.12
246.8	145.12
247.033	152.12
247.266	140.12
247.5	165.12
247.733	158.12
247.966	175.12
248.2	162.12
248.433	170.12
248.666	178.12
248.899	164.12
249.133	182.12
249.366	199.12
249.599	177.12
249.832	167.12
250.066	166.12
250.299	178.12
250.532	197.12
250.765	187.12
250.998	202.12
251.231	213.12
251.465	201.12
251.698	169.12
251.931	178.12
252.164	179.12
252.397	183.12
252.63	180.12
252.863	190.12
253.096	185.12
253.329	205.12
253.562	222.12
253.795	190.12
254.028	188.12
254.261	209.12
254.494	221.12
254.727	235.12
254.96	243.12
255.193	249.12
255.426	231.12
255.659	211.12
255.892	202.12
256.124	213.12
256.357	212.12
256.59	197.12
256.823	196.12
257.056	188.12
257.289	198.12
257.521	205.12
257.754	199.12
257.987	197.12
258.22	203.12
258.452	186.12
258.685	201.12
258.918	187.12
259.151	200.12
259.383	192.12
259.616	200.12
259.849	193.12
260.081	207.12
260.314	231.12
260.547	218.12
260.779	206.12
261.012	198.12
261.244	197.12
261.477	228.12
261.71	202.12
261.942	208.12
262.175	227.12
262.407	213.12
262.64	202.12
262.872	206.12
263.105	200.12
263.337	207.12
263.57	215.12
263.802	204.12
264.035	202.12
264.267	196.12
264.499	210.12
264.732	181.12
264.964	192.12
265.197	206.12
265.429	192.12
265.661	199.12
265.894	220.12
266.126	208.12
266.358	208.12
266.591	216.12
266.823	210.12
267.055	212.12
267.287	206.12
267.52	213.12
267.752	203.12
267.984	222.12
268.216	201.12
268.448	215.12
268.681	220.12
268.913	222.12
269.145	240.12
269.377	253.12
269.609	238.12
269.841	238.12
270.073	229.12
270.306	250.12
270.538	285.12
270.77	280.12
271.002	262.12
271.234	250.12
271.466	271.12
271.698	290.12
271.93	281.12
272.162	270.12
272.394	298.12
272.626	271.12
272.858	253.12
273.09	245.12
273.322	255.12
273.553	264.12
273.785	250.12
274.017	233.12
274.249	238.12
274.481	214.12
274.713	241.12
274.945	252.12
275.176	259.12
275.408	249.12
275.64	238.12
275.872	243.12
276.104	257.12
276.335	258.12
276.567	242.12
276.799	262.12
277.031	284.12
277.262	285.12
277.494	311.12
277.726	285.12
277.957	271.12
278.189	264.12
278.421	265.12
278.652	245.12
278.884	253.12
279.115	255.12
279.347	264.12
279.579	268.12
279.81	260.12
280.042	255.12
280.273	276.12
280.505	255.12
280.736	257.12
280.968	241.12
281.199	236.12
281.431	237.12
281.662	254.12
281.894	259.12
282.125	269.12
282.356	273.12
282.588	289.12
282.819	283.12
283.051	265.12
283.282	248.12
283.513	263.12
283.745	264.12
283.976	266.12
284.207	256.12
284.439	271.12
284.67	262.12
284.901	281.12
285.132	254.12
285.364	265.12
285.595	269.12
285.826	254.12
286.057	282.12
286.288	276.12
286.52	277.12
286.751	269.12
286.982	270.12
287.213	267.12
287.444	277.12
287.675	277.12
287.906	277.12
288.138	279.12
288.369	290.12
288.6	261.12
288.831	289.12
289.062	264.12
289.293	259.12
289.524	292.12
289.755	294.12
289.986	268.12
290.217	280.12
290.448	278.12
290.679	287.12
290.91	278.12
291.141	274.12
291.371	287.12
291.602	265.12
291.833	288.12
292.064	274.12
292.295	244.12
292.526	264.12
292.757	283.12
292.987	280.12
293.218	296.12
293.449	302.12
293.68	264.12
293.91	278.12
294.141	279.12
294.372	284.12
294.603	287.12
294.833	299.12
295.064	290.12
295.295	274.12
295.525	278.12
295.756	289.12
295.987	297.12
296.217	309.12
296.448	320.12
296.679	302.12
296.909	299.12
297.14	279.12
297.37	300.12
297.601	288.12
297.831	285.12
298.062	286.12
298.292	290.12
298.523	279.12
298.753	302.12
298.984	298.12
299.214	308.12
299.445	287.12
299.675	304.12
299.905	336.12
300.136	317.12
300.366	296.12
300.597	302.12
300.827	310.12
301.057	306.12
301.288	313.12
301.518	312.12
301.748	299.12
301.979	312.12
302.209	325.12
302.439	320.12
302.669	320.12
302.9	320.12
303.13	318.12
303.36	321.12
303.59	303.12
303.82	326.12
304.051	341.12
304.281	316.12
304.511	324.12
304.741	306.12
304.971	310.12
305.201	314.12
305.431	302.12
305.661	314.12
305.891	328.12
306.121	326.12
306.352	325.12
306.582	340.12
306.812	324.12
307.042	329.12
307.272	316.12
307.502	322.12
307.731	322.12
307.961	321.12
308.191	314.12
308.421	318.12
308.651	326.12
308.881	331.12
309.111	325.12
309.341	326.12
309.571	327.12
309.8	339.12
310.03	357.12
310.26	341.12
310.49	337.12
310.72	367.12
310.949	374.12
311.179	388.12
311.409	375.12
311.639	356.12
311.868	368.12
312.098	359.12
312.328	362.12
312.557	373.12
312.787	398.12
313.017	394.12
313.246	375.12
313.476	372.12
313.706	351.12
313.935	361.12
314.165	383.12
314.394	382.12
314.624	392.12
314.853	375.12
315.083	369.12
315.312	367.12
315.542	359.12
315.771	355.12
316.001	373.12
316.23	349.12
316.46	367.12
316.689	374.12
316.919	380.12
317.148	364.12
317.377	359.12
317.607	372.12
317.836	362.12
318.065	364.12
318.295	376.12
318.524	358.12
318.753	352.12
318.983	364.12
319.212	356.12
319.441	388.12
319.67	366.12
319.9	369.12
320.129	364.12
320.358	377.12
320.587	400.12
320.816	381.12
321.046	380.12
321.275	383.12
321.504	382.12
321.733	385.12
321.962	394.12
322.191	411.12
322.42	420.12
322.649	421.12
322.878	411.12
323.108	433.12
323.337	452.12
323.566	473.12
323.795	496.12
324.024	544.12
324.253	636.12
324.482	899.12
324.71	1372.12
324.939	2079.12
325.168	1797.12
325.397	888.12
325.626	600.12
325.855	510.12
326.084	494.12
326.313	473.12
326.542	463.12
326.77	508.12
326.999	619.12
327.228	827.12
327.457	1280.12
327.686	1587.12
327.914	989.12
328.143	662.12
328.372	578.12
328.6	561.12
328.829	516.12
329.058	549.12
329.287	550.12
329.515	538.12
329.744	499.12
329.972	483.12
330.201	493.12
330.43	546.12
330.658	548.12
330.887	579.12
331.115	568.12
331.344	522.12
331.572	476.12
331.801	482.12
332.03	438.12
332.258	459.12
332.486	439.12
332.715	430.12
332.943	451.12
333.172	452.12
333.4	463.12
333.629	465.12
333.857	476.12
334.085	462.12
334.314	498.12
334.542	529.12
334.771	525.12
334.999	508.12
335.227	485.12
335.455	459.12
335.684	468.12
335.912	441.12
336.14	468.12
336.369	457.12
336.597	468.12
336.825	454.12
337.053	452.12
337.281	421.12
337.51	436.12
337.738	432.12
337.966	426.12
338.194	440.12
338.422	432.12
338.65	436.12
338.878	435.12
339.106	405.12
339.334	436.12
339.562	431.12
339.79	423.12
340.018	434.12
340.246	435.12
340.474	428.12
340.702	431.12
340.93	439.12
341.158	413.12
341.386	430.12
341.614	416.12
341.842	424.12
342.07	437.12
342.298	417.12
342.526	421.12
342.754	405.12
342.981	419.12
343.209	401.12
343.437	423.12
343.665	428.12
343.893	443.12
344.12	465.12
344.348	429.12
344.576	423.12
344.804	466.12
345.031	435.12
345.259	454.12
345.487	419.12
345.714	452.12
345.942	408.12
346.17	438.12
346.397	394.12
346.625	418.12
346.853	415.12
347.08	401.12
347.308	433.12
347.535	418.12
347.763	438.12
347.99	421.12
348.218	417.12
348.445	407.12
348.673	408.12
348.9	401.12
349.128	409.12
349.355	407.12
349.583	404.12
349.81	396.12
350.037	381.12
350.265	409.12
350.492	412.12
350.72	400.12
350.947	407.12
351.174	404.12
351.402	437.12
351.629	416.12
351.856	435.12
352.083	422.12
352.311	421.12
352.538	421.12
352.765	418.12
352.992	395.12
353.22	432.12
353.447	403.12
353.674	408.12
353.901	412.12
354.128	416.12
354.355	381.12
354.583	396.12
354.81	389.12
355.037	391.12
355.264	386.12
355.491	372.12
355.718	391.12
355.945	390.12
356.172	373.12
356.399	390.12
356.626	399.12
356.853	407.12
357.08	380.12
357.307	381.12
357.534	388.12
357.761	400.12
357.988	375.12
358.215	401.12
358.441	376.12
358.668	389.12
358.895	413.12
359.122	372.12
359.349	398.12
359.576	404.12
359.802	428.12
360.029	464.12
360.256	445.12
360.483	447.12
360.709	412.12
360.936	407.12
361.163	419.12
361.39	414.12
361.616	412.12
361.843	406.12
362.07	421.12
362.296	422.12
362.523	398.12
362.749	404.12
362.976	410.12
363.203	395.12
363.429	401.12
363.656	403.12
363.882	388.12
364.109	406.12
364.335	401.12
364.562	411.12
364.788	405.12
365.015	419.12
365.241	391.12
365.468	408.12
365.694	418.12
365.92	414.12
366.147	406.12
366.373	423.12
366.599	393.12
366.826	410.12
367.052	414.12
367.278	419.12
367.505	387.12
367.731	412.12
367.957	420.12
368.184	429.12
368.41	404.12
368.636	414.12
368.862	436.12
369.089	414.12
369.315	401.12
369.541	410.12
369.767	410.12
369.993	398.12
370.219	396.12
370.445	411.12
370.672	407.12
370.898	401.12
371.124	399.12
371.35	415.12
371.576	419.12
371.802	406.12
372.028	395.12
372.254	405.12
372.48	418.12
372.706	408.12
372.932	416.12
373.158	405.12
373.384	413.12
373.61	417.12
373.835	417.12
374.061	410.12
374.287	415.12
374.513	442.12
374.739	426.12
374.965	415.12
375.191	442.12
375.416	416.12
375.642	408.12
375.868	413.12
376.094	412.12
376.319	394.12
376.545	428.12
376.771	404.12
376.997	417.12
377.222	432.12
377.448	396.12
377.674	395.12
377.899	400.12
378.125	406.12
378.35	418.12
378.576	414.12
378.802	409.12
379.027	400.12
379.253	396.12
379.478	393.12
379.704	409.12
379.929	419.12
380.155	421.12
380.38	419.12
380.606	409.12
380.831	400.12
381.057	406.12
381.282	414.12
381.507	402.12
381.733	402.12
381.958	413.12
382.184	436.12
382.409	436.12
382.634	441.12
382.86	431.12
383.085	401.12
383.31	416.12
383.535	437.12
383.761	428.12
383.986	419.12
384.211	441.12
384.436	451.12
384.662	432.12
384.887	465.12
385.112	449.12
385.337	444.12
385.562	470.12
385.787	459.12
386.013	448.12
386.238	463.12
386.463	478.12
386.688	460.12
386.913	430.12
387.138	456.12
387.363	462.12
387.588	466.12
387.813	428.12
388.038	462.12
388.263	452.12
388.488	467.12
388.713	469.12
388.938	460.12
389.163	473.12
389.387	465.12
389.612	437.12
389.837	453.12
390.062	472.12
390.287	465.12
390.512	445.12
390.736	457.12
390.961	462.12
391.186	450.12
391.411	454.12
391.636	476.12
391.86	482.12
392.085	478.12
392.31	476.12
392.534	479.12
392.759	464.12
392.984	474.12
393.208	479.12
393.433	483.12
393.658	479.12
393.882	477.12
394.107	472.12
394.331	473.12
394.556	462.12
394.78	470.12
395.005	481.12
395.229	481.12
395.454	497.12
395.678	473.12
395.903	489.12
396.127	488.12
396.352	535.12
396.576	493.12
396.801	486.12
397.025	506.12
397.249	497.12
397.474	520.12
397.698	505.12
397.922	518.12
398.147	522.12
398.371	530.12
398.595	536.12
398.82	547.12
399.044	535.12
399.268	562.12
399.492	597.12
399.717	639.12
399.941	671.12
400.165	678.12
400.389	686.12
400.613	626.12
400.837	578.12
401.062	561.12
401.286	574.12
401.51	547.12
401.734	530.12
401.958	522.12
402.182	535.12
402.406	549.12
402.63	560.12
402.854	564.12
403.078	564.12
403.302	565.12
403.526	600.12
403.75	590.12
403.974	576.12
404.198	580.12
404.422	566.12
404.645	602.12
404.869	600.12
405.093	602.12
405.317	654.12
405.541	695.12
405.765	625.12
405.988	597.12
406.212	636.12
406.436	649.12
406.66	657.12
406.883	634.12
407.107	664.12
407.331	681.12
407.555	740.12
407.778	772.12
408.002	697.12
408.226	692.12
408.449	641.12
408.673	627.12
408.896	631.12
409.12	681.12
409.344	658.12
409.567	613.12
409.791	582.12
410.014	576.12
410.238	597.12
410.461	575.12
410.685	597.12
410.908	605.12
411.132	642.12
411.355	644.12
411.578	603.12
411.802	562.12
412.025	570.12
412.249	577.12
412.472	615.12
412.695	638.12
412.919	607.12
413.142	590.12
413.365	572.12
413.589	550.12
413.812	548.12
414.035	541.12
414.258	545.12
414.482	549.12
414.705	561.12
414.928	532.12
415.151	556.12
415.374	554.12
415.597	540.12
415.821	529.12
416.044	566.12
416.267	548.12
416.49	549.12
416.713	548.12
416.936	540.12
417.159	559.12
417.382	545.12
417.605	536.12
417.828	553.12
418.051	546.12
418.274	532.12
418.497	551.12
418.72	530.12
418.943	537.12
419.166	589.12
419.389	590.12
419.611	599.12
419.834	585.12
420.057	575.12
420.28	572.12
420.503	564.12
420.726	577.12
420.948	562.12
421.171	595.12
421.394	646.12
421.617	578.12
421.839	568.12
422.062	566.12
422.285	581.12
422.507	620.12
422.73	690.12
422.953	676.12
423.175	592.12
423.398	590.12
423.621	589.12
423.843	598.12
424.066	610.12
424.288	592.12
424.511	610.12
424.733	670.12
424.956	740.12
425.178	718.12
425.401	695.12
425.623	705.12
425.846	645.12
426.068	607.12
426.291	594.12
426.513	592.12
426.735	592.12
426.958	645.12
427.18	731.12
427.402	832.12
427.625	952.12
427.847	823.12
428.069	701.12
428.292	643.12
428.514	600.12
428.736	575.12
428.958	561.12
429.181	554.12
429.403	526.12
429.625	569.12
429.847	591.12
430.069	650.12
430.292	660.12
430.514	572.12
430.736	560.12
430.958	544.12
431.18	548.12
431.402	540.12
431.624	526.12
431.846	544.12
432.068	532.12
432.29	512.12
432.512	519.12
432.734	528.12
432.956	560.12
433.178	558.12
433.4	549.12
433.622	542.12
433.844	538.12
434.066	514.12
434.287	532.12
434.509	520.12
434.731	554.12
434.953	565.12
435.175	576.12
435.397	622.12
435.618	610.12
435.84	637.12
436.062	727.12
436.284	790.12
436.505	654.12
436.727	618.12
436.949	560.12
437.17	561.12
437.392	553.12
437.614	563.12
437.835	615.12
438.057	690.12
438.278	788.12
438.5	768.12
438.721	854.12
438.943	820.12
439.165	670.12
439.386	600.12
439.608	598.12
439.829	606.12
440.05	633.12
440.272	678.12
440.493	628.12
440.715	612.12
440.936	576.12
441.158	553.12
441.379	552.12
441.6	575.12
441.822	609.12
442.043	654.12
442.264	716.12
442.486	745.12
442.707	663.12
442.928	600.12
443.149	626.12
443.371	637.12
443.592	676.12
443.813	743.12
444.034	843.12
444.255	720.12
444.476	656.12
444.698	655.12
444.919	628.12
445.14	720.12
445.361	674.12
445.582	650.12
445.803	698.12
446.024	828.12
446.245	820.12
446.466	728.12
446.687	656.12
446.908	602.12
447.129	564.12
447.35	552.12
447.571	551.12
447.792	540.12
448.013	540.12
448.234	572.12
448.455	582.12
448.675	716.12
448.896	830.12
449.117	716.12
449.338	659.12
449.559	755.12
449.779	880.12
450	711.12
450.221	612.12
450.442	566.12
450.662	533.12
450.883	546.12
451.104	553.12
451.324	534.12
451.545	530.12
451.766	512.12
451.986	497.12
452.207	494.12
452.428	489.12
452.648	495.12
452.869	476.12
453.089	517.12
453.31	516.12
453.53	505.12
453.751	506.12
453.971	486.12
454.192	527.12
454.412	490.12
454.633	488.12
454.853	480.12
455.073	477.12
455.294	512.12
455.514	577.12
455.734	567.12
455.955	516.12
456.175	487.12
456.395	459.12
456.616	452.12
456.836	444.12
457.056	456.12
457.276	469.12
457.497	470.12
457.717	468.12
457.937	475.12
458.157	479.12
458.377	454.12
458.598	508.12
458.818	573.12
459.038	650.12
459.258	654.12
459.478	552.12
459.698	542.12
459.918	544.12
460.138	560.12
460.358	555.12
460.578	564.12
460.798	556.12
461.018	577.12
461.238	564.12
461.458	553.12
461.678	541.12
461.898	538.12
462.118	573.12
462.338	587.12
462.558	572.12
462.777	610.12
462.997	614.12
463.217	612.12
463.437	631.12
463.657	591.12
463.876	604.12
464.096	608.12
464.316	608.12
464.536	618.12
464.755	588.12
464.975	601.12
465.195	639.12
465.414	685.12
465.634	634.12
465.854	568.12
466.073	558.12
466.293	535.12
466.512	526.12
466.732	503.12
466.951	506.12
467.171	520.12
467.391	520.12
467.61	514.12
467.829	524.12
468.049	543.12
468.268	540.12
468.488	510.12
468.707	497.12
468.927	488.12
469.146	516.12
469.365	481.12
469.585	500.12
469.804	518.12
470.023	544.12
470.243	515.12
470.462	519.12
470.681	564.12
470.901	530.12
471.12	517.12
471.339	523.12
471.558	513.12
471.777	541.12
471.997	513.12
472.216	549.12
472.435	541.12
472.654	543.12
472.873	508.12
473.092	521.12
473.311	508.12
473.53	489.12
473.749	523.12
473.968	551.12
474.187	651.12
474.406	673.12
474.625	568.12
474.844	543.12
475.063	530.12
475.282	516.12
475.501	505.12
475.72	541.12
475.939	546.12
476.158	533.12
476.377	540.12
476.596	524.12
476.814	542.12
477.033	551.12
477.252	551.12
477.471	564.12
477.69	567.12
477.908	561.12
478.127	572.12
478.346	566.12
478.564	596.12
478.783	588.12
479.002	593.12
479.22	598.12
479.439	613.12
479.658	626.12
479.876	649.12
480.095	650.12
480.313	682.12
480.532	659.12
480.751	638.12
480.969	662.12
481.188	703.12
481.406	746.12
481.624	665.12
481.843	610.12
482.061	610.12
482.28	590.12
482.498	607.12
482.717	588.12
482.935	592.12
483.153	597.12
483.372	590.12
483.59	593.12
483.808	608.12
484.027	596.12
484.245	581.12
484.463	592.12
484.681	623.12
484.9	598.12
485.118	632.12
485.336	626.12
485.554	617.12
485.772	642.12
485.99	626.12
486.209	648.12
486.427	640.12
486.645	643.12
486.863	658.12
487.081	669.12
487.299	649.12
487.517	657.12
487.735	644.12
487.953	656.12
488.171	650.12
488.389	630.12
488.607	646.12
488.825	650.12
489.043	658.12
489.261	674.12
489.479	656.12
489.696	661.12
489.914	635.12
490.132	654.12
490.35	671.12
490.568	676.12
490.786	686.12
491.003	718.12
491.221	677.12
491.439	734.12
491.657	734.12
491.874	744.12
492.092	719.12
492.31	704.12
492.527	742.12
492.745	735.12
492.963	764.12
493.18	782.12
493.398	768.12
493.615	744.12
493.833	740.12
494.05	754.12
494.268	782.12
494.485	774.12
494.703	758.12
494.92	800.12
495.138	752.12
495.355	779.12
495.573	770.12
495.79	768.12
496.008	777.12
496.225	760.12
496.442	784.12
496.66	754.12
496.877	765.12
497.094	789.12
497.312	780.12
497.529	807.12
497.746	797.12
497.963	832.12
498.181	861.12
498.398	862.12
498.615	876.12
498.832	894.12
499.049	920.12
499.267	933.12
499.484	991.12
499.701	1030.12
499.918	1085.12
500.135	1116.12
500.352	1160.12
500.569	1210.12
500.786	1226.12
501.003	1194.12
501.22	1126.12
501.437	1125.12
501.654	1066.12
501.871	1055.12
