Data from 1979.PennyLincolnUp.Lamp.En5.5.200Scan.071719.P1_HRD10591_16-18-28-863.txt Node
Date: Thu Jul 18 16:18:28 EDT 2019
User: cochatt
Spectrometer: HR+D1059
Trigger mode: 1
Integration Time (sec): 1.000000E-1
Scans to average: 1
Electric dark correction enabled: true
Nonlinearity correction enabled: false
Boxcar width: 0
XAxis mode: Wavelengths
Number of Pixels in Spectrum: 2048
>>>>>Begin Spectral Data<<<<<
223.165	-11.56
223.4	-11.56
223.635	-11.56
223.869	-14.56
224.104	-32.56
224.338	-21.56
224.573	-5.56
224.808	-5.56
225.042	-21.56
225.277	1.44
225.511	2.44
225.746	-1.56
225.98	8.44
226.215	22.44
226.449	12.44
226.683	7.44
226.918	25.44
227.152	34.44
227.387	43.44
227.621	43.44
227.856	44.44
228.09	43.44
228.324	38.44
228.559	63.44
228.793	52.44
229.027	93.44
229.262	89.44
229.496	103.44
229.73	132.44
229.964	133.44
230.199	109.44
230.433	118.44
230.667	114.44
230.901	107.44
231.136	109.44
231.37	103.44
231.604	108.44
231.838	122.44
232.072	118.44
232.306	125.44
232.541	115.44
232.775	110.44
233.009	130.44
233.243	115.44
233.477	104.44
233.711	117.44
233.945	117.44
234.179	117.44
234.413	122.44
234.647	112.44
234.881	118.44
235.115	111.44
235.349	116.44
235.583	118.44
235.817	110.44
236.051	111.44
236.285	120.44
236.519	127.44
236.753	123.44
236.987	130.44
237.221	171.44
237.455	221.44
237.689	167.44
237.922	132.44
238.156	123.44
238.39	125.44
238.624	132.44
238.858	122.44
239.091	115.44
239.325	115.44
239.559	131.44
239.793	123.44
240.027	135.44
240.26	141.44
240.494	135.44
240.728	138.44
240.961	149.44
241.195	140.44
241.429	127.44
241.662	123.44
241.896	141.44
242.13	133.44
242.363	137.44
242.597	119.44
242.83	130.44
243.064	122.44
243.298	144.44
243.531	136.44
243.765	129.44
243.998	119.44
244.232	146.44
244.465	140.44
244.699	122.44
244.932	145.44
245.166	148.44
245.399	155.44
245.633	148.44
245.866	134.44
246.099	138.44
246.333	134.44
246.566	130.44
246.8	143.44
247.033	167.44
247.266	134.44
247.5	165.44
247.733	175.44
247.966	183.44
248.2	158.44
248.433	172.44
248.666	163.44
248.899	168.44
249.133	175.44
249.366	203.44
249.599	175.44
249.832	173.44
250.066	181.44
250.299	178.44
250.532	181.44
250.765	196.44
250.998	210.44
251.231	192.44
251.465	195.44
251.698	188.44
251.931	189.44
252.164	182.44
252.397	182.44
252.63	190.44
252.863	184.44
253.096	194.44
253.329	207.44
253.562	202.44
253.795	200.44
254.028	202.44
254.261	197.44
254.494	208.44
254.727	213.44
254.96	243.44
255.193	229.44
255.426	217.44
255.659	214.44
255.892	206.44
256.124	204.44
256.357	220.44
256.59	210.44
256.823	213.44
257.056	191.44
257.289	190.44
257.521	201.44
257.754	201.44
257.987	195.44
258.22	206.44
258.452	194.44
258.685	193.44
258.918	202.44
259.151	205.44
259.383	220.44
259.616	212.44
259.849	201.44
260.081	207.44
260.314	224.44
260.547	235.44
260.779	216.44
261.012	204.44
261.244	207.44
261.477	200.44
261.71	204.44
261.942	206.44
262.175	215.44
262.407	209.44
262.64	207.44
262.872	194.44
263.105	209.44
263.337	203.44
263.57	203.44
263.802	197.44
264.035	202.44
264.267	179.44
264.499	206.44
264.732	212.44
264.964	196.44
265.197	217.44
265.429	205.44
265.661	207.44
265.894	206.44
266.126	188.44
266.358	205.44
266.591	205.44
266.823	209.44
267.055	219.44
267.287	228.44
267.52	205.44
267.752	232.44
267.984	220.44
268.216	223.44
268.448	214.44
268.681	225.44
268.913	228.44
269.145	223.44
269.377	249.44
269.609	239.44
269.841	245.44
270.073	234.44
270.306	245.44
270.538	292.44
270.77	294.44
271.002	279.44
271.234	285.44
271.466	272.44
271.698	287.44
271.93	272.44
272.162	302.44
272.394	292.44
272.626	273.44
272.858	250.44
273.09	261.44
273.322	251.44
273.553	250.44
273.785	249.44
274.017	249.44
274.249	246.44
274.481	262.44
274.713	226.44
274.945	250.44
275.176	264.44
275.408	243.44
275.64	237.44
275.872	247.44
276.104	235.44
276.335	247.44
276.567	261.44
276.799	244.44
277.031	300.44
277.262	300.44
277.494	286.44
277.726	276.44
277.957	266.44
278.189	268.44
278.421	242.44
278.652	250.44
278.884	248.44
279.115	245.44
279.347	242.44
279.579	262.44
279.81	258.44
280.042	260.44
280.273	248.44
280.505	257.44
280.736	263.44
280.968	250.44
281.199	272.44
281.431	252.44
281.662	260.44
281.894	263.44
282.125	263.44
282.356	287.44
282.588	296.44
282.819	297.44
283.051	251.44
283.282	273.44
283.513	276.44
283.745	263.44
283.976	277.44
284.207	276.44
284.439	265.44
284.67	273.44
284.901	259.44
285.132	269.44
285.364	260.44
285.595	276.44
285.826	276.44
286.057	255.44
286.288	260.44
286.52	284.44
286.751	258.44
286.982	257.44
287.213	283.44
287.444	275.44
287.675	293.44
287.906	297.44
288.138	268.44
288.369	306.44
288.6	288.44
288.831	278.44
289.062	271.44
289.293	280.44
289.524	278.44
289.755	269.44
289.986	265.44
290.217	284.44
290.448	280.44
290.679	288.44
290.91	277.44
291.141	287.44
291.371	290.44
291.602	296.44
291.833	287.44
292.064	295.44
292.295	271.44
292.526	291.44
292.757	266.44
292.987	289.44
293.218	292.44
293.449	282.44
293.68	282.44
293.91	285.44
294.141	278.44
294.372	271.44
294.603	264.44
294.833	291.44
295.064	287.44
295.295	293.44
295.525	263.44
295.756	290.44
295.987	295.44
296.217	315.44
296.448	330.44
296.679	318.44
296.909	297.44
297.14	298.44
297.37	306.44
297.601	314.44
297.831	300.44
298.062	292.44
298.292	307.44
298.523	289.44
298.753	288.44
298.984	326.44
299.214	286.44
299.445	300.44
299.675	316.44
299.905	296.44
300.136	300.44
300.366	316.44
300.597	319.44
300.827	296.44
301.057	327.44
301.288	323.44
301.518	306.44
301.748	324.44
301.979	317.44
302.209	328.44
302.439	333.44
302.669	301.44
302.9	313.44
303.13	324.44
303.36	331.44
303.59	333.44
303.82	342.44
304.051	331.44
304.281	316.44
304.511	311.44
304.741	322.44
304.971	327.44
305.201	333.44
305.431	311.44
305.661	318.44
305.891	316.44
306.121	325.44
306.352	313.44
306.582	322.44
306.812	335.44
307.042	318.44
307.272	345.44
307.502	320.44
307.731	348.44
307.961	350.44
308.191	322.44
308.421	315.44
308.651	337.44
308.881	319.44
309.111	339.44
309.341	327.44
309.571	342.44
309.8	353.44
310.03	341.44
310.26	351.44
310.49	339.44
310.72	361.44
310.949	349.44
311.179	368.44
311.409	354.44
311.639	372.44
311.868	356.44
312.098	378.44
312.328	366.44
312.557	376.44
312.787	378.44
313.017	380.44
313.246	362.44
313.476	361.44
313.706	371.44
313.935	354.44
314.165	377.44
314.394	382.44
314.624	357.44
314.853	358.44
315.083	372.44
315.312	362.44
315.542	360.44
315.771	334.44
316.001	360.44
316.23	363.44
316.46	356.44
316.689	366.44
316.919	360.44
317.148	381.44
317.377	374.44
317.607	363.44
317.836	392.44
318.065	379.44
318.295	367.44
318.524	369.44
318.753	366.44
318.983	361.44
319.212	389.44
319.441	381.44
319.67	389.44
319.9	354.44
320.129	366.44
320.358	349.44
320.587	378.44
320.816	353.44
321.046	399.44
321.275	396.44
321.504	375.44
321.733	410.44
321.962	384.44
322.191	400.44
322.42	403.44
322.649	402.44
322.878	430.44
323.108	406.44
323.337	448.44
323.566	453.44
323.795	487.44
324.024	530.44
324.253	572.44
324.482	828.44
324.71	1289.44
324.939	1909.44
325.168	1663.44
325.397	816.44
325.626	586.44
325.855	491.44
326.084	486.44
326.313	484.44
326.542	454.44
326.77	508.44
326.999	576.44
327.228	788.44
327.457	1183.44
327.686	1422.44
327.914	940.44
328.143	644.44
328.372	552.44
328.6	533.44
328.829	522.44
329.058	534.44
329.287	529.44
329.515	499.44
329.744	486.44
329.972	454.44
330.201	490.44
330.43	518.44
330.658	547.44
330.887	551.44
331.115	537.44
331.344	470.44
331.572	456.44
331.801	464.44
332.03	451.44
332.258	469.44
332.486	432.44
332.715	456.44
332.943	442.44
333.172	437.44
333.4	472.44
333.629	466.44
333.857	464.44
334.085	480.44
334.314	507.44
334.542	518.44
334.771	548.44
334.999	490.44
335.227	451.44
335.455	464.44
335.684	434.44
335.912	434.44
336.14	447.44
336.369	455.44
336.597	439.44
336.825	429.44
337.053	432.44
337.281	430.44
337.51	426.44
337.738	426.44
337.966	425.44
338.194	428.44
338.422	426.44
338.65	438.44
338.878	431.44
339.106	414.44
339.334	413.44
339.562	418.44
339.79	418.44
340.018	424.44
340.246	418.44
340.474	424.44
340.702	409.44
340.93	403.44
341.158	436.44
341.386	415.44
341.614	420.44
341.842	422.44
342.07	413.44
342.298	418.44
342.526	408.44
342.754	408.44
342.981	404.44
343.209	414.44
343.437	423.44
343.665	450.44
343.893	452.44
344.12	426.44
344.348	436.44
344.576	440.44
344.804	416.44
345.031	426.44
345.259	442.44
345.487	434.44
345.714	432.44
345.942	412.44
346.17	399.44
346.397	395.44
346.625	412.44
346.853	408.44
347.08	404.44
347.308	419.44
347.535	411.44
347.763	420.44
347.99	420.44
348.218	412.44
348.445	420.44
348.673	425.44
348.9	404.44
349.128	421.44
349.355	404.44
349.583	406.44
349.81	426.44
350.037	410.44
350.265	399.44
350.492	400.44
350.72	395.44
350.947	394.44
351.174	409.44
351.402	414.44
351.629	401.44
351.856	414.44
352.083	419.44
352.311	423.44
352.538	412.44
352.765	418.44
352.992	421.44
353.22	406.44
353.447	410.44
353.674	391.44
353.901	391.44
354.128	391.44
354.355	399.44
354.583	389.44
354.81	400.44
355.037	395.44
355.264	380.44
355.491	379.44
355.718	383.44
355.945	389.44
356.172	397.44
356.399	388.44
356.626	387.44
356.853	407.44
357.08	384.44
357.307	397.44
357.534	374.44
357.761	395.44
357.988	397.44
358.215	387.44
358.441	405.44
358.668	395.44
358.895	407.44
359.122	390.44
359.349	422.44
359.576	412.44
359.802	439.44
360.029	451.44
360.256	456.44
360.483	439.44
360.709	427.44
360.936	396.44
361.163	416.44
361.39	419.44
361.616	422.44
361.843	412.44
362.07	407.44
362.296	414.44
362.523	414.44
362.749	420.44
362.976	396.44
363.203	402.44
363.429	391.44
363.656	414.44
363.882	409.44
364.109	383.44
364.335	388.44
364.562	412.44
364.788	400.44
365.015	419.44
365.241	403.44
365.468	390.44
365.694	407.44
365.92	408.44
366.147	399.44
366.373	398.44
366.599	405.44
366.826	408.44
367.052	400.44
367.278	400.44
367.505	408.44
367.731	395.44
367.957	417.44
368.184	384.44
368.41	411.44
368.636	423.44
368.862	427.44
369.089	398.44
369.315	419.44
369.541	407.44
369.767	408.44
369.993	397.44
370.219	380.44
370.445	385.44
370.672	408.44
370.898	388.44
371.124	391.44
371.35	412.44
371.576	395.44
371.802	400.44
372.028	413.44
372.254	422.44
372.48	442.44
372.706	401.44
372.932	401.44
373.158	404.44
373.384	410.44
373.61	415.44
373.835	440.44
374.061	437.44
374.287	427.44
374.513	418.44
374.739	415.44
374.965	420.44
375.191	422.44
375.416	425.44
375.642	432.44
375.868	417.44
376.094	410.44
376.319	410.44
376.545	409.44
376.771	425.44
376.997	422.44
377.222	401.44
377.448	411.44
377.674	406.44
377.899	420.44
378.125	439.44
378.35	410.44
378.576	394.44
378.802	406.44
379.027	420.44
379.253	411.44
379.478	415.44
379.704	378.44
379.929	400.44
380.155	403.44
380.38	416.44
380.606	436.44
380.831	410.44
381.057	418.44
381.282	401.44
381.507	413.44
381.733	413.44
381.958	420.44
382.184	422.44
382.409	424.44
382.634	429.44
382.86	440.44
383.085	443.44
383.31	452.44
383.535	426.44
383.761	447.44
383.986	437.44
384.211	422.44
384.436	441.44
384.662	469.44
384.887	452.44
385.112	460.44
385.337	446.44
385.562	458.44
385.787	474.44
386.013	456.44
386.238	469.44
386.463	460.44
386.688	486.44
386.913	459.44
387.138	453.44
387.363	463.44
387.588	438.44
387.813	466.44
388.038	459.44
388.263	478.44
388.488	470.44
388.713	452.44
388.938	460.44
389.163	461.44
389.387	460.44
389.612	446.44
389.837	458.44
390.062	455.44
390.287	459.44
390.512	466.44
390.736	451.44
390.961	446.44
391.186	479.44
391.411	461.44
391.636	482.44
391.86	471.44
392.085	469.44
392.31	487.44
392.534	491.44
392.759	468.44
392.984	493.44
393.208	482.44
393.433	466.44
393.658	495.44
393.882	470.44
394.107	479.44
394.331	472.44
394.556	485.44
394.78	484.44
395.005	499.44
395.229	474.44
395.454	482.44
395.678	472.44
395.903	520.44
396.127	521.44
396.352	510.44
396.576	476.44
396.801	480.44
397.025	480.44
397.249	504.44
397.474	517.44
397.698	512.44
397.922	524.44
398.147	539.44
398.371	547.44
398.595	524.44
398.82	537.44
399.044	562.44
399.268	572.44
399.492	634.44
399.717	642.44
399.941	661.44
400.165	702.44
400.389	671.44
400.613	626.44
400.837	574.44
401.062	587.44
401.286	572.44
401.51	573.44
401.734	556.44
401.958	540.44
402.182	534.44
402.406	557.44
402.63	566.44
402.854	571.44
403.078	554.44
403.302	542.44
403.526	558.44
403.75	598.44
403.974	572.44
404.198	579.44
404.422	594.44
404.645	600.44
404.869	578.44
405.093	627.44
405.317	661.44
405.541	670.44
405.765	609.44
405.988	623.44
406.212	610.44
406.436	619.44
406.66	613.44
406.883	628.44
407.107	649.44
407.331	682.44
407.555	719.44
407.778	714.44
408.002	676.44
408.226	660.44
408.449	621.44
408.673	635.44
408.896	664.44
409.12	678.44
409.344	674.44
409.567	628.44
409.791	596.44
410.014	590.44
410.238	578.44
410.461	571.44
410.685	585.44
410.908	582.44
411.132	631.44
411.355	668.44
411.578	628.44
411.802	603.44
412.025	562.44
412.249	551.44
412.472	624.44
412.695	650.44
412.919	649.44
413.142	591.44
413.365	566.44
413.589	537.44
413.812	545.44
414.035	555.44
414.258	560.44
414.482	542.44
414.705	550.44
414.928	556.44
415.151	556.44
415.374	563.44
415.597	537.44
415.821	519.44
416.044	554.44
416.267	529.44
416.49	548.44
416.713	523.44
416.936	525.44
417.159	541.44
417.382	552.44
417.605	551.44
417.828	532.44
418.051	561.44
418.274	553.44
418.497	538.44
418.72	554.44
418.943	550.44
419.166	567.44
419.389	573.44
419.611	592.44
419.834	565.44
420.057	595.44
420.28	559.44
420.503	555.44
420.726	564.44
420.948	574.44
421.171	597.44
421.394	635.44
421.617	576.44
421.839	559.44
422.062	569.44
422.285	584.44
422.507	629.44
422.73	685.44
422.953	687.44
423.175	627.44
423.398	566.44
423.621	590.44
423.843	582.44
424.066	594.44
424.288	588.44
424.511	620.44
424.733	648.44
424.956	756.44
425.178	708.44
425.401	701.44
425.623	744.44
425.846	621.44
426.068	579.44
426.291	576.44
426.513	584.44
426.735	618.44
426.958	624.44
427.18	702.44
427.402	817.44
427.625	898.44
427.847	808.44
428.069	688.44
428.292	633.44
428.514	603.44
428.736	554.44
428.958	555.44
429.181	558.44
429.403	583.44
429.625	558.44
429.847	560.44
430.069	627.44
430.292	644.44
430.514	583.44
430.736	566.44
430.958	544.44
431.18	527.44
431.402	526.44
431.624	508.44
431.846	536.44
432.068	542.44
432.29	534.44
432.512	541.44
432.734	564.44
432.956	530.44
433.178	547.44
433.4	527.44
433.622	548.44
433.844	526.44
434.066	524.44
434.287	528.44
434.509	540.44
434.731	550.44
434.953	558.44
435.175	563.44
435.397	618.44
435.618	589.44
435.84	650.44
436.062	708.44
436.284	742.44
436.505	642.44
436.727	604.44
436.949	575.44
437.17	583.44
437.392	525.44
437.614	576.44
437.835	607.44
438.057	660.44
438.278	756.44
438.5	742.44
438.721	821.44
438.943	780.44
439.165	672.44
439.386	602.44
439.608	584.44
439.829	589.44
440.05	589.44
440.272	661.44
440.493	612.44
440.715	572.44
440.936	564.44
441.158	564.44
441.379	571.44
441.6	565.44
441.822	599.44
442.043	627.44
442.264	698.44
442.486	730.44
442.707	665.44
442.928	609.44
443.149	617.44
443.371	634.44
443.592	660.44
443.813	774.44
444.034	828.44
444.255	696.44
444.476	617.44
444.698	622.44
444.919	638.44
445.14	739.44
445.361	647.44
445.582	654.44
445.803	699.44
446.024	765.44
446.245	782.44
446.466	714.44
446.687	656.44
446.908	594.44
447.129	562.44
447.35	535.44
447.571	527.44
447.792	560.44
448.013	527.44
448.234	566.44
448.455	620.44
448.675	687.44
448.896	805.44
449.117	697.44
449.338	662.44
449.559	762.44
449.779	837.44
450	679.44
450.221	580.44
450.442	547.44
450.662	533.44
450.883	535.44
451.104	543.44
451.324	552.44
451.545	510.44
451.766	521.44
451.986	508.44
452.207	515.44
452.428	503.44
452.648	488.44
452.869	492.44
453.089	498.44
453.31	498.44
453.53	515.44
453.751	505.44
453.971	471.44
454.192	512.44
454.412	517.44
454.633	495.44
454.853	489.44
455.073	480.44
455.294	531.44
455.514	558.44
455.734	587.44
455.955	493.44
456.175	487.44
456.395	475.44
456.616	463.44
456.836	476.44
457.056	478.44
457.276	463.44
457.497	468.44
457.717	455.44
457.937	488.44
458.157	484.44
458.377	477.44
458.598	521.44
458.818	572.44
459.038	597.44
459.258	636.44
459.478	556.44
459.698	536.44
459.918	536.44
460.138	545.44
460.358	566.44
460.578	566.44
460.798	580.44
461.018	570.44
461.238	573.44
461.458	556.44
461.678	547.44
461.898	570.44
462.118	566.44
462.338	551.44
462.558	566.44
462.777	579.44
462.997	600.44
463.217	628.44
463.437	638.44
463.657	615.44
463.876	598.44
464.096	617.44
464.316	602.44
464.536	592.44
464.755	606.44
464.975	594.44
465.195	617.44
465.414	675.44
465.634	619.44
465.854	587.44
466.073	548.44
466.293	540.44
466.512	525.44
466.732	532.44
466.951	518.44
467.171	528.44
467.391	516.44
467.61	546.44
467.829	532.44
468.049	526.44
468.268	502.44
468.488	535.44
468.707	508.44
468.927	500.44
469.146	494.44
469.365	507.44
469.585	492.44
469.804	513.44
470.023	522.44
470.243	525.44
470.462	527.44
470.681	558.44
470.901	526.44
471.12	538.44
471.339	545.44
471.558	536.44
471.777	541.44
471.997	514.44
472.216	524.44
472.435	550.44
472.654	546.44
472.873	536.44
473.092	502.44
473.311	502.44
473.53	527.44
473.749	525.44
473.968	549.44
474.187	651.44
474.406	647.44
474.625	562.44
474.844	546.44
475.063	520.44
475.282	516.44
475.501	533.44
475.72	550.44
475.939	529.44
476.158	547.44
476.377	542.44
476.596	525.44
476.814	552.44
477.033	541.44
477.252	571.44
477.471	558.44
477.69	574.44
477.908	546.44
478.127	554.44
478.346	562.44
478.564	592.44
478.783	612.44
479.002	605.44
479.22	576.44
479.439	618.44
479.658	640.44
479.876	610.44
480.095	636.44
480.313	664.44
480.532	646.44
480.751	645.44
480.969	641.44
481.188	691.44
481.406	711.44
481.624	639.44
481.843	628.44
482.061	634.44
482.28	592.44
482.498	603.44
482.717	602.44
482.935	585.44
483.153	606.44
483.372	591.44
483.59	609.44
483.808	611.44
484.027	603.44
484.245	623.44
484.463	625.44
484.681	634.44
484.9	623.44
485.118	632.44
485.336	614.44
485.554	626.44
485.772	614.44
485.99	642.44
486.209	630.44
486.427	628.44
486.645	643.44
486.863	680.44
487.081	645.44
487.299	646.44
487.517	632.44
487.735	651.44
487.953	631.44
488.171	640.44
488.389	653.44
488.607	654.44
488.825	639.44
489.043	655.44
489.261	625.44
489.479	665.44
489.696	665.44
489.914	645.44
490.132	662.44
490.35	667.44
490.568	682.44
490.786	713.44
491.003	690.44
491.221	717.44
491.439	703.44
491.657	732.44
491.874	717.44
492.092	716.44
492.31	733.44
492.527	740.44
492.745	726.44
492.963	734.44
493.18	732.44
493.398	773.44
493.615	757.44
493.833	771.44
494.05	734.44
494.268	747.44
494.485	717.44
494.703	748.44
494.92	739.44
495.138	738.44
495.355	767.44
495.573	751.44
495.79	763.44
496.008	780.44
496.225	768.44
496.442	762.44
496.66	766.44
496.877	764.44
497.094	789.44
497.312	764.44
497.529	784.44
497.746	800.44
497.963	803.44
498.181	871.44
498.398	861.44
498.615	868.44
498.832	894.44
499.049	896.44
499.267	951.44
499.484	988.44
499.701	1041.44
499.918	1069.44
500.135	1148.44
500.352	1198.44
500.569	1228.44
500.786	1209.44
501.003	1192.44
501.22	1147.44
501.437	1084.44
501.654	1058.44
501.871	1006.44
