Data from 1979.PennyLincolnUp.Lamp.En5.5.200Scan.071719.P1_HRD10591_16-20-23-863.txt Node
Date: Thu Jul 18 16:20:23 EDT 2019
User: cochatt
Spectrometer: HR+D1059
Trigger mode: 1
Integration Time (sec): 1.000000E-1
Scans to average: 1
Electric dark correction enabled: true
Nonlinearity correction enabled: false
Boxcar width: 0
XAxis mode: Wavelengths
Number of Pixels in Spectrum: 2048
>>>>>Begin Spectral Data<<<<<
223.165	-14.56
223.4	-14.56
223.635	-14.56
223.869	-21.56
224.104	-22.56
224.338	-4.56
224.573	-7.56
224.808	-20.56
225.042	-4.56
225.277	-13.56
225.511	4.44
225.746	1.44
225.98	0.44
226.215	11.44
226.449	23.44
226.683	27.44
226.918	19.44
227.152	21.44
227.387	42.44
227.621	28.44
227.856	16.44
228.09	42.44
228.324	49.44
228.559	74.44
228.793	75.44
229.027	93.44
229.262	104.44
229.496	103.44
229.73	125.44
229.964	144.44
230.199	132.44
230.433	131.44
230.667	121.44
230.901	125.44
231.136	116.44
231.37	116.44
231.604	113.44
231.838	110.44
232.072	116.44
232.306	115.44
232.541	99.44
232.775	108.44
233.009	122.44
233.243	118.44
233.477	98.44
233.711	106.44
233.945	105.44
234.179	125.44
234.413	122.44
234.647	100.44
234.881	113.44
235.115	105.44
235.349	122.44
235.583	114.44
235.817	115.44
236.051	115.44
236.285	125.44
236.519	128.44
236.753	122.44
236.987	130.44
237.221	167.44
237.455	218.44
237.689	187.44
237.922	129.44
238.156	144.44
238.39	131.44
238.624	132.44
238.858	123.44
239.091	117.44
239.325	117.44
239.559	112.44
239.793	136.44
240.027	141.44
240.26	147.44
240.494	141.44
240.728	144.44
240.961	163.44
241.195	151.44
241.429	149.44
241.662	128.44
241.896	124.44
242.13	141.44
242.363	150.44
242.597	140.44
242.83	143.44
243.064	148.44
243.298	133.44
243.531	140.44
243.765	137.44
243.998	132.44
244.232	130.44
244.465	140.44
244.699	140.44
244.932	153.44
245.166	144.44
245.399	140.44
245.633	136.44
245.866	141.44
246.099	148.44
246.333	154.44
246.566	128.44
246.8	138.44
247.033	136.44
247.266	157.44
247.5	158.44
247.733	181.44
247.966	163.44
248.2	164.44
248.433	151.44
248.666	137.44
248.899	198.44
249.133	206.44
249.366	184.44
249.599	171.44
249.832	182.44
250.066	176.44
250.299	177.44
250.532	187.44
250.765	179.44
250.998	216.44
251.231	219.44
251.465	201.44
251.698	194.44
251.931	204.44
252.164	180.44
252.397	201.44
252.63	180.44
252.863	200.44
253.096	205.44
253.329	214.44
253.562	227.44
253.795	224.44
254.028	204.44
254.261	196.44
254.494	228.44
254.727	256.44
254.96	261.44
255.193	248.44
255.426	241.44
255.659	206.44
255.892	225.44
256.124	205.44
256.357	228.44
256.59	230.44
256.823	201.44
257.056	190.44
257.289	211.44
257.521	207.44
257.754	190.44
257.987	207.44
258.22	199.44
258.452	188.44
258.685	183.44
258.918	210.44
259.151	188.44
259.383	213.44
259.616	207.44
259.849	206.44
260.081	220.44
260.314	230.44
260.547	263.44
260.779	223.44
261.012	216.44
261.244	217.44
261.477	201.44
261.71	212.44
261.942	213.44
262.175	230.44
262.407	208.44
262.64	221.44
262.872	215.44
263.105	209.44
263.337	215.44
263.57	204.44
263.802	203.44
264.035	193.44
264.267	193.44
264.499	191.44
264.732	218.44
264.964	211.44
265.197	217.44
265.429	212.44
265.661	212.44
265.894	211.44
266.126	203.44
266.358	211.44
266.591	219.44
266.823	202.44
267.055	231.44
267.287	226.44
267.52	222.44
267.752	220.44
267.984	223.44
268.216	200.44
268.448	219.44
268.681	228.44
268.913	229.44
269.145	258.44
269.377	245.44
269.609	265.44
269.841	247.44
270.073	261.44
270.306	267.44
270.538	308.44
270.77	297.44
271.002	284.44
271.234	276.44
271.466	284.44
271.698	284.44
271.93	298.44
272.162	304.44
272.394	296.44
272.626	269.44
272.858	255.44
273.09	282.44
273.322	269.44
273.553	256.44
273.785	258.44
274.017	261.44
274.249	266.44
274.481	258.44
274.713	252.44
274.945	261.44
275.176	246.44
275.408	261.44
275.64	237.44
275.872	251.44
276.104	261.44
276.335	242.44
276.567	263.44
276.799	264.44
277.031	297.44
277.262	297.44
277.494	289.44
277.726	299.44
277.957	286.44
278.189	275.44
278.421	258.44
278.652	247.44
278.884	270.44
279.115	254.44
279.347	262.44
279.579	268.44
279.81	255.44
280.042	237.44
280.273	245.44
280.505	268.44
280.736	271.44
280.968	282.44
281.199	277.44
281.431	267.44
281.662	280.44
281.894	271.44
282.125	262.44
282.356	291.44
282.588	301.44
282.819	293.44
283.051	281.44
283.282	272.44
283.513	280.44
283.745	281.44
283.976	274.44
284.207	277.44
284.439	280.44
284.67	276.44
284.901	269.44
285.132	271.44
285.364	258.44
285.595	275.44
285.826	261.44
286.057	265.44
286.288	289.44
286.52	279.44
286.751	269.44
286.982	277.44
287.213	284.44
287.444	301.44
287.675	286.44
287.906	304.44
288.138	267.44
288.369	290.44
288.6	301.44
288.831	312.44
289.062	306.44
289.293	295.44
289.524	292.44
289.755	268.44
289.986	276.44
290.217	277.44
290.448	288.44
290.679	313.44
290.91	271.44
291.141	291.44
291.371	278.44
291.602	285.44
291.833	267.44
292.064	277.44
292.295	278.44
292.526	290.44
292.757	281.44
292.987	270.44
293.218	277.44
293.449	292.44
293.68	289.44
293.91	276.44
294.141	304.44
294.372	293.44
294.603	280.44
294.833	276.44
295.064	308.44
295.295	295.44
295.525	305.44
295.756	313.44
295.987	298.44
296.217	309.44
296.448	314.44
296.679	286.44
296.909	297.44
297.14	286.44
297.37	295.44
297.601	292.44
297.831	309.44
298.062	325.44
298.292	307.44
298.523	302.44
298.753	311.44
298.984	292.44
299.214	301.44
299.445	296.44
299.675	304.44
299.905	329.44
300.136	317.44
300.366	312.44
300.597	295.44
300.827	306.44
301.057	322.44
301.288	305.44
301.518	325.44
301.748	325.44
301.979	316.44
302.209	328.44
302.439	318.44
302.669	326.44
302.9	332.44
303.13	331.44
303.36	320.44
303.59	339.44
303.82	339.44
304.051	339.44
304.281	317.44
304.511	330.44
304.741	331.44
304.971	315.44
305.201	322.44
305.431	306.44
305.661	318.44
305.891	324.44
306.121	322.44
306.352	330.44
306.582	327.44
306.812	329.44
307.042	327.44
307.272	332.44
307.502	340.44
307.731	364.44
307.961	331.44
308.191	316.44
308.421	317.44
308.651	325.44
308.881	338.44
309.111	344.44
309.341	345.44
309.571	337.44
309.8	360.44
310.03	360.44
310.26	376.44
310.49	356.44
310.72	365.44
310.949	380.44
311.179	390.44
311.409	379.44
311.639	369.44
311.868	371.44
312.098	377.44
312.328	373.44
312.557	393.44
312.787	397.44
313.017	387.44
313.246	378.44
313.476	359.44
313.706	372.44
313.935	390.44
314.165	378.44
314.394	385.44
314.624	390.44
314.853	378.44
315.083	377.44
315.312	391.44
315.542	372.44
315.771	358.44
316.001	360.44
316.23	366.44
316.46	360.44
316.689	389.44
316.919	364.44
317.148	376.44
317.377	396.44
317.607	377.44
317.836	376.44
318.065	381.44
318.295	381.44
318.524	361.44
318.753	366.44
318.983	372.44
319.212	371.44
319.441	380.44
319.67	374.44
319.9	388.44
320.129	379.44
320.358	389.44
320.587	369.44
320.816	403.44
321.046	393.44
321.275	398.44
321.504	407.44
321.733	396.44
321.962	403.44
322.191	417.44
322.42	431.44
322.649	429.44
322.878	434.44
323.108	445.44
323.337	474.44
323.566	479.44
323.795	516.44
324.024	526.44
324.253	660.44
324.482	930.44
324.71	1457.44
324.939	2130.44
325.168	1856.44
325.397	906.44
325.626	622.44
325.855	532.44
326.084	503.44
326.313	481.44
326.542	487.44
326.77	533.44
326.999	622.44
327.228	853.44
327.457	1301.44
327.686	1634.44
327.914	1071.44
328.143	674.44
328.372	597.44
328.6	580.44
328.829	524.44
329.058	553.44
329.287	557.44
329.515	526.44
329.744	486.44
329.972	499.44
330.201	509.44
330.43	564.44
330.658	559.44
330.887	597.44
331.115	590.44
331.344	512.44
331.572	487.44
331.801	496.44
332.03	484.44
332.258	472.44
332.486	469.44
332.715	447.44
332.943	470.44
333.172	461.44
333.4	473.44
333.629	503.44
333.857	496.44
334.085	512.44
334.314	518.44
334.542	531.44
334.771	563.44
334.999	502.44
335.227	493.44
335.455	470.44
335.684	465.44
335.912	456.44
336.14	429.44
336.369	426.44
336.597	468.44
336.825	468.44
337.053	450.44
337.281	448.44
337.51	441.44
337.738	468.44
337.966	440.44
338.194	463.44
338.422	437.44
338.65	453.44
338.878	454.44
339.106	444.44
339.334	430.44
339.562	420.44
339.79	452.44
340.018	434.44
340.246	452.44
340.474	433.44
340.702	444.44
340.93	443.44
341.158	428.44
341.386	451.44
341.614	431.44
341.842	428.44
342.07	420.44
342.298	429.44
342.526	429.44
342.754	419.44
342.981	440.44
343.209	435.44
343.437	426.44
343.665	434.44
343.893	445.44
344.12	446.44
344.348	439.44
344.576	450.44
344.804	451.44
345.031	425.44
345.259	449.44
345.487	432.44
345.714	451.44
345.942	424.44
346.17	416.44
346.397	404.44
346.625	421.44
346.853	412.44
347.08	408.44
347.308	438.44
347.535	423.44
347.763	408.44
347.99	413.44
348.218	456.44
348.445	456.44
348.673	420.44
348.9	418.44
349.128	413.44
349.355	421.44
349.583	418.44
349.81	419.44
350.037	419.44
350.265	424.44
350.492	409.44
350.72	426.44
350.947	418.44
351.174	416.44
351.402	429.44
351.629	420.44
351.856	415.44
352.083	425.44
352.311	425.44
352.538	445.44
352.765	433.44
352.992	426.44
353.22	435.44
353.447	415.44
353.674	415.44
353.901	403.44
354.128	392.44
354.355	409.44
354.583	423.44
354.81	391.44
355.037	389.44
355.264	390.44
355.491	417.44
355.718	396.44
355.945	399.44
356.172	389.44
356.399	386.44
356.626	396.44
356.853	413.44
357.08	385.44
357.307	388.44
357.534	408.44
357.761	391.44
357.988	395.44
358.215	414.44
358.441	384.44
358.668	414.44
358.895	418.44
359.122	408.44
359.349	403.44
359.576	426.44
359.802	445.44
360.029	449.44
360.256	460.44
360.483	444.44
360.709	447.44
360.936	428.44
361.163	437.44
361.39	409.44
361.616	408.44
361.843	410.44
362.07	403.44
362.296	427.44
362.523	414.44
362.749	427.44
362.976	416.44
363.203	420.44
363.429	438.44
363.656	398.44
363.882	426.44
364.109	407.44
364.335	410.44
364.562	416.44
364.788	412.44
365.015	380.44
365.241	412.44
365.468	410.44
365.694	430.44
365.92	414.44
366.147	396.44
366.373	420.44
366.599	416.44
366.826	402.44
367.052	398.44
367.278	417.44
367.505	386.44
367.731	437.44
367.957	404.44
368.184	416.44
368.41	417.44
368.636	419.44
368.862	430.44
369.089	446.44
369.315	414.44
369.541	407.44
369.767	423.44
369.993	409.44
370.219	413.44
370.445	429.44
370.672	425.44
370.898	422.44
371.124	410.44
371.35	418.44
371.576	417.44
371.802	426.44
372.028	430.44
372.254	411.44
372.48	449.44
372.706	421.44
372.932	416.44
373.158	410.44
373.384	434.44
373.61	428.44
373.835	412.44
374.061	397.44
374.287	422.44
374.513	424.44
374.739	440.44
374.965	433.44
375.191	453.44
375.416	411.44
375.642	425.44
375.868	401.44
376.094	408.44
376.319	409.44
376.545	413.44
376.771	424.44
376.997	444.44
377.222	408.44
377.448	422.44
377.674	434.44
377.899	413.44
378.125	409.44
378.35	398.44
378.576	416.44
378.802	411.44
379.027	432.44
379.253	406.44
379.478	423.44
379.704	399.44
379.929	381.44
380.155	416.44
380.38	437.44
380.606	410.44
380.831	410.44
381.057	421.44
381.282	418.44
381.507	436.44
381.733	424.44
381.958	434.44
382.184	413.44
382.409	433.44
382.634	423.44
382.86	440.44
383.085	456.44
383.31	421.44
383.535	430.44
383.761	438.44
383.986	437.44
384.211	467.44
384.436	466.44
384.662	445.44
384.887	453.44
385.112	445.44
385.337	453.44
385.562	454.44
385.787	456.44
386.013	481.44
386.238	482.44
386.463	478.44
386.688	473.44
386.913	465.44
387.138	466.44
387.363	462.44
387.588	472.44
387.813	470.44
388.038	441.44
388.263	452.44
388.488	472.44
388.713	480.44
388.938	450.44
389.163	449.44
389.387	476.44
389.612	452.44
389.837	445.44
390.062	468.44
390.287	469.44
390.512	498.44
390.736	467.44
390.961	464.44
391.186	460.44
391.411	486.44
391.636	497.44
391.86	487.44
392.085	481.44
392.31	512.44
392.534	510.44
392.759	491.44
392.984	468.44
393.208	469.44
393.433	475.44
393.658	483.44
393.882	457.44
394.107	470.44
394.331	500.44
394.556	475.44
394.78	490.44
395.005	500.44
395.229	484.44
395.454	484.44
395.678	512.44
395.903	518.44
396.127	512.44
396.352	523.44
396.576	501.44
396.801	496.44
397.025	506.44
397.249	514.44
397.474	513.44
397.698	510.44
397.922	521.44
398.147	536.44
398.371	521.44
398.595	536.44
398.82	551.44
399.044	553.44
399.268	579.44
399.492	642.44
399.717	634.44
399.941	676.44
400.165	690.44
400.389	690.44
400.613	624.44
400.837	613.44
401.062	607.44
401.286	587.44
401.51	556.44
401.734	573.44
401.958	592.44
402.182	561.44
402.406	590.44
402.63	594.44
402.854	572.44
403.078	579.44
403.302	573.44
403.526	596.44
403.75	594.44
403.974	583.44
404.198	568.44
404.422	592.44
404.645	598.44
404.869	604.44
405.093	634.44
405.317	659.44
405.541	712.44
405.765	650.44
405.988	644.44
406.212	614.44
406.436	645.44
406.66	678.44
406.883	647.44
407.107	652.44
407.331	711.44
407.555	787.44
407.778	762.44
408.002	692.44
408.226	664.44
408.449	642.44
408.673	635.44
408.896	674.44
409.12	712.44
409.344	664.44
409.567	603.44
409.791	601.44
410.014	601.44
410.238	598.44
410.461	594.44
410.685	608.44
410.908	610.44
411.132	641.44
411.355	668.44
411.578	636.44
411.802	605.44
412.025	595.44
412.249	604.44
412.472	614.44
412.695	646.44
412.919	628.44
413.142	581.44
413.365	567.44
413.589	581.44
413.812	576.44
414.035	547.44
414.258	582.44
414.482	546.44
414.705	568.44
414.928	545.44
415.151	554.44
415.374	577.44
415.597	549.44
415.821	531.44
416.044	543.44
416.267	539.44
416.49	546.44
416.713	544.44
416.936	567.44
417.159	571.44
417.382	575.44
417.605	588.44
417.828	584.44
418.051	587.44
418.274	568.44
418.497	562.44
418.72	552.44
418.943	562.44
419.166	570.44
419.389	612.44
419.611	608.44
419.834	594.44
420.057	586.44
420.28	595.44
420.503	589.44
420.726	596.44
420.948	584.44
421.171	643.44
421.394	656.44
421.617	588.44
421.839	576.44
422.062	589.44
422.285	625.44
422.507	646.44
422.73	729.44
422.953	706.44
423.175	625.44
423.398	613.44
423.621	596.44
423.843	618.44
424.066	604.44
424.288	638.44
424.511	632.44
424.733	712.44
424.956	755.44
425.178	704.44
425.401	753.44
425.623	755.44
425.846	656.44
426.068	617.44
426.291	617.44
426.513	610.44
426.735	625.44
426.958	631.44
427.18	748.44
427.402	852.44
427.625	956.44
427.847	843.44
428.069	737.44
428.292	692.44
428.514	602.44
428.736	572.44
428.958	576.44
429.181	566.44
429.403	554.44
429.625	572.44
429.847	604.44
430.069	671.44
430.292	682.44
430.514	587.44
430.736	560.44
430.958	550.44
431.18	541.44
431.402	546.44
431.624	526.44
431.846	521.44
432.068	540.44
432.29	522.44
432.512	537.44
432.734	552.44
432.956	549.44
433.178	547.44
433.4	556.44
433.622	546.44
433.844	569.44
434.066	531.44
434.287	544.44
434.509	538.44
434.731	557.44
434.953	564.44
435.175	579.44
435.397	597.44
435.618	601.44
435.84	666.44
436.062	774.44
436.284	814.44
436.505	691.44
436.727	624.44
436.949	585.44
437.17	598.44
437.392	579.44
437.614	569.44
437.835	611.44
438.057	694.44
438.278	786.44
438.5	800.44
438.721	888.44
438.943	834.44
439.165	682.44
439.386	632.44
439.608	640.44
439.829	610.44
440.05	615.44
440.272	691.44
440.493	623.44
440.715	595.44
440.936	581.44
441.158	581.44
441.379	572.44
441.6	586.44
441.822	587.44
442.043	669.44
442.264	737.44
442.486	759.44
442.707	668.44
442.928	624.44
443.149	621.44
443.371	646.44
443.592	702.44
443.813	810.44
444.034	864.44
444.255	694.44
444.476	644.44
444.698	653.44
444.919	638.44
445.14	707.44
445.361	666.44
445.582	644.44
445.803	721.44
446.024	832.44
446.245	825.44
446.466	760.44
446.687	658.44
446.908	609.44
447.129	592.44
447.35	547.44
447.571	560.44
447.792	552.44
448.013	565.44
448.234	595.44
448.455	601.44
448.675	739.44
448.896	858.44
449.117	719.44
449.338	669.44
449.559	798.44
449.779	907.44
450	718.44
450.221	600.44
450.442	589.44
450.662	536.44
450.883	547.44
451.104	580.44
451.324	575.44
451.545	526.44
451.766	535.44
451.986	508.44
452.207	487.44
452.428	506.44
452.648	511.44
452.869	503.44
453.089	518.44
453.31	527.44
453.53	517.44
453.751	517.44
453.971	527.44
454.192	514.44
454.412	503.44
454.633	504.44
454.853	496.44
455.073	498.44
455.294	512.44
455.514	594.44
455.734	552.44
455.955	502.44
456.175	499.44
456.395	476.44
456.616	468.44
456.836	493.44
457.056	481.44
457.276	472.44
457.497	492.44
457.717	488.44
457.937	506.44
458.157	498.44
458.377	500.44
458.598	517.44
458.818	600.44
459.038	653.44
459.258	685.44
459.478	587.44
459.698	565.44
459.918	553.44
460.138	566.44
460.358	548.44
460.578	585.44
460.798	562.44
461.018	575.44
461.238	556.44
461.458	578.44
461.678	575.44
461.898	585.44
462.118	550.44
462.338	588.44
462.558	572.44
462.777	595.44
462.997	635.44
463.217	628.44
463.437	641.44
463.657	612.44
463.876	610.44
464.096	650.44
464.316	604.44
464.536	619.44
464.755	625.44
464.975	638.44
465.195	627.44
465.414	702.44
465.634	633.44
465.854	571.44
466.073	562.44
466.293	548.44
466.512	533.44
466.732	549.44
466.951	538.44
467.171	545.44
467.391	515.44
467.61	541.44
467.829	543.44
468.049	546.44
468.268	531.44
468.488	536.44
468.707	501.44
468.927	510.44
469.146	498.44
469.365	507.44
469.585	506.44
469.804	548.44
470.023	532.44
470.243	545.44
470.462	558.44
470.681	547.44
470.901	527.44
471.12	534.44
471.339	539.44
471.558	545.44
471.777	543.44
471.997	539.44
472.216	544.44
472.435	568.44
472.654	549.44
472.873	522.44
473.092	522.44
473.311	533.44
473.53	542.44
473.749	539.44
473.968	569.44
474.187	663.44
474.406	672.44
474.625	605.44
474.844	540.44
475.063	534.44
475.282	538.44
475.501	545.44
475.72	544.44
475.939	554.44
476.158	553.44
476.377	548.44
476.596	545.44
476.814	561.44
477.033	561.44
477.252	550.44
477.471	566.44
477.69	579.44
477.908	556.44
478.127	586.44
478.346	584.44
478.564	581.44
478.783	584.44
479.002	596.44
479.22	607.44
479.439	631.44
479.658	652.44
479.876	649.44
480.095	654.44
480.313	669.44
480.532	672.44
480.751	670.44
480.969	676.44
481.188	720.44
481.406	759.44
481.624	672.44
481.843	644.44
482.061	638.44
482.28	628.44
482.498	605.44
482.717	589.44
482.935	632.44
483.153	630.44
483.372	623.44
483.59	619.44
483.808	605.44
484.027	646.44
484.245	628.44
484.463	633.44
484.681	649.44
484.9	621.44
485.118	653.44
485.336	630.44
485.554	638.44
485.772	633.44
485.99	651.44
486.209	641.44
486.427	630.44
486.645	675.44
486.863	681.44
487.081	666.44
487.299	641.44
487.517	650.44
487.735	663.44
487.953	664.44
488.171	673.44
488.389	674.44
488.607	650.44
488.825	655.44
489.043	679.44
489.261	670.44
489.479	674.44
489.696	660.44
489.914	677.44
490.132	718.44
490.35	682.44
490.568	697.44
490.786	713.44
491.003	724.44
491.221	722.44
491.439	744.44
491.657	744.44
491.874	747.44
492.092	752.44
492.31	752.44
492.527	747.44
492.745	778.44
492.963	775.44
493.18	758.44
493.398	788.44
493.615	790.44
493.833	800.44
494.05	786.44
494.268	764.44
494.485	756.44
494.703	760.44
494.92	777.44
495.138	773.44
495.355	781.44
495.573	778.44
495.79	798.44
496.008	787.44
496.225	763.44
496.442	789.44
496.66	802.44
496.877	791.44
497.094	802.44
497.312	819.44
497.529	810.44
497.746	814.44
497.963	847.44
498.181	856.44
498.398	888.44
498.615	894.44
498.832	915.44
499.049	941.44
499.267	988.44
499.484	1003.44
499.701	1045.44
499.918	1076.44
500.135	1159.44
500.352	1241.44
500.569	1227.44
500.786	1204.44
501.003	1251.44
501.22	1165.44
501.437	1116.44
501.654	1065.44
501.871	1067.44
