Data from 1979.PennyLincolnUp.Lamp.En5.5.200Scan.071719.P1_HRD10591_16-18-15-865.txt Node
Date: Thu Jul 18 16:18:15 EDT 2019
User: cochatt
Spectrometer: HR+D1059
Trigger mode: 1
Integration Time (sec): 1.000000E-1
Scans to average: 1
Electric dark correction enabled: true
Nonlinearity correction enabled: false
Boxcar width: 0
XAxis mode: Wavelengths
Number of Pixels in Spectrum: 2048
>>>>>Begin Spectral Data<<<<<
223.165	-9.62
223.4	-9.62
223.635	-9.62
223.869	-24.62
224.104	-8.62
224.338	-11.62
224.573	-10.62
224.808	-9.62
225.042	-10.62
225.277	-2.62
225.511	-1.62
225.746	7.38
225.98	-1.62
226.215	4.38
226.449	-0.62
226.683	16.38
226.918	29.38
227.152	34.38
227.387	29.38
227.621	30.38
227.856	40.38
228.09	60.38
228.324	54.38
228.559	46.38
228.793	55.38
229.027	89.38
229.262	82.38
229.496	100.38
229.73	119.38
229.964	139.38
230.199	114.38
230.433	110.38
230.667	126.38
230.901	121.38
231.136	111.38
231.37	95.38
231.604	107.38
231.838	106.38
232.072	117.38
232.306	106.38
232.541	109.38
232.775	111.38
233.009	123.38
233.243	102.38
233.477	106.38
233.711	110.38
233.945	113.38
234.179	119.38
234.413	102.38
234.647	110.38
234.881	103.38
235.115	101.38
235.349	113.38
235.583	110.38
235.817	108.38
236.051	113.38
236.285	124.38
236.519	122.38
236.753	146.38
236.987	140.38
237.221	164.38
237.455	188.38
237.689	143.38
237.922	132.38
238.156	133.38
238.39	115.38
238.624	131.38
238.858	125.38
239.091	121.38
239.325	118.38
239.559	111.38
239.793	113.38
240.027	139.38
240.26	136.38
240.494	160.38
240.728	128.38
240.961	133.38
241.195	135.38
241.429	139.38
241.662	112.38
241.896	125.38
242.13	138.38
242.363	137.38
242.597	142.38
242.83	127.38
243.064	129.38
243.298	126.38
243.531	132.38
243.765	135.38
243.998	127.38
244.232	148.38
244.465	123.38
244.699	124.38
244.932	132.38
245.166	135.38
245.399	141.38
245.633	123.38
245.866	139.38
246.099	132.38
246.333	158.38
246.566	145.38
246.8	153.38
247.033	159.38
247.266	144.38
247.5	153.38
247.733	161.38
247.966	168.38
248.2	155.38
248.433	163.38
248.666	156.38
248.899	167.38
249.133	168.38
249.366	185.38
249.599	174.38
249.832	162.38
250.066	167.38
250.299	171.38
250.532	174.38
250.765	177.38
250.998	208.38
251.231	191.38
251.465	187.38
251.698	190.38
251.931	181.38
252.164	191.38
252.397	204.38
252.63	191.38
252.863	186.38
253.096	203.38
253.329	225.38
253.562	201.38
253.795	194.38
254.028	204.38
254.261	214.38
254.494	199.38
254.727	238.38
254.96	230.38
255.193	228.38
255.426	216.38
255.659	193.38
255.892	184.38
256.124	204.38
256.357	207.38
256.59	182.38
256.823	188.38
257.056	183.38
257.289	182.38
257.521	193.38
257.754	194.38
257.987	176.38
258.22	195.38
258.452	186.38
258.685	191.38
258.918	202.38
259.151	187.38
259.383	209.38
259.616	183.38
259.849	205.38
260.081	211.38
260.314	218.38
260.547	216.38
260.779	212.38
261.012	204.38
261.244	189.38
261.477	217.38
261.71	193.38
261.942	218.38
262.175	207.38
262.407	221.38
262.64	200.38
262.872	212.38
263.105	215.38
263.337	205.38
263.57	211.38
263.802	201.38
264.035	197.38
264.267	188.38
264.499	206.38
264.732	199.38
264.964	195.38
265.197	189.38
265.429	203.38
265.661	183.38
265.894	191.38
266.126	184.38
266.358	218.38
266.591	177.38
266.823	201.38
267.055	206.38
267.287	210.38
267.52	219.38
267.752	200.38
267.984	199.38
268.216	198.38
268.448	207.38
268.681	210.38
268.913	216.38
269.145	251.38
269.377	259.38
269.609	236.38
269.841	236.38
270.073	244.38
270.306	238.38
270.538	265.38
270.77	272.38
271.002	281.38
271.234	255.38
271.466	272.38
271.698	253.38
271.93	255.38
272.162	291.38
272.394	271.38
272.626	255.38
272.858	259.38
273.09	259.38
273.322	252.38
273.553	229.38
273.785	228.38
274.017	231.38
274.249	249.38
274.481	233.38
274.713	248.38
274.945	256.38
275.176	245.38
275.408	249.38
275.64	240.38
275.872	234.38
276.104	247.38
276.335	251.38
276.567	235.38
276.799	257.38
277.031	273.38
277.262	285.38
277.494	281.38
277.726	265.38
277.957	259.38
278.189	263.38
278.421	249.38
278.652	236.38
278.884	243.38
279.115	232.38
279.347	237.38
279.579	255.38
279.81	243.38
280.042	240.38
280.273	232.38
280.505	235.38
280.736	257.38
280.968	239.38
281.199	239.38
281.431	246.38
281.662	255.38
281.894	233.38
282.125	251.38
282.356	272.38
282.588	274.38
282.819	289.38
283.051	251.38
283.282	245.38
283.513	251.38
283.745	251.38
283.976	259.38
284.207	279.38
284.439	274.38
284.67	248.38
284.901	264.38
285.132	252.38
285.364	261.38
285.595	238.38
285.826	255.38
286.057	244.38
286.288	262.38
286.52	262.38
286.751	260.38
286.982	270.38
287.213	267.38
287.444	271.38
287.675	274.38
287.906	269.38
288.138	283.38
288.369	271.38
288.6	275.38
288.831	277.38
289.062	275.38
289.293	264.38
289.524	285.38
289.755	271.38
289.986	260.38
290.217	282.38
290.448	277.38
290.679	268.38
290.91	279.38
291.141	279.38
291.371	267.38
291.602	257.38
291.833	249.38
292.064	274.38
292.295	278.38
292.526	273.38
292.757	291.38
292.987	275.38
293.218	278.38
293.449	292.38
293.68	282.38
293.91	275.38
294.141	270.38
294.372	277.38
294.603	275.38
294.833	278.38
295.064	279.38
295.295	281.38
295.525	291.38
295.756	296.38
295.987	293.38
296.217	327.38
296.448	305.38
296.679	285.38
296.909	283.38
297.14	282.38
297.37	292.38
297.601	296.38
297.831	280.38
298.062	300.38
298.292	303.38
298.523	297.38
298.753	301.38
298.984	287.38
299.214	285.38
299.445	291.38
299.675	295.38
299.905	308.38
300.136	294.38
300.366	300.38
300.597	300.38
300.827	310.38
301.057	307.38
301.288	307.38
301.518	308.38
301.748	300.38
301.979	310.38
302.209	325.38
302.439	303.38
302.669	311.38
302.9	312.38
303.13	315.38
303.36	310.38
303.59	334.38
303.82	328.38
304.051	324.38
304.281	312.38
304.511	330.38
304.741	307.38
304.971	309.38
305.201	316.38
305.431	305.38
305.661	303.38
305.891	314.38
306.121	315.38
306.352	313.38
306.582	305.38
306.812	327.38
307.042	304.38
307.272	307.38
307.502	311.38
307.731	301.38
307.961	315.38
308.191	307.38
308.421	312.38
308.651	313.38
308.881	307.38
309.111	317.38
309.341	345.38
309.571	332.38
309.8	326.38
310.03	346.38
310.26	354.38
310.49	353.38
310.72	337.38
310.949	372.38
311.179	343.38
311.409	358.38
311.639	336.38
311.868	333.38
312.098	360.38
312.328	348.38
312.557	376.38
312.787	373.38
313.017	363.38
313.246	354.38
313.476	337.38
313.706	360.38
313.935	364.38
314.165	381.38
314.394	377.38
314.624	364.38
314.853	361.38
315.083	357.38
315.312	351.38
315.542	374.38
315.771	345.38
316.001	354.38
316.23	337.38
316.46	358.38
316.689	356.38
316.919	355.38
317.148	350.38
317.377	363.38
317.607	364.38
317.836	341.38
318.065	358.38
318.295	348.38
318.524	337.38
318.753	355.38
318.983	375.38
319.212	365.38
319.441	355.38
319.67	345.38
319.9	356.38
320.129	360.38
320.358	360.38
320.587	378.38
320.816	381.38
321.046	377.38
321.275	384.38
321.504	372.38
321.733	382.38
321.962	387.38
322.191	380.38
322.42	392.38
322.649	397.38
322.878	421.38
323.108	416.38
323.337	429.38
323.566	458.38
323.795	467.38
324.024	488.38
324.253	572.38
324.482	793.38
324.71	1266.38
324.939	1868.38
325.168	1608.38
325.397	806.38
325.626	556.38
325.855	484.38
326.084	467.38
326.313	446.38
326.542	448.38
326.77	476.38
326.999	565.38
327.228	749.38
327.457	1127.38
327.686	1423.38
327.914	919.38
328.143	591.38
328.372	554.38
328.6	525.38
328.829	501.38
329.058	513.38
329.287	504.38
329.515	476.38
329.744	448.38
329.972	454.38
330.201	485.38
330.43	512.38
330.658	496.38
330.887	530.38
331.115	533.38
331.344	449.38
331.572	460.38
331.801	465.38
332.03	469.38
332.258	423.38
332.486	433.38
332.715	413.38
332.943	451.38
333.172	452.38
333.4	418.38
333.629	457.38
333.857	455.38
334.085	454.38
334.314	482.38
334.542	480.38
334.771	493.38
334.999	473.38
335.227	441.38
335.455	450.38
335.684	445.38
335.912	426.38
336.14	451.38
336.369	435.38
336.597	451.38
336.825	431.38
337.053	407.38
337.281	400.38
337.51	424.38
337.738	424.38
337.966	388.38
338.194	416.38
338.422	419.38
338.65	409.38
338.878	398.38
339.106	398.38
339.334	420.38
339.562	415.38
339.79	398.38
340.018	420.38
340.246	420.38
340.474	406.38
340.702	417.38
340.93	409.38
341.158	400.38
341.386	421.38
341.614	412.38
341.842	413.38
342.07	429.38
342.298	420.38
342.526	410.38
342.754	390.38
342.981	414.38
343.209	404.38
343.437	412.38
343.665	418.38
343.893	454.38
344.12	439.38
344.348	418.38
344.576	417.38
344.804	424.38
345.031	413.38
345.259	427.38
345.487	433.38
345.714	421.38
345.942	409.38
346.17	384.38
346.397	391.38
346.625	379.38
346.853	387.38
347.08	403.38
347.308	404.38
347.535	382.38
347.763	402.38
347.99	386.38
348.218	400.38
348.445	406.38
348.673	413.38
348.9	396.38
349.128	394.38
349.355	387.38
349.583	382.38
349.81	386.38
350.037	401.38
350.265	407.38
350.492	379.38
350.72	396.38
350.947	396.38
351.174	410.38
351.402	401.38
351.629	403.38
351.856	398.38
352.083	395.38
352.311	411.38
352.538	401.38
352.765	395.38
352.992	384.38
353.22	397.38
353.447	403.38
353.674	380.38
353.901	396.38
354.128	367.38
354.355	361.38
354.583	374.38
354.81	388.38
355.037	388.38
355.264	373.38
355.491	395.38
355.718	371.38
355.945	379.38
356.172	362.38
356.399	387.38
356.626	368.38
356.853	360.38
357.08	365.38
357.307	364.38
357.534	393.38
357.761	383.38
357.988	371.38
358.215	399.38
358.441	363.38
358.668	367.38
358.895	385.38
359.122	387.38
359.349	392.38
359.576	387.38
359.802	409.38
360.029	435.38
360.256	450.38
360.483	435.38
360.709	419.38
360.936	398.38
361.163	379.38
361.39	421.38
361.616	395.38
361.843	419.38
362.07	407.38
362.296	401.38
362.523	391.38
362.749	407.38
362.976	416.38
363.203	409.38
363.429	386.38
363.656	387.38
363.882	364.38
364.109	389.38
364.335	389.38
364.562	384.38
364.788	380.38
365.015	410.38
365.241	388.38
365.468	386.38
365.694	386.38
365.92	404.38
366.147	387.38
366.373	392.38
366.599	412.38
366.826	383.38
367.052	395.38
367.278	403.38
367.505	383.38
367.731	382.38
367.957	390.38
368.184	383.38
368.41	390.38
368.636	393.38
368.862	426.38
369.089	381.38
369.315	375.38
369.541	389.38
369.767	360.38
369.993	399.38
370.219	403.38
370.445	407.38
370.672	391.38
370.898	401.38
371.124	400.38
371.35	387.38
371.576	405.38
371.802	387.38
372.028	388.38
372.254	389.38
372.48	417.38
372.706	407.38
372.932	395.38
373.158	405.38
373.384	389.38
373.61	410.38
373.835	384.38
374.061	399.38
374.287	399.38
374.513	407.38
374.739	409.38
374.965	419.38
375.191	396.38
375.416	430.38
375.642	409.38
375.868	411.38
376.094	408.38
376.319	398.38
376.545	399.38
376.771	389.38
376.997	410.38
377.222	395.38
377.448	386.38
377.674	386.38
377.899	380.38
378.125	392.38
378.35	404.38
378.576	379.38
378.802	395.38
379.027	389.38
379.253	389.38
379.478	393.38
379.704	393.38
379.929	415.38
380.155	408.38
380.38	390.38
380.606	407.38
380.831	415.38
381.057	398.38
381.282	395.38
381.507	397.38
381.733	392.38
381.958	395.38
382.184	421.38
382.409	403.38
382.634	412.38
382.86	395.38
383.085	409.38
383.31	419.38
383.535	432.38
383.761	405.38
383.986	406.38
384.211	429.38
384.436	439.38
384.662	425.38
384.887	452.38
385.112	429.38
385.337	426.38
385.562	453.38
385.787	456.38
386.013	459.38
386.238	445.38
386.463	447.38
386.688	445.38
386.913	442.38
387.138	469.38
387.363	445.38
387.588	450.38
387.813	419.38
388.038	423.38
388.263	450.38
388.488	441.38
388.713	455.38
388.938	433.38
389.163	459.38
389.387	458.38
389.612	440.38
389.837	423.38
390.062	437.38
390.287	432.38
390.512	440.38
390.736	430.38
390.961	445.38
391.186	455.38
391.411	445.38
391.636	462.38
391.86	448.38
392.085	457.38
392.31	476.38
392.534	476.38
392.759	472.38
392.984	443.38
393.208	467.38
393.433	464.38
393.658	501.38
393.882	456.38
394.107	460.38
394.331	461.38
394.556	447.38
394.78	476.38
395.005	469.38
395.229	472.38
395.454	478.38
395.678	474.38
395.903	494.38
396.127	493.38
396.352	512.38
396.576	488.38
396.801	474.38
397.025	486.38
397.249	484.38
397.474	484.38
397.698	502.38
397.922	503.38
398.147	518.38
398.371	515.38
398.595	513.38
398.82	529.38
399.044	553.38
399.268	547.38
399.492	600.38
399.717	615.38
399.941	638.38
400.165	663.38
400.389	663.38
400.613	594.38
400.837	574.38
401.062	551.38
401.286	536.38
401.51	527.38
401.734	521.38
401.958	552.38
402.182	544.38
402.406	545.38
402.63	545.38
402.854	546.38
403.078	537.38
403.302	559.38
403.526	563.38
403.75	566.38
403.974	539.38
404.198	572.38
404.422	542.38
404.645	558.38
404.869	537.38
405.093	581.38
405.317	613.38
405.541	666.38
405.765	632.38
405.988	554.38
406.212	587.38
406.436	594.38
406.66	599.38
406.883	595.38
407.107	616.38
407.331	647.38
407.555	703.38
407.778	731.38
408.002	664.38
408.226	630.38
408.449	638.38
408.673	612.38
408.896	631.38
409.12	678.38
409.344	634.38
409.567	575.38
409.791	577.38
410.014	550.38
410.238	549.38
410.461	567.38
410.685	545.38
410.908	567.38
411.132	589.38
411.355	619.38
411.578	615.38
411.802	561.38
412.025	555.38
412.249	558.38
412.472	597.38
412.695	634.38
412.919	599.38
413.142	590.38
413.365	550.38
413.589	549.38
413.812	548.38
414.035	552.38
414.258	543.38
414.482	528.38
414.705	530.38
414.928	520.38
415.151	522.38
415.374	510.38
415.597	529.38
415.821	505.38
416.044	520.38
416.267	529.38
416.49	519.38
416.713	535.38
416.936	561.38
417.159	514.38
417.382	513.38
417.605	504.38
417.828	540.38
418.051	551.38
418.274	531.38
418.497	513.38
418.72	524.38
418.943	523.38
419.166	562.38
419.389	580.38
419.611	570.38
419.834	570.38
420.057	566.38
420.28	566.38
420.503	541.38
420.726	536.38
420.948	555.38
421.171	569.38
421.394	633.38
421.617	578.38
421.839	558.38
422.062	540.38
422.285	549.38
422.507	606.38
422.73	685.38
422.953	641.38
423.175	576.38
423.398	564.38
423.621	565.38
423.843	603.38
424.066	583.38
424.288	577.38
424.511	599.38
424.733	629.38
424.956	705.38
425.178	688.38
425.401	671.38
425.623	687.38
425.846	617.38
426.068	577.38
426.291	580.38
426.513	585.38
426.735	548.38
426.958	601.38
427.18	659.38
427.402	799.38
427.625	865.38
427.847	760.38
428.069	674.38
428.292	618.38
428.514	570.38
428.736	552.38
428.958	553.38
429.181	542.38
429.403	514.38
429.625	527.38
429.847	538.38
430.069	630.38
430.292	610.38
430.514	540.38
430.736	549.38
430.958	515.38
431.18	516.38
431.402	492.38
431.624	486.38
431.846	504.38
432.068	515.38
432.29	513.38
432.512	519.38
432.734	517.38
432.956	515.38
433.178	511.38
433.4	517.38
433.622	540.38
433.844	515.38
434.066	523.38
434.287	519.38
434.509	500.38
434.731	523.38
434.953	531.38
435.175	562.38
435.397	588.38
435.618	600.38
435.84	597.38
436.062	720.38
436.284	748.38
436.505	617.38
436.727	597.38
436.949	557.38
437.17	559.38
437.392	558.38
437.614	560.38
437.835	565.38
438.057	639.38
438.278	721.38
438.5	727.38
438.721	785.38
438.943	742.38
439.165	625.38
439.386	582.38
439.608	569.38
439.829	565.38
440.05	610.38
440.272	633.38
440.493	613.38
440.715	571.38
440.936	555.38
441.158	549.38
441.379	538.38
441.6	539.38
441.822	582.38
442.043	600.38
442.264	664.38
442.486	715.38
442.707	608.38
442.928	560.38
443.149	614.38
443.371	607.38
443.592	660.38
443.813	735.38
444.034	782.38
444.255	643.38
444.476	611.38
444.698	614.38
444.919	612.38
445.14	715.38
445.361	643.38
445.582	607.38
445.803	693.38
446.024	748.38
446.245	773.38
446.466	679.38
446.687	595.38
446.908	567.38
447.129	552.38
447.35	560.38
447.571	538.38
447.792	526.38
448.013	531.38
448.234	527.38
448.455	596.38
448.675	677.38
448.896	786.38
449.117	659.38
449.338	648.38
449.559	717.38
449.779	800.38
450	641.38
450.221	583.38
450.442	515.38
450.662	530.38
450.883	531.38
451.104	526.38
451.324	524.38
451.545	517.38
451.766	515.38
451.986	494.38
452.207	469.38
452.428	460.38
452.648	481.38
452.869	479.38
453.089	492.38
453.31	482.38
453.53	487.38
453.751	469.38
453.971	477.38
454.192	476.38
454.412	486.38
454.633	448.38
454.853	460.38
455.073	465.38
455.294	485.38
455.514	556.38
455.734	536.38
455.955	498.38
456.175	449.38
456.395	455.38
456.616	448.38
456.836	449.38
457.056	457.38
457.276	461.38
457.497	447.38
457.717	463.38
457.937	460.38
458.157	461.38
458.377	473.38
458.598	485.38
458.818	541.38
459.038	570.38
459.258	637.38
459.478	535.38
459.698	524.38
459.918	517.38
460.138	539.38
460.358	519.38
460.578	525.38
460.798	529.38
461.018	560.38
461.238	569.38
461.458	537.38
461.678	533.38
461.898	547.38
462.118	558.38
462.338	560.38
462.558	559.38
462.777	556.38
462.997	593.38
463.217	621.38
463.437	618.38
463.657	603.38
463.876	589.38
464.096	591.38
464.316	611.38
464.536	600.38
464.755	591.38
464.975	575.38
465.195	613.38
465.414	653.38
465.634	597.38
465.854	543.38
466.073	533.38
466.293	518.38
466.512	505.38
466.732	510.38
466.951	501.38
467.171	486.38
467.391	517.38
467.61	512.38
467.829	520.38
468.049	501.38
468.268	515.38
468.488	483.38
468.707	496.38
468.927	480.38
469.146	489.38
469.365	478.38
469.585	471.38
469.804	533.38
470.023	503.38
470.243	487.38
470.462	487.38
470.681	528.38
470.901	544.38
471.12	528.38
471.339	501.38
471.558	512.38
471.777	488.38
471.997	524.38
472.216	525.38
472.435	539.38
472.654	530.38
472.873	512.38
473.092	492.38
473.311	483.38
473.53	500.38
473.749	504.38
473.968	528.38
474.187	630.38
474.406	641.38
474.625	537.38
474.844	510.38
475.063	523.38
475.282	502.38
475.501	489.38
475.72	493.38
475.939	505.38
476.158	517.38
476.377	520.38
476.596	525.38
476.814	518.38
477.033	531.38
477.252	539.38
477.471	547.38
477.69	544.38
477.908	556.38
478.127	545.38
478.346	551.38
478.564	544.38
478.783	557.38
479.002	590.38
479.22	583.38
479.439	596.38
479.658	623.38
479.876	604.38
480.095	588.38
480.313	622.38
480.532	640.38
480.751	621.38
480.969	625.38
481.188	673.38
481.406	684.38
481.624	643.38
481.843	595.38
482.061	609.38
482.28	601.38
482.498	567.38
482.717	589.38
482.935	594.38
483.153	579.38
483.372	572.38
483.59	568.38
483.808	584.38
484.027	570.38
484.245	603.38
484.463	599.38
484.681	616.38
484.9	599.38
485.118	591.38
485.336	595.38
485.554	598.38
485.772	607.38
485.99	600.38
486.209	621.38
486.427	621.38
486.645	648.38
486.863	601.38
487.081	605.38
487.299	602.38
487.517	630.38
487.735	629.38
487.953	608.38
488.171	638.38
488.389	621.38
488.607	645.38
488.825	637.38
489.043	604.38
489.261	629.38
489.479	627.38
489.696	621.38
489.914	657.38
490.132	632.38
490.35	627.38
490.568	654.38
490.786	656.38
491.003	662.38
491.221	685.38
491.439	674.38
491.657	682.38
491.874	689.38
492.092	704.38
492.31	687.38
492.527	693.38
492.745	709.38
492.963	725.38
493.18	717.38
493.398	732.38
493.615	730.38
493.833	725.38
494.05	735.38
494.268	716.38
494.485	703.38
494.703	742.38
494.92	715.38
495.138	727.38
495.355	728.38
495.573	729.38
495.79	716.38
496.008	733.38
496.225	732.38
496.442	739.38
496.66	745.38
496.877	761.38
497.094	787.38
497.312	749.38
497.529	767.38
497.746	803.38
497.963	799.38
498.181	828.38
498.398	835.38
498.615	850.38
498.832	880.38
499.049	872.38
499.267	910.38
499.484	957.38
499.701	1005.38
499.918	1033.38
500.135	1106.38
500.352	1129.38
500.569	1166.38
500.786	1179.38
501.003	1171.38
501.22	1085.38
501.437	1052.38
501.654	1007.38
501.871	974.38
