Data from 1979.PennyLincolnUp.Lamp.En5.5.200Scan.071719.P1_HRD10591_16-17-58-864.txt Node
Date: Thu Jul 18 16:17:58 EDT 2019
User: cochatt
Spectrometer: HR+D1059
Trigger mode: 1
Integration Time (sec): 1.000000E-1
Scans to average: 1
Electric dark correction enabled: true
Nonlinearity correction enabled: false
Boxcar width: 0
XAxis mode: Wavelengths
Number of Pixels in Spectrum: 2048
>>>>>Begin Spectral Data<<<<<
223.165	-0.69
223.4	-0.69
223.635	-0.69
223.869	-13.69
224.104	-19.69
224.338	-23.69
224.573	-12.69
224.808	-0.69
225.042	7.31
225.277	-5.69
225.511	-2.69
225.746	1.31
225.98	8.31
226.215	18.31
226.449	-1.69
226.683	9.31
226.918	13.31
227.152	23.31
227.387	37.31
227.621	27.31
227.856	55.31
228.09	70.31
228.324	44.31
228.559	53.31
228.793	48.31
229.027	86.31
229.262	96.31
229.496	107.31
229.73	110.31
229.964	137.31
230.199	113.31
230.433	99.31
230.667	122.31
230.901	117.31
231.136	91.31
231.37	101.31
231.604	109.31
231.838	118.31
232.072	117.31
232.306	121.31
232.541	90.31
232.775	97.31
233.009	94.31
233.243	107.31
233.477	105.31
233.711	109.31
233.945	109.31
234.179	121.31
234.413	129.31
234.647	114.31
234.881	107.31
235.115	129.31
235.349	116.31
235.583	111.31
235.817	122.31
236.051	110.31
236.285	125.31
236.519	109.31
236.753	121.31
236.987	131.31
237.221	153.31
237.455	181.31
237.689	165.31
237.922	136.31
238.156	116.31
238.39	122.31
238.624	105.31
238.858	115.31
239.091	120.31
239.325	122.31
239.559	127.31
239.793	115.31
240.027	123.31
240.26	142.31
240.494	151.31
240.728	131.31
240.961	140.31
241.195	126.31
241.429	128.31
241.662	106.31
241.896	117.31
242.13	131.31
242.363	125.31
242.597	134.31
242.83	131.31
243.064	129.31
243.298	133.31
243.531	142.31
243.765	135.31
243.998	140.31
244.232	131.31
244.465	133.31
244.699	129.31
244.932	125.31
245.166	133.31
245.399	132.31
245.633	126.31
245.866	132.31
246.099	151.31
246.333	134.31
246.566	146.31
246.8	147.31
247.033	150.31
247.266	139.31
247.5	143.31
247.733	143.31
247.966	152.31
248.2	175.31
248.433	157.31
248.666	159.31
248.899	165.31
249.133	172.31
249.366	196.31
249.599	192.31
249.832	159.31
250.066	184.31
250.299	161.31
250.532	175.31
250.765	178.31
250.998	183.31
251.231	188.31
251.465	181.31
251.698	194.31
251.931	180.31
252.164	185.31
252.397	183.31
252.63	186.31
252.863	178.31
253.096	189.31
253.329	195.31
253.562	193.31
253.795	185.31
254.028	191.31
254.261	187.31
254.494	201.31
254.727	216.31
254.96	247.31
255.193	225.31
255.426	199.31
255.659	180.31
255.892	185.31
256.124	203.31
256.357	197.31
256.59	204.31
256.823	180.31
257.056	195.31
257.289	199.31
257.521	189.31
257.754	187.31
257.987	190.31
258.22	179.31
258.452	195.31
258.685	171.31
258.918	204.31
259.151	186.31
259.383	202.31
259.616	193.31
259.849	194.31
260.081	207.31
260.314	223.31
260.547	217.31
260.779	210.31
261.012	201.31
261.244	212.31
261.477	203.31
261.71	199.31
261.942	211.31
262.175	203.31
262.407	222.31
262.64	200.31
262.872	194.31
263.105	181.31
263.337	187.31
263.57	200.31
263.802	203.31
264.035	207.31
264.267	197.31
264.499	202.31
264.732	202.31
264.964	211.31
265.197	190.31
265.429	195.31
265.661	202.31
265.894	174.31
266.126	204.31
266.358	218.31
266.591	197.31
266.823	213.31
267.055	211.31
267.287	212.31
267.52	206.31
267.752	198.31
267.984	205.31
268.216	209.31
268.448	210.31
268.681	201.31
268.913	222.31
269.145	235.31
269.377	225.31
269.609	227.31
269.841	232.31
270.073	234.31
270.306	239.31
270.538	249.31
270.77	259.31
271.002	258.31
271.234	249.31
271.466	255.31
271.698	267.31
271.93	261.31
272.162	257.31
272.394	273.31
272.626	242.31
272.858	237.31
273.09	255.31
273.322	235.31
273.553	237.31
273.785	235.31
274.017	232.31
274.249	218.31
274.481	243.31
274.713	245.31
274.945	257.31
275.176	246.31
275.408	245.31
275.64	241.31
275.872	230.31
276.104	221.31
276.335	254.31
276.567	249.31
276.799	257.31
277.031	263.31
277.262	268.31
277.494	291.31
277.726	277.31
277.957	242.31
278.189	258.31
278.421	241.31
278.652	245.31
278.884	229.31
279.115	248.31
279.347	257.31
279.579	262.31
279.81	232.31
280.042	262.31
280.273	257.31
280.505	230.31
280.736	222.31
280.968	242.31
281.199	233.31
281.431	249.31
281.662	245.31
281.894	254.31
282.125	244.31
282.356	257.31
282.588	261.31
282.819	279.31
283.051	236.31
283.282	241.31
283.513	257.31
283.745	250.31
283.976	257.31
284.207	245.31
284.439	251.31
284.67	247.31
284.901	263.31
285.132	269.31
285.364	256.31
285.595	265.31
285.826	258.31
286.057	261.31
286.288	277.31
286.52	265.31
286.751	249.31
286.982	252.31
287.213	264.31
287.444	269.31
287.675	268.31
287.906	284.31
288.138	279.31
288.369	283.31
288.6	278.31
288.831	269.31
289.062	268.31
289.293	287.31
289.524	300.31
289.755	277.31
289.986	266.31
290.217	285.31
290.448	265.31
290.679	275.31
290.91	275.31
291.141	252.31
291.371	261.31
291.602	275.31
291.833	293.31
292.064	286.31
292.295	282.31
292.526	274.31
292.757	277.31
292.987	283.31
293.218	271.31
293.449	275.31
293.68	275.31
293.91	281.31
294.141	276.31
294.372	253.31
294.603	271.31
294.833	288.31
295.064	269.31
295.295	276.31
295.525	277.31
295.756	276.31
295.987	283.31
296.217	293.31
296.448	302.31
296.679	293.31
296.909	294.31
297.14	298.31
297.37	288.31
297.601	293.31
297.831	283.31
298.062	291.31
298.292	271.31
298.523	294.31
298.753	285.31
298.984	294.31
299.214	283.31
299.445	293.31
299.675	305.31
299.905	306.31
300.136	292.31
300.366	298.31
300.597	300.31
300.827	285.31
301.057	297.31
301.288	297.31
301.518	294.31
301.748	293.31
301.979	293.31
302.209	290.31
302.439	317.31
302.669	312.31
302.9	309.31
303.13	303.31
303.36	309.31
303.59	320.31
303.82	305.31
304.051	307.31
304.281	302.31
304.511	321.31
304.741	307.31
304.971	305.31
305.201	302.31
305.431	317.31
305.661	300.31
305.891	312.31
306.121	296.31
306.352	331.31
306.582	312.31
306.812	294.31
307.042	312.31
307.272	315.31
307.502	291.31
307.731	310.31
307.961	313.31
308.191	311.31
308.421	300.31
308.651	324.31
308.881	318.31
309.111	317.31
309.341	329.31
309.571	330.31
309.8	326.31
310.03	347.31
310.26	333.31
310.49	329.31
310.72	343.31
310.949	342.31
311.179	350.31
311.409	339.31
311.639	354.31
311.868	342.31
312.098	351.31
312.328	363.31
312.557	357.31
312.787	372.31
313.017	366.31
313.246	337.31
313.476	337.31
313.706	347.31
313.935	352.31
314.165	354.31
314.394	360.31
314.624	363.31
314.853	343.31
315.083	338.31
315.312	348.31
315.542	347.31
315.771	348.31
316.001	335.31
316.23	357.31
316.46	357.31
316.689	362.31
316.919	360.31
317.148	351.31
317.377	374.31
317.607	332.31
317.836	366.31
318.065	350.31
318.295	344.31
318.524	350.31
318.753	364.31
318.983	349.31
319.212	350.31
319.441	351.31
319.67	357.31
319.9	348.31
320.129	349.31
320.358	351.31
320.587	356.31
320.816	358.31
321.046	362.31
321.275	354.31
321.504	381.31
321.733	365.31
321.962	372.31
322.191	384.31
322.42	376.31
322.649	385.31
322.878	397.31
323.108	392.31
323.337	412.31
323.566	435.31
323.795	447.31
324.024	494.31
324.253	542.31
324.482	765.31
324.71	1167.31
324.939	1742.31
325.168	1464.31
325.397	769.31
325.626	545.31
325.855	478.31
326.084	436.31
326.313	427.31
326.542	439.31
326.77	459.31
326.999	553.31
327.228	722.31
327.457	1077.31
327.686	1321.31
327.914	873.31
328.143	582.31
328.372	536.31
328.6	486.31
328.829	470.31
329.058	504.31
329.287	479.31
329.515	482.31
329.744	447.31
329.972	441.31
330.201	467.31
330.43	497.31
330.658	492.31
330.887	533.31
331.115	498.31
331.344	453.31
331.572	426.31
331.801	437.31
332.03	431.31
332.258	429.31
332.486	435.31
332.715	421.31
332.943	435.31
333.172	441.31
333.4	445.31
333.629	474.31
333.857	436.31
334.085	462.31
334.314	462.31
334.542	463.31
334.771	500.31
334.999	469.31
335.227	436.31
335.455	421.31
335.684	435.31
335.912	430.31
336.14	433.31
336.369	427.31
336.597	419.31
336.825	420.31
337.053	423.31
337.281	412.31
337.51	427.31
337.738	415.31
337.966	395.31
338.194	429.31
338.422	407.31
338.65	417.31
338.878	404.31
339.106	399.31
339.334	404.31
339.562	422.31
339.79	402.31
340.018	402.31
340.246	384.31
340.474	398.31
340.702	418.31
340.93	393.31
341.158	411.31
341.386	419.31
341.614	403.31
341.842	397.31
342.07	404.31
342.298	408.31
342.526	403.31
342.754	391.31
342.981	386.31
343.209	382.31
343.437	399.31
343.665	396.31
343.893	426.31
344.12	407.31
344.348	422.31
344.576	425.31
344.804	427.31
345.031	404.31
345.259	425.31
345.487	413.31
345.714	390.31
345.942	445.31
346.17	399.31
346.397	359.31
346.625	374.31
346.853	387.31
347.08	383.31
347.308	397.31
347.535	408.31
347.763	397.31
347.99	402.31
348.218	391.31
348.445	412.31
348.673	414.31
348.9	396.31
349.128	389.31
349.355	397.31
349.583	388.31
349.81	397.31
350.037	390.31
350.265	394.31
350.492	395.31
350.72	387.31
350.947	405.31
351.174	396.31
351.402	391.31
351.629	403.31
351.856	425.31
352.083	398.31
352.311	408.31
352.538	404.31
352.765	408.31
352.992	385.31
353.22	377.31
353.447	374.31
353.674	403.31
353.901	379.31
354.128	362.31
354.355	367.31
354.583	388.31
354.81	377.31
355.037	392.31
355.264	380.31
355.491	374.31
355.718	373.31
355.945	387.31
356.172	372.31
356.399	385.31
356.626	381.31
356.853	387.31
357.08	388.31
357.307	372.31
357.534	374.31
357.761	376.31
357.988	377.31
358.215	374.31
358.441	384.31
358.668	374.31
358.895	389.31
359.122	378.31
359.349	415.31
359.576	407.31
359.802	408.31
360.029	431.31
360.256	435.31
360.483	431.31
360.709	400.31
360.936	398.31
361.163	384.31
361.39	402.31
361.616	398.31
361.843	410.31
362.07	397.31
362.296	395.31
362.523	378.31
362.749	390.31
362.976	382.31
363.203	381.31
363.429	390.31
363.656	379.31
363.882	377.31
364.109	395.31
364.335	394.31
364.562	369.31
364.788	387.31
365.015	379.31
365.241	383.31
365.468	381.31
365.694	398.31
365.92	379.31
366.147	373.31
366.373	386.31
366.599	390.31
366.826	390.31
367.052	362.31
367.278	379.31
367.505	409.31
367.731	375.31
367.957	397.31
368.184	399.31
368.41	390.31
368.636	397.31
368.862	412.31
369.089	390.31
369.315	396.31
369.541	384.31
369.767	381.31
369.993	393.31
370.219	393.31
370.445	394.31
370.672	404.31
370.898	398.31
371.124	406.31
371.35	387.31
371.576	406.31
371.802	385.31
372.028	390.31
372.254	369.31
372.48	396.31
372.706	420.31
372.932	426.31
373.158	388.31
373.384	413.31
373.61	394.31
373.835	396.31
374.061	376.31
374.287	403.31
374.513	395.31
374.739	408.31
374.965	409.31
375.191	439.31
375.416	415.31
375.642	406.31
375.868	413.31
376.094	432.31
376.319	407.31
376.545	399.31
376.771	422.31
376.997	403.31
377.222	408.31
377.448	385.31
377.674	397.31
377.899	396.31
378.125	394.31
378.35	414.31
378.576	411.31
378.802	387.31
379.027	400.31
379.253	394.31
379.478	405.31
379.704	383.31
379.929	423.31
380.155	396.31
380.38	404.31
380.606	408.31
380.831	394.31
381.057	419.31
381.282	421.31
381.507	399.31
381.733	409.31
381.958	421.31
382.184	421.31
382.409	409.31
382.634	400.31
382.86	407.31
383.085	411.31
383.31	420.31
383.535	429.31
383.761	420.31
383.986	428.31
384.211	419.31
384.436	437.31
384.662	429.31
384.887	426.31
385.112	429.31
385.337	463.31
385.562	436.31
385.787	450.31
386.013	460.31
386.238	448.31
386.463	454.31
386.688	441.31
386.913	440.31
387.138	441.31
387.363	450.31
387.588	463.31
387.813	453.31
388.038	455.31
388.263	453.31
388.488	449.31
388.713	451.31
388.938	438.31
389.163	460.31
389.387	453.31
389.612	422.31
389.837	443.31
390.062	451.31
390.287	428.31
390.512	431.31
390.736	430.31
390.961	468.31
391.186	456.31
391.411	446.31
391.636	459.31
391.86	477.31
392.085	484.31
392.31	474.31
392.534	470.31
392.759	490.31
392.984	472.31
393.208	477.31
393.433	503.31
393.658	456.31
393.882	465.31
394.107	459.31
394.331	468.31
394.556	464.31
394.78	463.31
395.005	466.31
395.229	443.31
395.454	497.31
395.678	502.31
395.903	514.31
396.127	512.31
396.352	506.31
396.576	480.31
396.801	492.31
397.025	501.31
397.249	493.31
397.474	482.31
397.698	497.31
397.922	509.31
398.147	502.31
398.371	523.31
398.595	509.31
398.82	529.31
399.044	535.31
399.268	557.31
399.492	547.31
399.717	618.31
399.941	672.31
400.165	654.31
400.389	657.31
400.613	599.31
400.837	566.31
401.062	566.31
401.286	543.31
401.51	550.31
401.734	515.31
401.958	525.31
402.182	526.31
402.406	532.31
402.63	555.31
402.854	564.31
403.078	540.31
403.302	535.31
403.526	544.31
403.75	553.31
403.974	566.31
404.198	547.31
404.422	557.31
404.645	565.31
404.869	563.31
405.093	588.31
405.317	610.31
405.541	663.31
405.765	615.31
405.988	575.31
406.212	615.31
406.436	599.31
406.66	587.31
406.883	617.31
407.107	645.31
407.331	673.31
407.555	703.31
407.778	742.31
408.002	676.31
408.226	631.31
408.449	595.31
408.673	601.31
408.896	615.31
409.12	656.31
409.344	629.31
409.567	582.31
409.791	580.31
410.014	565.31
410.238	549.31
410.461	566.31
410.685	564.31
410.908	584.31
411.132	605.31
411.355	613.31
411.578	616.31
411.802	583.31
412.025	565.31
412.249	578.31
412.472	594.31
412.695	609.31
412.919	611.31
413.142	565.31
413.365	550.31
413.589	548.31
413.812	535.31
414.035	517.31
414.258	538.31
414.482	548.31
414.705	526.31
414.928	519.31
415.151	505.31
415.374	522.31
415.597	525.31
415.821	514.31
416.044	513.31
416.267	545.31
416.49	520.31
416.713	532.31
416.936	538.31
417.159	527.31
417.382	506.31
417.605	529.31
417.828	562.31
418.051	543.31
418.274	551.31
418.497	524.31
418.72	529.31
418.943	526.31
419.166	556.31
419.389	588.31
419.611	574.31
419.834	549.31
420.057	557.31
420.28	555.31
420.503	557.31
420.726	550.31
420.948	553.31
421.171	577.31
421.394	606.31
421.617	557.31
421.839	539.31
422.062	546.31
422.285	566.31
422.507	597.31
422.73	672.31
422.953	646.31
423.175	598.31
423.398	557.31
423.621	567.31
423.843	583.31
424.066	595.31
424.288	586.31
424.511	611.31
424.733	637.31
424.956	719.31
425.178	656.31
425.401	676.31
425.623	698.31
425.846	585.31
426.068	567.31
426.291	566.31
426.513	569.31
426.735	569.31
426.958	601.31
427.18	685.31
427.402	808.31
427.625	845.31
427.847	754.31
428.069	662.31
428.292	591.31
428.514	552.31
428.736	555.31
428.958	550.31
429.181	533.31
429.403	524.31
429.625	536.31
429.847	564.31
430.069	609.31
430.292	601.31
430.514	535.31
430.736	541.31
430.958	539.31
431.18	549.31
431.402	522.31
431.624	504.31
431.846	515.31
432.068	499.31
432.29	510.31
432.512	530.31
432.734	507.31
432.956	506.31
433.178	526.31
433.4	533.31
433.622	528.31
433.844	503.31
434.066	499.31
434.287	510.31
434.509	525.31
434.731	529.31
434.953	530.31
435.175	532.31
435.397	567.31
435.618	559.31
435.84	607.31
436.062	662.31
436.284	735.31
436.505	633.31
436.727	578.31
436.949	553.31
437.17	519.31
437.392	542.31
437.614	533.31
437.835	566.31
438.057	626.31
438.278	712.31
438.5	701.31
438.721	790.31
438.943	766.31
439.165	621.31
439.386	569.31
439.608	579.31
439.829	592.31
440.05	581.31
440.272	625.31
440.493	592.31
440.715	570.31
440.936	541.31
441.158	533.31
441.379	545.31
441.6	541.31
441.822	545.31
442.043	601.31
442.264	672.31
442.486	691.31
442.707	621.31
442.928	576.31
443.149	580.31
443.371	572.31
443.592	647.31
443.813	699.31
444.034	760.31
444.255	669.31
444.476	599.31
444.698	593.31
444.919	584.31
445.14	701.31
445.361	653.31
445.582	628.31
445.803	677.31
446.024	730.31
446.245	759.31
446.466	674.31
446.687	568.31
446.908	555.31
447.129	545.31
447.35	535.31
447.571	526.31
447.792	502.31
448.013	493.31
448.234	517.31
448.455	577.31
448.675	673.31
448.896	774.31
449.117	657.31
449.338	600.31
449.559	717.31
449.779	787.31
450	641.31
450.221	561.31
450.442	515.31
450.662	526.31
450.883	509.31
451.104	518.31
451.324	499.31
451.545	512.31
451.766	479.31
451.986	475.31
452.207	462.31
452.428	482.31
452.648	476.31
452.869	472.31
453.089	500.31
453.31	484.31
453.53	463.31
453.751	467.31
453.971	456.31
454.192	498.31
454.412	486.31
454.633	455.31
454.853	452.31
455.073	461.31
455.294	486.31
455.514	523.31
455.734	514.31
455.955	457.31
456.175	471.31
456.395	461.31
456.616	468.31
456.836	456.31
457.056	454.31
457.276	455.31
457.497	464.31
457.717	456.31
457.937	465.31
458.157	458.31
458.377	479.31
458.598	468.31
458.818	559.31
459.038	617.31
459.258	598.31
459.478	565.31
459.698	516.31
459.918	521.31
460.138	514.31
460.358	543.31
460.578	516.31
460.798	517.31
461.018	545.31
461.238	523.31
461.458	553.31
461.678	535.31
461.898	555.31
462.118	546.31
462.338	546.31
462.558	572.31
462.777	573.31
462.997	593.31
463.217	630.31
463.437	609.31
463.657	607.31
463.876	589.31
464.096	605.31
464.316	589.31
464.536	596.31
464.755	576.31
464.975	585.31
465.195	572.31
465.414	636.31
465.634	586.31
465.854	552.31
466.073	533.31
466.293	518.31
466.512	515.31
466.732	498.31
466.951	502.31
467.171	479.31
467.391	506.31
467.61	507.31
467.829	521.31
468.049	521.31
468.268	499.31
468.488	498.31
468.707	479.31
468.927	485.31
469.146	476.31
469.365	474.31
469.585	491.31
469.804	501.31
470.023	506.31
470.243	490.31
470.462	500.31
470.681	517.31
470.901	513.31
471.12	495.31
471.339	495.31
471.558	521.31
471.777	494.31
471.997	484.31
472.216	502.31
472.435	525.31
472.654	528.31
472.873	523.31
473.092	514.31
473.311	490.31
473.53	507.31
473.749	522.31
473.968	539.31
474.187	615.31
474.406	611.31
474.625	535.31
474.844	523.31
475.063	521.31
475.282	520.31
475.501	488.31
475.72	503.31
475.939	501.31
476.158	512.31
476.377	521.31
476.596	518.31
476.814	507.31
477.033	527.31
477.252	534.31
477.471	554.31
477.69	542.31
477.908	553.31
478.127	549.31
478.346	556.31
478.564	558.31
478.783	561.31
479.002	603.31
479.22	591.31
479.439	568.31
479.658	591.31
479.876	614.31
480.095	602.31
480.313	630.31
480.532	626.31
480.751	626.31
480.969	633.31
481.188	677.31
481.406	681.31
481.624	662.31
481.843	632.31
482.061	588.31
482.28	606.31
482.498	591.31
482.717	588.31
482.935	583.31
483.153	578.31
483.372	570.31
483.59	588.31
483.808	589.31
484.027	594.31
484.245	593.31
484.463	594.31
484.681	581.31
484.9	610.31
485.118	625.31
485.336	578.31
485.554	610.31
485.772	588.31
485.99	595.31
486.209	601.31
486.427	600.31
486.645	608.31
486.863	600.31
487.081	630.31
487.299	622.31
487.517	617.31
487.735	597.31
487.953	610.31
488.171	614.31
488.389	611.31
488.607	616.31
488.825	616.31
489.043	626.31
489.261	634.31
489.479	661.31
489.696	643.31
489.914	644.31
490.132	623.31
490.35	640.31
490.568	642.31
490.786	651.31
491.003	643.31
491.221	674.31
491.439	653.31
491.657	709.31
491.874	709.31
492.092	703.31
492.31	705.31
492.527	701.31
492.745	683.31
492.963	723.31
493.18	711.31
493.398	715.31
493.615	685.31
493.833	729.31
494.05	725.31
494.268	722.31
494.485	737.31
494.703	715.31
494.92	709.31
495.138	734.31
495.355	704.31
495.573	701.31
495.79	716.31
496.008	708.31
496.225	742.31
496.442	743.31
496.66	729.31
496.877	737.31
497.094	754.31
497.312	761.31
497.529	773.31
497.746	773.31
497.963	780.31
498.181	796.31
498.398	854.31
498.615	842.31
498.832	873.31
499.049	887.31
499.267	937.31
499.484	965.31
499.701	972.31
499.918	1028.31
500.135	1103.31
500.352	1186.31
500.569	1201.31
500.786	1162.31
501.003	1157.31
501.22	1054.31
501.437	1049.31
501.654	1032.31
501.871	981.31
502.088	967.31
