Data from 1979.PennyLincolnUp.Lamp.En5.5.200Scan.071719.P1_HRD10591_16-19-38-863.txt Node
Date: Thu Jul 18 16:19:38 EDT 2019
User: cochatt
Spectrometer: HR+D1059
Trigger mode: 1
Integration Time (sec): 1.000000E-1
Scans to average: 1
Electric dark correction enabled: true
Nonlinearity correction enabled: false
Boxcar width: 0
XAxis mode: Wavelengths
Number of Pixels in Spectrum: 2048
>>>>>Begin Spectral Data<<<<<
223.165	-12.81
223.4	-12.81
223.635	-12.81
223.869	-11.81
224.104	-21.81
224.338	-12.81
224.573	-12.81
224.808	-1.81
225.042	-11.81
225.277	-10.81
225.511	11.19
225.746	-14.81
225.98	-1.81
226.215	21.19
226.449	10.19
226.683	16.19
226.918	25.19
227.152	29.19
227.387	50.19
227.621	30.19
227.856	41.19
228.09	43.19
228.324	45.19
228.559	61.19
228.793	63.19
229.027	90.19
229.262	93.19
229.496	119.19
229.73	133.19
229.964	135.19
230.199	131.19
230.433	130.19
230.667	115.19
230.901	126.19
231.136	114.19
231.37	116.19
231.604	122.19
231.838	108.19
232.072	120.19
232.306	129.19
232.541	126.19
232.775	113.19
233.009	116.19
233.243	115.19
233.477	118.19
233.711	119.19
233.945	106.19
234.179	101.19
234.413	128.19
234.647	106.19
234.881	120.19
235.115	115.19
235.349	126.19
235.583	111.19
235.817	124.19
236.051	113.19
236.285	115.19
236.519	124.19
236.753	109.19
236.987	145.19
237.221	167.19
237.455	223.19
237.689	179.19
237.922	160.19
238.156	132.19
238.39	132.19
238.624	125.19
238.858	131.19
239.091	120.19
239.325	123.19
239.559	129.19
239.793	117.19
240.027	138.19
240.26	143.19
240.494	156.19
240.728	141.19
240.961	157.19
241.195	137.19
241.429	134.19
241.662	145.19
241.896	127.19
242.13	126.19
242.363	132.19
242.597	140.19
242.83	145.19
243.064	151.19
243.298	138.19
243.531	137.19
243.765	126.19
243.998	142.19
244.232	156.19
244.465	139.19
244.699	151.19
244.932	138.19
245.166	137.19
245.399	149.19
245.633	139.19
245.866	137.19
246.099	145.19
246.333	125.19
246.566	136.19
246.8	143.19
247.033	144.19
247.266	150.19
247.5	147.19
247.733	151.19
247.966	143.19
248.2	168.19
248.433	163.19
248.666	173.19
248.899	175.19
249.133	200.19
249.366	191.19
249.599	193.19
249.832	186.19
250.066	171.19
250.299	156.19
250.532	167.19
250.765	187.19
250.998	205.19
251.231	215.19
251.465	200.19
251.698	194.19
251.931	190.19
252.164	180.19
252.397	187.19
252.63	204.19
252.863	195.19
253.096	199.19
253.329	201.19
253.562	198.19
253.795	196.19
254.028	195.19
254.261	201.19
254.494	210.19
254.727	233.19
254.96	251.19
255.193	252.19
255.426	230.19
255.659	207.19
255.892	223.19
256.124	211.19
256.357	228.19
256.59	218.19
256.823	202.19
257.056	199.19
257.289	190.19
257.521	216.19
257.754	209.19
257.987	213.19
258.22	202.19
258.452	198.19
258.685	205.19
258.918	195.19
259.151	207.19
259.383	201.19
259.616	217.19
259.849	187.19
260.081	202.19
260.314	228.19
260.547	229.19
260.779	210.19
261.012	224.19
261.244	203.19
261.477	214.19
261.71	214.19
261.942	202.19
262.175	230.19
262.407	231.19
262.64	223.19
262.872	210.19
263.105	214.19
263.337	207.19
263.57	219.19
263.802	205.19
264.035	195.19
264.267	212.19
264.499	219.19
264.732	201.19
264.964	209.19
265.197	214.19
265.429	213.19
265.661	218.19
265.894	200.19
266.126	199.19
266.358	204.19
266.591	209.19
266.823	218.19
267.055	213.19
267.287	193.19
267.52	216.19
267.752	197.19
267.984	214.19
268.216	223.19
268.448	222.19
268.681	221.19
268.913	231.19
269.145	251.19
269.377	276.19
269.609	254.19
269.841	265.19
270.073	250.19
270.306	274.19
270.538	287.19
270.77	281.19
271.002	280.19
271.234	270.19
271.466	288.19
271.698	273.19
271.93	294.19
272.162	287.19
272.394	290.19
272.626	272.19
272.858	269.19
273.09	259.19
273.322	260.19
273.553	255.19
273.785	261.19
274.017	262.19
274.249	262.19
274.481	247.19
274.713	247.19
274.945	234.19
275.176	254.19
275.408	283.19
275.64	259.19
275.872	276.19
276.104	246.19
276.335	260.19
276.567	272.19
276.799	253.19
277.031	284.19
277.262	296.19
277.494	313.19
277.726	295.19
277.957	265.19
278.189	278.19
278.421	274.19
278.652	265.19
278.884	265.19
279.115	266.19
279.347	271.19
279.579	260.19
279.81	255.19
280.042	252.19
280.273	262.19
280.505	265.19
280.736	276.19
280.968	253.19
281.199	262.19
281.431	248.19
281.662	266.19
281.894	244.19
282.125	248.19
282.356	277.19
282.588	296.19
282.819	296.19
283.051	257.19
283.282	251.19
283.513	258.19
283.745	266.19
283.976	274.19
284.207	260.19
284.439	276.19
284.67	264.19
284.901	289.19
285.132	280.19
285.364	275.19
285.595	251.19
285.826	273.19
286.057	277.19
286.288	275.19
286.52	264.19
286.751	274.19
286.982	287.19
287.213	273.19
287.444	290.19
287.675	272.19
287.906	278.19
288.138	305.19
288.369	293.19
288.6	300.19
288.831	294.19
289.062	302.19
289.293	291.19
289.524	288.19
289.755	278.19
289.986	276.19
290.217	284.19
290.448	281.19
290.679	296.19
290.91	289.19
291.141	296.19
291.371	285.19
291.602	272.19
291.833	307.19
292.064	277.19
292.295	294.19
292.526	297.19
292.757	287.19
292.987	286.19
293.218	280.19
293.449	302.19
293.68	277.19
293.91	296.19
294.141	270.19
294.372	300.19
294.603	271.19
294.833	279.19
295.064	277.19
295.295	295.19
295.525	288.19
295.756	294.19
295.987	306.19
296.217	321.19
296.448	323.19
296.679	314.19
296.909	313.19
297.14	293.19
297.37	307.19
297.601	298.19
297.831	298.19
298.062	307.19
298.292	294.19
298.523	294.19
298.753	317.19
298.984	310.19
299.214	295.19
299.445	305.19
299.675	300.19
299.905	320.19
300.136	309.19
300.366	319.19
300.597	280.19
300.827	311.19
301.057	330.19
301.288	333.19
301.518	336.19
301.748	335.19
301.979	297.19
302.209	326.19
302.439	322.19
302.669	340.19
302.9	322.19
303.13	345.19
303.36	340.19
303.59	312.19
303.82	338.19
304.051	321.19
304.281	317.19
304.511	324.19
304.741	323.19
304.971	325.19
305.201	322.19
305.431	321.19
305.661	318.19
305.891	323.19
306.121	310.19
306.352	331.19
306.582	350.19
306.812	337.19
307.042	337.19
307.272	306.19
307.502	342.19
307.731	327.19
307.961	337.19
308.191	320.19
308.421	324.19
308.651	339.19
308.881	345.19
309.111	327.19
309.341	343.19
309.571	342.19
309.8	350.19
310.03	370.19
310.26	373.19
310.49	374.19
310.72	374.19
310.949	376.19
311.179	386.19
311.409	364.19
311.639	373.19
311.868	364.19
312.098	377.19
312.328	373.19
312.557	381.19
312.787	390.19
313.017	393.19
313.246	388.19
313.476	382.19
313.706	354.19
313.935	372.19
314.165	395.19
314.394	407.19
314.624	390.19
314.853	403.19
315.083	391.19
315.312	381.19
315.542	362.19
315.771	362.19
316.001	373.19
316.23	391.19
316.46	364.19
316.689	365.19
316.919	375.19
317.148	391.19
317.377	393.19
317.607	367.19
317.836	365.19
318.065	373.19
318.295	371.19
318.524	381.19
318.753	371.19
318.983	364.19
319.212	369.19
319.441	400.19
319.67	379.19
319.9	379.19
320.129	382.19
320.358	371.19
320.587	374.19
320.816	377.19
321.046	385.19
321.275	409.19
321.504	409.19
321.733	406.19
321.962	390.19
322.191	406.19
322.42	397.19
322.649	435.19
322.878	437.19
323.108	453.19
323.337	456.19
323.566	474.19
323.795	486.19
324.024	537.19
324.253	644.19
324.482	903.19
324.71	1432.19
324.939	2170.19
325.168	1866.19
325.397	940.19
325.626	617.19
325.855	523.19
326.084	513.19
326.313	505.19
326.542	500.19
326.77	516.19
326.999	633.19
327.228	844.19
327.457	1317.19
327.686	1591.19
327.914	1042.19
328.143	659.19
328.372	603.19
328.6	564.19
328.829	533.19
329.058	552.19
329.287	546.19
329.515	522.19
329.744	510.19
329.972	487.19
330.201	523.19
330.43	566.19
330.658	557.19
330.887	571.19
331.115	556.19
331.344	533.19
331.572	493.19
331.801	498.19
332.03	487.19
332.258	453.19
332.486	463.19
332.715	434.19
332.943	447.19
333.172	473.19
333.4	472.19
333.629	454.19
333.857	475.19
334.085	482.19
334.314	513.19
334.542	531.19
334.771	544.19
334.999	492.19
335.227	476.19
335.455	454.19
335.684	442.19
335.912	453.19
336.14	463.19
336.369	471.19
336.597	474.19
336.825	439.19
337.053	469.19
337.281	445.19
337.51	442.19
337.738	443.19
337.966	443.19
338.194	445.19
338.422	453.19
338.65	436.19
338.878	445.19
339.106	439.19
339.334	433.19
339.562	415.19
339.79	424.19
340.018	443.19
340.246	439.19
340.474	429.19
340.702	428.19
340.93	441.19
341.158	420.19
341.386	440.19
341.614	429.19
341.842	430.19
342.07	439.19
342.298	425.19
342.526	420.19
342.754	410.19
342.981	414.19
343.209	429.19
343.437	444.19
343.665	435.19
343.893	438.19
344.12	450.19
344.348	455.19
344.576	455.19
344.804	463.19
345.031	419.19
345.259	428.19
345.487	459.19
345.714	427.19
345.942	459.19
346.17	419.19
346.397	409.19
346.625	412.19
346.853	408.19
347.08	410.19
347.308	410.19
347.535	440.19
347.763	427.19
347.99	430.19
348.218	444.19
348.445	457.19
348.673	429.19
348.9	423.19
349.128	414.19
349.355	411.19
349.583	406.19
349.81	403.19
350.037	398.19
350.265	411.19
350.492	402.19
350.72	413.19
350.947	407.19
351.174	426.19
351.402	407.19
351.629	403.19
351.856	418.19
352.083	428.19
352.311	443.19
352.538	437.19
352.765	412.19
352.992	413.19
353.22	420.19
353.447	400.19
353.674	414.19
353.901	413.19
354.128	394.19
354.355	397.19
354.583	404.19
354.81	391.19
355.037	414.19
355.264	408.19
355.491	390.19
355.718	396.19
355.945	378.19
356.172	378.19
356.399	384.19
356.626	386.19
356.853	398.19
357.08	414.19
357.307	392.19
357.534	391.19
357.761	392.19
357.988	394.19
358.215	408.19
358.441	394.19
358.668	393.19
358.895	400.19
359.122	411.19
359.349	420.19
359.576	426.19
359.802	450.19
360.029	441.19
360.256	470.19
360.483	463.19
360.709	424.19
360.936	419.19
361.163	426.19
361.39	437.19
361.616	430.19
361.843	418.19
362.07	416.19
362.296	428.19
362.523	426.19
362.749	405.19
362.976	423.19
363.203	413.19
363.429	394.19
363.656	421.19
363.882	424.19
364.109	410.19
364.335	418.19
364.562	409.19
364.788	407.19
365.015	415.19
365.241	406.19
365.468	393.19
365.694	411.19
365.92	395.19
366.147	399.19
366.373	418.19
366.599	412.19
366.826	397.19
367.052	402.19
367.278	399.19
367.505	415.19
367.731	403.19
367.957	403.19
368.184	407.19
368.41	397.19
368.636	423.19
368.862	428.19
369.089	428.19
369.315	418.19
369.541	406.19
369.767	412.19
369.993	403.19
370.219	420.19
370.445	437.19
370.672	413.19
370.898	419.19
371.124	393.19
371.35	421.19
371.576	413.19
371.802	407.19
372.028	410.19
372.254	400.19
372.48	416.19
372.706	420.19
372.932	436.19
373.158	418.19
373.384	429.19
373.61	418.19
373.835	424.19
374.061	423.19
374.287	427.19
374.513	418.19
374.739	419.19
374.965	417.19
375.191	436.19
375.416	424.19
375.642	437.19
375.868	425.19
376.094	419.19
376.319	409.19
376.545	402.19
376.771	437.19
376.997	410.19
377.222	418.19
377.448	411.19
377.674	406.19
377.899	437.19
378.125	419.19
378.35	398.19
378.576	414.19
378.802	386.19
379.027	392.19
379.253	415.19
379.478	427.19
379.704	435.19
379.929	408.19
380.155	415.19
380.38	427.19
380.606	404.19
380.831	429.19
381.057	421.19
381.282	413.19
381.507	413.19
381.733	441.19
381.958	432.19
382.184	429.19
382.409	414.19
382.634	406.19
382.86	418.19
383.085	418.19
383.31	451.19
383.535	438.19
383.761	447.19
383.986	446.19
384.211	438.19
384.436	444.19
384.662	450.19
384.887	431.19
385.112	444.19
385.337	436.19
385.562	441.19
385.787	470.19
386.013	478.19
386.238	469.19
386.463	468.19
386.688	441.19
386.913	469.19
387.138	471.19
387.363	465.19
387.588	461.19
387.813	490.19
388.038	462.19
388.263	461.19
388.488	473.19
388.713	464.19
388.938	471.19
389.163	447.19
389.387	476.19
389.612	444.19
389.837	463.19
390.062	455.19
390.287	451.19
390.512	486.19
390.736	475.19
390.961	485.19
391.186	476.19
391.411	486.19
391.636	481.19
391.86	481.19
392.085	481.19
392.31	492.19
392.534	487.19
392.759	483.19
392.984	500.19
393.208	482.19
393.433	485.19
393.658	486.19
393.882	468.19
394.107	469.19
394.331	475.19
394.556	483.19
394.78	472.19
395.005	480.19
395.229	484.19
395.454	498.19
395.678	499.19
395.903	515.19
396.127	530.19
396.352	502.19
396.576	486.19
396.801	517.19
397.025	501.19
397.249	501.19
397.474	510.19
397.698	513.19
397.922	500.19
398.147	539.19
398.371	523.19
398.595	512.19
398.82	532.19
399.044	557.19
399.268	576.19
399.492	604.19
399.717	631.19
399.941	683.19
400.165	679.19
400.389	694.19
400.613	635.19
400.837	611.19
401.062	578.19
401.286	577.19
401.51	577.19
401.734	561.19
401.958	574.19
402.182	557.19
402.406	584.19
402.63	588.19
402.854	577.19
403.078	570.19
403.302	564.19
403.526	597.19
403.75	588.19
403.974	558.19
404.198	580.19
404.422	580.19
404.645	605.19
404.869	589.19
405.093	635.19
405.317	649.19
405.541	686.19
405.765	630.19
405.988	614.19
406.212	625.19
406.436	616.19
406.66	659.19
406.883	620.19
407.107	653.19
407.331	675.19
407.555	767.19
407.778	756.19
408.002	689.19
408.226	648.19
408.449	632.19
408.673	639.19
408.896	678.19
409.12	714.19
409.344	652.19
409.567	599.19
409.791	609.19
410.014	589.19
410.238	593.19
410.461	597.19
410.685	598.19
410.908	629.19
411.132	634.19
411.355	663.19
411.578	641.19
411.802	591.19
412.025	583.19
412.249	572.19
412.472	612.19
412.695	645.19
412.919	625.19
413.142	599.19
413.365	575.19
413.589	567.19
413.812	558.19
414.035	553.19
414.258	546.19
414.482	571.19
414.705	546.19
414.928	546.19
415.151	546.19
415.374	564.19
415.597	537.19
415.821	528.19
416.044	555.19
416.267	562.19
416.49	547.19
416.713	561.19
416.936	556.19
417.159	547.19
417.382	534.19
417.605	569.19
417.828	561.19
418.051	574.19
418.274	557.19
418.497	563.19
418.72	550.19
418.943	537.19
419.166	590.19
419.389	595.19
419.611	581.19
419.834	588.19
420.057	603.19
420.28	566.19
420.503	551.19
420.726	568.19
420.948	592.19
421.171	629.19
421.394	653.19
421.617	600.19
421.839	578.19
422.062	592.19
422.285	589.19
422.507	642.19
422.73	705.19
422.953	683.19
423.175	633.19
423.398	592.19
423.621	609.19
423.843	603.19
424.066	615.19
424.288	619.19
424.511	642.19
424.733	696.19
424.956	750.19
425.178	731.19
425.401	702.19
425.623	742.19
425.846	656.19
426.068	605.19
426.291	597.19
426.513	607.19
426.735	607.19
426.958	653.19
427.18	702.19
427.402	847.19
427.625	905.19
427.847	807.19
428.069	715.19
428.292	651.19
428.514	583.19
428.736	581.19
428.958	569.19
429.181	573.19
429.403	536.19
429.625	580.19
429.847	615.19
430.069	659.19
430.292	661.19
430.514	580.19
430.736	556.19
430.958	558.19
431.18	537.19
431.402	522.19
431.624	530.19
431.846	532.19
432.068	532.19
432.29	541.19
432.512	545.19
432.734	547.19
432.956	539.19
433.178	549.19
433.4	554.19
433.622	545.19
433.844	538.19
434.066	542.19
434.287	542.19
434.509	533.19
434.731	549.19
434.953	555.19
435.175	581.19
435.397	613.19
435.618	600.19
435.84	635.19
436.062	725.19
436.284	825.19
436.505	670.19
436.727	590.19
436.949	587.19
437.17	577.19
437.392	576.19
437.614	555.19
437.835	593.19
438.057	675.19
438.278	775.19
438.5	760.19
438.721	849.19
438.943	837.19
439.165	661.19
439.386	605.19
439.608	602.19
439.829	604.19
440.05	637.19
440.272	679.19
440.493	641.19
440.715	616.19
440.936	591.19
441.158	571.19
441.379	577.19
441.6	591.19
441.822	605.19
442.043	646.19
442.264	729.19
442.486	776.19
442.707	648.19
442.928	633.19
443.149	602.19
443.371	645.19
443.592	690.19
443.813	758.19
444.034	804.19
444.255	710.19
444.476	647.19
444.698	610.19
444.919	605.19
445.14	720.19
445.361	677.19
445.582	655.19
445.803	698.19
446.024	817.19
446.245	805.19
446.466	727.19
446.687	648.19
446.908	606.19
447.129	585.19
447.35	542.19
447.571	559.19
447.792	545.19
448.013	548.19
448.234	581.19
448.455	604.19
448.675	717.19
448.896	791.19
449.117	723.19
449.338	669.19
449.559	782.19
449.779	897.19
450	705.19
450.221	611.19
450.442	564.19
450.662	549.19
450.883	548.19
451.104	565.19
451.324	536.19
451.545	541.19
451.766	513.19
451.986	509.19
452.207	479.19
452.428	497.19
452.648	525.19
452.869	517.19
453.089	505.19
453.31	522.19
453.53	500.19
453.751	484.19
453.971	503.19
454.192	535.19
454.412	503.19
454.633	500.19
454.853	495.19
455.073	502.19
455.294	529.19
455.514	591.19
455.734	563.19
455.955	506.19
456.175	475.19
456.395	501.19
456.616	486.19
456.836	493.19
457.056	463.19
457.276	479.19
457.497	496.19
457.717	492.19
457.937	473.19
458.157	484.19
458.377	493.19
458.598	514.19
458.818	579.19
459.038	668.19
459.258	666.19
459.478	604.19
459.698	552.19
459.918	560.19
460.138	547.19
460.358	561.19
460.578	544.19
460.798	559.19
461.018	564.19
461.238	566.19
461.458	567.19
461.678	554.19
461.898	553.19
462.118	569.19
462.338	579.19
462.558	615.19
462.777	590.19
462.997	596.19
463.217	629.19
463.437	637.19
463.657	627.19
463.876	600.19
464.096	585.19
464.316	613.19
464.536	610.19
464.755	602.19
464.975	600.19
465.195	643.19
465.414	703.19
465.634	627.19
465.854	579.19
466.073	569.19
466.293	562.19
466.512	537.19
466.732	511.19
466.951	515.19
467.171	522.19
467.391	536.19
467.61	529.19
467.829	541.19
468.049	541.19
468.268	521.19
468.488	511.19
468.707	525.19
468.927	507.19
469.146	497.19
469.365	514.19
469.585	516.19
469.804	531.19
470.023	538.19
470.243	542.19
470.462	552.19
470.681	540.19
470.901	567.19
471.12	535.19
471.339	524.19
471.558	538.19
471.777	522.19
471.997	531.19
472.216	532.19
472.435	541.19
472.654	554.19
472.873	523.19
473.092	521.19
473.311	519.19
473.53	528.19
473.749	526.19
473.968	566.19
474.187	659.19
474.406	697.19
474.625	580.19
474.844	536.19
475.063	498.19
475.282	522.19
475.501	519.19
475.72	542.19
475.939	533.19
476.158	545.19
476.377	551.19
476.596	556.19
476.814	554.19
477.033	576.19
477.252	554.19
477.471	558.19
477.69	572.19
477.908	565.19
478.127	569.19
478.346	579.19
478.564	605.19
478.783	589.19
479.002	614.19
479.22	596.19
479.439	622.19
479.658	604.19
479.876	639.19
480.095	632.19
480.313	669.19
480.532	648.19
480.751	673.19
480.969	674.19
481.188	704.19
481.406	765.19
481.624	664.19
481.843	631.19
482.061	618.19
482.28	627.19
482.498	623.19
482.717	626.19
482.935	607.19
483.153	618.19
483.372	602.19
483.59	603.19
483.808	626.19
484.027	617.19
484.245	614.19
484.463	610.19
484.681	618.19
484.9	622.19
485.118	641.19
485.336	622.19
485.554	623.19
485.772	643.19
485.99	647.19
486.209	617.19
486.427	649.19
486.645	649.19
486.863	669.19
487.081	666.19
487.299	663.19
487.517	666.19
487.735	650.19
487.953	663.19
488.171	669.19
488.389	656.19
488.607	665.19
488.825	667.19
489.043	653.19
489.261	672.19
489.479	651.19
489.696	674.19
489.914	671.19
490.132	659.19
490.35	687.19
490.568	664.19
490.786	682.19
491.003	704.19
491.221	703.19
491.439	732.19
491.657	748.19
491.874	737.19
492.092	717.19
492.31	739.19
492.527	742.19
492.745	739.19
492.963	731.19
493.18	749.19
493.398	754.19
493.615	756.19
493.833	764.19
494.05	767.19
494.268	745.19
494.485	739.19
494.703	741.19
494.92	767.19
495.138	769.19
495.355	763.19
495.573	772.19
495.79	770.19
496.008	763.19
496.225	761.19
496.442	769.19
496.66	773.19
496.877	787.19
497.094	789.19
497.312	813.19
497.529	790.19
497.746	821.19
497.963	826.19
498.181	850.19
498.398	881.19
498.615	895.19
498.832	922.19
499.049	944.19
499.267	961.19
499.484	1013.19
499.701	1009.19
499.918	1098.19
500.135	1126.19
500.352	1194.19
500.569	1203.19
500.786	1206.19
501.003	1178.19
501.22	1184.19
501.437	1123.19
501.654	1038.19
