Data from 1979.PennyLincolnUp.Lamp.En5.5.200Scan.071719.P1_HRD10591_16-17-52-863.txt Node
Date: Thu Jul 18 16:17:52 EDT 2019
User: cochatt
Spectrometer: HR+D1059
Trigger mode: 1
Integration Time (sec): 1.000000E-1
Scans to average: 1
Electric dark correction enabled: true
Nonlinearity correction enabled: false
Boxcar width: 0
XAxis mode: Wavelengths
Number of Pixels in Spectrum: 2048
>>>>>Begin Spectral Data<<<<<
223.165	0.62
223.4	0.62
223.635	0.62
223.869	-26.38
224.104	-13.38
224.338	-10.38
224.573	-21.38
224.808	-15.38
225.042	-23.38
225.277	-0.38
225.511	-3.38
225.746	11.62
225.98	9.62
226.215	6.62
226.449	4.62
226.683	18.62
226.918	27.62
227.152	34.62
227.387	40.62
227.621	31.62
227.856	38.62
228.09	47.62
228.324	40.62
228.559	52.62
228.793	67.62
229.027	80.62
229.262	94.62
229.496	94.62
229.73	116.62
229.964	136.62
230.199	116.62
230.433	111.62
230.667	110.62
230.901	116.62
231.136	95.62
231.37	104.62
231.604	111.62
231.838	124.62
232.072	118.62
232.306	100.62
232.541	122.62
232.775	119.62
233.009	110.62
233.243	98.62
233.477	116.62
233.711	111.62
233.945	104.62
234.179	119.62
234.413	116.62
234.647	103.62
234.881	119.62
235.115	118.62
235.349	117.62
235.583	109.62
235.817	99.62
236.051	114.62
236.285	114.62
236.519	135.62
236.753	119.62
236.987	123.62
237.221	158.62
237.455	184.62
237.689	171.62
237.922	118.62
238.156	118.62
238.39	113.62
238.624	111.62
238.858	117.62
239.091	113.62
239.325	114.62
239.559	122.62
239.793	118.62
240.027	121.62
240.26	130.62
240.494	147.62
240.728	140.62
240.961	143.62
241.195	140.62
241.429	125.62
241.662	124.62
241.896	135.62
242.13	122.62
242.363	129.62
242.597	109.62
242.83	122.62
243.064	138.62
243.298	131.62
243.531	126.62
243.765	142.62
243.998	128.62
244.232	152.62
244.465	139.62
244.699	142.62
244.932	130.62
245.166	128.62
245.399	126.62
245.633	130.62
245.866	128.62
246.099	141.62
246.333	131.62
246.566	136.62
246.8	150.62
247.033	152.62
247.266	158.62
247.5	148.62
247.733	154.62
247.966	152.62
248.2	153.62
248.433	151.62
248.666	172.62
248.899	160.62
249.133	167.62
249.366	172.62
249.599	158.62
249.832	158.62
250.066	170.62
250.299	179.62
250.532	166.62
250.765	178.62
250.998	180.62
251.231	194.62
251.465	172.62
251.698	176.62
251.931	167.62
252.164	170.62
252.397	170.62
252.63	176.62
252.863	180.62
253.096	182.62
253.329	174.62
253.562	196.62
253.795	186.62
254.028	179.62
254.261	195.62
254.494	200.62
254.727	219.62
254.96	218.62
255.193	213.62
255.426	184.62
255.659	212.62
255.892	200.62
256.124	205.62
256.357	205.62
256.59	201.62
256.823	183.62
257.056	184.62
257.289	188.62
257.521	183.62
257.754	189.62
257.987	196.62
258.22	175.62
258.452	187.62
258.685	178.62
258.918	178.62
259.151	185.62
259.383	194.62
259.616	192.62
259.849	189.62
260.081	187.62
260.314	207.62
260.547	214.62
260.779	221.62
261.012	207.62
261.244	176.62
261.477	186.62
261.71	194.62
261.942	187.62
262.175	191.62
262.407	191.62
262.64	192.62
262.872	196.62
263.105	196.62
263.337	190.62
263.57	202.62
263.802	178.62
264.035	192.62
264.267	203.62
264.499	199.62
264.732	199.62
264.964	191.62
265.197	189.62
265.429	188.62
265.661	183.62
265.894	173.62
266.126	195.62
266.358	202.62
266.591	193.62
266.823	190.62
267.055	222.62
267.287	214.62
267.52	210.62
267.752	193.62
267.984	199.62
268.216	206.62
268.448	204.62
268.681	195.62
268.913	214.62
269.145	235.62
269.377	240.62
269.609	210.62
269.841	244.62
270.073	223.62
270.306	247.62
270.538	255.62
270.77	255.62
271.002	227.62
271.234	226.62
271.466	257.62
271.698	261.62
271.93	247.62
272.162	264.62
272.394	259.62
272.626	259.62
272.858	236.62
273.09	223.62
273.322	220.62
273.553	227.62
273.785	242.62
274.017	239.62
274.249	260.62
274.481	240.62
274.713	228.62
274.945	242.62
275.176	227.62
275.408	224.62
275.64	218.62
275.872	235.62
276.104	236.62
276.335	233.62
276.567	237.62
276.799	235.62
277.031	254.62
277.262	240.62
277.494	262.62
277.726	255.62
277.957	229.62
278.189	246.62
278.421	258.62
278.652	258.62
278.884	227.62
279.115	242.62
279.347	235.62
279.579	236.62
279.81	248.62
280.042	243.62
280.273	238.62
280.505	245.62
280.736	239.62
280.968	244.62
281.199	239.62
281.431	223.62
281.662	239.62
281.894	255.62
282.125	264.62
282.356	277.62
282.588	276.62
282.819	247.62
283.051	269.62
283.282	243.62
283.513	244.62
283.745	235.62
283.976	254.62
284.207	254.62
284.439	261.62
284.67	246.62
284.901	251.62
285.132	246.62
285.364	235.62
285.595	258.62
285.826	253.62
286.057	249.62
286.288	238.62
286.52	253.62
286.751	239.62
286.982	248.62
287.213	269.62
287.444	230.62
287.675	237.62
287.906	276.62
288.138	268.62
288.369	269.62
288.6	278.62
288.831	272.62
289.062	260.62
289.293	266.62
289.524	258.62
289.755	258.62
289.986	267.62
290.217	273.62
290.448	239.62
290.679	264.62
290.91	252.62
291.141	267.62
291.371	278.62
291.602	260.62
291.833	276.62
292.064	262.62
292.295	255.62
292.526	263.62
292.757	279.62
292.987	268.62
293.218	239.62
293.449	264.62
293.68	281.62
293.91	274.62
294.141	261.62
294.372	262.62
294.603	268.62
294.833	269.62
295.064	265.62
295.295	273.62
295.525	261.62
295.756	274.62
295.987	272.62
296.217	282.62
296.448	276.62
296.679	291.62
296.909	290.62
297.14	276.62
297.37	284.62
297.601	269.62
297.831	274.62
298.062	271.62
298.292	286.62
298.523	283.62
298.753	278.62
298.984	276.62
299.214	284.62
299.445	294.62
299.675	276.62
299.905	301.62
300.136	303.62
300.366	287.62
300.597	270.62
300.827	279.62
301.057	301.62
301.288	299.62
301.518	316.62
301.748	302.62
301.979	303.62
302.209	281.62
302.439	310.62
302.669	310.62
302.9	314.62
303.13	302.62
303.36	308.62
303.59	298.62
303.82	306.62
304.051	315.62
304.281	303.62
304.511	308.62
304.741	284.62
304.971	287.62
305.201	271.62
305.431	321.62
305.661	296.62
305.891	296.62
306.121	311.62
306.352	319.62
306.582	300.62
306.812	288.62
307.042	310.62
307.272	319.62
307.502	313.62
307.731	284.62
307.961	309.62
308.191	274.62
308.421	298.62
308.651	307.62
308.881	310.62
309.111	324.62
309.341	322.62
309.571	307.62
309.8	322.62
310.03	327.62
310.26	322.62
310.49	332.62
310.72	328.62
310.949	333.62
311.179	329.62
311.409	330.62
311.639	329.62
311.868	309.62
312.098	342.62
312.328	321.62
312.557	347.62
312.787	344.62
313.017	372.62
313.246	345.62
313.476	335.62
313.706	328.62
313.935	333.62
314.165	335.62
314.394	346.62
314.624	335.62
314.853	344.62
315.083	347.62
315.312	339.62
315.542	334.62
315.771	335.62
316.001	335.62
316.23	336.62
316.46	334.62
316.689	336.62
316.919	332.62
317.148	324.62
317.377	343.62
317.607	371.62
317.836	340.62
318.065	353.62
318.295	336.62
318.524	339.62
318.753	355.62
318.983	331.62
319.212	319.62
319.441	337.62
319.67	355.62
319.9	356.62
320.129	335.62
320.358	322.62
320.587	352.62
320.816	346.62
321.046	359.62
321.275	363.62
321.504	354.62
321.733	370.62
321.962	372.62
322.191	365.62
322.42	382.62
322.649	373.62
322.878	378.62
323.108	381.62
323.337	396.62
323.566	428.62
323.795	442.62
324.024	493.62
324.253	537.62
324.482	710.62
324.71	1094.62
324.939	1615.62
325.168	1452.62
325.397	717.62
325.626	516.62
325.855	434.62
326.084	411.62
326.313	428.62
326.542	437.62
326.77	466.62
326.999	507.62
327.228	685.62
327.457	1017.62
327.686	1282.62
327.914	847.62
328.143	558.62
328.372	491.62
328.6	496.62
328.829	446.62
329.058	459.62
329.287	475.62
329.515	437.62
329.744	430.62
329.972	424.62
330.201	463.62
330.43	459.62
330.658	487.62
330.887	485.62
331.115	495.62
331.344	461.62
331.572	423.62
331.801	410.62
332.03	400.62
332.258	411.62
332.486	419.62
332.715	428.62
332.943	424.62
333.172	413.62
333.4	426.62
333.629	428.62
333.857	417.62
334.085	430.62
334.314	432.62
334.542	470.62
334.771	492.62
334.999	447.62
335.227	429.62
335.455	428.62
335.684	412.62
335.912	436.62
336.14	419.62
336.369	404.62
336.597	411.62
336.825	419.62
337.053	415.62
337.281	398.62
337.51	400.62
337.738	417.62
337.966	406.62
338.194	396.62
338.422	379.62
338.65	400.62
338.878	383.62
339.106	410.62
339.334	394.62
339.562	389.62
339.79	401.62
340.018	390.62
340.246	405.62
340.474	411.62
340.702	401.62
340.93	386.62
341.158	411.62
341.386	392.62
341.614	390.62
341.842	380.62
342.07	402.62
342.298	410.62
342.526	394.62
342.754	392.62
342.981	389.62
343.209	381.62
343.437	391.62
343.665	383.62
343.893	414.62
344.12	422.62
344.348	403.62
344.576	410.62
344.804	412.62
345.031	418.62
345.259	409.62
345.487	406.62
345.714	412.62
345.942	407.62
346.17	388.62
346.397	382.62
346.625	383.62
346.853	364.62
347.08	370.62
347.308	394.62
347.535	389.62
347.763	383.62
347.99	383.62
348.218	379.62
348.445	375.62
348.673	402.62
348.9	394.62
349.128	403.62
349.355	372.62
349.583	391.62
349.81	372.62
350.037	367.62
350.265	370.62
350.492	382.62
350.72	374.62
350.947	380.62
351.174	394.62
351.402	389.62
351.629	391.62
351.856	390.62
352.083	385.62
352.311	380.62
352.538	396.62
352.765	415.62
352.992	392.62
353.22	377.62
353.447	370.62
353.674	379.62
353.901	367.62
354.128	392.62
354.355	386.62
354.583	361.62
354.81	357.62
355.037	366.62
355.264	347.62
355.491	364.62
355.718	354.62
355.945	382.62
356.172	368.62
356.399	366.62
356.626	380.62
356.853	354.62
357.08	368.62
357.307	361.62
357.534	375.62
357.761	368.62
357.988	370.62
358.215	372.62
358.441	385.62
358.668	374.62
358.895	365.62
359.122	358.62
359.349	354.62
359.576	386.62
359.802	407.62
360.029	402.62
360.256	389.62
360.483	402.62
360.709	404.62
360.936	390.62
361.163	381.62
361.39	384.62
361.616	386.62
361.843	396.62
362.07	407.62
362.296	403.62
362.523	382.62
362.749	389.62
362.976	400.62
363.203	386.62
363.429	382.62
363.656	386.62
363.882	384.62
364.109	371.62
364.335	384.62
364.562	373.62
364.788	358.62
365.015	393.62
365.241	392.62
365.468	380.62
365.694	385.62
365.92	385.62
366.147	379.62
366.373	388.62
366.599	360.62
366.826	359.62
367.052	371.62
367.278	382.62
367.505	362.62
367.731	372.62
367.957	379.62
368.184	401.62
368.41	384.62
368.636	380.62
368.862	400.62
369.089	399.62
369.315	379.62
369.541	387.62
369.767	391.62
369.993	364.62
370.219	374.62
370.445	378.62
370.672	370.62
370.898	355.62
371.124	384.62
371.35	399.62
371.576	392.62
371.802	378.62
372.028	378.62
372.254	400.62
372.48	383.62
372.706	391.62
372.932	394.62
373.158	377.62
373.384	390.62
373.61	408.62
373.835	406.62
374.061	393.62
374.287	380.62
374.513	412.62
374.739	419.62
374.965	412.62
375.191	399.62
375.416	424.62
375.642	392.62
375.868	394.62
376.094	386.62
376.319	405.62
376.545	392.62
376.771	375.62
376.997	382.62
377.222	384.62
377.448	393.62
377.674	401.62
377.899	380.62
378.125	372.62
378.35	361.62
378.576	374.62
378.802	410.62
379.027	386.62
379.253	411.62
379.478	388.62
379.704	386.62
379.929	414.62
380.155	391.62
380.38	386.62
380.606	384.62
380.831	397.62
381.057	390.62
381.282	390.62
381.507	376.62
381.733	395.62
381.958	414.62
382.184	396.62
382.409	393.62
382.634	410.62
382.86	384.62
383.085	389.62
383.31	414.62
383.535	430.62
383.761	428.62
383.986	414.62
384.211	416.62
384.436	415.62
384.662	410.62
384.887	438.62
385.112	424.62
385.337	439.62
385.562	432.62
385.787	442.62
386.013	426.62
386.238	434.62
386.463	445.62
386.688	450.62
386.913	429.62
387.138	451.62
387.363	448.62
387.588	423.62
387.813	443.62
388.038	416.62
388.263	429.62
388.488	433.62
388.713	444.62
388.938	415.62
389.163	436.62
389.387	460.62
389.612	438.62
389.837	412.62
390.062	429.62
390.287	442.62
390.512	442.62
390.736	438.62
390.961	440.62
391.186	435.62
391.411	429.62
391.636	438.62
391.86	454.62
392.085	444.62
392.31	452.62
392.534	454.62
392.759	447.62
392.984	443.62
393.208	449.62
393.433	468.62
393.658	454.62
393.882	436.62
394.107	460.62
394.331	466.62
394.556	445.62
394.78	446.62
395.005	436.62
395.229	435.62
395.454	459.62
395.678	474.62
395.903	471.62
396.127	491.62
396.352	493.62
396.576	461.62
396.801	474.62
397.025	472.62
397.249	479.62
397.474	498.62
397.698	475.62
397.922	481.62
398.147	472.62
398.371	492.62
398.595	501.62
398.82	495.62
399.044	516.62
399.268	563.62
399.492	579.62
399.717	633.62
399.941	642.62
400.165	629.62
400.389	626.62
400.613	569.62
400.837	552.62
401.062	533.62
401.286	527.62
401.51	518.62
401.734	518.62
401.958	549.62
402.182	525.62
402.406	536.62
402.63	522.62
402.854	520.62
403.078	524.62
403.302	534.62
403.526	530.62
403.75	546.62
403.974	550.62
404.198	551.62
404.422	542.62
404.645	562.62
404.869	563.62
405.093	554.62
405.317	594.62
405.541	644.62
405.765	586.62
405.988	555.62
406.212	557.62
406.436	583.62
406.66	602.62
406.883	585.62
407.107	600.62
407.331	664.62
407.555	701.62
407.778	685.62
408.002	660.62
408.226	584.62
408.449	593.62
408.673	608.62
408.896	626.62
409.12	633.62
409.344	611.62
409.567	570.62
409.791	550.62
410.014	557.62
410.238	566.62
410.461	548.62
410.685	549.62
410.908	557.62
411.132	592.62
411.355	599.62
411.578	584.62
411.802	556.62
412.025	527.62
412.249	575.62
412.472	553.62
412.695	601.62
412.919	571.62
413.142	528.62
413.365	552.62
413.589	507.62
413.812	526.62
414.035	522.62
414.258	518.62
414.482	503.62
414.705	524.62
414.928	522.62
415.151	518.62
415.374	500.62
415.597	522.62
415.821	518.62
416.044	483.62
416.267	524.62
416.49	510.62
416.713	504.62
416.936	503.62
417.159	515.62
417.382	512.62
417.605	504.62
417.828	515.62
418.051	523.62
418.274	503.62
418.497	529.62
418.72	506.62
418.943	536.62
419.166	536.62
419.389	560.62
419.611	564.62
419.834	550.62
420.057	540.62
420.28	548.62
420.503	538.62
420.726	523.62
420.948	526.62
421.171	572.62
421.394	592.62
421.617	540.62
421.839	522.62
422.062	506.62
422.285	538.62
422.507	581.62
422.73	644.62
422.953	631.62
423.175	576.62
423.398	537.62
423.621	551.62
423.843	562.62
424.066	566.62
424.288	565.62
424.511	557.62
424.733	603.62
424.956	689.62
425.178	650.62
425.401	642.62
425.623	669.62
425.846	586.62
426.068	552.62
426.291	566.62
426.513	554.62
426.735	548.62
426.958	560.62
427.18	632.62
427.402	757.62
427.625	846.62
427.847	750.62
428.069	635.62
428.292	586.62
428.514	530.62
428.736	543.62
428.958	530.62
429.181	527.62
429.403	526.62
429.625	533.62
429.847	541.62
430.069	584.62
430.292	572.62
430.514	510.62
430.736	506.62
430.958	490.62
431.18	495.62
431.402	506.62
431.624	484.62
431.846	487.62
432.068	494.62
432.29	479.62
432.512	487.62
432.734	517.62
432.956	521.62
433.178	500.62
433.4	504.62
433.622	516.62
433.844	499.62
434.066	508.62
434.287	504.62
434.509	495.62
434.731	510.62
434.953	519.62
435.175	546.62
435.397	554.62
435.618	532.62
435.84	569.62
436.062	654.62
436.284	708.62
436.505	581.62
436.727	556.62
436.949	552.62
437.17	528.62
437.392	520.62
437.614	521.62
437.835	548.62
438.057	604.62
438.278	693.62
438.5	685.62
438.721	758.62
438.943	716.62
439.165	610.62
439.386	557.62
439.608	558.62
439.829	551.62
440.05	580.62
440.272	605.62
440.493	587.62
440.715	551.62
440.936	542.62
441.158	519.62
441.379	506.62
441.6	544.62
441.822	537.62
442.043	603.62
442.264	657.62
442.486	674.62
442.707	596.62
442.928	562.62
443.149	559.62
443.371	583.62
443.592	595.62
443.813	702.62
444.034	742.62
444.255	630.62
444.476	606.62
444.698	585.62
444.919	578.62
445.14	688.62
445.361	634.62
445.582	592.62
445.803	638.62
446.024	701.62
446.245	703.62
446.466	659.62
446.687	575.62
446.908	548.62
447.129	512.62
447.35	494.62
447.571	501.62
447.792	501.62
448.013	496.62
448.234	525.62
448.455	554.62
448.675	636.62
448.896	732.62
449.117	649.62
449.338	603.62
449.559	687.62
449.779	793.62
450	613.62
450.221	532.62
450.442	487.62
450.662	504.62
450.883	494.62
451.104	500.62
451.324	496.62
451.545	490.62
451.766	461.62
451.986	452.62
452.207	451.62
452.428	445.62
452.648	454.62
452.869	447.62
453.089	473.62
453.31	463.62
453.53	474.62
453.751	439.62
453.971	456.62
454.192	454.62
454.412	470.62
454.633	453.62
454.853	450.62
455.073	444.62
455.294	503.62
455.514	511.62
455.734	522.62
455.955	450.62
456.175	455.62
456.395	421.62
456.616	438.62
456.836	414.62
457.056	429.62
457.276	429.62
457.497	431.62
457.717	440.62
457.937	452.62
458.157	465.62
458.377	448.62
458.598	468.62
458.818	494.62
459.038	590.62
459.258	566.62
459.478	534.62
459.698	514.62
459.918	518.62
460.138	539.62
460.358	514.62
460.578	532.62
460.798	511.62
461.018	531.62
461.238	534.62
461.458	520.62
461.678	519.62
461.898	523.62
462.118	538.62
462.338	546.62
462.558	533.62
462.777	557.62
462.997	582.62
463.217	589.62
463.437	590.62
463.657	574.62
463.876	563.62
464.096	574.62
464.316	571.62
464.536	560.62
464.755	568.62
464.975	557.62
465.195	584.62
465.414	635.62
465.634	559.62
465.854	535.62
466.073	490.62
466.293	500.62
466.512	483.62
466.732	491.62
466.951	500.62
467.171	502.62
467.391	463.62
467.61	492.62
467.829	500.62
468.049	476.62
468.268	504.62
468.488	491.62
468.707	474.62
468.927	462.62
469.146	455.62
469.365	460.62
469.585	451.62
469.804	507.62
470.023	492.62
470.243	476.62
470.462	490.62
470.681	519.62
470.901	487.62
471.12	491.62
471.339	492.62
471.558	489.62
471.777	491.62
471.997	479.62
472.216	522.62
472.435	514.62
472.654	485.62
472.873	477.62
473.092	470.62
473.311	481.62
473.53	477.62
473.749	490.62
473.968	517.62
474.187	579.62
474.406	601.62
474.625	542.62
474.844	492.62
475.063	502.62
475.282	485.62
475.501	485.62
475.72	510.62
475.939	517.62
476.158	487.62
476.377	520.62
476.596	512.62
476.814	529.62
477.033	498.62
477.252	526.62
477.471	510.62
477.69	531.62
477.908	536.62
478.127	536.62
478.346	526.62
478.564	557.62
478.783	532.62
479.002	569.62
479.22	554.62
479.439	566.62
479.658	559.62
479.876	560.62
480.095	573.62
480.313	613.62
480.532	595.62
480.751	588.62
480.969	594.62
481.188	644.62
481.406	658.62
481.624	601.62
481.843	600.62
482.061	566.62
482.28	561.62
482.498	568.62
482.717	580.62
482.935	566.62
483.153	560.62
483.372	562.62
483.59	573.62
483.808	574.62
484.027	555.62
484.245	568.62
484.463	588.62
484.681	584.62
484.9	595.62
485.118	586.62
485.336	582.62
485.554	584.62
485.772	587.62
485.99	592.62
486.209	607.62
486.427	583.62
486.645	577.62
486.863	605.62
487.081	588.62
487.299	603.62
487.517	592.62
487.735	603.62
487.953	596.62
488.171	603.62
488.389	607.62
488.607	597.62
488.825	605.62
489.043	603.62
489.261	601.62
489.479	614.62
489.696	603.62
489.914	609.62
490.132	626.62
490.35	614.62
490.568	611.62
490.786	634.62
491.003	639.62
491.221	646.62
491.439	640.62
491.657	663.62
491.874	667.62
492.092	681.62
492.31	645.62
492.527	688.62
492.745	683.62
492.963	680.62
493.18	688.62
493.398	698.62
493.615	704.62
493.833	709.62
494.05	683.62
494.268	697.62
494.485	697.62
494.703	695.62
494.92	696.62
495.138	694.62
495.355	702.62
495.573	747.62
495.79	687.62
496.008	698.62
496.225	734.62
496.442	724.62
496.66	739.62
496.877	706.62
497.094	739.62
497.312	739.62
497.529	731.62
497.746	749.62
497.963	755.62
498.181	799.62
498.398	784.62
498.615	806.62
498.832	823.62
499.049	841.62
499.267	902.62
499.484	907.62
499.701	966.62
499.918	1020.62
500.135	1070.62
500.352	1104.62
500.569	1140.62
500.786	1123.62
501.003	1102.62
501.22	1082.62
501.437	1034.62
501.654	974.62
501.871	970.62
502.088	916.62
