Data from 1979.PennyLincolnUp.Lamp.En5.5.200Scan.071719.P1_HRD10591_16-18-03-863.txt Node
Date: Thu Jul 18 16:18:03 EDT 2019
User: cochatt
Spectrometer: HR+D1059
Trigger mode: 1
Integration Time (sec): 1.000000E-1
Scans to average: 1
Electric dark correction enabled: true
Nonlinearity correction enabled: false
Boxcar width: 0
XAxis mode: Wavelengths
Number of Pixels in Spectrum: 2048
>>>>>Begin Spectral Data<<<<<
223.165	-19.81
223.4	-19.81
223.635	-19.81
223.869	-15.81
224.104	-19.81
224.338	-15.81
224.573	-10.81
224.808	-20.81
225.042	-10.81
225.277	-19.81
225.511	-5.81
225.746	8.19
225.98	9.19
226.215	13.19
226.449	26.19
226.683	30.19
226.918	15.19
227.152	37.19
227.387	36.19
227.621	24.19
227.856	52.19
228.09	60.19
228.324	56.19
228.559	47.19
228.793	64.19
229.027	99.19
229.262	86.19
229.496	115.19
229.73	127.19
229.964	145.19
230.199	119.19
230.433	97.19
230.667	116.19
230.901	111.19
231.136	116.19
231.37	98.19
231.604	102.19
231.838	101.19
232.072	112.19
232.306	103.19
232.541	119.19
232.775	105.19
233.009	128.19
233.243	110.19
233.477	118.19
233.711	108.19
233.945	110.19
234.179	107.19
234.413	110.19
234.647	119.19
234.881	114.19
235.115	110.19
235.349	91.19
235.583	96.19
235.817	117.19
236.051	100.19
236.285	107.19
236.519	125.19
236.753	120.19
236.987	138.19
237.221	147.19
237.455	211.19
237.689	175.19
237.922	141.19
238.156	142.19
238.39	115.19
238.624	106.19
238.858	109.19
239.091	110.19
239.325	134.19
239.559	128.19
239.793	123.19
240.027	136.19
240.26	132.19
240.494	155.19
240.728	130.19
240.961	126.19
241.195	131.19
241.429	148.19
241.662	136.19
241.896	133.19
242.13	122.19
242.363	116.19
242.597	122.19
242.83	121.19
243.064	140.19
243.298	130.19
243.531	134.19
243.765	127.19
243.998	126.19
244.232	143.19
244.465	138.19
244.699	154.19
244.932	137.19
245.166	141.19
245.399	130.19
245.633	134.19
245.866	141.19
246.099	144.19
246.333	126.19
246.566	158.19
246.8	145.19
247.033	140.19
247.266	148.19
247.5	147.19
247.733	158.19
247.966	149.19
248.2	170.19
248.433	166.19
248.666	171.19
248.899	173.19
249.133	175.19
249.366	173.19
249.599	192.19
249.832	160.19
250.066	172.19
250.299	158.19
250.532	181.19
250.765	194.19
250.998	203.19
251.231	196.19
251.465	200.19
251.698	179.19
251.931	179.19
252.164	179.19
252.397	187.19
252.63	197.19
252.863	169.19
253.096	197.19
253.329	206.19
253.562	203.19
253.795	205.19
254.028	181.19
254.261	186.19
254.494	190.19
254.727	216.19
254.96	215.19
255.193	240.19
255.426	205.19
255.659	216.19
255.892	207.19
256.124	216.19
256.357	215.19
256.59	199.19
256.823	173.19
257.056	178.19
257.289	198.19
257.521	189.19
257.754	199.19
257.987	188.19
258.22	205.19
258.452	187.19
258.685	188.19
258.918	176.19
259.151	184.19
259.383	200.19
259.616	199.19
259.849	200.19
260.081	199.19
260.314	229.19
260.547	237.19
260.779	215.19
261.012	217.19
261.244	191.19
261.477	196.19
261.71	189.19
261.942	203.19
262.175	226.19
262.407	212.19
262.64	184.19
262.872	196.19
263.105	202.19
263.337	200.19
263.57	199.19
263.802	184.19
264.035	201.19
264.267	194.19
264.499	180.19
264.732	207.19
264.964	219.19
265.197	196.19
265.429	208.19
265.661	211.19
265.894	202.19
266.126	215.19
266.358	208.19
266.591	197.19
266.823	201.19
267.055	214.19
267.287	208.19
267.52	209.19
267.752	187.19
267.984	199.19
268.216	217.19
268.448	236.19
268.681	223.19
268.913	223.19
269.145	232.19
269.377	239.19
269.609	230.19
269.841	229.19
270.073	232.19
270.306	239.19
270.538	267.19
270.77	265.19
271.002	262.19
271.234	258.19
271.466	256.19
271.698	254.19
271.93	262.19
272.162	281.19
272.394	276.19
272.626	255.19
272.858	265.19
273.09	251.19
273.322	237.19
273.553	236.19
273.785	233.19
274.017	232.19
274.249	249.19
274.481	238.19
274.713	233.19
274.945	237.19
275.176	238.19
275.408	221.19
275.64	237.19
275.872	255.19
276.104	236.19
276.335	254.19
276.567	246.19
276.799	245.19
277.031	259.19
277.262	261.19
277.494	289.19
277.726	268.19
277.957	240.19
278.189	234.19
278.421	265.19
278.652	246.19
278.884	246.19
279.115	254.19
279.347	243.19
279.579	248.19
279.81	247.19
280.042	246.19
280.273	236.19
280.505	249.19
280.736	246.19
280.968	239.19
281.199	260.19
281.431	240.19
281.662	234.19
281.894	275.19
282.125	252.19
282.356	258.19
282.588	283.19
282.819	284.19
283.051	270.19
283.282	266.19
283.513	251.19
283.745	250.19
283.976	252.19
284.207	238.19
284.439	269.19
284.67	245.19
284.901	230.19
285.132	247.19
285.364	246.19
285.595	248.19
285.826	260.19
286.057	271.19
286.288	272.19
286.52	275.19
286.751	269.19
286.982	269.19
287.213	271.19
287.444	261.19
287.675	270.19
287.906	275.19
288.138	278.19
288.369	283.19
288.6	278.19
288.831	279.19
289.062	285.19
289.293	274.19
289.524	262.19
289.755	276.19
289.986	276.19
290.217	283.19
290.448	262.19
290.679	278.19
290.91	260.19
291.141	262.19
291.371	277.19
291.602	291.19
291.833	278.19
292.064	284.19
292.295	270.19
292.526	267.19
292.757	262.19
292.987	272.19
293.218	263.19
293.449	280.19
293.68	275.19
293.91	277.19
294.141	249.19
294.372	261.19
294.603	278.19
294.833	282.19
295.064	280.19
295.295	280.19
295.525	263.19
295.756	288.19
295.987	293.19
296.217	309.19
296.448	314.19
296.679	282.19
296.909	285.19
297.14	282.19
297.37	285.19
297.601	289.19
297.831	301.19
298.062	287.19
298.292	268.19
298.523	284.19
298.753	278.19
298.984	301.19
299.214	286.19
299.445	287.19
299.675	282.19
299.905	311.19
300.136	289.19
300.366	300.19
300.597	299.19
300.827	300.19
301.057	294.19
301.288	324.19
301.518	306.19
301.748	320.19
301.979	306.19
302.209	331.19
302.439	312.19
302.669	311.19
302.9	295.19
303.13	293.19
303.36	299.19
303.59	315.19
303.82	297.19
304.051	309.19
304.281	317.19
304.511	320.19
304.741	306.19
304.971	307.19
305.201	316.19
305.431	303.19
305.661	310.19
305.891	309.19
306.121	316.19
306.352	332.19
306.582	320.19
306.812	302.19
307.042	324.19
307.272	311.19
307.502	320.19
307.731	327.19
307.961	309.19
308.191	316.19
308.421	320.19
308.651	307.19
308.881	331.19
309.111	317.19
309.341	325.19
309.571	341.19
309.8	333.19
310.03	321.19
310.26	328.19
310.49	358.19
310.72	335.19
310.949	370.19
311.179	368.19
311.409	354.19
311.639	340.19
311.868	348.19
312.098	333.19
312.328	342.19
312.557	368.19
312.787	379.19
313.017	367.19
313.246	358.19
313.476	362.19
313.706	343.19
313.935	355.19
314.165	349.19
314.394	374.19
314.624	356.19
314.853	362.19
315.083	349.19
315.312	336.19
315.542	358.19
315.771	350.19
316.001	344.19
316.23	346.19
316.46	353.19
316.689	347.19
316.919	371.19
317.148	357.19
317.377	370.19
317.607	361.19
317.836	339.19
318.065	363.19
318.295	359.19
318.524	359.19
318.753	331.19
318.983	362.19
319.212	348.19
319.441	368.19
319.67	366.19
319.9	349.19
320.129	345.19
320.358	366.19
320.587	355.19
320.816	384.19
321.046	380.19
321.275	383.19
321.504	380.19
321.733	358.19
321.962	366.19
322.191	398.19
322.42	392.19
322.649	407.19
322.878	420.19
323.108	414.19
323.337	438.19
323.566	442.19
323.795	458.19
324.024	501.19
324.253	592.19
324.482	814.19
324.71	1239.19
324.939	1863.19
325.168	1582.19
325.397	814.19
325.626	568.19
325.855	477.19
326.084	450.19
326.313	419.19
326.542	441.19
326.77	494.19
326.999	551.19
327.228	747.19
327.457	1149.19
327.686	1410.19
327.914	888.19
328.143	602.19
328.372	528.19
328.6	511.19
328.829	485.19
329.058	480.19
329.287	516.19
329.515	476.19
329.744	436.19
329.972	446.19
330.201	487.19
330.43	483.19
330.658	508.19
330.887	517.19
331.115	526.19
331.344	485.19
331.572	426.19
331.801	438.19
332.03	461.19
332.258	434.19
332.486	438.19
332.715	421.19
332.943	435.19
333.172	453.19
333.4	437.19
333.629	442.19
333.857	456.19
334.085	466.19
334.314	471.19
334.542	479.19
334.771	510.19
334.999	475.19
335.227	438.19
335.455	446.19
335.684	453.19
335.912	419.19
336.14	425.19
336.369	442.19
336.597	443.19
336.825	431.19
337.053	428.19
337.281	428.19
337.51	434.19
337.738	413.19
337.966	412.19
338.194	432.19
338.422	421.19
338.65	421.19
338.878	429.19
339.106	424.19
339.334	413.19
339.562	402.19
339.79	408.19
340.018	407.19
340.246	428.19
340.474	404.19
340.702	429.19
340.93	396.19
341.158	416.19
341.386	397.19
341.614	426.19
341.842	417.19
342.07	407.19
342.298	416.19
342.526	405.19
342.754	391.19
342.981	394.19
343.209	405.19
343.437	425.19
343.665	408.19
343.893	410.19
344.12	436.19
344.348	446.19
344.576	433.19
344.804	420.19
345.031	416.19
345.259	420.19
345.487	430.19
345.714	407.19
345.942	411.19
346.17	399.19
346.397	407.19
346.625	392.19
346.853	398.19
347.08	396.19
347.308	404.19
347.535	410.19
347.763	426.19
347.99	394.19
348.218	411.19
348.445	406.19
348.673	412.19
348.9	406.19
349.128	378.19
349.355	407.19
349.583	386.19
349.81	372.19
350.037	381.19
350.265	390.19
350.492	379.19
350.72	378.19
350.947	400.19
351.174	391.19
351.402	408.19
351.629	397.19
351.856	382.19
352.083	407.19
352.311	420.19
352.538	392.19
352.765	405.19
352.992	398.19
353.22	404.19
353.447	388.19
353.674	397.19
353.901	400.19
354.128	390.19
354.355	387.19
354.583	381.19
354.81	392.19
355.037	374.19
355.264	387.19
355.491	370.19
355.718	380.19
355.945	363.19
356.172	392.19
356.399	384.19
356.626	388.19
356.853	382.19
357.08	355.19
357.307	359.19
357.534	363.19
357.761	383.19
357.988	390.19
358.215	359.19
358.441	367.19
358.668	373.19
358.895	371.19
359.122	388.19
359.349	382.19
359.576	399.19
359.802	402.19
360.029	409.19
360.256	459.19
360.483	452.19
360.709	394.19
360.936	396.19
361.163	388.19
361.39	388.19
361.616	401.19
361.843	394.19
362.07	391.19
362.296	412.19
362.523	411.19
362.749	388.19
362.976	375.19
363.203	403.19
363.429	379.19
363.656	403.19
363.882	380.19
364.109	397.19
364.335	375.19
364.562	402.19
364.788	392.19
365.015	396.19
365.241	391.19
365.468	384.19
365.694	390.19
365.92	396.19
366.147	356.19
366.373	376.19
366.599	406.19
366.826	375.19
367.052	398.19
367.278	402.19
367.505	394.19
367.731	399.19
367.957	378.19
368.184	380.19
368.41	389.19
368.636	419.19
368.862	407.19
369.089	403.19
369.315	394.19
369.541	403.19
369.767	398.19
369.993	390.19
370.219	411.19
370.445	412.19
370.672	405.19
370.898	384.19
371.124	406.19
371.35	401.19
371.576	418.19
371.802	398.19
372.028	381.19
372.254	402.19
372.48	420.19
372.706	396.19
372.932	403.19
373.158	401.19
373.384	407.19
373.61	397.19
373.835	417.19
374.061	388.19
374.287	409.19
374.513	396.19
374.739	414.19
374.965	399.19
375.191	405.19
375.416	403.19
375.642	425.19
375.868	428.19
376.094	395.19
376.319	400.19
376.545	387.19
376.771	395.19
376.997	400.19
377.222	407.19
377.448	387.19
377.674	408.19
377.899	383.19
378.125	400.19
378.35	400.19
378.576	387.19
378.802	404.19
379.027	397.19
379.253	394.19
379.478	414.19
379.704	409.19
379.929	390.19
380.155	408.19
380.38	415.19
380.606	416.19
380.831	395.19
381.057	406.19
381.282	410.19
381.507	398.19
381.733	407.19
381.958	402.19
382.184	405.19
382.409	416.19
382.634	402.19
382.86	418.19
383.085	415.19
383.31	406.19
383.535	419.19
383.761	434.19
383.986	441.19
384.211	423.19
384.436	452.19
384.662	442.19
384.887	451.19
385.112	434.19
385.337	444.19
385.562	442.19
385.787	435.19
386.013	426.19
386.238	461.19
386.463	434.19
386.688	441.19
386.913	448.19
387.138	454.19
387.363	438.19
387.588	428.19
387.813	430.19
388.038	473.19
388.263	442.19
388.488	458.19
388.713	460.19
388.938	458.19
389.163	455.19
389.387	472.19
389.612	458.19
389.837	457.19
390.062	422.19
390.287	442.19
390.512	449.19
390.736	468.19
390.961	459.19
391.186	461.19
391.411	445.19
391.636	455.19
391.86	503.19
392.085	481.19
392.31	448.19
392.534	470.19
392.759	464.19
392.984	459.19
393.208	478.19
393.433	480.19
393.658	481.19
393.882	456.19
394.107	456.19
394.331	458.19
394.556	486.19
394.78	458.19
395.005	474.19
395.229	478.19
395.454	476.19
395.678	496.19
395.903	497.19
396.127	492.19
396.352	512.19
396.576	496.19
396.801	477.19
397.025	496.19
397.249	490.19
397.474	482.19
397.698	476.19
397.922	502.19
398.147	531.19
398.371	532.19
398.595	500.19
398.82	489.19
399.044	517.19
399.268	572.19
399.492	585.19
399.717	613.19
399.941	664.19
400.165	642.19
400.389	645.19
400.613	590.19
400.837	568.19
401.062	556.19
401.286	528.19
401.51	519.19
401.734	548.19
401.958	548.19
402.182	557.19
402.406	555.19
402.63	550.19
402.854	574.19
403.078	546.19
403.302	562.19
403.526	551.19
403.75	567.19
403.974	575.19
404.198	572.19
404.422	575.19
404.645	573.19
404.869	558.19
405.093	596.19
405.317	650.19
405.541	650.19
405.765	620.19
405.988	582.19
406.212	600.19
406.436	612.19
406.66	643.19
406.883	619.19
407.107	608.19
407.331	652.19
407.555	718.19
407.778	730.19
408.002	671.19
408.226	627.19
408.449	606.19
408.673	594.19
408.896	620.19
409.12	664.19
409.344	644.19
409.567	605.19
409.791	566.19
410.014	574.19
410.238	562.19
410.461	554.19
410.685	569.19
410.908	584.19
411.132	595.19
411.355	616.19
411.578	599.19
411.802	555.19
412.025	559.19
412.249	592.19
412.472	592.19
412.695	617.19
412.919	615.19
413.142	585.19
413.365	574.19
413.589	554.19
413.812	526.19
414.035	550.19
414.258	538.19
414.482	542.19
414.705	545.19
414.928	537.19
415.151	531.19
415.374	526.19
415.597	532.19
415.821	518.19
416.044	522.19
416.267	534.19
416.49	538.19
416.713	517.19
416.936	532.19
417.159	550.19
417.382	523.19
417.605	528.19
417.828	542.19
418.051	554.19
418.274	522.19
418.497	524.19
418.72	511.19
418.943	530.19
419.166	566.19
419.389	579.19
419.611	576.19
419.834	555.19
420.057	574.19
420.28	556.19
420.503	535.19
420.726	546.19
420.948	563.19
421.171	587.19
421.394	636.19
421.617	559.19
421.839	546.19
422.062	531.19
422.285	561.19
422.507	633.19
422.73	697.19
422.953	653.19
423.175	584.19
423.398	600.19
423.621	553.19
423.843	586.19
424.066	583.19
424.288	582.19
424.511	610.19
424.733	663.19
424.956	710.19
425.178	681.19
425.401	675.19
425.623	694.19
425.846	615.19
426.068	584.19
426.291	586.19
426.513	582.19
426.735	571.19
426.958	599.19
427.18	684.19
427.402	804.19
427.625	874.19
427.847	773.19
428.069	660.19
428.292	592.19
428.514	568.19
428.736	539.19
428.958	534.19
429.181	522.19
429.403	524.19
429.625	505.19
429.847	568.19
430.069	621.19
430.292	634.19
430.514	554.19
430.736	541.19
430.958	529.19
431.18	499.19
431.402	521.19
431.624	504.19
431.846	505.19
432.068	492.19
432.29	500.19
432.512	524.19
432.734	508.19
432.956	520.19
433.178	550.19
433.4	533.19
433.622	515.19
433.844	526.19
434.066	503.19
434.287	504.19
434.509	537.19
434.731	518.19
434.953	526.19
435.175	548.19
435.397	586.19
435.618	584.19
435.84	631.19
436.062	715.19
436.284	765.19
436.505	648.19
436.727	586.19
436.949	550.19
437.17	550.19
437.392	526.19
437.614	551.19
437.835	591.19
438.057	660.19
438.278	734.19
438.5	749.19
438.721	799.19
438.943	769.19
439.165	640.19
439.386	584.19
439.608	564.19
439.829	589.19
440.05	614.19
440.272	648.19
440.493	582.19
440.715	550.19
440.936	540.19
441.158	570.19
441.379	541.19
441.6	556.19
441.822	554.19
442.043	584.19
442.264	680.19
442.486	698.19
442.707	635.19
442.928	600.19
443.149	613.19
443.371	628.19
443.592	640.19
443.813	747.19
444.034	783.19
444.255	655.19
444.476	624.19
444.698	604.19
444.919	600.19
445.14	732.19
445.361	655.19
445.582	624.19
445.803	670.19
446.024	749.19
446.245	761.19
446.466	698.19
446.687	604.19
446.908	559.19
447.129	529.19
447.35	536.19
447.571	567.19
447.792	528.19
448.013	532.19
448.234	564.19
448.455	588.19
448.675	686.19
448.896	789.19
449.117	684.19
449.338	628.19
449.559	709.19
449.779	832.19
450	666.19
450.221	583.19
450.442	526.19
450.662	489.19
450.883	520.19
451.104	539.19
451.324	528.19
451.545	522.19
451.766	488.19
451.986	469.19
452.207	487.19
452.428	471.19
452.648	468.19
452.869	478.19
453.089	473.19
453.31	482.19
453.53	487.19
453.751	481.19
453.971	475.19
454.192	502.19
454.412	454.19
454.633	485.19
454.853	480.19
455.073	466.19
455.294	504.19
455.514	557.19
455.734	550.19
455.955	470.19
456.175	463.19
456.395	470.19
456.616	451.19
456.836	442.19
457.056	450.19
457.276	435.19
457.497	458.19
457.717	457.19
457.937	454.19
458.157	462.19
458.377	486.19
458.598	506.19
458.818	540.19
459.038	591.19
459.258	616.19
459.478	548.19
459.698	522.19
459.918	525.19
460.138	524.19
460.358	510.19
460.578	541.19
460.798	554.19
461.018	540.19
461.238	538.19
461.458	527.19
461.678	526.19
461.898	562.19
462.118	535.19
462.338	575.19
462.558	571.19
462.777	597.19
462.997	603.19
463.217	618.19
463.437	603.19
463.657	594.19
463.876	603.19
464.096	573.19
464.316	621.19
464.536	574.19
464.755	588.19
464.975	592.19
465.195	603.19
465.414	656.19
465.634	594.19
465.854	554.19
466.073	522.19
466.293	503.19
466.512	510.19
466.732	505.19
466.951	498.19
467.171	500.19
467.391	496.19
467.61	527.19
467.829	505.19
468.049	513.19
468.268	515.19
468.488	487.19
468.707	495.19
468.927	480.19
469.146	475.19
469.365	466.19
469.585	487.19
469.804	504.19
470.023	519.19
470.243	511.19
470.462	518.19
470.681	544.19
470.901	523.19
471.12	493.19
471.339	511.19
471.558	519.19
471.777	487.19
471.997	502.19
472.216	522.19
472.435	536.19
472.654	520.19
472.873	523.19
473.092	489.19
473.311	492.19
473.53	491.19
473.749	534.19
473.968	533.19
474.187	615.19
474.406	631.19
474.625	550.19
474.844	512.19
475.063	504.19
475.282	513.19
475.501	498.19
475.72	519.19
475.939	529.19
476.158	528.19
476.377	542.19
476.596	542.19
476.814	525.19
477.033	523.19
477.252	534.19
477.471	545.19
477.69	546.19
477.908	542.19
478.127	555.19
478.346	577.19
478.564	560.19
478.783	566.19
479.002	578.19
479.22	582.19
479.439	572.19
479.658	606.19
479.876	597.19
480.095	604.19
480.313	640.19
480.532	615.19
480.751	641.19
480.969	629.19
481.188	638.19
481.406	681.19
481.624	646.19
481.843	623.19
482.061	600.19
482.28	611.19
482.498	606.19
482.717	596.19
482.935	587.19
483.153	575.19
483.372	596.19
483.59	601.19
483.808	599.19
484.027	587.19
484.245	603.19
484.463	583.19
484.681	617.19
484.9	578.19
485.118	592.19
485.336	614.19
485.554	613.19
485.772	617.19
485.99	621.19
486.209	608.19
486.427	623.19
486.645	623.19
486.863	622.19
487.081	632.19
487.299	621.19
487.517	629.19
487.735	610.19
487.953	628.19
488.171	644.19
488.389	653.19
488.607	641.19
488.825	654.19
489.043	624.19
489.261	642.19
489.479	632.19
489.696	630.19
489.914	616.19
490.132	648.19
490.35	662.19
490.568	654.19
490.786	672.19
491.003	684.19
491.221	707.19
491.439	680.19
491.657	684.19
491.874	728.19
492.092	699.19
492.31	709.19
492.527	722.19
492.745	713.19
492.963	716.19
493.18	716.19
493.398	724.19
493.615	713.19
493.833	722.19
494.05	711.19
494.268	714.19
494.485	712.19
494.703	724.19
494.92	705.19
495.138	724.19
495.355	774.19
495.573	724.19
495.79	721.19
496.008	757.19
496.225	728.19
496.442	758.19
496.66	739.19
496.877	751.19
497.094	757.19
497.312	780.19
497.529	774.19
497.746	800.19
497.963	789.19
498.181	817.19
498.398	822.19
498.615	861.19
498.832	895.19
499.049	877.19
499.267	910.19
499.484	955.19
499.701	1026.19
499.918	991.19
500.135	1088.19
500.352	1154.19
500.569	1197.19
500.786	1178.19
501.003	1196.19
501.22	1097.19
501.437	1058.19
501.654	1029.19
501.871	995.19
