Data from 1979.PennyLincolnUp.Lamp.En5.5.200Scan.071719.P1_HRD10591_16-17-33-864.txt Node
Date: Thu Jul 18 16:17:33 EDT 2019
User: cochatt
Spectrometer: HR+D1059
Trigger mode: 1
Integration Time (sec): 1.000000E-1
Scans to average: 1
Electric dark correction enabled: true
Nonlinearity correction enabled: false
Boxcar width: 0
XAxis mode: Wavelengths
Number of Pixels in Spectrum: 2048
>>>>>Begin Spectral Data<<<<<
223.165	-23.38
223.4	-23.38
223.635	-23.38
223.869	-10.38
224.104	-18.38
224.338	-0.38
224.573	-12.38
224.808	-11.38
225.042	-0.38
225.277	-0.38
225.511	-13.38
225.746	6.62
225.98	4.62
226.215	1.62
226.449	14.62
226.683	14.62
226.918	13.62
227.152	34.62
227.387	34.62
227.621	40.62
227.856	42.62
228.09	38.62
228.324	56.62
228.559	53.62
228.793	71.62
229.027	65.62
229.262	102.62
229.496	110.62
229.73	103.62
229.964	131.62
230.199	119.62
230.433	104.62
230.667	102.62
230.901	103.62
231.136	94.62
231.37	96.62
231.604	104.62
231.838	114.62
232.072	101.62
232.306	115.62
232.541	112.62
232.775	111.62
233.009	103.62
233.243	107.62
233.477	103.62
233.711	107.62
233.945	102.62
234.179	101.62
234.413	105.62
234.647	93.62
234.881	109.62
235.115	114.62
235.349	112.62
235.583	110.62
235.817	110.62
236.051	103.62
236.285	122.62
236.519	104.62
236.753	109.62
236.987	132.62
237.221	135.62
237.455	155.62
237.689	159.62
237.922	120.62
238.156	121.62
238.39	114.62
238.624	113.62
238.858	122.62
239.091	97.62
239.325	116.62
239.559	125.62
239.793	114.62
240.027	124.62
240.26	113.62
240.494	142.62
240.728	122.62
240.961	123.62
241.195	135.62
241.429	127.62
241.662	141.62
241.896	121.62
242.13	119.62
242.363	131.62
242.597	122.62
242.83	136.62
243.064	130.62
243.298	122.62
243.531	123.62
243.765	145.62
243.998	130.62
244.232	135.62
244.465	134.62
244.699	148.62
244.932	116.62
245.166	124.62
245.399	136.62
245.633	133.62
245.866	141.62
246.099	125.62
246.333	124.62
246.566	143.62
246.8	156.62
247.033	119.62
247.266	128.62
247.5	157.62
247.733	158.62
247.966	140.62
248.2	151.62
248.433	134.62
248.666	151.62
248.899	156.62
249.133	170.62
249.366	159.62
249.599	147.62
249.832	141.62
250.066	169.62
250.299	154.62
250.532	166.62
250.765	162.62
250.998	191.62
251.231	182.62
251.465	182.62
251.698	170.62
251.931	159.62
252.164	161.62
252.397	172.62
252.63	172.62
252.863	195.62
253.096	181.62
253.329	181.62
253.562	184.62
253.795	178.62
254.028	166.62
254.261	176.62
254.494	185.62
254.727	203.62
254.96	207.62
255.193	206.62
255.426	214.62
255.659	195.62
255.892	165.62
256.124	174.62
256.357	195.62
256.59	177.62
256.823	193.62
257.056	197.62
257.289	182.62
257.521	166.62
257.754	173.62
257.987	189.62
258.22	172.62
258.452	185.62
258.685	173.62
258.918	178.62
259.151	167.62
259.383	189.62
259.616	197.62
259.849	180.62
260.081	181.62
260.314	201.62
260.547	195.62
260.779	195.62
261.012	194.62
261.244	190.62
261.477	181.62
261.71	193.62
261.942	182.62
262.175	191.62
262.407	184.62
262.64	180.62
262.872	170.62
263.105	181.62
263.337	173.62
263.57	173.62
263.802	190.62
264.035	164.62
264.267	181.62
264.499	191.62
264.732	180.62
264.964	196.62
265.197	188.62
265.429	193.62
265.661	182.62
265.894	173.62
266.126	186.62
266.358	185.62
266.591	198.62
266.823	191.62
267.055	206.62
267.287	208.62
267.52	189.62
267.752	197.62
267.984	188.62
268.216	194.62
268.448	190.62
268.681	200.62
268.913	202.62
269.145	218.62
269.377	203.62
269.609	211.62
269.841	210.62
270.073	225.62
270.306	227.62
270.538	259.62
270.77	242.62
271.002	225.62
271.234	224.62
271.466	229.62
271.698	238.62
271.93	245.62
272.162	232.62
272.394	242.62
272.626	230.62
272.858	228.62
273.09	231.62
273.322	235.62
273.553	219.62
273.785	229.62
274.017	241.62
274.249	211.62
274.481	242.62
274.713	232.62
274.945	216.62
275.176	236.62
275.408	218.62
275.64	223.62
275.872	218.62
276.104	210.62
276.335	216.62
276.567	218.62
276.799	231.62
277.031	248.62
277.262	252.62
277.494	263.62
277.726	241.62
277.957	237.62
278.189	229.62
278.421	228.62
278.652	221.62
278.884	215.62
279.115	228.62
279.347	237.62
279.579	224.62
279.81	227.62
280.042	218.62
280.273	233.62
280.505	231.62
280.736	234.62
280.968	215.62
281.199	219.62
281.431	227.62
281.662	231.62
281.894	216.62
282.125	220.62
282.356	246.62
282.588	240.62
282.819	250.62
283.051	239.62
283.282	221.62
283.513	254.62
283.745	253.62
283.976	234.62
284.207	247.62
284.439	244.62
284.67	229.62
284.901	248.62
285.132	225.62
285.364	245.62
285.595	247.62
285.826	239.62
286.057	257.62
286.288	257.62
286.52	238.62
286.751	249.62
286.982	261.62
287.213	251.62
287.444	248.62
287.675	258.62
287.906	247.62
288.138	256.62
288.369	261.62
288.6	264.62
288.831	249.62
289.062	264.62
289.293	258.62
289.524	261.62
289.755	246.62
289.986	271.62
290.217	261.62
290.448	244.62
290.679	254.62
290.91	264.62
291.141	258.62
291.371	248.62
291.602	243.62
291.833	241.62
292.064	235.62
292.295	257.62
292.526	255.62
292.757	247.62
292.987	249.62
293.218	260.62
293.449	248.62
293.68	246.62
293.91	258.62
294.141	260.62
294.372	258.62
294.603	271.62
294.833	253.62
295.064	267.62
295.295	260.62
295.525	262.62
295.756	261.62
295.987	271.62
296.217	274.62
296.448	289.62
296.679	270.62
296.909	248.62
297.14	280.62
297.37	275.62
297.601	276.62
297.831	250.62
298.062	272.62
298.292	271.62
298.523	272.62
298.753	273.62
298.984	285.62
299.214	284.62
299.445	277.62
299.675	270.62
299.905	291.62
300.136	285.62
300.366	289.62
300.597	278.62
300.827	279.62
301.057	282.62
301.288	281.62
301.518	284.62
301.748	289.62
301.979	289.62
302.209	288.62
302.439	282.62
302.669	278.62
302.9	293.62
303.13	263.62
303.36	285.62
303.59	296.62
303.82	322.62
304.051	291.62
304.281	285.62
304.511	271.62
304.741	288.62
304.971	290.62
305.201	303.62
305.431	294.62
305.661	286.62
305.891	291.62
306.121	289.62
306.352	300.62
306.582	300.62
306.812	301.62
307.042	291.62
307.272	277.62
307.502	277.62
307.731	285.62
307.961	281.62
308.191	292.62
308.421	293.62
308.651	281.62
308.881	307.62
309.111	275.62
309.341	315.62
309.571	288.62
309.8	306.62
310.03	310.62
310.26	314.62
310.49	302.62
310.72	297.62
310.949	319.62
311.179	325.62
311.409	319.62
311.639	306.62
311.868	309.62
312.098	317.62
312.328	323.62
312.557	312.62
312.787	326.62
313.017	343.62
313.246	325.62
313.476	328.62
313.706	331.62
313.935	328.62
314.165	331.62
314.394	333.62
314.624	327.62
314.853	327.62
315.083	311.62
315.312	341.62
315.542	314.62
315.771	335.62
316.001	327.62
316.23	340.62
316.46	334.62
316.689	316.62
316.919	324.62
317.148	334.62
317.377	326.62
317.607	320.62
317.836	329.62
318.065	317.62
318.295	322.62
318.524	333.62
318.753	318.62
318.983	320.62
319.212	316.62
319.441	330.62
319.67	333.62
319.9	315.62
320.129	311.62
320.358	325.62
320.587	332.62
320.816	333.62
321.046	343.62
321.275	342.62
321.504	357.62
321.733	324.62
321.962	334.62
322.191	344.62
322.42	341.62
322.649	340.62
322.878	359.62
323.108	357.62
323.337	375.62
323.566	381.62
323.795	379.62
324.024	412.62
324.253	464.62
324.482	626.62
324.71	912.62
324.939	1405.62
325.168	1178.62
325.397	610.62
325.626	447.62
325.855	429.62
326.084	377.62
326.313	373.62
326.542	387.62
326.77	413.62
326.999	482.62
327.228	613.62
327.457	876.62
327.686	1046.62
327.914	689.62
328.143	483.62
328.372	430.62
328.6	427.62
328.829	403.62
329.058	418.62
329.287	433.62
329.515	430.62
329.744	379.62
329.972	406.62
330.201	391.62
330.43	417.62
330.658	425.62
330.887	461.62
331.115	431.62
331.344	410.62
331.572	391.62
331.801	387.62
332.03	395.62
332.258	379.62
332.486	394.62
332.715	427.62
332.943	386.62
333.172	396.62
333.4	401.62
333.629	402.62
333.857	394.62
334.085	409.62
334.314	423.62
334.542	426.62
334.771	444.62
334.999	423.62
335.227	404.62
335.455	408.62
335.684	388.62
335.912	427.62
336.14	396.62
336.369	381.62
336.597	394.62
336.825	381.62
337.053	380.62
337.281	408.62
337.51	387.62
337.738	395.62
337.966	384.62
338.194	391.62
338.422	394.62
338.65	393.62
338.878	391.62
339.106	373.62
339.334	383.62
339.562	375.62
339.79	387.62
340.018	375.62
340.246	373.62
340.474	384.62
340.702	381.62
340.93	381.62
341.158	389.62
341.386	375.62
341.614	375.62
341.842	393.62
342.07	389.62
342.298	389.62
342.526	358.62
342.754	358.62
342.981	382.62
343.209	367.62
343.437	373.62
343.665	376.62
343.893	388.62
344.12	410.62
344.348	410.62
344.576	385.62
344.804	389.62
345.031	392.62
345.259	375.62
345.487	407.62
345.714	382.62
345.942	374.62
346.17	392.62
346.397	361.62
346.625	362.62
346.853	383.62
347.08	363.62
347.308	359.62
347.535	353.62
347.763	374.62
347.99	391.62
348.218	371.62
348.445	373.62
348.673	370.62
348.9	373.62
349.128	355.62
349.355	327.62
349.583	372.62
349.81	362.62
350.037	386.62
350.265	360.62
350.492	351.62
350.72	350.62
350.947	347.62
351.174	351.62
351.402	347.62
351.629	362.62
351.856	359.62
352.083	367.62
352.311	365.62
352.538	365.62
352.765	374.62
352.992	379.62
353.22	377.62
353.447	357.62
353.674	354.62
353.901	371.62
354.128	369.62
354.355	360.62
354.583	361.62
354.81	361.62
355.037	338.62
355.264	347.62
355.491	351.62
355.718	354.62
355.945	344.62
356.172	353.62
356.399	353.62
356.626	357.62
356.853	346.62
357.08	335.62
357.307	341.62
357.534	330.62
357.761	357.62
357.988	369.62
358.215	348.62
358.441	367.62
358.668	345.62
358.895	358.62
359.122	341.62
359.349	362.62
359.576	377.62
359.802	379.62
360.029	369.62
360.256	393.62
360.483	380.62
360.709	358.62
360.936	364.62
361.163	347.62
361.39	358.62
361.616	346.62
361.843	357.62
362.07	346.62
362.296	357.62
362.523	352.62
362.749	368.62
362.976	354.62
363.203	369.62
363.429	346.62
363.656	353.62
363.882	366.62
364.109	341.62
364.335	373.62
364.562	345.62
364.788	369.62
365.015	377.62
365.241	367.62
365.468	356.62
365.694	369.62
365.92	358.62
366.147	365.62
366.373	349.62
366.599	362.62
366.826	360.62
367.052	351.62
367.278	372.62
367.505	369.62
367.731	375.62
367.957	356.62
368.184	376.62
368.41	351.62
368.636	371.62
368.862	371.62
369.089	377.62
369.315	364.62
369.541	365.62
369.767	387.62
369.993	379.62
370.219	392.62
370.445	373.62
370.672	345.62
370.898	373.62
371.124	363.62
371.35	389.62
371.576	373.62
371.802	388.62
372.028	389.62
372.254	374.62
372.48	371.62
372.706	392.62
372.932	391.62
373.158	374.62
373.384	370.62
373.61	399.62
373.835	386.62
374.061	390.62
374.287	403.62
374.513	375.62
374.739	375.62
374.965	395.62
375.191	403.62
375.416	401.62
375.642	382.62
375.868	399.62
376.094	394.62
376.319	389.62
376.545	365.62
376.771	385.62
376.997	371.62
377.222	371.62
377.448	381.62
377.674	382.62
377.899	383.62
378.125	383.62
378.35	367.62
378.576	377.62
378.802	389.62
379.027	385.62
379.253	378.62
379.478	389.62
379.704	391.62
379.929	389.62
380.155	350.62
380.38	375.62
380.606	373.62
380.831	383.62
381.057	366.62
381.282	365.62
381.507	378.62
381.733	383.62
381.958	384.62
382.184	392.62
382.409	410.62
382.634	393.62
382.86	403.62
383.085	425.62
383.31	423.62
383.535	400.62
383.761	429.62
383.986	417.62
384.211	394.62
384.436	413.62
384.662	415.62
384.887	428.62
385.112	405.62
385.337	442.62
385.562	411.62
385.787	427.62
386.013	423.62
386.238	419.62
386.463	442.62
386.688	440.62
386.913	434.62
387.138	415.62
387.363	443.62
387.588	427.62
387.813	438.62
388.038	427.62
388.263	450.62
388.488	436.62
388.713	443.62
388.938	406.62
389.163	432.62
389.387	435.62
389.612	423.62
389.837	424.62
390.062	408.62
390.287	430.62
390.512	435.62
390.736	417.62
390.961	433.62
391.186	408.62
391.411	431.62
391.636	438.62
391.86	447.62
392.085	451.62
392.31	445.62
392.534	452.62
392.759	459.62
392.984	442.62
393.208	449.62
393.433	467.62
393.658	478.62
393.882	443.62
394.107	456.62
394.331	447.62
394.556	445.62
394.78	457.62
395.005	476.62
395.229	435.62
395.454	433.62
395.678	453.62
395.903	441.62
396.127	481.62
396.352	470.62
396.576	469.62
396.801	464.62
397.025	491.62
397.249	473.62
397.474	478.62
397.698	467.62
397.922	511.62
398.147	486.62
398.371	505.62
398.595	493.62
398.82	502.62
399.044	508.62
399.268	530.62
399.492	558.62
399.717	606.62
399.941	618.62
400.165	627.62
400.389	616.62
400.613	583.62
400.837	544.62
401.062	539.62
401.286	551.62
401.51	474.62
401.734	515.62
401.958	525.62
402.182	524.62
402.406	491.62
402.63	523.62
402.854	498.62
403.078	513.62
403.302	526.62
403.526	525.62
403.75	535.62
403.974	526.62
404.198	517.62
404.422	543.62
404.645	517.62
404.869	546.62
405.093	571.62
405.317	571.62
405.541	599.62
405.765	560.62
405.988	542.62
406.212	544.62
406.436	572.62
406.66	573.62
406.883	589.62
407.107	577.62
407.331	619.62
407.555	678.62
407.778	652.62
408.002	605.62
408.226	603.62
408.449	599.62
408.673	573.62
408.896	618.62
409.12	617.62
409.344	610.62
409.567	559.62
409.791	554.62
410.014	527.62
410.238	542.62
410.461	533.62
410.685	546.62
410.908	542.62
411.132	553.62
411.355	601.62
411.578	566.62
411.802	552.62
412.025	525.62
412.249	555.62
412.472	549.62
412.695	597.62
412.919	571.62
413.142	517.62
413.365	519.62
413.589	531.62
413.812	513.62
414.035	500.62
414.258	511.62
414.482	502.62
414.705	514.62
414.928	514.62
415.151	525.62
415.374	521.62
415.597	517.62
415.821	493.62
416.044	515.62
416.267	495.62
416.49	491.62
416.713	498.62
416.936	511.62
417.159	511.62
417.382	511.62
417.605	500.62
417.828	517.62
418.051	511.62
418.274	502.62
418.497	498.62
418.72	510.62
418.943	524.62
419.166	535.62
419.389	554.62
419.611	561.62
419.834	535.62
420.057	538.62
420.28	516.62
420.503	517.62
420.726	517.62
420.948	526.62
421.171	559.62
421.394	570.62
421.617	522.62
421.839	535.62
422.062	527.62
422.285	527.62
422.507	567.62
422.73	627.62
422.953	619.62
423.175	563.62
423.398	535.62
423.621	525.62
423.843	545.62
424.066	526.62
424.288	541.62
424.511	532.62
424.733	605.62
424.956	659.62
425.178	595.62
425.401	616.62
425.623	637.62
425.846	549.62
426.068	550.62
426.291	544.62
426.513	545.62
426.735	535.62
426.958	579.62
427.18	620.62
427.402	716.62
427.625	799.62
427.847	676.62
428.069	590.62
428.292	547.62
428.514	515.62
428.736	505.62
428.958	507.62
429.181	499.62
429.403	515.62
429.625	483.62
429.847	522.62
430.069	569.62
430.292	582.62
430.514	525.62
430.736	494.62
430.958	485.62
431.18	485.62
431.402	491.62
431.624	488.62
431.846	489.62
432.068	478.62
432.29	484.62
432.512	484.62
432.734	482.62
432.956	488.62
433.178	509.62
433.4	478.62
433.622	491.62
433.844	501.62
434.066	477.62
434.287	486.62
434.509	511.62
434.731	497.62
434.953	501.62
435.175	527.62
435.397	527.62
435.618	526.62
435.84	550.62
436.062	628.62
436.284	669.62
436.505	577.62
436.727	552.62
436.949	501.62
437.17	507.62
437.392	507.62
437.614	499.62
437.835	526.62
438.057	569.62
438.278	661.62
438.5	678.62
438.721	744.62
438.943	712.62
439.165	539.62
439.386	519.62
439.608	515.62
439.829	534.62
440.05	554.62
440.272	563.62
440.493	546.62
440.715	509.62
440.936	494.62
441.158	509.62
441.379	519.62
441.6	515.62
441.822	540.62
442.043	553.62
442.264	636.62
442.486	666.62
442.707	576.62
442.928	551.62
443.149	551.62
443.371	555.62
443.592	584.62
443.813	679.62
444.034	710.62
444.255	607.62
444.476	570.62
444.698	559.62
444.919	574.62
445.14	671.62
445.361	621.62
445.582	559.62
445.803	603.62
446.024	692.62
446.245	674.62
446.466	623.62
446.687	581.62
446.908	530.62
447.129	512.62
447.35	501.62
447.571	499.62
447.792	475.62
448.013	492.62
448.234	500.62
448.455	539.62
448.675	630.62
448.896	697.62
449.117	590.62
449.338	577.62
449.559	655.62
449.779	761.62
450	630.62
450.221	491.62
450.442	485.62
450.662	486.62
450.883	466.62
451.104	486.62
451.324	465.62
451.545	461.62
451.766	465.62
451.986	435.62
452.207	443.62
452.428	439.62
452.648	449.62
452.869	449.62
453.089	462.62
453.31	475.62
453.53	441.62
453.751	443.62
453.971	447.62
454.192	443.62
454.412	427.62
454.633	443.62
454.853	415.62
455.073	437.62
455.294	460.62
455.514	508.62
455.734	467.62
455.955	431.62
456.175	445.62
456.395	429.62
456.616	409.62
456.836	419.62
457.056	421.62
457.276	431.62
457.497	436.62
457.717	437.62
457.937	437.62
458.157	439.62
458.377	442.62
458.598	476.62
458.818	493.62
459.038	552.62
459.258	538.62
459.478	499.62
459.698	472.62
459.918	473.62
460.138	490.62
460.358	479.62
460.578	511.62
460.798	527.62
461.018	522.62
461.238	522.62
461.458	502.62
461.678	519.62
461.898	518.62
462.118	519.62
462.338	543.62
462.558	539.62
462.777	562.62
462.997	578.62
463.217	581.62
463.437	611.62
463.657	559.62
463.876	571.62
464.096	570.62
464.316	555.62
464.536	577.62
464.755	564.62
464.975	540.62
465.195	561.62
465.414	578.62
465.634	534.62
465.854	528.62
466.073	479.62
466.293	476.62
466.512	463.62
466.732	475.62
466.951	482.62
467.171	483.62
467.391	479.62
467.61	470.62
467.829	487.62
468.049	466.62
468.268	457.62
468.488	475.62
468.707	451.62
468.927	447.62
469.146	475.62
469.365	475.62
469.585	460.62
469.804	455.62
470.023	483.62
470.243	476.62
470.462	476.62
470.681	501.62
470.901	490.62
471.12	481.62
471.339	498.62
471.558	460.62
471.777	462.62
471.997	450.62
472.216	460.62
472.435	494.62
472.654	494.62
472.873	478.62
473.092	460.62
473.311	473.62
473.53	485.62
473.749	459.62
473.968	502.62
474.187	558.62
474.406	585.62
474.625	522.62
474.844	491.62
475.063	492.62
475.282	474.62
475.501	484.62
475.72	486.62
475.939	498.62
476.158	503.62
476.377	493.62
476.596	494.62
476.814	502.62
477.033	504.62
477.252	499.62
477.471	514.62
477.69	501.62
477.908	523.62
478.127	546.62
478.346	528.62
478.564	516.62
478.783	519.62
479.002	551.62
479.22	534.62
479.439	543.62
479.658	561.62
479.876	578.62
480.095	573.62
480.313	586.62
480.532	606.62
480.751	575.62
480.969	584.62
481.188	599.62
481.406	614.62
481.624	586.62
481.843	573.62
482.061	566.62
482.28	572.62
482.498	562.62
482.717	550.62
482.935	563.62
483.153	567.62
483.372	554.62
483.59	573.62
483.808	587.62
484.027	562.62
484.245	550.62
484.463	555.62
484.681	550.62
484.9	579.62
485.118	577.62
485.336	557.62
485.554	564.62
485.772	598.62
485.99	577.62
486.209	587.62
486.427	572.62
486.645	574.62
486.863	597.62
487.081	582.62
487.299	591.62
487.517	593.62
487.735	603.62
487.953	603.62
488.171	600.62
488.389	595.62
488.607	596.62
488.825	589.62
489.043	591.62
489.261	586.62
489.479	611.62
489.696	593.62
489.914	603.62
490.132	605.62
490.35	611.62
490.568	632.62
490.786	629.62
491.003	652.62
491.221	645.62
491.439	644.62
491.657	653.62
491.874	674.62
492.092	651.62
492.31	691.62
492.527	646.62
492.745	655.62
492.963	661.62
493.18	654.62
493.398	675.62
493.615	659.62
493.833	675.62
494.05	684.62
494.268	679.62
494.485	666.62
494.703	671.62
494.92	691.62
495.138	682.62
495.355	687.62
495.573	680.62
495.79	698.62
496.008	715.62
496.225	669.62
496.442	689.62
496.66	679.62
496.877	714.62
497.094	728.62
497.312	713.62
497.529	739.62
497.746	742.62
497.963	748.62
498.181	775.62
498.398	787.62
498.615	822.62
498.832	823.62
499.049	881.62
499.267	890.62
499.484	900.62
499.701	965.62
499.918	1018.62
500.135	1057.62
500.352	1096.62
500.569	1141.62
500.786	1117.62
501.003	1113.62
501.22	1065.62
501.437	1042.62
501.654	975.62
501.871	961.62
