Data from 1979.PennyLincolnUp.Lamp.En5.5.200Scan.071719.P1_HRD10591_16-19-51-862.txt Node
Date: Thu Jul 18 16:19:51 EDT 2019
User: cochatt
Spectrometer: HR+D1059
Trigger mode: 1
Integration Time (sec): 1.000000E-1
Scans to average: 1
Electric dark correction enabled: true
Nonlinearity correction enabled: false
Boxcar width: 0
XAxis mode: Wavelengths
Number of Pixels in Spectrum: 2048
>>>>>Begin Spectral Data<<<<<
223.165	-11.25
223.4	-11.25
223.635	-11.25
223.869	-20.25
224.104	-21.25
224.338	-14.25
224.573	-21.25
224.808	-14.25
225.042	-10.25
225.277	-11.25
225.511	3.75
225.746	6.75
225.98	8.75
226.215	21.75
226.449	12.75
226.683	17.75
226.918	28.75
227.152	23.75
227.387	27.75
227.621	34.75
227.856	31.75
228.09	45.75
228.324	42.75
228.559	49.75
228.793	72.75
229.027	89.75
229.262	101.75
229.496	111.75
229.73	121.75
229.964	161.75
230.199	125.75
230.433	113.75
230.667	110.75
230.901	108.75
231.136	117.75
231.37	117.75
231.604	99.75
231.838	123.75
232.072	124.75
232.306	114.75
232.541	112.75
232.775	117.75
233.009	109.75
233.243	113.75
233.477	125.75
233.711	113.75
233.945	109.75
234.179	112.75
234.413	106.75
234.647	113.75
234.881	107.75
235.115	111.75
235.349	120.75
235.583	127.75
235.817	113.75
236.051	137.75
236.285	123.75
236.519	134.75
236.753	135.75
236.987	121.75
237.221	173.75
237.455	219.75
237.689	164.75
237.922	131.75
238.156	137.75
238.39	121.75
238.624	125.75
238.858	134.75
239.091	117.75
239.325	126.75
239.559	133.75
239.793	139.75
240.027	138.75
240.26	131.75
240.494	166.75
240.728	165.75
240.961	169.75
241.195	155.75
241.429	151.75
241.662	131.75
241.896	119.75
242.13	133.75
242.363	133.75
242.597	136.75
242.83	147.75
243.064	154.75
243.298	132.75
243.531	140.75
243.765	154.75
243.998	155.75
244.232	139.75
244.465	138.75
244.699	133.75
244.932	129.75
245.166	144.75
245.399	156.75
245.633	139.75
245.866	161.75
246.099	148.75
246.333	146.75
246.566	170.75
246.8	149.75
247.033	167.75
247.266	157.75
247.5	156.75
247.733	159.75
247.966	171.75
248.2	178.75
248.433	176.75
248.666	184.75
248.899	185.75
249.133	193.75
249.366	198.75
249.599	197.75
249.832	168.75
250.066	188.75
250.299	184.75
250.532	194.75
250.765	194.75
250.998	210.75
251.231	215.75
251.465	218.75
251.698	200.75
251.931	206.75
252.164	223.75
252.397	188.75
252.63	197.75
252.863	191.75
253.096	207.75
253.329	218.75
253.562	213.75
253.795	192.75
254.028	205.75
254.261	227.75
254.494	207.75
254.727	228.75
254.96	238.75
255.193	263.75
255.426	239.75
255.659	204.75
255.892	219.75
256.124	227.75
256.357	229.75
256.59	195.75
256.823	195.75
257.056	208.75
257.289	195.75
257.521	204.75
257.754	210.75
257.987	210.75
258.22	208.75
258.452	206.75
258.685	201.75
258.918	215.75
259.151	200.75
259.383	217.75
259.616	212.75
259.849	226.75
260.081	230.75
260.314	259.75
260.547	242.75
260.779	236.75
261.012	230.75
261.244	231.75
261.477	233.75
261.71	226.75
261.942	224.75
262.175	237.75
262.407	231.75
262.64	219.75
262.872	213.75
263.105	205.75
263.337	213.75
263.57	210.75
263.802	210.75
264.035	212.75
264.267	194.75
264.499	220.75
264.732	232.75
264.964	217.75
265.197	203.75
265.429	221.75
265.661	205.75
265.894	219.75
266.126	216.75
266.358	212.75
266.591	215.75
266.823	204.75
267.055	227.75
267.287	230.75
267.52	216.75
267.752	216.75
267.984	235.75
268.216	238.75
268.448	229.75
268.681	241.75
268.913	233.75
269.145	249.75
269.377	257.75
269.609	258.75
269.841	263.75
270.073	261.75
270.306	272.75
270.538	307.75
270.77	301.75
271.002	288.75
271.234	272.75
271.466	289.75
271.698	305.75
271.93	291.75
272.162	286.75
272.394	298.75
272.626	278.75
272.858	255.75
273.09	259.75
273.322	272.75
273.553	266.75
273.785	242.75
274.017	247.75
274.249	259.75
274.481	247.75
274.713	258.75
274.945	245.75
275.176	265.75
275.408	274.75
275.64	241.75
275.872	248.75
276.104	267.75
276.335	264.75
276.567	270.75
276.799	275.75
277.031	291.75
277.262	300.75
277.494	327.75
277.726	305.75
277.957	275.75
278.189	276.75
278.421	267.75
278.652	254.75
278.884	267.75
279.115	253.75
279.347	285.75
279.579	274.75
279.81	271.75
280.042	255.75
280.273	254.75
280.505	278.75
280.736	245.75
280.968	241.75
281.199	259.75
281.431	267.75
281.662	269.75
281.894	261.75
282.125	286.75
282.356	285.75
282.588	295.75
282.819	297.75
283.051	260.75
283.282	281.75
283.513	283.75
283.745	264.75
283.976	264.75
284.207	287.75
284.439	258.75
284.67	265.75
284.901	288.75
285.132	275.75
285.364	282.75
285.595	285.75
285.826	267.75
286.057	267.75
286.288	261.75
286.52	297.75
286.751	284.75
286.982	291.75
287.213	278.75
287.444	287.75
287.675	288.75
287.906	281.75
288.138	276.75
288.369	319.75
288.6	307.75
288.831	292.75
289.062	275.75
289.293	298.75
289.524	306.75
289.755	281.75
289.986	265.75
290.217	313.75
290.448	288.75
290.679	270.75
290.91	283.75
291.141	281.75
291.371	284.75
291.602	281.75
291.833	305.75
292.064	277.75
292.295	306.75
292.526	311.75
292.757	292.75
292.987	291.75
293.218	284.75
293.449	296.75
293.68	278.75
293.91	286.75
294.141	301.75
294.372	281.75
294.603	319.75
294.833	283.75
295.064	285.75
295.295	291.75
295.525	305.75
295.756	296.75
295.987	314.75
296.217	319.75
296.448	327.75
296.679	305.75
296.909	307.75
297.14	316.75
297.37	315.75
297.601	288.75
297.831	303.75
298.062	291.75
298.292	311.75
298.523	293.75
298.753	320.75
298.984	306.75
299.214	309.75
299.445	318.75
299.675	303.75
299.905	323.75
300.136	323.75
300.366	327.75
300.597	316.75
300.827	313.75
301.057	332.75
301.288	337.75
301.518	323.75
301.748	313.75
301.979	315.75
302.209	338.75
302.439	334.75
302.669	344.75
302.9	332.75
303.13	331.75
303.36	342.75
303.59	329.75
303.82	329.75
304.051	339.75
304.281	329.75
304.511	340.75
304.741	329.75
304.971	317.75
305.201	325.75
305.431	315.75
305.661	342.75
305.891	328.75
306.121	335.75
306.352	336.75
306.582	332.75
306.812	328.75
307.042	338.75
307.272	327.75
307.502	315.75
307.731	335.75
307.961	341.75
308.191	345.75
308.421	327.75
308.651	347.75
308.881	351.75
309.111	342.75
309.341	344.75
309.571	355.75
309.8	374.75
310.03	375.75
310.26	353.75
310.49	358.75
310.72	363.75
310.949	381.75
311.179	406.75
311.409	373.75
311.639	364.75
311.868	379.75
312.098	384.75
312.328	380.75
312.557	392.75
312.787	415.75
313.017	410.75
313.246	388.75
313.476	361.75
313.706	376.75
313.935	376.75
314.165	398.75
314.394	399.75
314.624	399.75
314.853	387.75
315.083	370.75
315.312	381.75
315.542	390.75
315.771	363.75
316.001	371.75
316.23	382.75
316.46	377.75
316.689	388.75
316.919	385.75
317.148	387.75
317.377	389.75
317.607	376.75
317.836	380.75
318.065	380.75
318.295	375.75
318.524	377.75
318.753	377.75
318.983	379.75
319.212	379.75
319.441	395.75
319.67	412.75
319.9	393.75
320.129	380.75
320.358	397.75
320.587	393.75
320.816	396.75
321.046	381.75
321.275	389.75
321.504	391.75
321.733	406.75
321.962	403.75
322.191	405.75
322.42	441.75
322.649	429.75
322.878	422.75
323.108	449.75
323.337	476.75
323.566	492.75
323.795	516.75
324.024	556.75
324.253	652.75
324.482	958.75
324.71	1463.75
324.939	2248.75
325.168	1886.75
325.397	922.75
325.626	621.75
325.855	535.75
326.084	502.75
326.313	480.75
326.542	479.75
326.77	541.75
326.999	615.75
327.228	864.75
327.457	1328.75
327.686	1658.75
327.914	1033.75
328.143	691.75
328.372	616.75
328.6	580.75
328.829	570.75
329.058	563.75
329.287	555.75
329.515	520.75
329.744	497.75
329.972	509.75
330.201	518.75
330.43	556.75
330.658	584.75
330.887	587.75
331.115	582.75
331.344	522.75
331.572	493.75
331.801	506.75
332.03	488.75
332.258	453.75
332.486	460.75
332.715	453.75
332.943	470.75
333.172	464.75
333.4	482.75
333.629	475.75
333.857	493.75
334.085	502.75
334.314	516.75
334.542	540.75
334.771	567.75
334.999	521.75
335.227	505.75
335.455	463.75
335.684	475.75
335.912	470.75
336.14	467.75
336.369	468.75
336.597	475.75
336.825	485.75
337.053	470.75
337.281	452.75
337.51	431.75
337.738	448.75
337.966	444.75
338.194	444.75
338.422	454.75
338.65	456.75
338.878	459.75
339.106	453.75
339.334	446.75
339.562	438.75
339.79	440.75
340.018	454.75
340.246	435.75
340.474	443.75
340.702	444.75
340.93	423.75
341.158	430.75
341.386	437.75
341.614	439.75
341.842	423.75
342.07	434.75
342.298	418.75
342.526	437.75
342.754	426.75
342.981	406.75
343.209	430.75
343.437	429.75
343.665	434.75
343.893	455.75
344.12	448.75
344.348	458.75
344.576	439.75
344.804	455.75
345.031	454.75
345.259	462.75
345.487	456.75
345.714	438.75
345.942	440.75
346.17	426.75
346.397	434.75
346.625	443.75
346.853	434.75
347.08	428.75
347.308	445.75
347.535	429.75
347.763	445.75
347.99	434.75
348.218	422.75
348.445	437.75
348.673	433.75
348.9	429.75
349.128	407.75
349.355	421.75
349.583	422.75
349.81	421.75
350.037	442.75
350.265	424.75
350.492	425.75
350.72	401.75
350.947	409.75
351.174	449.75
351.402	452.75
351.629	425.75
351.856	433.75
352.083	445.75
352.311	451.75
352.538	460.75
352.765	449.75
352.992	439.75
353.22	437.75
353.447	430.75
353.674	425.75
353.901	429.75
354.128	406.75
354.355	390.75
354.583	406.75
354.81	416.75
355.037	410.75
355.264	399.75
355.491	409.75
355.718	393.75
355.945	402.75
356.172	399.75
356.399	395.75
356.626	414.75
356.853	399.75
357.08	395.75
357.307	432.75
357.534	415.75
357.761	414.75
357.988	413.75
358.215	423.75
358.441	414.75
358.668	421.75
358.895	395.75
359.122	408.75
359.349	406.75
359.576	428.75
359.802	449.75
360.029	469.75
360.256	485.75
360.483	474.75
360.709	421.75
360.936	434.75
361.163	433.75
361.39	432.75
361.616	426.75
361.843	419.75
362.07	454.75
362.296	419.75
362.523	436.75
362.749	428.75
362.976	427.75
363.203	398.75
363.429	404.75
363.656	418.75
363.882	436.75
364.109	418.75
364.335	415.75
364.562	405.75
364.788	413.75
365.015	397.75
365.241	395.75
365.468	416.75
365.694	427.75
365.92	431.75
366.147	399.75
366.373	421.75
366.599	417.75
366.826	412.75
367.052	426.75
367.278	407.75
367.505	425.75
367.731	409.75
367.957	430.75
368.184	405.75
368.41	430.75
368.636	454.75
368.862	449.75
369.089	438.75
369.315	407.75
369.541	432.75
369.767	409.75
369.993	434.75
370.219	413.75
370.445	421.75
370.672	445.75
370.898	425.75
371.124	415.75
371.35	428.75
371.576	424.75
371.802	415.75
372.028	430.75
372.254	456.75
372.48	449.75
372.706	440.75
372.932	442.75
373.158	419.75
373.384	430.75
373.61	428.75
373.835	435.75
374.061	441.75
374.287	431.75
374.513	436.75
374.739	455.75
374.965	460.75
375.191	447.75
375.416	434.75
375.642	425.75
375.868	462.75
376.094	413.75
376.319	422.75
376.545	444.75
376.771	435.75
376.997	453.75
377.222	413.75
377.448	429.75
377.674	418.75
377.899	404.75
378.125	413.75
378.35	423.75
378.576	427.75
378.802	424.75
379.027	425.75
379.253	433.75
379.478	433.75
379.704	435.75
379.929	436.75
380.155	420.75
380.38	433.75
380.606	433.75
380.831	428.75
381.057	445.75
381.282	420.75
381.507	436.75
381.733	429.75
381.958	421.75
382.184	434.75
382.409	442.75
382.634	421.75
382.86	441.75
383.085	425.75
383.31	421.75
383.535	468.75
383.761	429.75
383.986	441.75
384.211	446.75
384.436	468.75
384.662	471.75
384.887	468.75
385.112	465.75
385.337	444.75
385.562	469.75
385.787	469.75
386.013	478.75
386.238	491.75
386.463	472.75
386.688	486.75
386.913	470.75
387.138	469.75
387.363	469.75
387.588	469.75
387.813	453.75
388.038	488.75
388.263	499.75
388.488	499.75
388.713	473.75
388.938	484.75
389.163	464.75
389.387	478.75
389.612	482.75
389.837	486.75
390.062	469.75
390.287	485.75
390.512	490.75
390.736	490.75
390.961	473.75
391.186	484.75
391.411	499.75
391.636	495.75
391.86	510.75
392.085	515.75
392.31	507.75
392.534	513.75
392.759	506.75
392.984	485.75
393.208	481.75
393.433	490.75
393.658	486.75
393.882	484.75
394.107	484.75
394.331	456.75
394.556	472.75
394.78	474.75
395.005	485.75
395.229	515.75
395.454	513.75
395.678	495.75
395.903	502.75
396.127	546.75
396.352	529.75
396.576	503.75
396.801	501.75
397.025	498.75
397.249	511.75
397.474	518.75
397.698	531.75
397.922	550.75
398.147	550.75
398.371	559.75
398.595	540.75
398.82	550.75
399.044	563.75
399.268	584.75
399.492	632.75
399.717	666.75
399.941	673.75
400.165	701.75
400.389	704.75
400.613	633.75
400.837	589.75
401.062	602.75
401.286	582.75
401.51	567.75
401.734	591.75
401.958	597.75
402.182	566.75
402.406	606.75
402.63	597.75
402.854	576.75
403.078	588.75
403.302	594.75
403.526	611.75
403.75	601.75
403.974	597.75
404.198	621.75
404.422	628.75
404.645	605.75
404.869	595.75
405.093	617.75
405.317	652.75
405.541	705.75
405.765	655.75
405.988	609.75
406.212	638.75
406.436	673.75
406.66	667.75
406.883	650.75
407.107	659.75
407.331	703.75
407.555	773.75
407.778	773.75
408.002	732.75
408.226	689.75
408.449	665.75
408.673	659.75
408.896	666.75
409.12	685.75
409.344	690.75
409.567	637.75
409.791	626.75
410.014	605.75
410.238	589.75
410.461	618.75
410.685	612.75
410.908	600.75
411.132	654.75
411.355	689.75
411.578	646.75
411.802	631.75
412.025	601.75
412.249	619.75
412.472	632.75
412.695	681.75
412.919	641.75
413.142	596.75
413.365	604.75
413.589	598.75
413.812	571.75
414.035	583.75
414.258	580.75
414.482	567.75
414.705	562.75
414.928	575.75
415.151	587.75
415.374	567.75
415.597	549.75
415.821	563.75
416.044	572.75
416.267	568.75
416.49	564.75
416.713	583.75
416.936	541.75
417.159	565.75
417.382	571.75
417.605	566.75
417.828	593.75
418.051	595.75
418.274	588.75
418.497	560.75
418.72	550.75
418.943	565.75
419.166	580.75
419.389	583.75
419.611	606.75
419.834	589.75
420.057	585.75
420.28	571.75
420.503	570.75
420.726	588.75
420.948	582.75
421.171	642.75
421.394	659.75
421.617	612.75
421.839	609.75
422.062	611.75
422.285	588.75
422.507	662.75
422.73	727.75
422.953	686.75
423.175	625.75
423.398	606.75
423.621	615.75
423.843	609.75
424.066	645.75
424.288	648.75
424.511	635.75
424.733	703.75
424.956	774.75
425.178	746.75
425.401	751.75
425.623	771.75
425.846	677.75
426.068	612.75
426.291	602.75
426.513	621.75
426.735	609.75
426.958	679.75
427.18	741.75
427.402	881.75
427.625	953.75
427.847	850.75
428.069	756.75
428.292	655.75
428.514	616.75
428.736	577.75
428.958	587.75
429.181	588.75
429.403	581.75
429.625	568.75
429.847	605.75
430.069	687.75
430.292	659.75
430.514	600.75
430.736	577.75
430.958	579.75
431.18	545.75
431.402	537.75
431.624	555.75
431.846	543.75
432.068	558.75
432.29	555.75
432.512	551.75
432.734	566.75
432.956	552.75
433.178	557.75
433.4	582.75
433.622	570.75
433.844	574.75
434.066	536.75
434.287	557.75
434.509	559.75
434.731	561.75
434.953	569.75
435.175	603.75
435.397	618.75
435.618	618.75
435.84	670.75
436.062	765.75
436.284	831.75
436.505	689.75
436.727	633.75
436.949	585.75
437.17	583.75
437.392	569.75
437.614	588.75
437.835	617.75
438.057	701.75
438.278	812.75
438.5	781.75
438.721	866.75
438.943	830.75
439.165	678.75
439.386	643.75
439.608	628.75
439.829	606.75
440.05	666.75
440.272	719.75
440.493	669.75
440.715	630.75
440.936	590.75
441.158	588.75
441.379	607.75
441.6	599.75
441.822	630.75
442.043	637.75
442.264	740.75
442.486	776.75
442.707	681.75
442.928	643.75
443.149	663.75
443.371	667.75
443.592	712.75
443.813	813.75
444.034	869.75
444.255	716.75
444.476	662.75
444.698	619.75
444.919	640.75
445.14	737.75
445.361	679.75
445.582	685.75
445.803	756.75
446.024	837.75
446.245	844.75
446.466	767.75
446.687	677.75
446.908	614.75
447.129	593.75
447.35	583.75
447.571	573.75
447.792	560.75
448.013	544.75
448.234	581.75
448.455	639.75
448.675	746.75
448.896	862.75
449.117	733.75
449.338	694.75
449.559	782.75
449.779	903.75
450	733.75
450.221	607.75
450.442	593.75
450.662	556.75
450.883	556.75
451.104	568.75
451.324	580.75
451.545	528.75
451.766	554.75
451.986	513.75
452.207	511.75
452.428	518.75
452.648	511.75
452.869	531.75
453.089	531.75
453.31	524.75
453.53	517.75
453.751	518.75
453.971	521.75
454.192	542.75
454.412	525.75
454.633	517.75
454.853	485.75
455.073	518.75
455.294	503.75
455.514	570.75
455.734	556.75
455.955	510.75
456.175	470.75
456.395	479.75
456.616	475.75
456.836	489.75
457.056	490.75
457.276	459.75
457.497	489.75
457.717	486.75
457.937	487.75
458.157	504.75
458.377	494.75
458.598	554.75
458.818	587.75
459.038	668.75
459.258	679.75
459.478	609.75
459.698	578.75
459.918	573.75
460.138	550.75
460.358	582.75
460.578	559.75
460.798	575.75
461.018	584.75
461.238	569.75
461.458	577.75
461.678	596.75
461.898	584.75
462.118	591.75
462.338	588.75
462.558	587.75
462.777	608.75
462.997	617.75
463.217	661.75
463.437	664.75
463.657	636.75
463.876	601.75
464.096	616.75
464.316	630.75
464.536	611.75
464.755	627.75
464.975	641.75
465.195	640.75
465.414	738.75
465.634	651.75
465.854	589.75
466.073	585.75
466.293	553.75
466.512	537.75
466.732	557.75
466.951	513.75
467.171	514.75
467.391	542.75
467.61	527.75
467.829	560.75
468.049	534.75
468.268	540.75
468.488	528.75
468.707	522.75
468.927	508.75
469.146	522.75
469.365	525.75
469.585	531.75
469.804	517.75
470.023	532.75
470.243	558.75
470.462	553.75
470.681	562.75
470.901	552.75
471.12	540.75
471.339	557.75
471.558	546.75
471.777	552.75
471.997	525.75
472.216	541.75
472.435	581.75
472.654	565.75
472.873	519.75
473.092	531.75
473.311	513.75
473.53	533.75
473.749	531.75
473.968	564.75
474.187	678.75
474.406	713.75
474.625	585.75
474.844	547.75
475.063	552.75
475.282	548.75
475.501	549.75
475.72	532.75
475.939	525.75
476.158	534.75
476.377	568.75
476.596	552.75
476.814	578.75
477.033	559.75
477.252	578.75
477.471	574.75
477.69	575.75
477.908	583.75
478.127	608.75
478.346	607.75
478.564	595.75
478.783	603.75
479.002	634.75
479.22	627.75
479.439	641.75
479.658	671.75
479.876	649.75
480.095	652.75
480.313	697.75
480.532	682.75
480.751	667.75
480.969	707.75
481.188	734.75
481.406	771.75
481.624	685.75
481.843	635.75
482.061	652.75
482.28	642.75
482.498	625.75
482.717	648.75
482.935	650.75
483.153	634.75
483.372	616.75
483.59	633.75
483.808	637.75
484.027	616.75
484.245	635.75
484.463	631.75
484.681	647.75
484.9	625.75
485.118	637.75
485.336	635.75
485.554	641.75
485.772	656.75
485.99	652.75
486.209	659.75
486.427	672.75
486.645	683.75
486.863	674.75
487.081	660.75
487.299	673.75
487.517	667.75
487.735	663.75
487.953	667.75
488.171	683.75
488.389	692.75
488.607	674.75
488.825	686.75
489.043	685.75
489.261	691.75
489.479	687.75
489.696	667.75
489.914	682.75
490.132	681.75
490.35	715.75
490.568	712.75
490.786	709.75
491.003	706.75
491.221	750.75
491.439	740.75
491.657	761.75
491.874	775.75
492.092	748.75
492.31	777.75
492.527	781.75
492.745	761.75
492.963	781.75
493.18	761.75
493.398	786.75
493.615	825.75
493.833	777.75
494.05	776.75
494.268	778.75
494.485	777.75
494.703	757.75
494.92	761.75
495.138	796.75
495.355	814.75
495.573	768.75
495.79	780.75
496.008	802.75
496.225	792.75
496.442	809.75
496.66	775.75
496.877	811.75
497.094	807.75
497.312	820.75
497.529	815.75
497.746	863.75
497.963	867.75
498.181	873.75
498.398	876.75
498.615	913.75
498.832	926.75
499.049	973.75
499.267	980.75
499.484	1021.75
499.701	1089.75
499.918	1118.75
500.135	1182.75
500.352	1232.75
500.569	1242.75
500.786	1286.75
501.003	1195.75
501.22	1207.75
501.437	1154.75
501.654	1085.75
501.871	1057.75
