Data from 1979.PennyLincolnUp.Lamp.En5.5.200Scan.071719.P1_HRD10591_16-19-23-863.txt Node
Date: Thu Jul 18 16:19:23 EDT 2019
User: cochatt
Spectrometer: HR+D1059
Trigger mode: 1
Integration Time (sec): 1.000000E-1
Scans to average: 1
Electric dark correction enabled: true
Nonlinearity correction enabled: false
Boxcar width: 0
XAxis mode: Wavelengths
Number of Pixels in Spectrum: 2048
>>>>>Begin Spectral Data<<<<<
223.165	-14.38
223.4	-14.38
223.635	-14.38
223.869	-22.38
224.104	-14.38
224.338	-19.38
224.573	-11.38
224.808	-13.38
225.042	-6.38
225.277	-22.38
225.511	-3.38
225.746	6.62
225.98	-10.38
226.215	10.62
226.449	28.62
226.683	25.62
226.918	27.62
227.152	38.62
227.387	24.62
227.621	43.62
227.856	53.62
228.09	41.62
228.324	39.62
228.559	58.62
228.793	62.62
229.027	101.62
229.262	110.62
229.496	101.62
229.73	119.62
229.964	152.62
230.199	119.62
230.433	102.62
230.667	107.62
230.901	94.62
231.136	102.62
231.37	106.62
231.604	117.62
231.838	114.62
232.072	113.62
232.306	112.62
232.541	102.62
232.775	110.62
233.009	118.62
233.243	132.62
233.477	100.62
233.711	114.62
233.945	127.62
234.179	114.62
234.413	117.62
234.647	111.62
234.881	110.62
235.115	124.62
235.349	114.62
235.583	113.62
235.817	124.62
236.051	130.62
236.285	124.62
236.519	112.62
236.753	134.62
236.987	128.62
237.221	171.62
237.455	203.62
237.689	189.62
237.922	131.62
238.156	138.62
238.39	132.62
238.624	112.62
238.858	116.62
239.091	108.62
239.325	117.62
239.559	116.62
239.793	132.62
240.027	128.62
240.26	129.62
240.494	149.62
240.728	151.62
240.961	154.62
241.195	142.62
241.429	121.62
241.662	123.62
241.896	116.62
242.13	115.62
242.363	126.62
242.597	137.62
242.83	136.62
243.064	139.62
243.298	145.62
243.531	132.62
243.765	134.62
243.998	141.62
244.232	127.62
244.465	135.62
244.699	136.62
244.932	131.62
245.166	134.62
245.399	148.62
245.633	147.62
245.866	142.62
246.099	152.62
246.333	137.62
246.566	156.62
246.8	140.62
247.033	148.62
247.266	157.62
247.5	159.62
247.733	166.62
247.966	171.62
248.2	155.62
248.433	168.62
248.666	169.62
248.899	170.62
249.133	187.62
249.366	192.62
249.599	189.62
249.832	182.62
250.066	171.62
250.299	182.62
250.532	173.62
250.765	182.62
250.998	200.62
251.231	219.62
251.465	188.62
251.698	189.62
251.931	188.62
252.164	172.62
252.397	178.62
252.63	180.62
252.863	175.62
253.096	191.62
253.329	194.62
253.562	200.62
253.795	199.62
254.028	203.62
254.261	193.62
254.494	211.62
254.727	210.62
254.96	268.62
255.193	248.62
255.426	227.62
255.659	214.62
255.892	214.62
256.124	213.62
256.357	215.62
256.59	197.62
256.823	192.62
257.056	202.62
257.289	195.62
257.521	189.62
257.754	200.62
257.987	189.62
258.22	205.62
258.452	194.62
258.685	206.62
258.918	192.62
259.151	204.62
259.383	203.62
259.616	202.62
259.849	208.62
260.081	216.62
260.314	218.62
260.547	240.62
260.779	220.62
261.012	218.62
261.244	219.62
261.477	203.62
261.71	222.62
261.942	229.62
262.175	209.62
262.407	228.62
262.64	222.62
262.872	198.62
263.105	212.62
263.337	212.62
263.57	199.62
263.802	217.62
264.035	215.62
264.267	211.62
264.499	220.62
264.732	217.62
264.964	221.62
265.197	211.62
265.429	218.62
265.661	210.62
265.894	223.62
266.126	226.62
266.358	207.62
266.591	213.62
266.823	209.62
267.055	219.62
267.287	217.62
267.52	214.62
267.752	212.62
267.984	220.62
268.216	231.62
268.448	219.62
268.681	226.62
268.913	219.62
269.145	260.62
269.377	260.62
269.609	263.62
269.841	237.62
270.073	232.62
270.306	262.62
270.538	292.62
270.77	294.62
271.002	282.62
271.234	250.62
271.466	283.62
271.698	274.62
271.93	283.62
272.162	280.62
272.394	297.62
272.626	253.62
272.858	252.62
273.09	262.62
273.322	240.62
273.553	237.62
273.785	256.62
274.017	254.62
274.249	244.62
274.481	271.62
274.713	270.62
274.945	253.62
275.176	252.62
275.408	261.62
275.64	243.62
275.872	242.62
276.104	241.62
276.335	256.62
276.567	252.62
276.799	256.62
277.031	291.62
277.262	285.62
277.494	290.62
277.726	291.62
277.957	265.62
278.189	258.62
278.421	250.62
278.652	252.62
278.884	244.62
279.115	246.62
279.347	238.62
279.579	261.62
279.81	249.62
280.042	268.62
280.273	234.62
280.505	248.62
280.736	261.62
280.968	245.62
281.199	264.62
281.431	260.62
281.662	261.62
281.894	267.62
282.125	276.62
282.356	274.62
282.588	291.62
282.819	282.62
283.051	274.62
283.282	258.62
283.513	266.62
283.745	276.62
283.976	279.62
284.207	276.62
284.439	261.62
284.67	275.62
284.901	270.62
285.132	262.62
285.364	262.62
285.595	263.62
285.826	266.62
286.057	267.62
286.288	260.62
286.52	277.62
286.751	256.62
286.982	274.62
287.213	277.62
287.444	281.62
287.675	274.62
287.906	287.62
288.138	279.62
288.369	286.62
288.6	300.62
288.831	293.62
289.062	284.62
289.293	278.62
289.524	268.62
289.755	262.62
289.986	269.62
290.217	273.62
290.448	274.62
290.679	276.62
290.91	276.62
291.141	278.62
291.371	282.62
291.602	276.62
291.833	272.62
292.064	283.62
292.295	279.62
292.526	294.62
292.757	294.62
292.987	276.62
293.218	285.62
293.449	275.62
293.68	266.62
293.91	278.62
294.141	285.62
294.372	296.62
294.603	282.62
294.833	308.62
295.064	291.62
295.295	276.62
295.525	274.62
295.756	282.62
295.987	278.62
296.217	314.62
296.448	334.62
296.679	295.62
296.909	288.62
297.14	302.62
297.37	292.62
297.601	282.62
297.831	294.62
298.062	277.62
298.292	303.62
298.523	289.62
298.753	289.62
298.984	292.62
299.214	304.62
299.445	309.62
299.675	302.62
299.905	292.62
300.136	314.62
300.366	342.62
300.597	300.62
300.827	311.62
301.057	308.62
301.288	323.62
301.518	314.62
301.748	321.62
301.979	334.62
302.209	313.62
302.439	315.62
302.669	346.62
302.9	292.62
303.13	306.62
303.36	305.62
303.59	318.62
303.82	333.62
304.051	301.62
304.281	315.62
304.511	324.62
304.741	312.62
304.971	340.62
305.201	325.62
305.431	325.62
305.661	329.62
305.891	320.62
306.121	317.62
306.352	331.62
306.582	330.62
306.812	325.62
307.042	330.62
307.272	323.62
307.502	329.62
307.731	315.62
307.961	330.62
308.191	301.62
308.421	329.62
308.651	336.62
308.881	325.62
309.111	330.62
309.341	333.62
309.571	333.62
309.8	356.62
310.03	359.62
310.26	354.62
310.49	360.62
310.72	353.62
310.949	365.62
311.179	378.62
311.409	372.62
311.639	372.62
311.868	354.62
312.098	380.62
312.328	359.62
312.557	380.62
312.787	384.62
313.017	378.62
313.246	391.62
313.476	360.62
313.706	352.62
313.935	374.62
314.165	392.62
314.394	378.62
314.624	394.62
314.853	374.62
315.083	369.62
315.312	364.62
315.542	378.62
315.771	364.62
316.001	368.62
316.23	364.62
316.46	348.62
316.689	373.62
316.919	356.62
317.148	364.62
317.377	388.62
317.607	358.62
317.836	351.62
318.065	370.62
318.295	368.62
318.524	374.62
318.753	345.62
318.983	372.62
319.212	390.62
319.441	378.62
319.67	388.62
319.9	370.62
320.129	384.62
320.358	381.62
320.587	374.62
320.816	393.62
321.046	402.62
321.275	382.62
321.504	396.62
321.733	395.62
321.962	375.62
322.191	402.62
322.42	410.62
322.649	418.62
322.878	415.62
323.108	424.62
323.337	453.62
323.566	484.62
323.795	507.62
324.024	533.62
324.253	624.62
324.482	890.62
324.71	1372.62
324.939	2056.62
325.168	1758.62
325.397	861.62
325.626	603.62
325.855	529.62
326.084	489.62
326.313	483.62
326.542	485.62
326.77	522.62
326.999	592.62
327.228	801.62
327.457	1232.62
327.686	1521.62
327.914	999.62
328.143	654.62
328.372	583.62
328.6	525.62
328.829	493.62
329.058	511.62
329.287	547.62
329.515	508.62
329.744	464.62
329.972	464.62
330.201	484.62
330.43	528.62
330.658	548.62
330.887	576.62
331.115	543.62
331.344	486.62
331.572	472.62
331.801	464.62
332.03	492.62
332.258	448.62
332.486	448.62
332.715	438.62
332.943	429.62
333.172	441.62
333.4	452.62
333.629	460.62
333.857	476.62
334.085	471.62
334.314	486.62
334.542	545.62
334.771	552.62
334.999	512.62
335.227	455.62
335.455	477.62
335.684	456.62
335.912	442.62
336.14	448.62
336.369	444.62
336.597	448.62
336.825	459.62
337.053	444.62
337.281	435.62
337.51	451.62
337.738	447.62
337.966	462.62
338.194	436.62
338.422	456.62
338.65	429.62
338.878	422.62
339.106	420.62
339.334	436.62
339.562	409.62
339.79	412.62
340.018	448.62
340.246	432.62
340.474	440.62
340.702	448.62
340.93	420.62
341.158	420.62
341.386	437.62
341.614	446.62
341.842	426.62
342.07	411.62
342.298	432.62
342.526	423.62
342.754	435.62
342.981	424.62
343.209	432.62
343.437	431.62
343.665	437.62
343.893	429.62
344.12	438.62
344.348	444.62
344.576	444.62
344.804	439.62
345.031	452.62
345.259	459.62
345.487	445.62
345.714	435.62
345.942	406.62
346.17	414.62
346.397	403.62
346.625	398.62
346.853	410.62
347.08	395.62
347.308	419.62
347.535	424.62
347.763	428.62
347.99	422.62
348.218	412.62
348.445	418.62
348.673	426.62
348.9	404.62
349.128	414.62
349.355	395.62
349.583	408.62
349.81	412.62
350.037	397.62
350.265	416.62
350.492	388.62
350.72	420.62
350.947	403.62
351.174	404.62
351.402	424.62
351.629	412.62
351.856	424.62
352.083	429.62
352.311	440.62
352.538	436.62
352.765	414.62
352.992	423.62
353.22	433.62
353.447	418.62
353.674	427.62
353.901	398.62
354.128	408.62
354.355	380.62
354.583	397.62
354.81	384.62
355.037	410.62
355.264	390.62
355.491	396.62
355.718	396.62
355.945	377.62
356.172	395.62
356.399	380.62
356.626	399.62
356.853	388.62
357.08	376.62
357.307	410.62
357.534	411.62
357.761	408.62
357.988	392.62
358.215	396.62
358.441	389.62
358.668	394.62
358.895	397.62
359.122	404.62
359.349	414.62
359.576	433.62
359.802	424.62
360.029	433.62
360.256	469.62
360.483	441.62
360.709	435.62
360.936	426.62
361.163	414.62
361.39	422.62
361.616	412.62
361.843	406.62
362.07	419.62
362.296	440.62
362.523	428.62
362.749	415.62
362.976	399.62
363.203	416.62
363.429	424.62
363.656	418.62
363.882	448.62
364.109	409.62
364.335	427.62
364.562	405.62
364.788	404.62
365.015	414.62
365.241	405.62
365.468	406.62
365.694	418.62
365.92	403.62
366.147	413.62
366.373	426.62
366.599	390.62
366.826	419.62
367.052	428.62
367.278	403.62
367.505	405.62
367.731	414.62
367.957	411.62
368.184	414.62
368.41	395.62
368.636	424.62
368.862	420.62
369.089	411.62
369.315	402.62
369.541	410.62
369.767	409.62
369.993	397.62
370.219	416.62
370.445	420.62
370.672	416.62
370.898	413.62
371.124	410.62
371.35	404.62
371.576	434.62
371.802	420.62
372.028	397.62
372.254	396.62
372.48	421.62
372.706	409.62
372.932	416.62
373.158	418.62
373.384	436.62
373.61	435.62
373.835	434.62
374.061	421.62
374.287	447.62
374.513	426.62
374.739	433.62
374.965	440.62
375.191	449.62
375.416	422.62
375.642	428.62
375.868	421.62
376.094	424.62
376.319	419.62
376.545	414.62
376.771	418.62
376.997	409.62
377.222	397.62
377.448	401.62
377.674	402.62
377.899	396.62
378.125	421.62
378.35	411.62
378.576	415.62
378.802	413.62
379.027	415.62
379.253	418.62
379.478	429.62
379.704	417.62
379.929	409.62
380.155	406.62
380.38	398.62
380.606	404.62
380.831	404.62
381.057	418.62
381.282	408.62
381.507	412.62
381.733	416.62
381.958	406.62
382.184	417.62
382.409	421.62
382.634	415.62
382.86	422.62
383.085	431.62
383.31	442.62
383.535	423.62
383.761	445.62
383.986	443.62
384.211	452.62
384.436	443.62
384.662	468.62
384.887	464.62
385.112	460.62
385.337	468.62
385.562	445.62
385.787	461.62
386.013	484.62
386.238	460.62
386.463	477.62
386.688	471.62
386.913	466.62
387.138	466.62
387.363	469.62
387.588	452.62
387.813	436.62
388.038	470.62
388.263	457.62
388.488	482.62
388.713	469.62
388.938	482.62
389.163	473.62
389.387	498.62
389.612	470.62
389.837	464.62
390.062	438.62
390.287	489.62
390.512	488.62
390.736	487.62
390.961	457.62
391.186	466.62
391.411	499.62
391.636	476.62
391.86	466.62
392.085	497.62
392.31	484.62
392.534	511.62
392.759	481.62
392.984	490.62
393.208	486.62
393.433	490.62
393.658	498.62
393.882	501.62
394.107	477.62
394.331	483.62
394.556	463.62
394.78	459.62
395.005	456.62
395.229	469.62
395.454	479.62
395.678	480.62
395.903	526.62
396.127	537.62
396.352	515.62
396.576	505.62
396.801	493.62
397.025	508.62
397.249	517.62
397.474	534.62
397.698	520.62
397.922	530.62
398.147	543.62
398.371	566.62
398.595	536.62
398.82	550.62
399.044	573.62
399.268	578.62
399.492	610.62
399.717	658.62
399.941	673.62
400.165	706.62
400.389	683.62
400.613	621.62
400.837	585.62
401.062	567.62
401.286	557.62
401.51	566.62
401.734	570.62
401.958	570.62
402.182	554.62
402.406	562.62
402.63	583.62
402.854	597.62
403.078	553.62
403.302	583.62
403.526	594.62
403.75	602.62
403.974	564.62
404.198	560.62
404.422	597.62
404.645	582.62
404.869	581.62
405.093	612.62
405.317	666.62
405.541	690.62
405.765	627.62
405.988	626.62
406.212	628.62
406.436	636.62
406.66	621.62
406.883	614.62
407.107	652.62
407.331	672.62
407.555	746.62
407.778	784.62
408.002	689.62
408.226	658.62
408.449	648.62
408.673	622.62
408.896	678.62
409.12	694.62
409.344	668.62
409.567	636.62
409.791	613.62
410.014	584.62
410.238	596.62
410.461	581.62
410.685	591.62
410.908	606.62
411.132	645.62
411.355	652.62
411.578	645.62
411.802	602.62
412.025	576.62
412.249	583.62
412.472	621.62
412.695	687.62
412.919	634.62
413.142	611.62
413.365	584.62
413.589	574.62
413.812	580.62
414.035	579.62
414.258	573.62
414.482	565.62
414.705	568.62
414.928	576.62
415.151	557.62
415.374	553.62
415.597	553.62
415.821	531.62
416.044	555.62
416.267	569.62
416.49	544.62
416.713	548.62
416.936	551.62
417.159	543.62
417.382	584.62
417.605	534.62
417.828	557.62
418.051	557.62
418.274	562.62
418.497	569.62
418.72	552.62
418.943	566.62
419.166	608.62
419.389	622.62
419.611	612.62
419.834	568.62
420.057	596.62
420.28	561.62
420.503	574.62
420.726	572.62
420.948	558.62
421.171	616.62
421.394	658.62
421.617	589.62
421.839	588.62
422.062	579.62
422.285	588.62
422.507	641.62
422.73	704.62
422.953	696.62
423.175	622.62
423.398	603.62
423.621	605.62
423.843	597.62
424.066	624.62
424.288	596.62
424.511	633.62
424.733	684.62
424.956	752.62
425.178	707.62
425.401	737.62
425.623	747.62
425.846	653.62
426.068	601.62
426.291	579.62
426.513	617.62
426.735	601.62
426.958	652.62
427.18	725.62
427.402	840.62
427.625	962.62
427.847	798.62
428.069	698.62
428.292	624.62
428.514	613.62
428.736	559.62
428.958	576.62
429.181	544.62
429.403	544.62
429.625	580.62
429.847	617.62
430.069	651.62
430.292	649.62
430.514	570.62
430.736	576.62
430.958	581.62
431.18	539.62
431.402	549.62
431.624	531.62
431.846	523.62
432.068	548.62
432.29	530.62
432.512	550.62
432.734	569.62
432.956	520.62
433.178	541.62
433.4	557.62
433.622	543.62
433.844	538.62
434.066	540.62
434.287	531.62
434.509	546.62
434.731	555.62
434.953	577.62
435.175	555.62
435.397	592.62
435.618	613.62
435.84	645.62
436.062	723.62
436.284	822.62
436.505	664.62
436.727	617.62
436.949	588.62
437.17	572.62
437.392	552.62
437.614	580.62
437.835	606.62
438.057	689.62
438.278	772.62
438.5	778.62
438.721	848.62
438.943	826.62
439.165	667.62
439.386	596.62
439.608	627.62
439.829	597.62
440.05	628.62
440.272	687.62
440.493	620.62
440.715	588.62
440.936	574.62
441.158	563.62
441.379	557.62
441.6	589.62
441.822	583.62
442.043	635.62
442.264	722.62
442.486	752.62
442.707	660.62
442.928	618.62
443.149	630.62
443.371	638.62
443.592	655.62
443.813	802.62
444.034	825.62
444.255	724.62
444.476	638.62
444.698	637.62
444.919	606.62
445.14	729.62
445.361	642.62
445.582	660.62
445.803	702.62
446.024	802.62
446.245	795.62
446.466	739.62
446.687	640.62
446.908	579.62
447.129	562.62
447.35	557.62
447.571	546.62
447.792	538.62
448.013	558.62
448.234	557.62
448.455	644.62
448.675	745.62
448.896	813.62
449.117	689.62
449.338	679.62
449.559	801.62
449.779	896.62
450	718.62
450.221	586.62
450.442	556.62
450.662	539.62
450.883	550.62
451.104	554.62
451.324	512.62
451.545	533.62
451.766	518.62
451.986	493.62
452.207	515.62
452.428	491.62
452.648	504.62
452.869	512.62
453.089	499.62
453.31	527.62
453.53	524.62
453.751	510.62
453.971	516.62
454.192	494.62
454.412	496.62
454.633	498.62
454.853	477.62
455.073	482.62
455.294	518.62
455.514	568.62
455.734	570.62
455.955	499.62
456.175	484.62
456.395	477.62
456.616	481.62
456.836	491.62
457.056	475.62
457.276	469.62
457.497	465.62
457.717	488.62
457.937	481.62
458.157	525.62
458.377	501.62
458.598	521.62
458.818	560.62
459.038	619.62
459.258	675.62
459.478	568.62
459.698	546.62
459.918	550.62
460.138	541.62
460.358	530.62
460.578	547.62
460.798	565.62
461.018	564.62
461.238	557.62
461.458	553.62
461.678	568.62
461.898	576.62
462.118	574.62
462.338	602.62
462.558	592.62
462.777	585.62
462.997	633.62
463.217	634.62
463.437	658.62
463.657	618.62
463.876	602.62
464.096	624.62
464.316	615.62
464.536	606.62
464.755	600.62
464.975	609.62
465.195	634.62
465.414	681.62
465.634	600.62
465.854	577.62
466.073	569.62
466.293	556.62
466.512	526.62
466.732	529.62
466.951	535.62
467.171	530.62
467.391	522.62
467.61	533.62
467.829	534.62
468.049	536.62
468.268	518.62
468.488	520.62
468.707	509.62
468.927	522.62
469.146	506.62
469.365	527.62
469.585	509.62
469.804	497.62
470.023	503.62
470.243	529.62
470.462	530.62
470.681	544.62
470.901	541.62
471.12	533.62
471.339	535.62
471.558	531.62
471.777	544.62
471.997	526.62
472.216	532.62
472.435	565.62
472.654	552.62
472.873	531.62
473.092	534.62
473.311	525.62
473.53	534.62
473.749	516.62
473.968	555.62
474.187	644.62
474.406	661.62
474.625	588.62
474.844	525.62
475.063	526.62
475.282	541.62
475.501	533.62
475.72	540.62
475.939	552.62
476.158	565.62
476.377	550.62
476.596	538.62
476.814	533.62
477.033	545.62
477.252	575.62
477.471	564.62
477.69	545.62
477.908	561.62
478.127	576.62
478.346	587.62
478.564	598.62
478.783	614.62
479.002	616.62
479.22	618.62
479.439	633.62
479.658	609.62
479.876	618.62
480.095	626.62
480.313	669.62
480.532	658.62
480.751	646.62
480.969	674.62
481.188	729.62
481.406	730.62
481.624	657.62
481.843	652.62
482.061	635.62
482.28	628.62
482.498	610.62
482.717	638.62
482.935	654.62
483.153	609.62
483.372	618.62
483.59	598.62
483.808	580.62
484.027	602.62
484.245	613.62
484.463	624.62
484.681	621.62
484.9	621.62
485.118	646.62
485.336	609.62
485.554	620.62
485.772	644.62
485.99	625.62
486.209	634.62
486.427	660.62
486.645	689.62
486.863	671.62
487.081	664.62
487.299	652.62
487.517	657.62
487.735	666.62
487.953	662.62
488.171	645.62
488.389	645.62
488.607	659.62
488.825	652.62
489.043	668.62
489.261	675.62
489.479	697.62
489.696	676.62
489.914	672.62
490.132	672.62
490.35	660.62
490.568	679.62
490.786	706.62
491.003	698.62
491.221	712.62
491.439	716.62
491.657	738.62
491.874	705.62
492.092	741.62
492.31	784.62
492.527	765.62
492.745	756.62
492.963	754.62
493.18	771.62
493.398	778.62
493.615	758.62
493.833	787.62
494.05	786.62
494.268	758.62
494.485	774.62
494.703	750.62
494.92	762.62
495.138	753.62
495.355	753.62
495.573	781.62
495.79	778.62
496.008	804.62
496.225	789.62
496.442	780.62
496.66	782.62
496.877	778.62
497.094	770.62
497.312	798.62
497.529	810.62
497.746	833.62
497.963	830.62
498.181	870.62
498.398	870.62
498.615	872.62
498.832	912.62
499.049	914.62
499.267	955.62
499.484	990.62
499.701	1066.62
499.918	1110.62
500.135	1128.62
500.352	1204.62
500.569	1234.62
500.786	1228.62
501.003	1245.62
501.22	1188.62
501.437	1106.62
501.654	1046.62
