Data from 1979.PennyLincolnUp.Lamp.En5.5.200Scan.071719.P1_HRD10591_16-17-34-863.txt Node
Date: Thu Jul 18 16:17:34 EDT 2019
User: cochatt
Spectrometer: HR+D1059
Trigger mode: 1
Integration Time (sec): 1.000000E-1
Scans to average: 1
Electric dark correction enabled: true
Nonlinearity correction enabled: false
Boxcar width: 0
XAxis mode: Wavelengths
Number of Pixels in Spectrum: 2048
>>>>>Begin Spectral Data<<<<<
223.165	-12.25
223.4	-12.25
223.635	-12.25
223.869	-31.25
224.104	-11.25
224.338	-14.25
224.573	-9.25
224.808	-11.25
225.042	6.75
225.277	-11.25
225.511	-3.25
225.746	-2.25
225.98	8.75
226.215	14.75
226.449	9.75
226.683	13.75
226.918	33.75
227.152	18.75
227.387	27.75
227.621	32.75
227.856	35.75
228.09	41.75
228.324	38.75
228.559	43.75
228.793	73.75
229.027	81.75
229.262	83.75
229.496	88.75
229.73	122.75
229.964	125.75
230.199	107.75
230.433	97.75
230.667	83.75
230.901	109.75
231.136	84.75
231.37	114.75
231.604	101.75
231.838	104.75
232.072	105.75
232.306	100.75
232.541	98.75
232.775	102.75
233.009	110.75
233.243	81.75
233.477	97.75
233.711	106.75
233.945	118.75
234.179	124.75
234.413	110.75
234.647	110.75
234.881	125.75
235.115	114.75
235.349	93.75
235.583	121.75
235.817	116.75
236.051	105.75
236.285	122.75
236.519	120.75
236.753	120.75
236.987	118.75
237.221	156.75
237.455	194.75
237.689	141.75
237.922	119.75
238.156	113.75
238.39	116.75
238.624	114.75
238.858	100.75
239.091	117.75
239.325	119.75
239.559	105.75
239.793	124.75
240.027	112.75
240.26	120.75
240.494	105.75
240.728	139.75
240.961	124.75
241.195	138.75
241.429	128.75
241.662	116.75
241.896	116.75
242.13	122.75
242.363	120.75
242.597	137.75
242.83	118.75
243.064	147.75
243.298	151.75
243.531	122.75
243.765	135.75
243.998	125.75
244.232	138.75
244.465	132.75
244.699	141.75
244.932	132.75
245.166	148.75
245.399	138.75
245.633	140.75
245.866	131.75
246.099	143.75
246.333	125.75
246.566	132.75
246.8	119.75
247.033	157.75
247.266	136.75
247.5	126.75
247.733	138.75
247.966	142.75
248.2	156.75
248.433	149.75
248.666	153.75
248.899	157.75
249.133	163.75
249.366	161.75
249.599	164.75
249.832	161.75
250.066	163.75
250.299	154.75
250.532	175.75
250.765	163.75
250.998	185.75
251.231	164.75
251.465	171.75
251.698	172.75
251.931	173.75
252.164	150.75
252.397	166.75
252.63	164.75
252.863	160.75
253.096	171.75
253.329	181.75
253.562	173.75
253.795	161.75
254.028	189.75
254.261	182.75
254.494	177.75
254.727	204.75
254.96	217.75
255.193	196.75
255.426	208.75
255.659	184.75
255.892	196.75
256.124	177.75
256.357	190.75
256.59	172.75
256.823	185.75
257.056	181.75
257.289	170.75
257.521	178.75
257.754	187.75
257.987	166.75
258.22	176.75
258.452	196.75
258.685	190.75
258.918	162.75
259.151	176.75
259.383	195.75
259.616	172.75
259.849	194.75
260.081	185.75
260.314	197.75
260.547	215.75
260.779	206.75
261.012	193.75
261.244	196.75
261.477	184.75
261.71	192.75
261.942	187.75
262.175	196.75
262.407	188.75
262.64	184.75
262.872	207.75
263.105	191.75
263.337	188.75
263.57	185.75
263.802	199.75
264.035	174.75
264.267	178.75
264.499	190.75
264.732	190.75
264.964	194.75
265.197	196.75
265.429	178.75
265.661	187.75
265.894	182.75
266.126	201.75
266.358	194.75
266.591	184.75
266.823	212.75
267.055	189.75
267.287	195.75
267.52	187.75
267.752	198.75
267.984	209.75
268.216	193.75
268.448	205.75
268.681	215.75
268.913	204.75
269.145	218.75
269.377	231.75
269.609	215.75
269.841	226.75
270.073	222.75
270.306	225.75
270.538	250.75
270.77	240.75
271.002	226.75
271.234	225.75
271.466	229.75
271.698	247.75
271.93	252.75
272.162	242.75
272.394	246.75
272.626	249.75
272.858	229.75
273.09	234.75
273.322	211.75
273.553	216.75
273.785	236.75
274.017	219.75
274.249	224.75
274.481	222.75
274.713	230.75
274.945	227.75
275.176	226.75
275.408	229.75
275.64	233.75
275.872	209.75
276.104	206.75
276.335	224.75
276.567	229.75
276.799	220.75
277.031	247.75
277.262	249.75
277.494	253.75
277.726	247.75
277.957	250.75
278.189	223.75
278.421	223.75
278.652	236.75
278.884	220.75
279.115	217.75
279.347	240.75
279.579	246.75
279.81	252.75
280.042	221.75
280.273	243.75
280.505	230.75
280.736	237.75
280.968	220.75
281.199	233.75
281.431	213.75
281.662	235.75
281.894	244.75
282.125	242.75
282.356	226.75
282.588	237.75
282.819	252.75
283.051	250.75
283.282	232.75
283.513	240.75
283.745	221.75
283.976	229.75
284.207	244.75
284.439	264.75
284.67	269.75
284.901	237.75
285.132	250.75
285.364	244.75
285.595	251.75
285.826	247.75
286.057	233.75
286.288	227.75
286.52	235.75
286.751	244.75
286.982	232.75
287.213	238.75
287.444	256.75
287.675	256.75
287.906	245.75
288.138	243.75
288.369	274.75
288.6	276.75
288.831	260.75
289.062	246.75
289.293	265.75
289.524	262.75
289.755	240.75
289.986	249.75
290.217	251.75
290.448	237.75
290.679	258.75
290.91	236.75
291.141	235.75
291.371	272.75
291.602	245.75
291.833	256.75
292.064	262.75
292.295	252.75
292.526	262.75
292.757	269.75
292.987	259.75
293.218	246.75
293.449	249.75
293.68	256.75
293.91	264.75
294.141	236.75
294.372	237.75
294.603	278.75
294.833	266.75
295.064	265.75
295.295	259.75
295.525	246.75
295.756	276.75
295.987	270.75
296.217	268.75
296.448	301.75
296.679	297.75
296.909	262.75
297.14	282.75
297.37	268.75
297.601	281.75
297.831	264.75
298.062	264.75
298.292	286.75
298.523	278.75
298.753	268.75
298.984	263.75
299.214	274.75
299.445	295.75
299.675	279.75
299.905	288.75
300.136	283.75
300.366	262.75
300.597	293.75
300.827	282.75
301.057	288.75
301.288	296.75
301.518	285.75
301.748	282.75
301.979	298.75
302.209	294.75
302.439	285.75
302.669	293.75
302.9	284.75
303.13	281.75
303.36	296.75
303.59	312.75
303.82	290.75
304.051	296.75
304.281	287.75
304.511	300.75
304.741	289.75
304.971	293.75
305.201	275.75
305.431	284.75
305.661	291.75
305.891	298.75
306.121	282.75
306.352	309.75
306.582	290.75
306.812	271.75
307.042	286.75
307.272	293.75
307.502	294.75
307.731	311.75
307.961	288.75
308.191	300.75
308.421	293.75
308.651	286.75
308.881	306.75
309.111	301.75
309.341	298.75
309.571	319.75
309.8	297.75
310.03	299.75
310.26	321.75
310.49	339.75
310.72	323.75
310.949	325.75
311.179	292.75
311.409	317.75
311.639	314.75
311.868	302.75
312.098	311.75
312.328	324.75
312.557	335.75
312.787	350.75
313.017	341.75
313.246	345.75
313.476	324.75
313.706	327.75
313.935	341.75
314.165	337.75
314.394	334.75
314.624	332.75
314.853	314.75
315.083	333.75
315.312	338.75
315.542	306.75
315.771	309.75
316.001	316.75
316.23	307.75
316.46	311.75
316.689	338.75
316.919	327.75
317.148	325.75
317.377	329.75
317.607	327.75
317.836	329.75
318.065	331.75
318.295	329.75
318.524	300.75
318.753	326.75
318.983	318.75
319.212	337.75
319.441	322.75
319.67	330.75
319.9	318.75
320.129	338.75
320.358	332.75
320.587	339.75
320.816	347.75
321.046	346.75
321.275	337.75
321.504	358.75
321.733	337.75
321.962	317.75
322.191	337.75
322.42	345.75
322.649	368.75
322.878	356.75
323.108	355.75
323.337	372.75
323.566	374.75
323.795	385.75
324.024	425.75
324.253	480.75
324.482	609.75
324.71	939.75
324.939	1389.75
325.168	1179.75
325.397	625.75
325.626	444.75
325.855	391.75
326.084	386.75
326.313	390.75
326.542	385.75
326.77	395.75
326.999	469.75
327.228	599.75
327.457	904.75
327.686	1090.75
327.914	715.75
328.143	485.75
328.372	435.75
328.6	416.75
328.829	398.75
329.058	412.75
329.287	427.75
329.515	407.75
329.744	388.75
329.972	396.75
330.201	393.75
330.43	419.75
330.658	410.75
330.887	432.75
331.115	444.75
331.344	396.75
331.572	398.75
331.801	413.75
332.03	400.75
332.258	416.75
332.486	397.75
332.715	392.75
332.943	364.75
333.172	381.75
333.4	396.75
333.629	428.75
333.857	410.75
334.085	417.75
334.314	442.75
334.542	432.75
334.771	458.75
334.999	441.75
335.227	420.75
335.455	412.75
335.684	391.75
335.912	398.75
336.14	395.75
336.369	396.75
336.597	409.75
336.825	399.75
337.053	399.75
337.281	405.75
337.51	403.75
337.738	384.75
337.966	378.75
338.194	397.75
338.422	395.75
338.65	397.75
338.878	380.75
339.106	388.75
339.334	385.75
339.562	378.75
339.79	377.75
340.018	370.75
340.246	367.75
340.474	372.75
340.702	369.75
340.93	364.75
341.158	394.75
341.386	360.75
341.614	361.75
341.842	377.75
342.07	384.75
342.298	369.75
342.526	365.75
342.754	378.75
342.981	384.75
343.209	349.75
343.437	404.75
343.665	402.75
343.893	389.75
344.12	401.75
344.348	402.75
344.576	390.75
344.804	398.75
345.031	381.75
345.259	379.75
345.487	396.75
345.714	393.75
345.942	382.75
346.17	377.75
346.397	380.75
346.625	346.75
346.853	368.75
347.08	369.75
347.308	390.75
347.535	378.75
347.763	367.75
347.99	375.75
348.218	351.75
348.445	377.75
348.673	371.75
348.9	376.75
349.128	353.75
349.355	368.75
349.583	350.75
349.81	342.75
350.037	368.75
350.265	360.75
350.492	375.75
350.72	361.75
350.947	370.75
351.174	364.75
351.402	361.75
351.629	360.75
351.856	361.75
352.083	380.75
352.311	376.75
352.538	370.75
352.765	362.75
352.992	357.75
353.22	360.75
353.447	370.75
353.674	366.75
353.901	354.75
354.128	336.75
354.355	365.75
354.583	352.75
354.81	347.75
355.037	355.75
355.264	347.75
355.491	359.75
355.718	350.75
355.945	383.75
356.172	361.75
356.399	355.75
356.626	347.75
356.853	365.75
357.08	344.75
357.307	345.75
357.534	361.75
357.761	361.75
357.988	360.75
358.215	362.75
358.441	346.75
358.668	362.75
358.895	359.75
359.122	368.75
359.349	370.75
359.576	370.75
359.802	388.75
360.029	367.75
360.256	386.75
360.483	388.75
360.709	378.75
360.936	385.75
361.163	382.75
361.39	371.75
361.616	352.75
361.843	367.75
362.07	357.75
362.296	359.75
362.523	378.75
362.749	365.75
362.976	365.75
363.203	356.75
363.429	348.75
363.656	369.75
363.882	374.75
364.109	364.75
364.335	340.75
364.562	365.75
364.788	355.75
365.015	359.75
365.241	356.75
365.468	354.75
365.694	385.75
365.92	376.75
366.147	366.75
366.373	357.75
366.599	365.75
366.826	377.75
367.052	370.75
367.278	368.75
367.505	357.75
367.731	359.75
367.957	371.75
368.184	351.75
368.41	370.75
368.636	375.75
368.862	374.75
369.089	363.75
369.315	356.75
369.541	377.75
369.767	380.75
369.993	376.75
370.219	353.75
370.445	376.75
370.672	359.75
370.898	372.75
371.124	364.75
371.35	373.75
371.576	378.75
371.802	375.75
372.028	362.75
372.254	366.75
372.48	384.75
372.706	383.75
372.932	382.75
373.158	376.75
373.384	376.75
373.61	390.75
373.835	378.75
374.061	393.75
374.287	399.75
374.513	387.75
374.739	378.75
374.965	391.75
375.191	413.75
375.416	399.75
375.642	411.75
375.868	384.75
376.094	394.75
376.319	393.75
376.545	375.75
376.771	380.75
376.997	398.75
377.222	369.75
377.448	374.75
377.674	376.75
377.899	384.75
378.125	373.75
378.35	383.75
378.576	382.75
378.802	356.75
379.027	376.75
379.253	392.75
379.478	375.75
379.704	385.75
379.929	377.75
380.155	385.75
380.38	379.75
380.606	384.75
380.831	397.75
381.057	386.75
381.282	411.75
381.507	388.75
381.733	387.75
381.958	382.75
382.184	388.75
382.409	408.75
382.634	396.75
382.86	397.75
383.085	402.75
383.31	411.75
383.535	403.75
383.761	409.75
383.986	413.75
384.211	396.75
384.436	414.75
384.662	419.75
384.887	440.75
385.112	423.75
385.337	442.75
385.562	429.75
385.787	450.75
386.013	448.75
386.238	424.75
386.463	445.75
386.688	433.75
386.913	418.75
387.138	419.75
387.363	428.75
387.588	433.75
387.813	428.75
388.038	415.75
388.263	452.75
388.488	436.75
388.713	435.75
388.938	429.75
389.163	454.75
389.387	436.75
389.612	436.75
389.837	433.75
390.062	416.75
390.287	420.75
390.512	411.75
390.736	425.75
390.961	437.75
391.186	440.75
391.411	430.75
391.636	445.75
391.86	457.75
392.085	466.75
392.31	467.75
392.534	446.75
392.759	435.75
392.984	440.75
393.208	453.75
393.433	472.75
393.658	468.75
393.882	460.75
394.107	436.75
394.331	464.75
394.556	453.75
394.78	436.75
395.005	450.75
395.229	460.75
395.454	448.75
395.678	461.75
395.903	474.75
396.127	480.75
396.352	480.75
396.576	445.75
396.801	462.75
397.025	489.75
397.249	485.75
397.474	460.75
397.698	458.75
397.922	463.75
398.147	504.75
398.371	480.75
398.595	494.75
398.82	496.75
399.044	516.75
399.268	547.75
399.492	563.75
399.717	606.75
399.941	618.75
400.165	636.75
400.389	630.75
400.613	561.75
400.837	542.75
401.062	532.75
401.286	511.75
401.51	524.75
401.734	501.75
401.958	519.75
402.182	504.75
402.406	537.75
402.63	534.75
402.854	517.75
403.078	530.75
403.302	509.75
403.526	515.75
403.75	519.75
403.974	538.75
404.198	548.75
404.422	541.75
404.645	543.75
404.869	524.75
405.093	562.75
405.317	622.75
405.541	603.75
405.765	587.75
405.988	564.75
406.212	562.75
406.436	568.75
406.66	560.75
406.883	573.75
407.107	601.75
407.331	628.75
407.555	666.75
407.778	664.75
408.002	609.75
408.226	580.75
408.449	606.75
408.673	570.75
408.896	577.75
409.12	618.75
409.344	603.75
409.567	552.75
409.791	546.75
410.014	536.75
410.238	558.75
410.461	548.75
410.685	536.75
410.908	546.75
411.132	579.75
411.355	587.75
411.578	585.75
411.802	535.75
412.025	533.75
412.249	542.75
412.472	573.75
412.695	577.75
412.919	564.75
413.142	551.75
413.365	521.75
413.589	523.75
413.812	527.75
414.035	525.75
414.258	504.75
414.482	508.75
414.705	519.75
414.928	512.75
415.151	509.75
415.374	501.75
415.597	514.75
415.821	494.75
416.044	503.75
416.267	512.75
416.49	508.75
416.713	498.75
416.936	492.75
417.159	488.75
417.382	499.75
417.605	498.75
417.828	522.75
418.051	536.75
418.274	518.75
418.497	500.75
418.72	498.75
418.943	491.75
419.166	515.75
419.389	550.75
419.611	529.75
419.834	540.75
420.057	516.75
420.28	508.75
420.503	523.75
420.726	511.75
420.948	505.75
421.171	547.75
421.394	562.75
421.617	532.75
421.839	518.75
422.062	533.75
422.285	535.75
422.507	558.75
422.73	642.75
422.953	616.75
423.175	543.75
423.398	538.75
423.621	522.75
423.843	552.75
424.066	543.75
424.288	530.75
424.511	562.75
424.733	580.75
424.956	639.75
425.178	627.75
425.401	636.75
425.623	662.75
425.846	589.75
426.068	553.75
426.291	526.75
426.513	536.75
426.735	545.75
426.958	553.75
427.18	630.75
427.402	736.75
427.625	807.75
427.847	690.75
428.069	612.75
428.292	557.75
428.514	525.75
428.736	501.75
428.958	514.75
429.181	510.75
429.403	482.75
429.625	509.75
429.847	516.75
430.069	567.75
430.292	572.75
430.514	494.75
430.736	484.75
430.958	488.75
431.18	457.75
431.402	507.75
431.624	480.75
431.846	486.75
432.068	483.75
432.29	482.75
432.512	469.75
432.734	491.75
432.956	479.75
433.178	493.75
433.4	503.75
433.622	510.75
433.844	481.75
434.066	502.75
434.287	515.75
434.509	512.75
434.731	492.75
434.953	510.75
435.175	543.75
435.397	533.75
435.618	538.75
435.84	598.75
436.062	637.75
436.284	675.75
436.505	571.75
436.727	564.75
436.949	512.75
437.17	512.75
437.392	513.75
437.614	517.75
437.835	510.75
438.057	587.75
438.278	632.75
438.5	678.75
438.721	693.75
438.943	706.75
439.165	567.75
439.386	520.75
439.608	525.75
439.829	503.75
440.05	549.75
440.272	587.75
440.493	562.75
440.715	530.75
440.936	530.75
441.158	508.75
441.379	499.75
441.6	546.75
441.822	534.75
442.043	549.75
442.264	612.75
442.486	645.75
442.707	588.75
442.928	557.75
443.149	554.75
443.371	576.75
443.592	575.75
443.813	668.75
444.034	694.75
444.255	627.75
444.476	550.75
444.698	569.75
444.919	576.75
445.14	667.75
445.361	604.75
445.582	568.75
445.803	616.75
446.024	684.75
446.245	668.75
446.466	634.75
446.687	549.75
446.908	536.75
447.129	526.75
447.35	506.75
447.571	486.75
447.792	474.75
448.013	487.75
448.234	478.75
448.455	534.75
448.675	630.75
448.896	714.75
449.117	604.75
449.338	584.75
449.559	676.75
449.779	766.75
450	612.75
450.221	508.75
450.442	479.75
450.662	480.75
450.883	454.75
451.104	488.75
451.324	459.75
451.545	463.75
451.766	449.75
451.986	426.75
452.207	442.75
452.428	442.75
452.648	449.75
452.869	435.75
453.089	454.75
453.31	455.75
453.53	452.75
453.751	446.75
453.971	446.75
454.192	453.75
454.412	430.75
454.633	440.75
454.853	462.75
455.073	444.75
455.294	451.75
455.514	488.75
455.734	487.75
455.955	429.75
456.175	437.75
456.395	431.75
456.616	417.75
456.836	443.75
457.056	437.75
457.276	427.75
457.497	432.75
457.717	430.75
457.937	428.75
458.157	445.75
458.377	447.75
458.598	464.75
458.818	512.75
459.038	546.75
459.258	552.75
459.478	489.75
459.698	502.75
459.918	499.75
460.138	480.75
460.358	502.75
460.578	502.75
460.798	517.75
461.018	514.75
461.238	545.75
461.458	538.75
461.678	508.75
461.898	531.75
462.118	529.75
462.338	554.75
462.558	555.75
462.777	555.75
462.997	574.75
463.217	604.75
463.437	599.75
463.657	572.75
463.876	585.75
464.096	565.75
464.316	556.75
464.536	560.75
464.755	580.75
464.975	552.75
465.195	574.75
465.414	602.75
465.634	538.75
465.854	507.75
466.073	503.75
466.293	503.75
466.512	490.75
466.732	477.75
466.951	476.75
467.171	500.75
467.391	468.75
467.61	464.75
467.829	483.75
468.049	482.75
468.268	485.75
468.488	465.75
468.707	469.75
468.927	457.75
469.146	457.75
469.365	450.75
469.585	450.75
469.804	499.75
470.023	461.75
470.243	474.75
470.462	485.75
470.681	497.75
470.901	481.75
471.12	497.75
471.339	495.75
471.558	484.75
471.777	484.75
471.997	444.75
472.216	456.75
472.435	489.75
472.654	488.75
472.873	465.75
473.092	494.75
473.311	461.75
473.53	486.75
473.749	463.75
473.968	487.75
474.187	554.75
474.406	600.75
474.625	511.75
474.844	476.75
475.063	492.75
475.282	482.75
475.501	458.75
475.72	504.75
475.939	476.75
476.158	475.75
476.377	501.75
476.596	498.75
476.814	497.75
477.033	513.75
477.252	528.75
477.471	521.75
477.69	536.75
477.908	522.75
478.127	523.75
478.346	547.75
478.564	549.75
478.783	565.75
479.002	586.75
479.22	551.75
479.439	569.75
479.658	563.75
479.876	564.75
480.095	571.75
480.313	602.75
480.532	586.75
480.751	595.75
480.969	585.75
481.188	610.75
481.406	621.75
481.624	576.75
481.843	564.75
482.061	548.75
482.28	577.75
482.498	567.75
482.717	561.75
482.935	561.75
483.153	560.75
483.372	555.75
483.59	560.75
483.808	575.75
484.027	578.75
484.245	558.75
484.463	576.75
484.681	587.75
484.9	584.75
485.118	593.75
485.336	583.75
485.554	571.75
485.772	595.75
485.99	587.75
486.209	580.75
486.427	588.75
486.645	602.75
486.863	615.75
487.081	591.75
487.299	589.75
487.517	591.75
487.735	610.75
487.953	616.75
488.171	613.75
488.389	591.75
488.607	606.75
488.825	587.75
489.043	595.75
489.261	617.75
489.479	611.75
489.696	602.75
489.914	624.75
490.132	612.75
490.35	610.75
490.568	597.75
490.786	657.75
491.003	616.75
491.221	634.75
491.439	642.75
491.657	640.75
491.874	658.75
492.092	652.75
492.31	676.75
492.527	679.75
492.745	661.75
492.963	642.75
493.18	671.75
493.398	669.75
493.615	696.75
493.833	676.75
494.05	684.75
494.268	660.75
494.485	684.75
494.703	690.75
494.92	677.75
495.138	692.75
495.355	681.75
495.573	690.75
495.79	697.75
496.008	706.75
496.225	700.75
496.442	716.75
496.66	693.75
496.877	727.75
497.094	724.75
497.312	717.75
497.529	733.75
497.746	725.75
497.963	759.75
498.181	786.75
498.398	765.75
498.615	821.75
498.832	849.75
499.049	855.75
499.267	903.75
499.484	922.75
499.701	928.75
499.918	1020.75
500.135	1039.75
500.352	1112.75
500.569	1190.75
500.786	1144.75
501.003	1140.75
501.22	1084.75
501.437	1013.75
501.654	973.75
501.871	931.75
502.088	886.75
