Data from 1979.PennyLincolnUp.Lamp.En5.5.200Scan.071719.P1_HRD10591_16-19-02-900.txt Node
Date: Thu Jul 18 16:19:02 EDT 2019
User: cochatt
Spectrometer: HR+D1059
Trigger mode: 1
Integration Time (sec): 1.000000E-1
Scans to average: 1
Electric dark correction enabled: true
Nonlinearity correction enabled: false
Boxcar width: 0
XAxis mode: Wavelengths
Number of Pixels in Spectrum: 2048
>>>>>Begin Spectral Data<<<<<
223.165	-10.94
223.4	-10.94
223.635	-10.94
223.869	-19.94
224.104	-23.94
224.338	-13.94
224.573	-16.94
224.808	-20.94
225.042	-12.94
225.277	4.06
225.511	-0.94
225.746	7.06
225.98	3.06
226.215	14.06
226.449	18.06
226.683	20.06
226.918	26.06
227.152	28.06
227.387	28.06
227.621	39.06
227.856	37.06
228.09	42.06
228.324	45.06
228.559	62.06
228.793	66.06
229.027	82.06
229.262	99.06
229.496	117.06
229.73	118.06
229.964	138.06
230.199	111.06
230.433	111.06
230.667	116.06
230.901	95.06
231.136	111.06
231.37	102.06
231.604	105.06
231.838	111.06
232.072	122.06
232.306	101.06
232.541	101.06
232.775	123.06
233.009	111.06
233.243	114.06
233.477	114.06
233.711	121.06
233.945	111.06
234.179	107.06
234.413	115.06
234.647	114.06
234.881	119.06
235.115	115.06
235.349	116.06
235.583	111.06
235.817	125.06
236.051	108.06
236.285	127.06
236.519	117.06
236.753	117.06
236.987	130.06
237.221	164.06
237.455	201.06
237.689	156.06
237.922	134.06
238.156	108.06
238.39	132.06
238.624	123.06
238.858	112.06
239.091	114.06
239.325	116.06
239.559	119.06
239.793	112.06
240.027	127.06
240.26	153.06
240.494	151.06
240.728	144.06
240.961	141.06
241.195	140.06
241.429	132.06
241.662	127.06
241.896	132.06
242.13	131.06
242.363	128.06
242.597	118.06
242.83	122.06
243.064	131.06
243.298	138.06
243.531	139.06
243.765	129.06
243.998	131.06
244.232	141.06
244.465	149.06
244.699	146.06
244.932	147.06
245.166	153.06
245.399	138.06
245.633	159.06
245.866	143.06
246.099	126.06
246.333	134.06
246.566	141.06
246.8	139.06
247.033	170.06
247.266	160.06
247.5	148.06
247.733	161.06
247.966	177.06
248.2	165.06
248.433	159.06
248.666	157.06
248.899	168.06
249.133	180.06
249.366	187.06
249.599	169.06
249.832	171.06
250.066	174.06
250.299	161.06
250.532	166.06
250.765	184.06
250.998	206.06
251.231	206.06
251.465	188.06
251.698	188.06
251.931	198.06
252.164	191.06
252.397	179.06
252.63	197.06
252.863	184.06
253.096	216.06
253.329	215.06
253.562	231.06
253.795	223.06
254.028	199.06
254.261	201.06
254.494	213.06
254.727	232.06
254.96	261.06
255.193	241.06
255.426	223.06
255.659	213.06
255.892	208.06
256.124	221.06
256.357	216.06
256.59	214.06
256.823	200.06
257.056	177.06
257.289	200.06
257.521	183.06
257.754	202.06
257.987	218.06
258.22	215.06
258.452	192.06
258.685	191.06
258.918	189.06
259.151	201.06
259.383	207.06
259.616	188.06
259.849	200.06
260.081	215.06
260.314	224.06
260.547	253.06
260.779	218.06
261.012	221.06
261.244	195.06
261.477	201.06
261.71	209.06
261.942	213.06
262.175	221.06
262.407	203.06
262.64	203.06
262.872	216.06
263.105	188.06
263.337	208.06
263.57	196.06
263.802	217.06
264.035	210.06
264.267	194.06
264.499	203.06
264.732	198.06
264.964	182.06
265.197	209.06
265.429	195.06
265.661	214.06
265.894	228.06
266.126	214.06
266.358	199.06
266.591	204.06
266.823	219.06
267.055	200.06
267.287	206.06
267.52	205.06
267.752	210.06
267.984	207.06
268.216	211.06
268.448	230.06
268.681	212.06
268.913	226.06
269.145	239.06
269.377	238.06
269.609	254.06
269.841	241.06
270.073	262.06
270.306	266.06
270.538	288.06
270.77	288.06
271.002	274.06
271.234	266.06
271.466	273.06
271.698	275.06
271.93	248.06
272.162	263.06
272.394	285.06
272.626	273.06
272.858	274.06
273.09	252.06
273.322	239.06
273.553	248.06
273.785	249.06
274.017	241.06
274.249	228.06
274.481	234.06
274.713	241.06
274.945	248.06
275.176	260.06
275.408	250.06
275.64	245.06
275.872	252.06
276.104	250.06
276.335	261.06
276.567	259.06
276.799	264.06
277.031	277.06
277.262	292.06
277.494	314.06
277.726	279.06
277.957	279.06
278.189	246.06
278.421	259.06
278.652	256.06
278.884	253.06
279.115	252.06
279.347	261.06
279.579	264.06
279.81	241.06
280.042	250.06
280.273	261.06
280.505	261.06
280.736	268.06
280.968	251.06
281.199	261.06
281.431	256.06
281.662	248.06
281.894	257.06
282.125	263.06
282.356	258.06
282.588	300.06
282.819	272.06
283.051	261.06
283.282	266.06
283.513	263.06
283.745	275.06
283.976	270.06
284.207	261.06
284.439	258.06
284.67	281.06
284.901	283.06
285.132	272.06
285.364	269.06
285.595	251.06
285.826	263.06
286.057	267.06
286.288	274.06
286.52	274.06
286.751	292.06
286.982	272.06
287.213	283.06
287.444	272.06
287.675	270.06
287.906	268.06
288.138	288.06
288.369	278.06
288.6	288.06
288.831	281.06
289.062	288.06
289.293	276.06
289.524	262.06
289.755	281.06
289.986	287.06
290.217	264.06
290.448	277.06
290.679	303.06
290.91	291.06
291.141	271.06
291.371	280.06
291.602	268.06
291.833	268.06
292.064	286.06
292.295	272.06
292.526	278.06
292.757	280.06
292.987	256.06
293.218	281.06
293.449	277.06
293.68	295.06
293.91	270.06
294.141	297.06
294.372	293.06
294.603	298.06
294.833	305.06
295.064	291.06
295.295	293.06
295.525	280.06
295.756	305.06
295.987	279.06
296.217	325.06
296.448	323.06
296.679	301.06
296.909	291.06
297.14	281.06
297.37	285.06
297.601	295.06
297.831	287.06
298.062	296.06
298.292	294.06
298.523	298.06
298.753	305.06
298.984	319.06
299.214	305.06
299.445	298.06
299.675	299.06
299.905	292.06
300.136	321.06
300.366	303.06
300.597	311.06
300.827	320.06
301.057	316.06
301.288	317.06
301.518	305.06
301.748	338.06
301.979	328.06
302.209	311.06
302.439	308.06
302.669	323.06
302.9	323.06
303.13	305.06
303.36	320.06
303.59	329.06
303.82	333.06
304.051	333.06
304.281	326.06
304.511	327.06
304.741	319.06
304.971	330.06
305.201	327.06
305.431	314.06
305.661	326.06
305.891	322.06
306.121	317.06
306.352	330.06
306.582	336.06
306.812	311.06
307.042	319.06
307.272	307.06
307.502	323.06
307.731	329.06
307.961	339.06
308.191	328.06
308.421	319.06
308.651	311.06
308.881	316.06
309.111	337.06
309.341	322.06
309.571	342.06
309.8	339.06
310.03	346.06
310.26	352.06
310.49	344.06
310.72	348.06
310.949	369.06
311.179	377.06
311.409	371.06
311.639	351.06
311.868	359.06
312.098	368.06
312.328	357.06
312.557	378.06
312.787	399.06
313.017	377.06
313.246	376.06
313.476	367.06
313.706	375.06
313.935	364.06
314.165	373.06
314.394	371.06
314.624	391.06
314.853	377.06
315.083	378.06
315.312	362.06
315.542	375.06
315.771	367.06
316.001	372.06
316.23	371.06
316.46	361.06
316.689	364.06
316.919	358.06
317.148	368.06
317.377	369.06
317.607	363.06
317.836	347.06
318.065	384.06
318.295	367.06
318.524	376.06
318.753	372.06
318.983	373.06
319.212	358.06
319.441	360.06
319.67	372.06
319.9	369.06
320.129	376.06
320.358	376.06
320.587	383.06
320.816	384.06
321.046	376.06
321.275	388.06
321.504	376.06
321.733	392.06
321.962	423.06
322.191	389.06
322.42	412.06
322.649	420.06
322.878	425.06
323.108	431.06
323.337	450.06
323.566	475.06
323.795	498.06
324.024	538.06
324.253	633.06
324.482	881.06
324.71	1348.06
324.939	2058.06
325.168	1768.06
325.397	883.06
325.626	579.06
325.855	507.06
326.084	495.06
326.313	480.06
326.542	477.06
326.77	509.06
326.999	599.06
327.228	810.06
327.457	1217.06
327.686	1568.06
327.914	1002.06
328.143	657.06
328.372	566.06
328.6	549.06
328.829	538.06
329.058	517.06
329.287	543.06
329.515	500.06
329.744	460.06
329.972	501.06
330.201	489.06
330.43	537.06
330.658	531.06
330.887	555.06
331.115	562.06
331.344	487.06
331.572	473.06
331.801	471.06
332.03	454.06
332.258	459.06
332.486	453.06
332.715	425.06
332.943	461.06
333.172	453.06
333.4	450.06
333.629	483.06
333.857	475.06
334.085	473.06
334.314	491.06
334.542	527.06
334.771	539.06
334.999	488.06
335.227	465.06
335.455	483.06
335.684	463.06
335.912	458.06
336.14	450.06
336.369	438.06
336.597	455.06
336.825	443.06
337.053	443.06
337.281	423.06
337.51	440.06
337.738	444.06
337.966	449.06
338.194	425.06
338.422	465.06
338.65	443.06
338.878	426.06
339.106	452.06
339.334	440.06
339.562	427.06
339.79	417.06
340.018	427.06
340.246	435.06
340.474	436.06
340.702	436.06
340.93	416.06
341.158	440.06
341.386	419.06
341.614	439.06
341.842	425.06
342.07	416.06
342.298	438.06
342.526	403.06
342.754	387.06
342.981	423.06
343.209	416.06
343.437	427.06
343.665	433.06
343.893	454.06
344.12	458.06
344.348	436.06
344.576	432.06
344.804	427.06
345.031	461.06
345.259	439.06
345.487	434.06
345.714	411.06
345.942	398.06
346.17	402.06
346.397	398.06
346.625	408.06
346.853	400.06
347.08	389.06
347.308	420.06
347.535	432.06
347.763	423.06
347.99	433.06
348.218	422.06
348.445	419.06
348.673	425.06
348.9	431.06
349.128	416.06
349.355	407.06
349.583	405.06
349.81	407.06
350.037	389.06
350.265	406.06
350.492	405.06
350.72	411.06
350.947	407.06
351.174	412.06
351.402	440.06
351.629	417.06
351.856	421.06
352.083	420.06
352.311	436.06
352.538	426.06
352.765	418.06
352.992	433.06
353.22	411.06
353.447	403.06
353.674	411.06
353.901	416.06
354.128	406.06
354.355	372.06
354.583	387.06
354.81	394.06
355.037	401.06
355.264	390.06
355.491	389.06
355.718	406.06
355.945	394.06
356.172	378.06
356.399	370.06
356.626	356.06
356.853	383.06
357.08	402.06
357.307	395.06
357.534	422.06
357.761	393.06
357.988	389.06
358.215	406.06
358.441	388.06
358.668	371.06
358.895	383.06
359.122	384.06
359.349	409.06
359.576	404.06
359.802	428.06
360.029	451.06
360.256	467.06
360.483	450.06
360.709	433.06
360.936	413.06
361.163	409.06
361.39	436.06
361.616	424.06
361.843	397.06
362.07	414.06
362.296	428.06
362.523	422.06
362.749	442.06
362.976	394.06
363.203	412.06
363.429	405.06
363.656	408.06
363.882	395.06
364.109	403.06
364.335	423.06
364.562	413.06
364.788	387.06
365.015	391.06
365.241	410.06
365.468	405.06
365.694	416.06
365.92	407.06
366.147	392.06
366.373	396.06
366.599	402.06
366.826	410.06
367.052	415.06
367.278	401.06
367.505	404.06
367.731	397.06
367.957	401.06
368.184	400.06
368.41	415.06
368.636	428.06
368.862	408.06
369.089	408.06
369.315	415.06
369.541	415.06
369.767	415.06
369.993	395.06
370.219	400.06
370.445	411.06
370.672	404.06
370.898	414.06
371.124	397.06
371.35	405.06
371.576	407.06
371.802	411.06
372.028	396.06
372.254	421.06
372.48	411.06
372.706	415.06
372.932	428.06
373.158	419.06
373.384	413.06
373.61	401.06
373.835	418.06
374.061	426.06
374.287	412.06
374.513	416.06
374.739	437.06
374.965	424.06
375.191	448.06
375.416	445.06
375.642	418.06
375.868	436.06
376.094	434.06
376.319	412.06
376.545	432.06
376.771	413.06
376.997	437.06
377.222	420.06
377.448	418.06
377.674	397.06
377.899	407.06
378.125	413.06
378.35	410.06
378.576	416.06
378.802	396.06
379.027	422.06
379.253	417.06
379.478	404.06
379.704	420.06
379.929	420.06
380.155	409.06
380.38	413.06
380.606	418.06
380.831	416.06
381.057	429.06
381.282	410.06
381.507	425.06
381.733	404.06
381.958	381.06
382.184	431.06
382.409	417.06
382.634	444.06
382.86	406.06
383.085	429.06
383.31	427.06
383.535	419.06
383.761	441.06
383.986	440.06
384.211	449.06
384.436	439.06
384.662	457.06
384.887	453.06
385.112	466.06
385.337	455.06
385.562	463.06
385.787	447.06
386.013	451.06
386.238	462.06
386.463	472.06
386.688	473.06
386.913	465.06
387.138	474.06
387.363	463.06
387.588	451.06
387.813	466.06
388.038	456.06
388.263	443.06
388.488	458.06
388.713	460.06
388.938	460.06
389.163	476.06
389.387	465.06
389.612	463.06
389.837	461.06
390.062	473.06
390.287	465.06
390.512	465.06
390.736	482.06
390.961	458.06
391.186	471.06
391.411	484.06
391.636	464.06
391.86	490.06
392.085	496.06
392.31	503.06
392.534	482.06
392.759	481.06
392.984	480.06
393.208	468.06
393.433	484.06
393.658	481.06
393.882	469.06
394.107	472.06
394.331	483.06
394.556	465.06
394.78	489.06
395.005	526.06
395.229	477.06
395.454	504.06
395.678	490.06
395.903	512.06
396.127	515.06
396.352	505.06
396.576	488.06
396.801	502.06
397.025	492.06
397.249	501.06
397.474	488.06
397.698	530.06
397.922	515.06
398.147	523.06
398.371	569.06
398.595	533.06
398.82	549.06
399.044	565.06
399.268	588.06
399.492	623.06
399.717	667.06
399.941	707.06
400.165	682.06
400.389	659.06
400.613	624.06
400.837	608.06
401.062	566.06
401.286	567.06
401.51	577.06
401.734	534.06
401.958	558.06
402.182	546.06
402.406	567.06
402.63	622.06
402.854	553.06
403.078	581.06
403.302	588.06
403.526	591.06
403.75	569.06
403.974	577.06
404.198	575.06
404.422	577.06
404.645	561.06
404.869	589.06
405.093	653.06
405.317	650.06
405.541	688.06
405.765	640.06
405.988	618.06
406.212	604.06
406.436	661.06
406.66	648.06
406.883	618.06
407.107	649.06
407.331	661.06
407.555	736.06
407.778	772.06
408.002	704.06
408.226	645.06
408.449	641.06
408.673	628.06
408.896	663.06
409.12	699.06
409.344	646.06
409.567	595.06
409.791	607.06
410.014	589.06
410.238	571.06
410.461	563.06
410.685	613.06
410.908	604.06
411.132	619.06
411.355	671.06
411.578	633.06
411.802	564.06
412.025	590.06
412.249	580.06
412.472	617.06
412.695	633.06
412.919	643.06
413.142	569.06
413.365	570.06
413.589	565.06
413.812	567.06
414.035	530.06
414.258	542.06
414.482	577.06
414.705	543.06
414.928	548.06
415.151	555.06
415.374	529.06
415.597	547.06
415.821	553.06
416.044	528.06
416.267	543.06
416.49	535.06
416.713	540.06
416.936	536.06
417.159	541.06
417.382	533.06
417.605	548.06
417.828	541.06
418.051	584.06
418.274	558.06
418.497	551.06
418.72	552.06
418.943	531.06
419.166	567.06
419.389	615.06
419.611	599.06
419.834	581.06
420.057	570.06
420.28	573.06
420.503	579.06
420.726	564.06
420.948	573.06
421.171	634.06
421.394	651.06
421.617	584.06
421.839	559.06
422.062	576.06
422.285	567.06
422.507	627.06
422.73	719.06
422.953	680.06
423.175	615.06
423.398	610.06
423.621	610.06
423.843	601.06
424.066	608.06
424.288	605.06
424.511	609.06
424.733	660.06
424.956	755.06
425.178	716.06
425.401	699.06
425.623	742.06
425.846	624.06
426.068	605.06
426.291	591.06
426.513	583.06
426.735	602.06
426.958	635.06
427.18	695.06
427.402	824.06
427.625	949.06
427.847	785.06
428.069	695.06
428.292	636.06
428.514	589.06
428.736	556.06
428.958	576.06
429.181	552.06
429.403	563.06
429.625	572.06
429.847	591.06
430.069	668.06
430.292	664.06
430.514	579.06
430.736	547.06
430.958	547.06
431.18	538.06
431.402	523.06
431.624	521.06
431.846	549.06
432.068	529.06
432.29	543.06
432.512	547.06
432.734	541.06
432.956	545.06
433.178	520.06
433.4	552.06
433.622	547.06
433.844	511.06
434.066	536.06
434.287	533.06
434.509	544.06
434.731	579.06
434.953	576.06
435.175	559.06
435.397	585.06
435.618	588.06
435.84	647.06
436.062	734.06
436.284	787.06
436.505	669.06
436.727	608.06
436.949	587.06
437.17	572.06
437.392	555.06
437.614	578.06
437.835	592.06
438.057	663.06
438.278	779.06
438.5	791.06
438.721	842.06
438.943	817.06
439.165	636.06
439.386	588.06
439.608	598.06
439.829	611.06
440.05	626.06
440.272	682.06
440.493	612.06
440.715	594.06
440.936	566.06
441.158	573.06
441.379	569.06
441.6	570.06
441.822	599.06
442.043	651.06
442.264	744.06
442.486	751.06
442.707	644.06
442.928	630.06
443.149	641.06
443.371	646.06
443.592	680.06
443.813	764.06
444.034	824.06
444.255	695.06
444.476	633.06
444.698	637.06
444.919	623.06
445.14	694.06
445.361	668.06
445.582	651.06
445.803	681.06
446.024	804.06
446.245	796.06
446.466	729.06
446.687	640.06
446.908	585.06
447.129	571.06
447.35	539.06
447.571	561.06
447.792	539.06
448.013	551.06
448.234	557.06
448.455	608.06
448.675	732.06
448.896	832.06
449.117	705.06
449.338	652.06
449.559	777.06
449.779	895.06
450	719.06
450.221	608.06
450.442	569.06
450.662	535.06
450.883	513.06
451.104	538.06
451.324	535.06
451.545	529.06
451.766	512.06
451.986	487.06
452.207	501.06
452.428	520.06
452.648	486.06
452.869	482.06
453.089	502.06
453.31	497.06
453.53	508.06
453.751	499.06
453.971	486.06
454.192	515.06
454.412	499.06
454.633	508.06
454.853	485.06
455.073	464.06
455.294	517.06
455.514	561.06
455.734	541.06
455.955	491.06
456.175	467.06
456.395	488.06
456.616	474.06
456.836	473.06
457.056	475.06
457.276	452.06
457.497	465.06
457.717	477.06
457.937	475.06
458.157	488.06
458.377	488.06
458.598	521.06
458.818	571.06
459.038	635.06
459.258	660.06
459.478	590.06
459.698	548.06
459.918	543.06
460.138	537.06
460.358	550.06
460.578	543.06
460.798	563.06
461.018	562.06
461.238	557.06
461.458	556.06
461.678	559.06
461.898	563.06
462.118	560.06
462.338	581.06
462.558	597.06
462.777	593.06
462.997	607.06
463.217	633.06
463.437	623.06
463.657	610.06
463.876	608.06
464.096	609.06
464.316	601.06
464.536	623.06
464.755	633.06
464.975	611.06
465.195	632.06
465.414	705.06
465.634	601.06
465.854	567.06
466.073	559.06
466.293	550.06
466.512	517.06
466.732	521.06
466.951	514.06
467.171	531.06
467.391	521.06
467.61	517.06
467.829	533.06
468.049	530.06
468.268	534.06
468.488	508.06
468.707	522.06
468.927	526.06
469.146	503.06
469.365	506.06
469.585	501.06
469.804	508.06
470.023	531.06
470.243	544.06
470.462	524.06
470.681	561.06
470.901	538.06
471.12	524.06
471.339	492.06
471.558	521.06
471.777	525.06
471.997	520.06
472.216	517.06
472.435	560.06
472.654	547.06
472.873	531.06
473.092	515.06
473.311	527.06
473.53	515.06
473.749	526.06
473.968	571.06
474.187	648.06
474.406	669.06
474.625	586.06
474.844	533.06
475.063	521.06
475.282	531.06
475.501	521.06
475.72	535.06
475.939	526.06
476.158	540.06
476.377	535.06
476.596	531.06
476.814	549.06
477.033	566.06
477.252	569.06
477.471	562.06
477.69	556.06
477.908	559.06
478.127	561.06
478.346	572.06
478.564	586.06
478.783	577.06
479.002	608.06
479.22	605.06
479.439	636.06
479.658	654.06
479.876	632.06
480.095	654.06
480.313	662.06
480.532	651.06
480.751	636.06
480.969	656.06
481.188	706.06
481.406	745.06
481.624	660.06
481.843	625.06
482.061	651.06
482.28	619.06
482.498	586.06
482.717	616.06
482.935	577.06
483.153	607.06
483.372	609.06
483.59	604.06
483.808	606.06
484.027	599.06
484.245	595.06
484.463	568.06
484.681	625.06
484.9	629.06
485.118	615.06
485.336	617.06
485.554	625.06
485.772	615.06
485.99	643.06
486.209	620.06
486.427	671.06
486.645	649.06
486.863	651.06
487.081	676.06
487.299	639.06
487.517	654.06
487.735	662.06
487.953	662.06
488.171	658.06
488.389	634.06
488.607	628.06
488.825	661.06
489.043	663.06
489.261	669.06
489.479	664.06
489.696	663.06
489.914	660.06
490.132	650.06
490.35	657.06
490.568	671.06
490.786	707.06
491.003	706.06
491.221	715.06
491.439	706.06
491.657	706.06
491.874	714.06
492.092	741.06
492.31	722.06
492.527	726.06
492.745	723.06
492.963	735.06
493.18	742.06
493.398	753.06
493.615	756.06
493.833	772.06
494.05	760.06
494.268	765.06
494.485	731.06
494.703	752.06
494.92	757.06
495.138	727.06
495.355	779.06
495.573	784.06
495.79	763.06
496.008	791.06
496.225	760.06
496.442	795.06
496.66	763.06
496.877	778.06
497.094	791.06
497.312	754.06
497.529	808.06
497.746	801.06
497.963	841.06
498.181	853.06
498.398	853.06
498.615	881.06
498.832	903.06
499.049	900.06
499.267	954.06
499.484	959.06
499.701	1045.06
499.918	1061.06
500.135	1124.06
500.352	1235.06
500.569	1227.06
500.786	1237.06
501.003	1189.06
501.22	1170.06
501.437	1091.06
501.654	1067.06
501.871	1020.06
