Data from 1979.PennyLincolnUp.Lamp.En5.5.200Scan.071719.P1_HRD10591_16-18-35-863.txt Node
Date: Thu Jul 18 16:18:35 EDT 2019
User: cochatt
Spectrometer: HR+D1059
Trigger mode: 1
Integration Time (sec): 1.000000E-1
Scans to average: 1
Electric dark correction enabled: true
Nonlinearity correction enabled: false
Boxcar width: 0
XAxis mode: Wavelengths
Number of Pixels in Spectrum: 2048
>>>>>Begin Spectral Data<<<<<
223.165	-15.75
223.4	-15.75
223.635	-15.75
223.869	-19.75
224.104	-26.75
224.338	-9.75
224.573	-6.75
224.808	-12.75
225.042	-4.75
225.277	-6.75
225.511	6.25
225.746	7.25
225.98	3.25
226.215	19.25
226.449	3.25
226.683	15.25
226.918	22.25
227.152	26.25
227.387	30.25
227.621	38.25
227.856	43.25
228.09	26.25
228.324	49.25
228.559	37.25
228.793	69.25
229.027	87.25
229.262	104.25
229.496	95.25
229.73	114.25
229.964	117.25
230.199	120.25
230.433	107.25
230.667	114.25
230.901	116.25
231.136	113.25
231.37	113.25
231.604	107.25
231.838	108.25
232.072	108.25
232.306	116.25
232.541	114.25
232.775	110.25
233.009	118.25
233.243	111.25
233.477	112.25
233.711	114.25
233.945	102.25
234.179	106.25
234.413	119.25
234.647	112.25
234.881	99.25
235.115	112.25
235.349	119.25
235.583	117.25
235.817	110.25
236.051	126.25
236.285	128.25
236.519	113.25
236.753	102.25
236.987	126.25
237.221	138.25
237.455	193.25
237.689	163.25
237.922	143.25
238.156	134.25
238.39	122.25
238.624	114.25
238.858	114.25
239.091	122.25
239.325	130.25
239.559	130.25
239.793	115.25
240.027	128.25
240.26	129.25
240.494	126.25
240.728	144.25
240.961	155.25
241.195	128.25
241.429	112.25
241.662	135.25
241.896	131.25
242.13	130.25
242.363	134.25
242.597	139.25
242.83	126.25
243.064	140.25
243.298	130.25
243.531	132.25
243.765	128.25
243.998	130.25
244.232	128.25
244.465	147.25
244.699	140.25
244.932	133.25
245.166	141.25
245.399	136.25
245.633	137.25
245.866	129.25
246.099	135.25
246.333	149.25
246.566	134.25
246.8	134.25
247.033	139.25
247.266	148.25
247.5	155.25
247.733	166.25
247.966	173.25
248.2	151.25
248.433	168.25
248.666	150.25
248.899	162.25
249.133	173.25
249.366	190.25
249.599	195.25
249.832	179.25
250.066	183.25
250.299	168.25
250.532	169.25
250.765	199.25
250.998	207.25
251.231	203.25
251.465	178.25
251.698	184.25
251.931	171.25
252.164	170.25
252.397	143.25
252.63	167.25
252.863	180.25
253.096	187.25
253.329	193.25
253.562	212.25
253.795	202.25
254.028	205.25
254.261	186.25
254.494	210.25
254.727	223.25
254.96	250.25
255.193	244.25
255.426	213.25
255.659	199.25
255.892	208.25
256.124	192.25
256.357	201.25
256.59	188.25
256.823	201.25
257.056	203.25
257.289	195.25
257.521	203.25
257.754	194.25
257.987	185.25
258.22	202.25
258.452	177.25
258.685	192.25
258.918	193.25
259.151	187.25
259.383	200.25
259.616	202.25
259.849	214.25
260.081	228.25
260.314	224.25
260.547	232.25
260.779	226.25
261.012	214.25
261.244	214.25
261.477	200.25
261.71	205.25
261.942	210.25
262.175	215.25
262.407	211.25
262.64	200.25
262.872	198.25
263.105	206.25
263.337	204.25
263.57	195.25
263.802	188.25
264.035	197.25
264.267	193.25
264.499	210.25
264.732	197.25
264.964	190.25
265.197	195.25
265.429	214.25
265.661	218.25
265.894	204.25
266.126	220.25
266.358	216.25
266.591	204.25
266.823	212.25
267.055	205.25
267.287	207.25
267.52	218.25
267.752	195.25
267.984	193.25
268.216	214.25
268.448	211.25
268.681	219.25
268.913	201.25
269.145	251.25
269.377	231.25
269.609	233.25
269.841	229.25
270.073	239.25
270.306	260.25
270.538	281.25
270.77	272.25
271.002	266.25
271.234	252.25
271.466	262.25
271.698	271.25
271.93	291.25
272.162	280.25
272.394	280.25
272.626	271.25
272.858	271.25
273.09	234.25
273.322	232.25
273.553	235.25
273.785	230.25
274.017	235.25
274.249	223.25
274.481	232.25
274.713	244.25
274.945	252.25
275.176	253.25
275.408	258.25
275.64	244.25
275.872	251.25
276.104	238.25
276.335	255.25
276.567	246.25
276.799	264.25
277.031	280.25
277.262	290.25
277.494	289.25
277.726	271.25
277.957	260.25
278.189	236.25
278.421	253.25
278.652	258.25
278.884	241.25
279.115	242.25
279.347	258.25
279.579	267.25
279.81	247.25
280.042	243.25
280.273	267.25
280.505	262.25
280.736	265.25
280.968	252.25
281.199	258.25
281.431	241.25
281.662	258.25
281.894	265.25
282.125	251.25
282.356	258.25
282.588	302.25
282.819	277.25
283.051	274.25
283.282	266.25
283.513	275.25
283.745	268.25
283.976	274.25
284.207	260.25
284.439	278.25
284.67	263.25
284.901	266.25
285.132	280.25
285.364	262.25
285.595	251.25
285.826	229.25
286.057	248.25
286.288	262.25
286.52	282.25
286.751	271.25
286.982	258.25
287.213	263.25
287.444	265.25
287.675	279.25
287.906	255.25
288.138	286.25
288.369	278.25
288.6	278.25
288.831	273.25
289.062	283.25
289.293	277.25
289.524	271.25
289.755	268.25
289.986	276.25
290.217	284.25
290.448	268.25
290.679	281.25
290.91	292.25
291.141	275.25
291.371	284.25
291.602	285.25
291.833	276.25
292.064	284.25
292.295	267.25
292.526	272.25
292.757	265.25
292.987	281.25
293.218	279.25
293.449	274.25
293.68	279.25
293.91	272.25
294.141	281.25
294.372	291.25
294.603	268.25
294.833	286.25
295.064	280.25
295.295	275.25
295.525	305.25
295.756	299.25
295.987	283.25
296.217	288.25
296.448	307.25
296.679	286.25
296.909	298.25
297.14	295.25
297.37	294.25
297.601	295.25
297.831	295.25
298.062	283.25
298.292	294.25
298.523	302.25
298.753	279.25
298.984	306.25
299.214	286.25
299.445	288.25
299.675	325.25
299.905	322.25
300.136	292.25
300.366	304.25
300.597	294.25
300.827	307.25
301.057	292.25
301.288	331.25
301.518	327.25
301.748	309.25
301.979	304.25
302.209	319.25
302.439	325.25
302.669	318.25
302.9	328.25
303.13	305.25
303.36	302.25
303.59	315.25
303.82	321.25
304.051	326.25
304.281	308.25
304.511	313.25
304.741	311.25
304.971	315.25
305.201	318.25
305.431	327.25
305.661	336.25
305.891	296.25
306.121	308.25
306.352	316.25
306.582	305.25
306.812	318.25
307.042	314.25
307.272	322.25
307.502	304.25
307.731	323.25
307.961	318.25
308.191	321.25
308.421	311.25
308.651	334.25
308.881	304.25
309.111	329.25
309.341	331.25
309.571	333.25
309.8	339.25
310.03	345.25
310.26	331.25
310.49	357.25
310.72	354.25
310.949	369.25
311.179	374.25
311.409	350.25
311.639	352.25
311.868	361.25
312.098	353.25
312.328	369.25
312.557	387.25
312.787	375.25
313.017	371.25
313.246	371.25
313.476	353.25
313.706	348.25
313.935	377.25
314.165	376.25
314.394	383.25
314.624	371.25
314.853	372.25
315.083	342.25
315.312	350.25
315.542	353.25
315.771	343.25
316.001	364.25
316.23	355.25
316.46	357.25
316.689	346.25
316.919	362.25
317.148	387.25
317.377	370.25
317.607	368.25
317.836	376.25
318.065	359.25
318.295	376.25
318.524	377.25
318.753	366.25
318.983	384.25
319.212	360.25
319.441	374.25
319.67	375.25
319.9	352.25
320.129	357.25
320.358	347.25
320.587	358.25
320.816	375.25
321.046	367.25
321.275	370.25
321.504	361.25
321.733	379.25
321.962	374.25
322.191	399.25
322.42	402.25
322.649	415.25
322.878	426.25
323.108	416.25
323.337	430.25
323.566	443.25
323.795	457.25
324.024	510.25
324.253	601.25
324.482	856.25
324.71	1320.25
324.939	1986.25
325.168	1672.25
325.397	839.25
325.626	583.25
325.855	508.25
326.084	480.25
326.313	472.25
326.542	476.25
326.77	496.25
326.999	588.25
327.228	778.25
327.457	1199.25
327.686	1466.25
327.914	989.25
328.143	641.25
328.372	570.25
328.6	529.25
328.829	519.25
329.058	530.25
329.287	526.25
329.515	498.25
329.744	454.25
329.972	456.25
330.201	495.25
330.43	504.25
330.658	536.25
330.887	555.25
331.115	519.25
331.344	471.25
331.572	454.25
331.801	471.25
332.03	457.25
332.258	448.25
332.486	441.25
332.715	440.25
332.943	446.25
333.172	443.25
333.4	450.25
333.629	452.25
333.857	486.25
334.085	482.25
334.314	490.25
334.542	511.25
334.771	531.25
334.999	487.25
335.227	471.25
335.455	453.25
335.684	458.25
335.912	449.25
336.14	431.25
336.369	436.25
336.597	453.25
336.825	450.25
337.053	430.25
337.281	434.25
337.51	433.25
337.738	427.25
337.966	422.25
338.194	436.25
338.422	433.25
338.65	411.25
338.878	423.25
339.106	433.25
339.334	421.25
339.562	419.25
339.79	413.25
340.018	412.25
340.246	398.25
340.474	431.25
340.702	407.25
340.93	413.25
341.158	408.25
341.386	415.25
341.614	422.25
341.842	422.25
342.07	402.25
342.298	397.25
342.526	402.25
342.754	427.25
342.981	402.25
343.209	423.25
343.437	430.25
343.665	407.25
343.893	433.25
344.12	450.25
344.348	468.25
344.576	439.25
344.804	458.25
345.031	437.25
345.259	436.25
345.487	448.25
345.714	419.25
345.942	426.25
346.17	414.25
346.397	408.25
346.625	400.25
346.853	404.25
347.08	386.25
347.308	414.25
347.535	418.25
347.763	427.25
347.99	438.25
348.218	417.25
348.445	419.25
348.673	410.25
348.9	414.25
349.128	405.25
349.355	404.25
349.583	403.25
349.81	403.25
350.037	396.25
350.265	396.25
350.492	398.25
350.72	368.25
350.947	403.25
351.174	407.25
351.402	411.25
351.629	423.25
351.856	417.25
352.083	406.25
352.311	410.25
352.538	441.25
352.765	428.25
352.992	404.25
353.22	422.25
353.447	407.25
353.674	407.25
353.901	405.25
354.128	395.25
354.355	375.25
354.583	384.25
354.81	383.25
355.037	390.25
355.264	383.25
355.491	367.25
355.718	381.25
355.945	387.25
356.172	380.25
356.399	392.25
356.626	382.25
356.853	384.25
357.08	415.25
357.307	375.25
357.534	373.25
357.761	384.25
357.988	367.25
358.215	403.25
358.441	382.25
358.668	385.25
358.895	394.25
359.122	418.25
359.349	393.25
359.576	410.25
359.802	420.25
360.029	443.25
360.256	456.25
360.483	452.25
360.709	442.25
360.936	419.25
361.163	416.25
361.39	416.25
361.616	424.25
361.843	382.25
362.07	400.25
362.296	403.25
362.523	418.25
362.749	412.25
362.976	402.25
363.203	408.25
363.429	416.25
363.656	410.25
363.882	393.25
364.109	408.25
364.335	381.25
364.562	395.25
364.788	412.25
365.015	382.25
365.241	395.25
365.468	414.25
365.694	393.25
365.92	399.25
366.147	384.25
366.373	405.25
366.599	390.25
366.826	405.25
367.052	398.25
367.278	380.25
367.505	382.25
367.731	410.25
367.957	404.25
368.184	432.25
368.41	407.25
368.636	411.25
368.862	399.25
369.089	404.25
369.315	403.25
369.541	396.25
369.767	411.25
369.993	432.25
370.219	419.25
370.445	393.25
370.672	414.25
370.898	420.25
371.124	403.25
371.35	399.25
371.576	403.25
371.802	412.25
372.028	405.25
372.254	415.25
372.48	414.25
372.706	410.25
372.932	441.25
373.158	405.25
373.384	409.25
373.61	416.25
373.835	407.25
374.061	409.25
374.287	424.25
374.513	427.25
374.739	434.25
374.965	401.25
375.191	414.25
375.416	420.25
375.642	411.25
375.868	437.25
376.094	417.25
376.319	416.25
376.545	403.25
376.771	415.25
376.997	406.25
377.222	414.25
377.448	410.25
377.674	412.25
377.899	395.25
378.125	407.25
378.35	404.25
378.576	390.25
378.802	387.25
379.027	402.25
379.253	413.25
379.478	399.25
379.704	422.25
379.929	415.25
380.155	422.25
380.38	414.25
380.606	435.25
380.831	405.25
381.057	409.25
381.282	409.25
381.507	404.25
381.733	393.25
381.958	417.25
382.184	413.25
382.409	402.25
382.634	431.25
382.86	404.25
383.085	414.25
383.31	426.25
383.535	430.25
383.761	434.25
383.986	410.25
384.211	433.25
384.436	433.25
384.662	451.25
384.887	459.25
385.112	448.25
385.337	443.25
385.562	458.25
385.787	453.25
386.013	464.25
386.238	463.25
386.463	468.25
386.688	455.25
386.913	457.25
387.138	444.25
387.363	444.25
387.588	487.25
387.813	452.25
388.038	443.25
388.263	457.25
388.488	459.25
388.713	441.25
388.938	456.25
389.163	463.25
389.387	459.25
389.612	461.25
389.837	451.25
390.062	434.25
390.287	459.25
390.512	449.25
390.736	447.25
390.961	452.25
391.186	459.25
391.411	465.25
391.636	473.25
391.86	460.25
392.085	472.25
392.31	489.25
392.534	481.25
392.759	472.25
392.984	478.25
393.208	470.25
393.433	495.25
393.658	485.25
393.882	463.25
394.107	469.25
394.331	472.25
394.556	459.25
394.78	466.25
395.005	484.25
395.229	466.25
395.454	470.25
395.678	478.25
395.903	490.25
396.127	514.25
396.352	531.25
396.576	498.25
396.801	485.25
397.025	486.25
397.249	483.25
397.474	489.25
397.698	501.25
397.922	538.25
398.147	536.25
398.371	533.25
398.595	517.25
398.82	534.25
399.044	551.25
399.268	580.25
399.492	605.25
399.717	628.25
399.941	655.25
400.165	668.25
400.389	661.25
400.613	610.25
400.837	554.25
401.062	554.25
401.286	545.25
401.51	527.25
401.734	519.25
401.958	566.25
402.182	552.25
402.406	555.25
402.63	571.25
402.854	564.25
403.078	551.25
403.302	558.25
403.526	561.25
403.75	574.25
403.974	567.25
404.198	564.25
404.422	578.25
404.645	570.25
404.869	585.25
405.093	593.25
405.317	651.25
405.541	692.25
405.765	617.25
405.988	586.25
406.212	606.25
406.436	609.25
406.66	656.25
406.883	610.25
407.107	634.25
407.331	647.25
407.555	720.25
407.778	734.25
408.002	672.25
408.226	651.25
408.449	640.25
408.673	616.25
408.896	643.25
409.12	678.25
409.344	640.25
409.567	580.25
409.791	576.25
410.014	584.25
410.238	563.25
410.461	571.25
410.685	589.25
410.908	600.25
411.132	587.25
411.355	660.25
411.578	625.25
411.802	583.25
412.025	583.25
412.249	591.25
412.472	614.25
412.695	623.25
412.919	636.25
413.142	608.25
413.365	576.25
413.589	562.25
413.812	547.25
414.035	558.25
414.258	558.25
414.482	510.25
414.705	549.25
414.928	551.25
415.151	531.25
415.374	542.25
415.597	541.25
415.821	540.25
416.044	542.25
416.267	529.25
416.49	552.25
416.713	545.25
416.936	541.25
417.159	532.25
417.382	563.25
417.605	527.25
417.828	543.25
418.051	553.25
418.274	571.25
418.497	552.25
418.72	530.25
418.943	544.25
419.166	576.25
419.389	602.25
419.611	579.25
419.834	566.25
420.057	568.25
420.28	576.25
420.503	548.25
420.726	551.25
420.948	582.25
421.171	572.25
421.394	643.25
421.617	592.25
421.839	560.25
422.062	573.25
422.285	564.25
422.507	617.25
422.73	686.25
422.953	640.25
423.175	587.25
423.398	596.25
423.621	575.25
423.843	618.25
424.066	594.25
424.288	598.25
424.511	608.25
424.733	644.25
424.956	728.25
425.178	692.25
425.401	667.25
425.623	700.25
425.846	630.25
426.068	590.25
426.291	580.25
426.513	590.25
426.735	590.25
426.958	618.25
427.18	690.25
427.402	802.25
427.625	885.25
427.847	794.25
428.069	686.25
428.292	624.25
428.514	574.25
428.736	568.25
428.958	553.25
429.181	528.25
429.403	555.25
429.625	560.25
429.847	566.25
430.069	646.25
430.292	633.25
430.514	552.25
430.736	547.25
430.958	534.25
431.18	528.25
431.402	550.25
431.624	521.25
431.846	537.25
432.068	503.25
432.29	539.25
432.512	515.25
432.734	526.25
432.956	516.25
433.178	536.25
433.4	546.25
433.622	524.25
433.844	517.25
434.066	528.25
434.287	527.25
434.509	555.25
434.731	539.25
434.953	537.25
435.175	565.25
435.397	585.25
435.618	578.25
435.84	644.25
436.062	728.25
436.284	779.25
436.505	668.25
436.727	572.25
436.949	559.25
437.17	559.25
437.392	543.25
437.614	556.25
437.835	574.25
438.057	640.25
438.278	768.25
438.5	742.25
438.721	822.25
438.943	795.25
439.165	651.25
439.386	616.25
439.608	574.25
439.829	597.25
440.05	608.25
440.272	657.25
440.493	604.25
440.715	563.25
440.936	562.25
441.158	548.25
441.379	536.25
441.6	554.25
441.822	601.25
442.043	623.25
442.264	703.25
442.486	746.25
442.707	636.25
442.928	593.25
443.149	612.25
443.371	625.25
443.592	656.25
443.813	751.25
444.034	822.25
444.255	679.25
444.476	600.25
444.698	610.25
444.919	622.25
445.14	735.25
445.361	676.25
445.582	639.25
445.803	710.25
446.024	784.25
446.245	807.25
446.466	717.25
446.687	609.25
446.908	584.25
447.129	542.25
447.35	543.25
447.571	543.25
447.792	555.25
448.013	542.25
448.234	552.25
448.455	595.25
448.675	696.25
448.896	836.25
449.117	682.25
449.338	644.25
449.559	755.25
449.779	842.25
450	700.25
450.221	588.25
450.442	560.25
450.662	520.25
450.883	510.25
451.104	544.25
451.324	544.25
451.545	536.25
451.766	500.25
451.986	506.25
452.207	453.25
452.428	474.25
452.648	502.25
452.869	496.25
453.089	500.25
453.31	504.25
453.53	497.25
453.751	494.25
453.971	509.25
454.192	503.25
454.412	485.25
454.633	494.25
454.853	463.25
455.073	476.25
455.294	520.25
455.514	574.25
455.734	547.25
455.955	481.25
456.175	467.25
456.395	449.25
456.616	448.25
456.836	467.25
457.056	453.25
457.276	434.25
457.497	453.25
457.717	462.25
457.937	465.25
458.157	500.25
458.377	480.25
458.598	488.25
458.818	566.25
459.038	589.25
459.258	633.25
459.478	578.25
459.698	546.25
459.918	519.25
460.138	524.25
460.358	538.25
460.578	543.25
460.798	533.25
461.018	586.25
461.238	555.25
461.458	537.25
461.678	546.25
461.898	532.25
462.118	541.25
462.338	580.25
462.558	567.25
462.777	583.25
462.997	604.25
463.217	622.25
463.437	640.25
463.657	614.25
463.876	608.25
464.096	591.25
464.316	605.25
464.536	576.25
464.755	572.25
464.975	586.25
465.195	618.25
465.414	666.25
465.634	628.25
465.854	552.25
466.073	543.25
466.293	521.25
466.512	502.25
466.732	526.25
466.951	519.25
467.171	485.25
467.391	512.25
467.61	534.25
467.829	524.25
468.049	543.25
468.268	525.25
468.488	514.25
468.707	495.25
468.927	499.25
469.146	497.25
469.365	486.25
469.585	498.25
469.804	496.25
470.023	513.25
470.243	538.25
470.462	503.25
470.681	534.25
470.901	548.25
471.12	522.25
471.339	533.25
471.558	532.25
471.777	519.25
471.997	510.25
472.216	499.25
472.435	555.25
472.654	539.25
472.873	503.25
473.092	521.25
473.311	497.25
473.53	512.25
473.749	516.25
473.968	561.25
474.187	650.25
474.406	647.25
474.625	527.25
474.844	528.25
475.063	525.25
475.282	504.25
475.501	522.25
475.72	516.25
475.939	520.25
476.158	528.25
476.377	547.25
476.596	526.25
476.814	547.25
477.033	542.25
477.252	564.25
477.471	553.25
477.69	544.25
477.908	560.25
478.127	580.25
478.346	566.25
478.564	578.25
478.783	607.25
479.002	603.25
479.22	611.25
479.439	597.25
479.658	588.25
479.876	594.25
480.095	630.25
480.313	651.25
480.532	662.25
480.751	638.25
480.969	663.25
481.188	715.25
481.406	716.25
481.624	668.25
481.843	612.25
482.061	608.25
482.28	612.25
482.498	595.25
482.717	622.25
482.935	564.25
483.153	560.25
483.372	615.25
483.59	612.25
483.808	606.25
484.027	605.25
484.245	607.25
484.463	600.25
484.681	605.25
484.9	626.25
485.118	628.25
485.336	631.25
485.554	606.25
485.772	627.25
485.99	616.25
486.209	627.25
486.427	624.25
486.645	626.25
486.863	631.25
487.081	659.25
487.299	623.25
487.517	648.25
487.735	647.25
487.953	636.25
488.171	660.25
488.389	649.25
488.607	633.25
488.825	638.25
489.043	649.25
489.261	662.25
489.479	652.25
489.696	653.25
489.914	660.25
490.132	674.25
490.35	652.25
490.568	612.25
490.786	682.25
491.003	680.25
491.221	700.25
491.439	704.25
491.657	697.25
491.874	736.25
492.092	712.25
492.31	719.25
492.527	737.25
492.745	723.25
492.963	708.25
493.18	735.25
493.398	722.25
493.615	753.25
493.833	759.25
494.05	748.25
494.268	727.25
494.485	729.25
494.703	726.25
494.92	739.25
495.138	739.25
495.355	748.25
495.573	746.25
495.79	778.25
496.008	745.25
496.225	760.25
496.442	755.25
496.66	768.25
496.877	743.25
497.094	776.25
497.312	786.25
497.529	803.25
497.746	800.25
497.963	802.25
498.181	827.25
498.398	841.25
498.615	860.25
498.832	914.25
499.049	912.25
499.267	944.25
499.484	978.25
499.701	987.25
499.918	1072.25
500.135	1089.25
500.352	1149.25
500.569	1228.25
500.786	1241.25
501.003	1172.25
501.22	1130.25
501.437	1098.25
501.654	1045.25
501.871	1036.25
