Data from 1979.PennyLincolnUp.Lamp.En5.5.200Scan.071719.P1_HRD10591_16-19-17-864.txt Node
Date: Thu Jul 18 16:19:17 EDT 2019
User: cochatt
Spectrometer: HR+D1059
Trigger mode: 1
Integration Time (sec): 1.000000E-1
Scans to average: 1
Electric dark correction enabled: true
Nonlinearity correction enabled: false
Boxcar width: 0
XAxis mode: Wavelengths
Number of Pixels in Spectrum: 2048
>>>>>Begin Spectral Data<<<<<
223.165	-15.81
223.4	-15.81
223.635	-15.81
223.869	-24.81
224.104	-14.81
224.338	-16.81
224.573	-10.81
224.808	-11.81
225.042	-10.81
225.277	-1.81
225.511	-0.81
225.746	2.19
225.98	18.19
226.215	5.19
226.449	14.19
226.683	21.19
226.918	9.19
227.152	38.19
227.387	36.19
227.621	47.19
227.856	48.19
228.09	60.19
228.324	73.19
228.559	71.19
228.793	66.19
229.027	84.19
229.262	104.19
229.496	107.19
229.73	112.19
229.964	150.19
230.199	128.19
230.433	112.19
230.667	124.19
230.901	109.19
231.136	117.19
231.37	102.19
231.604	112.19
231.838	125.19
232.072	114.19
232.306	113.19
232.541	114.19
232.775	102.19
233.009	109.19
233.243	113.19
233.477	113.19
233.711	113.19
233.945	118.19
234.179	110.19
234.413	108.19
234.647	110.19
234.881	116.19
235.115	122.19
235.349	119.19
235.583	118.19
235.817	113.19
236.051	113.19
236.285	129.19
236.519	132.19
236.753	120.19
236.987	142.19
237.221	172.19
237.455	210.19
237.689	190.19
237.922	140.19
238.156	126.19
238.39	125.19
238.624	129.19
238.858	126.19
239.091	114.19
239.325	122.19
239.559	123.19
239.793	124.19
240.027	124.19
240.26	146.19
240.494	164.19
240.728	147.19
240.961	139.19
241.195	132.19
241.429	116.19
241.662	135.19
241.896	132.19
242.13	139.19
242.363	129.19
242.597	128.19
242.83	129.19
243.064	140.19
243.298	140.19
243.531	133.19
243.765	143.19
243.998	144.19
244.232	133.19
244.465	148.19
244.699	148.19
244.932	147.19
245.166	161.19
245.399	154.19
245.633	160.19
245.866	154.19
246.099	135.19
246.333	151.19
246.566	160.19
246.8	150.19
247.033	143.19
247.266	156.19
247.5	159.19
247.733	161.19
247.966	161.19
248.2	172.19
248.433	169.19
248.666	164.19
248.899	184.19
249.133	182.19
249.366	192.19
249.599	180.19
249.832	173.19
250.066	186.19
250.299	180.19
250.532	189.19
250.765	199.19
250.998	198.19
251.231	204.19
251.465	202.19
251.698	191.19
251.931	186.19
252.164	188.19
252.397	187.19
252.63	187.19
252.863	196.19
253.096	206.19
253.329	208.19
253.562	205.19
253.795	210.19
254.028	203.19
254.261	201.19
254.494	217.19
254.727	222.19
254.96	262.19
255.193	228.19
255.426	208.19
255.659	216.19
255.892	216.19
256.124	226.19
256.357	215.19
256.59	201.19
256.823	193.19
257.056	197.19
257.289	199.19
257.521	188.19
257.754	208.19
257.987	180.19
258.22	196.19
258.452	190.19
258.685	202.19
258.918	210.19
259.151	194.19
259.383	198.19
259.616	204.19
259.849	206.19
260.081	204.19
260.314	220.19
260.547	255.19
260.779	229.19
261.012	222.19
261.244	225.19
261.477	225.19
261.71	204.19
261.942	226.19
262.175	220.19
262.407	226.19
262.64	203.19
262.872	206.19
263.105	208.19
263.337	214.19
263.57	207.19
263.802	220.19
264.035	207.19
264.267	203.19
264.499	178.19
264.732	225.19
264.964	204.19
265.197	214.19
265.429	216.19
265.661	208.19
265.894	202.19
266.126	217.19
266.358	211.19
266.591	205.19
266.823	220.19
267.055	220.19
267.287	222.19
267.52	213.19
267.752	213.19
267.984	221.19
268.216	220.19
268.448	234.19
268.681	228.19
268.913	229.19
269.145	249.19
269.377	255.19
269.609	263.19
269.841	251.19
270.073	257.19
270.306	293.19
270.538	295.19
270.77	292.19
271.002	262.19
271.234	258.19
271.466	260.19
271.698	283.19
271.93	299.19
272.162	274.19
272.394	275.19
272.626	282.19
272.858	255.19
273.09	237.19
273.322	255.19
273.553	232.19
273.785	245.19
274.017	249.19
274.249	260.19
274.481	256.19
274.713	250.19
274.945	267.19
275.176	262.19
275.408	247.19
275.64	230.19
275.872	276.19
276.104	249.19
276.335	234.19
276.567	270.19
276.799	280.19
277.031	284.19
277.262	291.19
277.494	287.19
277.726	287.19
277.957	292.19
278.189	255.19
278.421	237.19
278.652	267.19
278.884	273.19
279.115	251.19
279.347	251.19
279.579	263.19
279.81	246.19
280.042	249.19
280.273	258.19
280.505	247.19
280.736	237.19
280.968	260.19
281.199	244.19
281.431	247.19
281.662	260.19
281.894	267.19
282.125	277.19
282.356	272.19
282.588	289.19
282.819	286.19
283.051	273.19
283.282	259.19
283.513	266.19
283.745	265.19
283.976	263.19
284.207	283.19
284.439	274.19
284.67	281.19
284.901	262.19
285.132	256.19
285.364	250.19
285.595	262.19
285.826	262.19
286.057	276.19
286.288	280.19
286.52	287.19
286.751	276.19
286.982	272.19
287.213	287.19
287.444	275.19
287.675	285.19
287.906	296.19
288.138	273.19
288.369	294.19
288.6	297.19
288.831	276.19
289.062	304.19
289.293	277.19
289.524	290.19
289.755	279.19
289.986	278.19
290.217	301.19
290.448	298.19
290.679	283.19
290.91	296.19
291.141	292.19
291.371	275.19
291.602	285.19
291.833	270.19
292.064	271.19
292.295	287.19
292.526	286.19
292.757	301.19
292.987	297.19
293.218	283.19
293.449	308.19
293.68	286.19
293.91	265.19
294.141	268.19
294.372	280.19
294.603	290.19
294.833	296.19
295.064	303.19
295.295	284.19
295.525	288.19
295.756	301.19
295.987	287.19
296.217	313.19
296.448	347.19
296.679	292.19
296.909	278.19
297.14	303.19
297.37	298.19
297.601	304.19
297.831	303.19
298.062	305.19
298.292	324.19
298.523	303.19
298.753	298.19
298.984	296.19
299.214	306.19
299.445	306.19
299.675	328.19
299.905	326.19
300.136	320.19
300.366	333.19
300.597	310.19
300.827	310.19
301.057	312.19
301.288	313.19
301.518	310.19
301.748	331.19
301.979	311.19
302.209	335.19
302.439	329.19
302.669	317.19
302.9	318.19
303.13	328.19
303.36	334.19
303.59	354.19
303.82	338.19
304.051	326.19
304.281	334.19
304.511	335.19
304.741	310.19
304.971	302.19
305.201	307.19
305.431	315.19
305.661	324.19
305.891	313.19
306.121	318.19
306.352	335.19
306.582	340.19
306.812	323.19
307.042	332.19
307.272	342.19
307.502	317.19
307.731	336.19
307.961	324.19
308.191	315.19
308.421	331.19
308.651	332.19
308.881	343.19
309.111	342.19
309.341	346.19
309.571	352.19
309.8	356.19
310.03	369.19
310.26	375.19
310.49	354.19
310.72	362.19
310.949	362.19
311.179	390.19
311.409	369.19
311.639	356.19
311.868	381.19
312.098	356.19
312.328	384.19
312.557	376.19
312.787	400.19
313.017	391.19
313.246	389.19
313.476	369.19
313.706	356.19
313.935	365.19
314.165	384.19
314.394	376.19
314.624	381.19
314.853	384.19
315.083	372.19
315.312	372.19
315.542	378.19
315.771	354.19
316.001	333.19
316.23	372.19
316.46	378.19
316.689	357.19
316.919	342.19
317.148	374.19
317.377	356.19
317.607	390.19
317.836	386.19
318.065	377.19
318.295	369.19
318.524	358.19
318.753	361.19
318.983	356.19
319.212	398.19
319.441	393.19
319.67	381.19
319.9	388.19
320.129	384.19
320.358	368.19
320.587	388.19
320.816	402.19
321.046	382.19
321.275	378.19
321.504	372.19
321.733	399.19
321.962	401.19
322.191	416.19
322.42	427.19
322.649	448.19
322.878	422.19
323.108	417.19
323.337	464.19
323.566	494.19
323.795	496.19
324.024	533.19
324.253	610.19
324.482	874.19
324.71	1362.19
324.939	2012.19
325.168	1736.19
325.397	859.19
325.626	620.19
325.855	492.19
326.084	496.19
326.313	473.19
326.542	460.19
326.77	516.19
326.999	615.19
327.228	803.19
327.457	1219.19
327.686	1559.19
327.914	985.19
328.143	657.19
328.372	580.19
328.6	551.19
328.829	544.19
329.058	547.19
329.287	554.19
329.515	513.19
329.744	482.19
329.972	486.19
330.201	520.19
330.43	537.19
330.658	540.19
330.887	566.19
331.115	578.19
331.344	505.19
331.572	465.19
331.801	492.19
332.03	468.19
332.258	461.19
332.486	483.19
332.715	450.19
332.943	431.19
333.172	464.19
333.4	474.19
333.629	497.19
333.857	493.19
334.085	490.19
334.314	474.19
334.542	521.19
334.771	548.19
334.999	503.19
335.227	489.19
335.455	462.19
335.684	461.19
335.912	447.19
336.14	444.19
336.369	447.19
336.597	468.19
336.825	453.19
337.053	454.19
337.281	441.19
337.51	431.19
337.738	443.19
337.966	436.19
338.194	440.19
338.422	451.19
338.65	415.19
338.878	422.19
339.106	423.19
339.334	438.19
339.562	432.19
339.79	427.19
340.018	415.19
340.246	439.19
340.474	447.19
340.702	431.19
340.93	408.19
341.158	441.19
341.386	414.19
341.614	420.19
341.842	432.19
342.07	427.19
342.298	408.19
342.526	430.19
342.754	437.19
342.981	410.19
343.209	427.19
343.437	422.19
343.665	454.19
343.893	421.19
344.12	440.19
344.348	452.19
344.576	452.19
344.804	442.19
345.031	432.19
345.259	446.19
345.487	440.19
345.714	447.19
345.942	408.19
346.17	426.19
346.397	413.19
346.625	436.19
346.853	418.19
347.08	410.19
347.308	423.19
347.535	417.19
347.763	453.19
347.99	424.19
348.218	434.19
348.445	437.19
348.673	457.19
348.9	419.19
349.128	421.19
349.355	414.19
349.583	407.19
349.81	399.19
350.037	422.19
350.265	393.19
350.492	402.19
350.72	397.19
350.947	418.19
351.174	403.19
351.402	412.19
351.629	430.19
351.856	421.19
352.083	420.19
352.311	429.19
352.538	444.19
352.765	440.19
352.992	417.19
353.22	388.19
353.447	412.19
353.674	427.19
353.901	408.19
354.128	411.19
354.355	387.19
354.583	422.19
354.81	389.19
355.037	393.19
355.264	399.19
355.491	391.19
355.718	363.19
355.945	382.19
356.172	406.19
356.399	393.19
356.626	405.19
356.853	395.19
357.08	386.19
357.307	391.19
357.534	393.19
357.761	402.19
357.988	393.19
358.215	415.19
358.441	400.19
358.668	393.19
358.895	389.19
359.122	402.19
359.349	401.19
359.576	412.19
359.802	439.19
360.029	458.19
360.256	459.19
360.483	463.19
360.709	407.19
360.936	419.19
361.163	423.19
361.39	425.19
361.616	449.19
361.843	424.19
362.07	430.19
362.296	432.19
362.523	439.19
362.749	418.19
362.976	406.19
363.203	413.19
363.429	409.19
363.656	402.19
363.882	413.19
364.109	400.19
364.335	391.19
364.562	406.19
364.788	409.19
365.015	396.19
365.241	399.19
365.468	425.19
365.694	433.19
365.92	421.19
366.147	400.19
366.373	425.19
366.599	414.19
366.826	397.19
367.052	394.19
367.278	416.19
367.505	402.19
367.731	407.19
367.957	390.19
368.184	403.19
368.41	416.19
368.636	428.19
368.862	438.19
369.089	409.19
369.315	400.19
369.541	393.19
369.767	424.19
369.993	418.19
370.219	427.19
370.445	401.19
370.672	409.19
370.898	415.19
371.124	418.19
371.35	407.19
371.576	404.19
371.802	406.19
372.028	420.19
372.254	417.19
372.48	428.19
372.706	436.19
372.932	428.19
373.158	418.19
373.384	416.19
373.61	424.19
373.835	425.19
374.061	391.19
374.287	431.19
374.513	432.19
374.739	447.19
374.965	441.19
375.191	443.19
375.416	427.19
375.642	427.19
375.868	411.19
376.094	430.19
376.319	452.19
376.545	414.19
376.771	423.19
376.997	425.19
377.222	424.19
377.448	439.19
377.674	413.19
377.899	429.19
378.125	420.19
378.35	414.19
378.576	420.19
378.802	409.19
379.027	431.19
379.253	424.19
379.478	416.19
379.704	410.19
379.929	402.19
380.155	401.19
380.38	427.19
380.606	415.19
380.831	424.19
381.057	434.19
381.282	421.19
381.507	440.19
381.733	423.19
381.958	438.19
382.184	424.19
382.409	432.19
382.634	436.19
382.86	434.19
383.085	452.19
383.31	446.19
383.535	469.19
383.761	449.19
383.986	429.19
384.211	456.19
384.436	456.19
384.662	456.19
384.887	451.19
385.112	462.19
385.337	455.19
385.562	452.19
385.787	458.19
386.013	462.19
386.238	485.19
386.463	475.19
386.688	463.19
386.913	452.19
387.138	472.19
387.363	466.19
387.588	448.19
387.813	464.19
388.038	477.19
388.263	483.19
388.488	477.19
388.713	489.19
388.938	476.19
389.163	476.19
389.387	472.19
389.612	460.19
389.837	473.19
390.062	471.19
390.287	477.19
390.512	455.19
390.736	473.19
390.961	463.19
391.186	479.19
391.411	481.19
391.636	466.19
391.86	490.19
392.085	489.19
392.31	483.19
392.534	494.19
392.759	489.19
392.984	479.19
393.208	499.19
393.433	486.19
393.658	476.19
393.882	492.19
394.107	504.19
394.331	490.19
394.556	469.19
394.78	484.19
395.005	505.19
395.229	486.19
395.454	487.19
395.678	512.19
395.903	508.19
396.127	503.19
396.352	517.19
396.576	495.19
396.801	494.19
397.025	490.19
397.249	482.19
397.474	502.19
397.698	517.19
397.922	516.19
398.147	553.19
398.371	543.19
398.595	556.19
398.82	530.19
399.044	573.19
399.268	592.19
399.492	615.19
399.717	645.19
399.941	670.19
400.165	695.19
400.389	689.19
400.613	626.19
400.837	601.19
401.062	594.19
401.286	542.19
401.51	556.19
401.734	563.19
401.958	562.19
402.182	575.19
402.406	566.19
402.63	592.19
402.854	574.19
403.078	555.19
403.302	574.19
403.526	591.19
403.75	599.19
403.974	570.19
404.198	578.19
404.422	597.19
404.645	594.19
404.869	624.19
405.093	648.19
405.317	642.19
405.541	683.19
405.765	646.19
405.988	594.19
406.212	596.19
406.436	653.19
406.66	662.19
406.883	631.19
407.107	652.19
407.331	701.19
407.555	735.19
407.778	774.19
408.002	719.19
408.226	651.19
408.449	658.19
408.673	644.19
408.896	655.19
409.12	692.19
409.344	659.19
409.567	623.19
409.791	620.19
410.014	596.19
410.238	594.19
410.461	612.19
410.685	602.19
410.908	605.19
411.132	630.19
411.355	658.19
411.578	609.19
411.802	601.19
412.025	580.19
412.249	591.19
412.472	616.19
412.695	656.19
412.919	644.19
413.142	600.19
413.365	568.19
413.589	579.19
413.812	578.19
414.035	555.19
414.258	529.19
414.482	570.19
414.705	562.19
414.928	586.19
415.151	572.19
415.374	550.19
415.597	551.19
415.821	513.19
416.044	542.19
416.267	557.19
416.49	565.19
416.713	545.19
416.936	567.19
417.159	545.19
417.382	559.19
417.605	557.19
417.828	578.19
418.051	577.19
418.274	548.19
418.497	560.19
418.72	553.19
418.943	545.19
419.166	580.19
419.389	617.19
419.611	591.19
419.834	605.19
420.057	599.19
420.28	569.19
420.503	580.19
420.726	576.19
420.948	584.19
421.171	626.19
421.394	676.19
421.617	623.19
421.839	584.19
422.062	593.19
422.285	591.19
422.507	631.19
422.73	714.19
422.953	704.19
423.175	625.19
423.398	592.19
423.621	608.19
423.843	606.19
424.066	610.19
424.288	629.19
424.511	640.19
424.733	672.19
424.956	768.19
425.178	720.19
425.401	715.19
425.623	757.19
425.846	625.19
426.068	588.19
426.291	608.19
426.513	602.19
426.735	618.19
426.958	628.19
427.18	716.19
427.402	840.19
427.625	971.19
427.847	798.19
428.069	703.19
428.292	628.19
428.514	626.19
428.736	579.19
428.958	569.19
429.181	556.19
429.403	556.19
429.625	590.19
429.847	610.19
430.069	702.19
430.292	663.19
430.514	571.19
430.736	574.19
430.958	549.19
431.18	523.19
431.402	558.19
431.624	518.19
431.846	546.19
432.068	535.19
432.29	538.19
432.512	519.19
432.734	562.19
432.956	573.19
433.178	566.19
433.4	571.19
433.622	554.19
433.844	530.19
434.066	564.19
434.287	536.19
434.509	560.19
434.731	550.19
434.953	558.19
435.175	590.19
435.397	634.19
435.618	590.19
435.84	642.19
436.062	716.19
436.284	795.19
436.505	690.19
436.727	617.19
436.949	572.19
437.17	550.19
437.392	588.19
437.614	586.19
437.835	601.19
438.057	708.19
438.278	752.19
438.5	772.19
438.721	849.19
438.943	824.19
439.165	660.19
439.386	613.19
439.608	604.19
439.829	600.19
440.05	631.19
440.272	702.19
440.493	633.19
440.715	582.19
440.936	580.19
441.158	570.19
441.379	588.19
441.6	578.19
441.822	616.19
442.043	648.19
442.264	718.19
442.486	725.19
442.707	650.19
442.928	624.19
443.149	650.19
443.371	642.19
443.592	677.19
443.813	731.19
444.034	840.19
444.255	690.19
444.476	646.19
444.698	638.19
444.919	611.19
445.14	736.19
445.361	670.19
445.582	648.19
445.803	692.19
446.024	796.19
446.245	803.19
446.466	762.19
446.687	641.19
446.908	617.19
447.129	575.19
447.35	562.19
447.571	562.19
447.792	556.19
448.013	565.19
448.234	564.19
448.455	609.19
448.675	716.19
448.896	828.19
449.117	697.19
449.338	686.19
449.559	790.19
449.779	856.19
450	697.19
450.221	613.19
450.442	560.19
450.662	562.19
450.883	541.19
451.104	582.19
451.324	542.19
451.545	525.19
451.766	520.19
451.986	521.19
452.207	505.19
452.428	514.19
452.648	498.19
452.869	514.19
453.089	506.19
453.31	521.19
453.53	503.19
453.751	504.19
453.971	520.19
454.192	541.19
454.412	502.19
454.633	496.19
454.853	507.19
455.073	489.19
455.294	522.19
455.514	560.19
455.734	567.19
455.955	488.19
456.175	488.19
456.395	483.19
456.616	482.19
456.836	477.19
457.056	483.19
457.276	466.19
457.497	471.19
457.717	486.19
457.937	471.19
458.157	484.19
458.377	495.19
458.598	508.19
458.818	578.19
459.038	663.19
459.258	651.19
459.478	581.19
459.698	566.19
459.918	543.19
460.138	531.19
460.358	553.19
460.578	571.19
460.798	551.19
461.018	585.19
461.238	562.19
461.458	568.19
461.678	568.19
461.898	588.19
462.118	560.19
462.338	595.19
462.558	620.19
462.777	594.19
462.997	641.19
463.217	646.19
463.437	637.19
463.657	614.19
463.876	608.19
464.096	615.19
464.316	615.19
464.536	629.19
464.755	613.19
464.975	655.19
465.195	646.19
465.414	692.19
465.634	606.19
465.854	578.19
466.073	566.19
466.293	562.19
466.512	551.19
466.732	537.19
466.951	541.19
467.171	510.19
467.391	541.19
467.61	522.19
467.829	553.19
468.049	545.19
468.268	543.19
468.488	546.19
468.707	517.19
468.927	518.19
469.146	478.19
469.365	523.19
469.585	522.19
469.804	533.19
470.023	544.19
470.243	542.19
470.462	528.19
470.681	550.19
470.901	560.19
471.12	519.19
471.339	536.19
471.558	521.19
471.777	519.19
471.997	522.19
472.216	544.19
472.435	570.19
472.654	543.19
472.873	534.19
473.092	527.19
473.311	500.19
473.53	517.19
473.749	533.19
473.968	558.19
474.187	670.19
474.406	656.19
474.625	577.19
474.844	548.19
475.063	534.19
475.282	535.19
475.501	545.19
475.72	557.19
475.939	545.19
476.158	540.19
476.377	552.19
476.596	542.19
476.814	563.19
477.033	566.19
477.252	580.19
477.471	549.19
477.69	566.19
477.908	561.19
478.127	601.19
478.346	565.19
478.564	605.19
478.783	613.19
479.002	606.19
479.22	616.19
479.439	621.19
479.658	657.19
479.876	636.19
480.095	631.19
480.313	671.19
480.532	650.19
480.751	659.19
480.969	656.19
481.188	686.19
481.406	733.19
481.624	665.19
481.843	650.19
482.061	636.19
482.28	610.19
482.498	620.19
482.717	612.19
482.935	609.19
483.153	617.19
483.372	608.19
483.59	636.19
483.808	634.19
484.027	628.19
484.245	622.19
484.463	631.19
484.681	634.19
484.9	636.19
485.118	629.19
485.336	613.19
485.554	635.19
485.772	641.19
485.99	633.19
486.209	637.19
486.427	644.19
486.645	657.19
486.863	668.19
487.081	658.19
487.299	656.19
487.517	632.19
487.735	652.19
487.953	641.19
488.171	656.19
488.389	659.19
488.607	670.19
488.825	660.19
489.043	664.19
489.261	675.19
489.479	652.19
489.696	663.19
489.914	683.19
490.132	651.19
490.35	666.19
490.568	689.19
490.786	692.19
491.003	704.19
491.221	717.19
491.439	712.19
491.657	712.19
491.874	724.19
492.092	732.19
492.31	751.19
492.527	739.19
492.745	744.19
492.963	749.19
493.18	751.19
493.398	758.19
493.615	753.19
493.833	776.19
494.05	760.19
494.268	772.19
494.485	751.19
494.703	766.19
494.92	776.19
495.138	750.19
495.355	745.19
495.573	779.19
495.79	790.19
496.008	785.19
496.225	776.19
496.442	740.19
496.66	777.19
496.877	769.19
497.094	773.19
497.312	785.19
497.529	812.19
497.746	814.19
497.963	848.19
498.181	870.19
498.398	891.19
498.615	904.19
498.832	924.19
499.049	951.19
499.267	937.19
499.484	993.19
499.701	1068.19
499.918	1064.19
500.135	1155.19
500.352	1189.19
500.569	1236.19
500.786	1237.19
501.003	1212.19
501.22	1144.19
501.437	1140.19
501.654	1072.19
501.871	1056.19
