Data from 1979.PennyLincolnUp.Lamp.En5.5.200Scan.071719.P1_HRD10591_16-19-22-863.txt Node
Date: Thu Jul 18 16:19:22 EDT 2019
User: cochatt
Spectrometer: HR+D1059
Trigger mode: 1
Integration Time (sec): 1.000000E-1
Scans to average: 1
Electric dark correction enabled: true
Nonlinearity correction enabled: false
Boxcar width: 0
XAxis mode: Wavelengths
Number of Pixels in Spectrum: 2048
>>>>>Begin Spectral Data<<<<<
223.165	-6.25
223.4	-6.25
223.635	-6.25
223.869	-19.25
224.104	-13.25
224.338	-4.25
224.573	-16.25
224.808	5.75
225.042	-5.25
225.277	-2.25
225.511	-18.25
225.746	-6.25
225.98	-3.25
226.215	11.75
226.449	10.75
226.683	23.75
226.918	18.75
227.152	23.75
227.387	27.75
227.621	37.75
227.856	41.75
228.09	40.75
228.324	55.75
228.559	46.75
228.793	59.75
229.027	96.75
229.262	100.75
229.496	107.75
229.73	135.75
229.964	146.75
230.199	139.75
230.433	120.75
230.667	111.75
230.901	104.75
231.136	105.75
231.37	124.75
231.604	107.75
231.838	99.75
232.072	117.75
232.306	102.75
232.541	117.75
232.775	96.75
233.009	108.75
233.243	101.75
233.477	126.75
233.711	113.75
233.945	112.75
234.179	101.75
234.413	94.75
234.647	136.75
234.881	123.75
235.115	120.75
235.349	113.75
235.583	117.75
235.817	122.75
236.051	125.75
236.285	120.75
236.519	120.75
236.753	117.75
236.987	116.75
237.221	163.75
237.455	209.75
237.689	190.75
237.922	147.75
238.156	144.75
238.39	132.75
238.624	126.75
238.858	129.75
239.091	128.75
239.325	118.75
239.559	131.75
239.793	140.75
240.027	112.75
240.26	121.75
240.494	148.75
240.728	146.75
240.961	141.75
241.195	149.75
241.429	128.75
241.662	128.75
241.896	138.75
242.13	117.75
242.363	128.75
242.597	133.75
242.83	132.75
243.064	124.75
243.298	148.75
243.531	136.75
243.765	121.75
243.998	119.75
244.232	121.75
244.465	126.75
244.699	137.75
244.932	134.75
245.166	145.75
245.399	143.75
245.633	145.75
245.866	136.75
246.099	145.75
246.333	141.75
246.566	135.75
246.8	163.75
247.033	149.75
247.266	161.75
247.5	165.75
247.733	162.75
247.966	156.75
248.2	157.75
248.433	163.75
248.666	157.75
248.899	172.75
249.133	186.75
249.366	194.75
249.599	193.75
249.832	188.75
250.066	176.75
250.299	172.75
250.532	168.75
250.765	204.75
250.998	208.75
251.231	207.75
251.465	212.75
251.698	188.75
251.931	191.75
252.164	184.75
252.397	189.75
252.63	185.75
252.863	189.75
253.096	193.75
253.329	198.75
253.562	190.75
253.795	203.75
254.028	215.75
254.261	183.75
254.494	200.75
254.727	236.75
254.96	240.75
255.193	252.75
255.426	216.75
255.659	217.75
255.892	223.75
256.124	220.75
256.357	205.75
256.59	217.75
256.823	208.75
257.056	211.75
257.289	215.75
257.521	196.75
257.754	217.75
257.987	201.75
258.22	215.75
258.452	221.75
258.685	200.75
258.918	202.75
259.151	218.75
259.383	204.75
259.616	199.75
259.849	211.75
260.081	225.75
260.314	238.75
260.547	239.75
260.779	226.75
261.012	224.75
261.244	221.75
261.477	207.75
261.71	212.75
261.942	222.75
262.175	222.75
262.407	206.75
262.64	215.75
262.872	196.75
263.105	207.75
263.337	194.75
263.57	217.75
263.802	210.75
264.035	217.75
264.267	205.75
264.499	194.75
264.732	200.75
264.964	203.75
265.197	211.75
265.429	196.75
265.661	212.75
265.894	227.75
266.126	197.75
266.358	213.75
266.591	206.75
266.823	218.75
267.055	223.75
267.287	196.75
267.52	205.75
267.752	211.75
267.984	211.75
268.216	224.75
268.448	193.75
268.681	217.75
268.913	232.75
269.145	258.75
269.377	252.75
269.609	268.75
269.841	251.75
270.073	245.75
270.306	267.75
270.538	279.75
270.77	279.75
271.002	262.75
271.234	269.75
271.466	290.75
271.698	261.75
271.93	287.75
272.162	275.75
272.394	275.75
272.626	284.75
272.858	263.75
273.09	246.75
273.322	239.75
273.553	251.75
273.785	250.75
274.017	252.75
274.249	235.75
274.481	258.75
274.713	250.75
274.945	260.75
275.176	262.75
275.408	258.75
275.64	243.75
275.872	259.75
276.104	247.75
276.335	248.75
276.567	245.75
276.799	280.75
277.031	305.75
277.262	280.75
277.494	295.75
277.726	296.75
277.957	279.75
278.189	259.75
278.421	246.75
278.652	259.75
278.884	252.75
279.115	258.75
279.347	255.75
279.579	267.75
279.81	254.75
280.042	262.75
280.273	274.75
280.505	261.75
280.736	257.75
280.968	260.75
281.199	245.75
281.431	251.75
281.662	262.75
281.894	249.75
282.125	260.75
282.356	286.75
282.588	282.75
282.819	287.75
283.051	255.75
283.282	260.75
283.513	267.75
283.745	269.75
283.976	260.75
284.207	259.75
284.439	270.75
284.67	282.75
284.901	293.75
285.132	274.75
285.364	273.75
285.595	255.75
285.826	276.75
286.057	262.75
286.288	277.75
286.52	273.75
286.751	275.75
286.982	283.75
287.213	276.75
287.444	283.75
287.675	283.75
287.906	289.75
288.138	292.75
288.369	287.75
288.6	293.75
288.831	284.75
289.062	270.75
289.293	284.75
289.524	281.75
289.755	272.75
289.986	284.75
290.217	292.75
290.448	275.75
290.679	267.75
290.91	285.75
291.141	285.75
291.371	294.75
291.602	275.75
291.833	292.75
292.064	277.75
292.295	288.75
292.526	283.75
292.757	280.75
292.987	269.75
293.218	303.75
293.449	294.75
293.68	293.75
293.91	288.75
294.141	294.75
294.372	285.75
294.603	284.75
294.833	288.75
295.064	272.75
295.295	283.75
295.525	268.75
295.756	307.75
295.987	311.75
296.217	314.75
296.448	330.75
296.679	295.75
296.909	289.75
297.14	300.75
297.37	285.75
297.601	292.75
297.831	284.75
298.062	300.75
298.292	290.75
298.523	323.75
298.753	318.75
298.984	302.75
299.214	318.75
299.445	301.75
299.675	304.75
299.905	301.75
300.136	309.75
300.366	323.75
300.597	322.75
300.827	308.75
301.057	336.75
301.288	329.75
301.518	309.75
301.748	285.75
301.979	319.75
302.209	307.75
302.439	319.75
302.669	340.75
302.9	332.75
303.13	333.75
303.36	326.75
303.59	345.75
303.82	335.75
304.051	336.75
304.281	344.75
304.511	310.75
304.741	322.75
304.971	322.75
305.201	313.75
305.431	322.75
305.661	328.75
305.891	322.75
306.121	327.75
306.352	321.75
306.582	329.75
306.812	333.75
307.042	327.75
307.272	322.75
307.502	323.75
307.731	330.75
307.961	341.75
308.191	322.75
308.421	311.75
308.651	322.75
308.881	330.75
309.111	322.75
309.341	332.75
309.571	362.75
309.8	356.75
310.03	338.75
310.26	372.75
310.49	364.75
310.72	358.75
310.949	380.75
311.179	375.75
311.409	368.75
311.639	341.75
311.868	352.75
312.098	385.75
312.328	395.75
312.557	373.75
312.787	395.75
313.017	391.75
313.246	369.75
313.476	370.75
313.706	365.75
313.935	351.75
314.165	370.75
314.394	398.75
314.624	409.75
314.853	392.75
315.083	387.75
315.312	381.75
315.542	371.75
315.771	358.75
316.001	331.75
316.23	374.75
316.46	371.75
316.689	379.75
316.919	367.75
317.148	377.75
317.377	384.75
317.607	372.75
317.836	360.75
318.065	361.75
318.295	371.75
318.524	365.75
318.753	363.75
318.983	379.75
319.212	368.75
319.441	372.75
319.67	368.75
319.9	379.75
320.129	384.75
320.358	377.75
320.587	361.75
320.816	401.75
321.046	369.75
321.275	413.75
321.504	386.75
321.733	374.75
321.962	407.75
322.191	423.75
322.42	402.75
322.649	438.75
322.878	415.75
323.108	445.75
323.337	453.75
323.566	465.75
323.795	507.75
324.024	519.75
324.253	623.75
324.482	868.75
324.71	1374.75
324.939	2053.75
325.168	1764.75
325.397	885.75
325.626	568.75
325.855	497.75
326.084	482.75
326.313	469.75
326.542	479.75
326.77	517.75
326.999	575.75
327.228	804.75
327.457	1241.75
327.686	1568.75
327.914	979.75
328.143	641.75
328.372	570.75
328.6	557.75
328.829	513.75
329.058	540.75
329.287	546.75
329.515	513.75
329.744	500.75
329.972	481.75
330.201	497.75
330.43	535.75
330.658	548.75
330.887	583.75
331.115	569.75
331.344	495.75
331.572	476.75
331.801	485.75
332.03	449.75
332.258	461.75
332.486	460.75
332.715	444.75
332.943	447.75
333.172	470.75
333.4	461.75
333.629	467.75
333.857	512.75
334.085	503.75
334.314	515.75
334.542	521.75
334.771	543.75
334.999	501.75
335.227	474.75
335.455	491.75
335.684	449.75
335.912	460.75
336.14	491.75
336.369	452.75
336.597	458.75
336.825	459.75
337.053	445.75
337.281	449.75
337.51	449.75
337.738	431.75
337.966	436.75
338.194	443.75
338.422	424.75
338.65	440.75
338.878	446.75
339.106	424.75
339.334	434.75
339.562	414.75
339.79	423.75
340.018	406.75
340.246	418.75
340.474	432.75
340.702	456.75
340.93	430.75
341.158	435.75
341.386	433.75
341.614	442.75
341.842	442.75
342.07	441.75
342.298	423.75
342.526	421.75
342.754	430.75
342.981	412.75
343.209	433.75
343.437	443.75
343.665	433.75
343.893	445.75
344.12	451.75
344.348	445.75
344.576	435.75
344.804	437.75
345.031	447.75
345.259	441.75
345.487	439.75
345.714	428.75
345.942	438.75
346.17	421.75
346.397	433.75
346.625	431.75
346.853	413.75
347.08	419.75
347.308	412.75
347.535	428.75
347.763	441.75
347.99	431.75
348.218	410.75
348.445	441.75
348.673	436.75
348.9	444.75
349.128	424.75
349.355	403.75
349.583	413.75
349.81	414.75
350.037	395.75
350.265	416.75
350.492	408.75
350.72	395.75
350.947	417.75
351.174	422.75
351.402	421.75
351.629	431.75
351.856	420.75
352.083	403.75
352.311	446.75
352.538	434.75
352.765	421.75
352.992	415.75
353.22	398.75
353.447	415.75
353.674	390.75
353.901	409.75
354.128	408.75
354.355	400.75
354.583	392.75
354.81	397.75
355.037	404.75
355.264	377.75
355.491	385.75
355.718	385.75
355.945	384.75
356.172	412.75
356.399	401.75
356.626	404.75
356.853	416.75
357.08	406.75
357.307	376.75
357.534	405.75
357.761	393.75
357.988	408.75
358.215	402.75
358.441	371.75
358.668	415.75
358.895	401.75
359.122	397.75
359.349	411.75
359.576	426.75
359.802	424.75
360.029	450.75
360.256	467.75
360.483	465.75
360.709	437.75
360.936	435.75
361.163	413.75
361.39	405.75
361.616	411.75
361.843	434.75
362.07	407.75
362.296	424.75
362.523	403.75
362.749	441.75
362.976	417.75
363.203	407.75
363.429	409.75
363.656	395.75
363.882	409.75
364.109	406.75
364.335	413.75
364.562	395.75
364.788	404.75
365.015	404.75
365.241	420.75
365.468	431.75
365.694	443.75
365.92	423.75
366.147	398.75
366.373	426.75
366.599	413.75
366.826	395.75
367.052	412.75
367.278	391.75
367.505	400.75
367.731	428.75
367.957	436.75
368.184	399.75
368.41	419.75
368.636	402.75
368.862	417.75
369.089	409.75
369.315	400.75
369.541	397.75
369.767	422.75
369.993	422.75
370.219	405.75
370.445	420.75
370.672	430.75
370.898	421.75
371.124	415.75
371.35	407.75
371.576	409.75
371.802	404.75
372.028	411.75
372.254	426.75
372.48	419.75
372.706	415.75
372.932	414.75
373.158	437.75
373.384	398.75
373.61	423.75
373.835	437.75
374.061	415.75
374.287	417.75
374.513	421.75
374.739	419.75
374.965	438.75
375.191	439.75
375.416	428.75
375.642	452.75
375.868	427.75
376.094	426.75
376.319	427.75
376.545	415.75
376.771	429.75
376.997	425.75
377.222	410.75
377.448	423.75
377.674	423.75
377.899	396.75
378.125	399.75
378.35	418.75
378.576	426.75
378.802	405.75
379.027	434.75
379.253	422.75
379.478	419.75
379.704	406.75
379.929	445.75
380.155	421.75
380.38	421.75
380.606	405.75
380.831	410.75
381.057	417.75
381.282	416.75
381.507	410.75
381.733	415.75
381.958	440.75
382.184	421.75
382.409	448.75
382.634	434.75
382.86	420.75
383.085	428.75
383.31	435.75
383.535	459.75
383.761	453.75
383.986	448.75
384.211	437.75
384.436	452.75
384.662	457.75
384.887	480.75
385.112	432.75
385.337	453.75
385.562	470.75
385.787	461.75
386.013	479.75
386.238	497.75
386.463	491.75
386.688	486.75
386.913	468.75
387.138	477.75
387.363	474.75
387.588	488.75
387.813	463.75
388.038	459.75
388.263	467.75
388.488	474.75
388.713	456.75
388.938	452.75
389.163	464.75
389.387	476.75
389.612	460.75
389.837	467.75
390.062	463.75
390.287	483.75
390.512	471.75
390.736	464.75
390.961	476.75
391.186	471.75
391.411	499.75
391.636	474.75
391.86	492.75
392.085	495.75
392.31	483.75
392.534	489.75
392.759	476.75
392.984	492.75
393.208	483.75
393.433	486.75
393.658	481.75
393.882	473.75
394.107	484.75
394.331	488.75
394.556	515.75
394.78	485.75
395.005	495.75
395.229	487.75
395.454	485.75
395.678	515.75
395.903	528.75
396.127	519.75
396.352	522.75
396.576	503.75
396.801	508.75
397.025	498.75
397.249	486.75
397.474	493.75
397.698	533.75
397.922	517.75
398.147	535.75
398.371	553.75
398.595	542.75
398.82	546.75
399.044	553.75
399.268	583.75
399.492	639.75
399.717	668.75
399.941	675.75
400.165	693.75
400.389	680.75
400.613	634.75
400.837	602.75
401.062	583.75
401.286	580.75
401.51	577.75
401.734	550.75
401.958	570.75
402.182	564.75
402.406	569.75
402.63	587.75
402.854	561.75
403.078	578.75
403.302	600.75
403.526	584.75
403.75	576.75
403.974	580.75
404.198	563.75
404.422	600.75
404.645	569.75
404.869	577.75
405.093	613.75
405.317	657.75
405.541	695.75
405.765	659.75
405.988	634.75
406.212	644.75
406.436	657.75
406.66	651.75
406.883	629.75
407.107	637.75
407.331	699.75
407.555	751.75
407.778	759.75
408.002	691.75
408.226	644.75
408.449	649.75
408.673	661.75
408.896	663.75
409.12	727.75
409.344	692.75
409.567	624.75
409.791	605.75
410.014	603.75
410.238	612.75
410.461	588.75
410.685	590.75
410.908	602.75
411.132	637.75
411.355	683.75
411.578	608.75
411.802	603.75
412.025	573.75
412.249	607.75
412.472	621.75
412.695	647.75
412.919	633.75
413.142	592.75
413.365	581.75
413.589	573.75
413.812	563.75
414.035	564.75
414.258	548.75
414.482	546.75
414.705	567.75
414.928	567.75
415.151	553.75
415.374	557.75
415.597	547.75
415.821	524.75
416.044	562.75
416.267	561.75
416.49	542.75
416.713	565.75
416.936	560.75
417.159	555.75
417.382	551.75
417.605	556.75
417.828	567.75
418.051	588.75
418.274	585.75
418.497	530.75
418.72	567.75
418.943	559.75
419.166	578.75
419.389	620.75
419.611	604.75
419.834	581.75
420.057	588.75
420.28	584.75
420.503	569.75
420.726	570.75
420.948	585.75
421.171	616.75
421.394	634.75
421.617	583.75
421.839	577.75
422.062	567.75
422.285	585.75
422.507	646.75
422.73	708.75
422.953	710.75
423.175	600.75
423.398	601.75
423.621	588.75
423.843	614.75
424.066	633.75
424.288	617.75
424.511	664.75
424.733	673.75
424.956	717.75
425.178	718.75
425.401	700.75
425.623	759.75
425.846	641.75
426.068	615.75
426.291	604.75
426.513	607.75
426.735	621.75
426.958	676.75
427.18	708.75
427.402	838.75
427.625	918.75
427.847	803.75
428.069	717.75
428.292	625.75
428.514	595.75
428.736	593.75
428.958	589.75
429.181	555.75
429.403	551.75
429.625	553.75
429.847	592.75
430.069	653.75
430.292	661.75
430.514	595.75
430.736	539.75
430.958	551.75
431.18	546.75
431.402	556.75
431.624	528.75
431.846	520.75
432.068	557.75
432.29	537.75
432.512	545.75
432.734	540.75
432.956	549.75
433.178	538.75
433.4	552.75
433.622	537.75
433.844	560.75
434.066	561.75
434.287	514.75
434.509	543.75
434.731	575.75
434.953	572.75
435.175	572.75
435.397	607.75
435.618	579.75
435.84	634.75
436.062	703.75
436.284	806.75
436.505	704.75
436.727	614.75
436.949	572.75
437.17	572.75
437.392	570.75
437.614	578.75
437.835	604.75
438.057	696.75
438.278	785.75
438.5	796.75
438.721	841.75
438.943	803.75
439.165	664.75
439.386	615.75
439.608	604.75
439.829	604.75
440.05	642.75
440.272	672.75
440.493	652.75
440.715	588.75
440.936	577.75
441.158	573.75
441.379	570.75
441.6	595.75
441.822	610.75
442.043	647.75
442.264	703.75
442.486	748.75
442.707	660.75
442.928	635.75
443.149	635.75
443.371	636.75
443.592	676.75
443.813	753.75
444.034	839.75
444.255	695.75
444.476	642.75
444.698	636.75
444.919	619.75
445.14	713.75
445.361	638.75
445.582	672.75
445.803	721.75
446.024	821.75
446.245	779.75
446.466	736.75
446.687	623.75
446.908	609.75
447.129	552.75
447.35	582.75
447.571	560.75
447.792	540.75
448.013	559.75
448.234	576.75
448.455	604.75
448.675	710.75
448.896	841.75
449.117	684.75
449.338	669.75
449.559	789.75
449.779	908.75
450	708.75
450.221	589.75
450.442	553.75
450.662	538.75
450.883	541.75
451.104	569.75
451.324	553.75
451.545	530.75
451.766	508.75
451.986	517.75
452.207	499.75
452.428	505.75
452.648	511.75
452.869	510.75
453.089	525.75
453.31	509.75
453.53	500.75
453.751	513.75
453.971	491.75
454.192	531.75
454.412	511.75
454.633	492.75
454.853	477.75
455.073	517.75
455.294	523.75
455.514	573.75
455.734	570.75
455.955	488.75
456.175	468.75
456.395	465.75
456.616	491.75
456.836	469.75
457.056	464.75
457.276	476.75
457.497	491.75
457.717	497.75
457.937	491.75
458.157	484.75
458.377	521.75
458.598	536.75
458.818	569.75
459.038	660.75
459.258	632.75
459.478	581.75
459.698	535.75
459.918	521.75
460.138	551.75
460.358	564.75
460.578	575.75
460.798	576.75
461.018	571.75
461.238	561.75
461.458	562.75
461.678	562.75
461.898	561.75
462.118	555.75
462.338	580.75
462.558	581.75
462.777	609.75
462.997	623.75
463.217	638.75
463.437	656.75
463.657	626.75
463.876	616.75
464.096	602.75
464.316	597.75
464.536	655.75
464.755	625.75
464.975	615.75
465.195	635.75
465.414	691.75
465.634	633.75
465.854	595.75
466.073	569.75
466.293	552.75
466.512	551.75
466.732	526.75
466.951	522.75
467.171	514.75
467.391	523.75
467.61	565.75
467.829	557.75
468.049	519.75
468.268	524.75
468.488	521.75
468.707	518.75
468.927	519.75
469.146	491.75
469.365	496.75
469.585	519.75
469.804	532.75
470.023	549.75
470.243	544.75
470.462	528.75
470.681	560.75
470.901	546.75
471.12	533.75
471.339	519.75
471.558	512.75
471.777	519.75
471.997	520.75
472.216	543.75
472.435	539.75
472.654	529.75
472.873	524.75
473.092	550.75
473.311	517.75
473.53	531.75
473.749	529.75
473.968	539.75
474.187	653.75
474.406	687.75
474.625	572.75
474.844	554.75
475.063	537.75
475.282	530.75
475.501	520.75
475.72	520.75
475.939	544.75
476.158	539.75
476.377	556.75
476.596	547.75
476.814	565.75
477.033	582.75
477.252	582.75
477.471	555.75
477.69	568.75
477.908	567.75
478.127	581.75
478.346	579.75
478.564	596.75
478.783	593.75
479.002	603.75
479.22	609.75
479.439	627.75
479.658	635.75
479.876	637.75
480.095	635.75
480.313	672.75
480.532	671.75
480.751	674.75
480.969	672.75
481.188	672.75
481.406	731.75
481.624	663.75
481.843	635.75
482.061	627.75
482.28	629.75
482.498	616.75
482.717	621.75
482.935	595.75
483.153	612.75
483.372	610.75
483.59	617.75
483.808	621.75
484.027	616.75
484.245	609.75
484.463	630.75
484.681	626.75
484.9	612.75
485.118	618.75
485.336	625.75
485.554	615.75
485.772	649.75
485.99	644.75
486.209	644.75
486.427	676.75
486.645	649.75
486.863	653.75
487.081	675.75
487.299	659.75
487.517	639.75
487.735	661.75
487.953	656.75
488.171	663.75
488.389	652.75
488.607	665.75
488.825	651.75
489.043	661.75
489.261	662.75
489.479	667.75
489.696	652.75
489.914	683.75
490.132	683.75
490.35	679.75
490.568	696.75
490.786	684.75
491.003	715.75
491.221	702.75
491.439	746.75
491.657	724.75
491.874	760.75
492.092	717.75
492.31	731.75
492.527	746.75
492.745	763.75
492.963	765.75
493.18	752.75
493.398	723.75
493.615	768.75
493.833	759.75
494.05	773.75
494.268	762.75
494.485	769.75
494.703	753.75
494.92	764.75
495.138	768.75
495.355	772.75
495.573	773.75
495.79	773.75
496.008	818.75
496.225	759.75
496.442	767.75
496.66	783.75
496.877	773.75
497.094	808.75
497.312	799.75
497.529	807.75
497.746	841.75
497.963	827.75
498.181	840.75
498.398	842.75
498.615	887.75
498.832	907.75
499.049	919.75
499.267	951.75
499.484	1002.75
499.701	1071.75
499.918	1099.75
500.135	1175.75
500.352	1212.75
500.569	1264.75
500.786	1235.75
501.003	1193.75
501.22	1191.75
501.437	1125.75
501.654	1065.75
501.871	1070.75
