Data from 1979.PennyLincolnUp.Lamp.En5.5.200Scan.071719.P1_HRD10591_16-19-47-863.txt Node
Date: Thu Jul 18 16:19:47 EDT 2019
User: cochatt
Spectrometer: HR+D1059
Trigger mode: 1
Integration Time (sec): 1.000000E-1
Scans to average: 1
Electric dark correction enabled: true
Nonlinearity correction enabled: false
Boxcar width: 0
XAxis mode: Wavelengths
Number of Pixels in Spectrum: 2048
>>>>>Begin Spectral Data<<<<<
223.165	7.69
223.4	7.69
223.635	7.69
223.869	-9.31
224.104	-26.31
224.338	-5.31
224.573	-18.31
224.808	-20.31
225.042	-16.31
225.277	-5.31
225.511	1.69
225.746	9.69
225.98	6.69
226.215	-8.31
226.449	19.69
226.683	14.69
226.918	16.69
227.152	32.69
227.387	30.69
227.621	40.69
227.856	49.69
228.09	49.69
228.324	47.69
228.559	59.69
228.793	61.69
229.027	82.69
229.262	94.69
229.496	89.69
229.73	124.69
229.964	145.69
230.199	120.69
230.433	101.69
230.667	119.69
230.901	114.69
231.136	120.69
231.37	124.69
231.604	101.69
231.838	113.69
232.072	98.69
232.306	101.69
232.541	105.69
232.775	119.69
233.009	114.69
233.243	115.69
233.477	107.69
233.711	125.69
233.945	115.69
234.179	110.69
234.413	117.69
234.647	103.69
234.881	112.69
235.115	123.69
235.349	127.69
235.583	143.69
235.817	118.69
236.051	110.69
236.285	124.69
236.519	128.69
236.753	133.69
236.987	139.69
237.221	183.69
237.455	193.69
237.689	157.69
237.922	147.69
238.156	128.69
238.39	140.69
238.624	127.69
238.858	129.69
239.091	118.69
239.325	142.69
239.559	121.69
239.793	127.69
240.027	137.69
240.26	165.69
240.494	154.69
240.728	163.69
240.961	142.69
241.195	137.69
241.429	131.69
241.662	143.69
241.896	135.69
242.13	134.69
242.363	144.69
242.597	133.69
242.83	147.69
243.064	135.69
243.298	143.69
243.531	143.69
243.765	142.69
243.998	131.69
244.232	132.69
244.465	149.69
244.699	147.69
244.932	145.69
245.166	143.69
245.399	139.69
245.633	141.69
245.866	143.69
246.099	161.69
246.333	162.69
246.566	148.69
246.8	155.69
247.033	157.69
247.266	171.69
247.5	172.69
247.733	180.69
247.966	177.69
248.2	152.69
248.433	178.69
248.666	162.69
248.899	181.69
249.133	201.69
249.366	200.69
249.599	178.69
249.832	184.69
250.066	173.69
250.299	172.69
250.532	185.69
250.765	196.69
250.998	214.69
251.231	193.69
251.465	201.69
251.698	197.69
251.931	177.69
252.164	178.69
252.397	187.69
252.63	207.69
252.863	198.69
253.096	202.69
253.329	216.69
253.562	211.69
253.795	211.69
254.028	220.69
254.261	222.69
254.494	236.69
254.727	237.69
254.96	251.69
255.193	251.69
255.426	216.69
255.659	222.69
255.892	212.69
256.124	222.69
256.357	214.69
256.59	214.69
256.823	211.69
257.056	202.69
257.289	207.69
257.521	201.69
257.754	216.69
257.987	195.69
258.22	198.69
258.452	196.69
258.685	209.69
258.918	190.69
259.151	193.69
259.383	208.69
259.616	206.69
259.849	212.69
260.081	230.69
260.314	250.69
260.547	247.69
260.779	235.69
261.012	233.69
261.244	233.69
261.477	212.69
261.71	226.69
261.942	209.69
262.175	220.69
262.407	224.69
262.64	198.69
262.872	199.69
263.105	203.69
263.337	200.69
263.57	204.69
263.802	207.69
264.035	219.69
264.267	205.69
264.499	215.69
264.732	215.69
264.964	199.69
265.197	204.69
265.429	206.69
265.661	207.69
265.894	215.69
266.126	194.69
266.358	229.69
266.591	215.69
266.823	208.69
267.055	218.69
267.287	235.69
267.52	231.69
267.752	218.69
267.984	235.69
268.216	209.69
268.448	238.69
268.681	227.69
268.913	251.69
269.145	246.69
269.377	269.69
269.609	262.69
269.841	271.69
270.073	264.69
270.306	283.69
270.538	276.69
270.77	288.69
271.002	288.69
271.234	281.69
271.466	265.69
271.698	288.69
271.93	300.69
272.162	274.69
272.394	316.69
272.626	280.69
272.858	289.69
273.09	272.69
273.322	272.69
273.553	246.69
273.785	249.69
274.017	254.69
274.249	235.69
274.481	260.69
274.713	247.69
274.945	263.69
275.176	284.69
275.408	259.69
275.64	277.69
275.872	264.69
276.104	251.69
276.335	263.69
276.567	260.69
276.799	279.69
277.031	296.69
277.262	300.69
277.494	303.69
277.726	295.69
277.957	283.69
278.189	265.69
278.421	263.69
278.652	260.69
278.884	256.69
279.115	246.69
279.347	259.69
279.579	249.69
279.81	248.69
280.042	262.69
280.273	264.69
280.505	257.69
280.736	270.69
280.968	246.69
281.199	248.69
281.431	254.69
281.662	256.69
281.894	262.69
282.125	274.69
282.356	279.69
282.588	288.69
282.819	304.69
283.051	283.69
283.282	270.69
283.513	274.69
283.745	290.69
283.976	291.69
284.207	279.69
284.439	273.69
284.67	294.69
284.901	284.69
285.132	279.69
285.364	277.69
285.595	271.69
285.826	282.69
286.057	263.69
286.288	280.69
286.52	280.69
286.751	299.69
286.982	273.69
287.213	281.69
287.444	288.69
287.675	299.69
287.906	305.69
288.138	315.69
288.369	300.69
288.6	297.69
288.831	300.69
289.062	287.69
289.293	283.69
289.524	296.69
289.755	286.69
289.986	275.69
290.217	287.69
290.448	282.69
290.679	284.69
290.91	273.69
291.141	278.69
291.371	303.69
291.602	273.69
291.833	294.69
292.064	298.69
292.295	289.69
292.526	293.69
292.757	292.69
292.987	280.69
293.218	285.69
293.449	289.69
293.68	269.69
293.91	287.69
294.141	281.69
294.372	293.69
294.603	300.69
294.833	297.69
295.064	284.69
295.295	315.69
295.525	293.69
295.756	305.69
295.987	294.69
296.217	325.69
296.448	329.69
296.679	315.69
296.909	310.69
297.14	314.69
297.37	297.69
297.601	299.69
297.831	309.69
298.062	331.69
298.292	312.69
298.523	298.69
298.753	309.69
298.984	319.69
299.214	314.69
299.445	300.69
299.675	319.69
299.905	316.69
300.136	312.69
300.366	311.69
300.597	305.69
300.827	309.69
301.057	308.69
301.288	335.69
301.518	315.69
301.748	341.69
301.979	348.69
302.209	334.69
302.439	324.69
302.669	326.69
302.9	336.69
303.13	330.69
303.36	334.69
303.59	331.69
303.82	341.69
304.051	341.69
304.281	352.69
304.511	311.69
304.741	315.69
304.971	320.69
305.201	315.69
305.431	328.69
305.661	334.69
305.891	337.69
306.121	334.69
306.352	336.69
306.582	346.69
306.812	335.69
307.042	334.69
307.272	324.69
307.502	328.69
307.731	354.69
307.961	308.69
308.191	334.69
308.421	324.69
308.651	341.69
308.881	343.69
309.111	340.69
309.341	329.69
309.571	350.69
309.8	323.69
310.03	377.69
310.26	364.69
310.49	358.69
310.72	363.69
310.949	389.69
311.179	376.69
311.409	347.69
311.639	373.69
311.868	378.69
312.098	397.69
312.328	384.69
312.557	391.69
312.787	412.69
313.017	414.69
313.246	393.69
313.476	358.69
313.706	378.69
313.935	371.69
314.165	391.69
314.394	405.69
314.624	389.69
314.853	383.69
315.083	389.69
315.312	364.69
315.542	385.69
315.771	371.69
316.001	385.69
316.23	372.69
316.46	391.69
316.689	393.69
316.919	396.69
317.148	405.69
317.377	385.69
317.607	402.69
317.836	380.69
318.065	387.69
318.295	373.69
318.524	393.69
318.753	367.69
318.983	379.69
319.212	395.69
319.441	400.69
319.67	411.69
319.9	384.69
320.129	381.69
320.358	393.69
320.587	391.69
320.816	402.69
321.046	397.69
321.275	414.69
321.504	390.69
321.733	388.69
321.962	404.69
322.191	404.69
322.42	431.69
322.649	439.69
322.878	441.69
323.108	461.69
323.337	483.69
323.566	483.69
323.795	528.69
324.024	558.69
324.253	668.69
324.482	945.69
324.71	1451.69
324.939	2211.69
325.168	1896.69
325.397	943.69
325.626	631.69
325.855	539.69
326.084	515.69
326.313	506.69
326.542	489.69
326.77	540.69
326.999	611.69
327.228	875.69
327.457	1342.69
327.686	1663.69
327.914	1096.69
328.143	714.69
328.372	611.69
328.6	597.69
328.829	537.69
329.058	553.69
329.287	564.69
329.515	552.69
329.744	492.69
329.972	504.69
330.201	533.69
330.43	563.69
330.658	571.69
330.887	601.69
331.115	587.69
331.344	511.69
331.572	487.69
331.801	488.69
332.03	493.69
332.258	477.69
332.486	478.69
332.715	456.69
332.943	454.69
333.172	439.69
333.4	476.69
333.629	488.69
333.857	497.69
334.085	496.69
334.314	519.69
334.542	573.69
334.771	580.69
334.999	505.69
335.227	502.69
335.455	470.69
335.684	478.69
335.912	471.69
336.14	471.69
336.369	475.69
336.597	478.69
336.825	464.69
337.053	469.69
337.281	451.69
337.51	454.69
337.738	457.69
337.966	485.69
338.194	455.69
338.422	462.69
338.65	451.69
338.878	457.69
339.106	429.69
339.334	448.69
339.562	435.69
339.79	449.69
340.018	420.69
340.246	443.69
340.474	437.69
340.702	442.69
340.93	428.69
341.158	443.69
341.386	441.69
341.614	443.69
341.842	446.69
342.07	417.69
342.298	430.69
342.526	419.69
342.754	432.69
342.981	429.69
343.209	441.69
343.437	457.69
343.665	441.69
343.893	469.69
344.12	469.69
344.348	454.69
344.576	465.69
344.804	459.69
345.031	453.69
345.259	461.69
345.487	476.69
345.714	457.69
345.942	427.69
346.17	431.69
346.397	436.69
346.625	415.69
346.853	432.69
347.08	435.69
347.308	436.69
347.535	448.69
347.763	443.69
347.99	435.69
348.218	441.69
348.445	423.69
348.673	443.69
348.9	426.69
349.128	423.69
349.355	415.69
349.583	409.69
349.81	413.69
350.037	407.69
350.265	398.69
350.492	415.69
350.72	424.69
350.947	407.69
351.174	439.69
351.402	448.69
351.629	438.69
351.856	405.69
352.083	423.69
352.311	454.69
352.538	456.69
352.765	454.69
352.992	427.69
353.22	411.69
353.447	411.69
353.674	421.69
353.901	397.69
354.128	408.69
354.355	411.69
354.583	423.69
354.81	418.69
355.037	390.69
355.264	405.69
355.491	402.69
355.718	400.69
355.945	392.69
356.172	391.69
356.399	393.69
356.626	418.69
356.853	403.69
357.08	420.69
357.307	401.69
357.534	397.69
357.761	385.69
357.988	402.69
358.215	401.69
358.441	403.69
358.668	430.69
358.895	387.69
359.122	394.69
359.349	420.69
359.576	422.69
359.802	447.69
360.029	471.69
360.256	481.69
360.483	479.69
360.709	437.69
360.936	427.69
361.163	443.69
361.39	443.69
361.616	428.69
361.843	421.69
362.07	414.69
362.296	440.69
362.523	419.69
362.749	433.69
362.976	436.69
363.203	419.69
363.429	389.69
363.656	427.69
363.882	427.69
364.109	414.69
364.335	397.69
364.562	411.69
364.788	412.69
365.015	417.69
365.241	439.69
365.468	405.69
365.694	442.69
365.92	442.69
366.147	423.69
366.373	407.69
366.599	400.69
366.826	416.69
367.052	399.69
367.278	419.69
367.505	422.69
367.731	445.69
367.957	403.69
368.184	427.69
368.41	412.69
368.636	392.69
368.862	426.69
369.089	439.69
369.315	396.69
369.541	416.69
369.767	433.69
369.993	419.69
370.219	415.69
370.445	425.69
370.672	417.69
370.898	413.69
371.124	420.69
371.35	423.69
371.576	417.69
371.802	413.69
372.028	420.69
372.254	437.69
372.48	409.69
372.706	425.69
372.932	429.69
373.158	445.69
373.384	425.69
373.61	447.69
373.835	434.69
374.061	436.69
374.287	430.69
374.513	445.69
374.739	426.69
374.965	442.69
375.191	452.69
375.416	440.69
375.642	438.69
375.868	463.69
376.094	445.69
376.319	441.69
376.545	436.69
376.771	427.69
376.997	421.69
377.222	421.69
377.448	423.69
377.674	426.69
377.899	437.69
378.125	432.69
378.35	420.69
378.576	407.69
378.802	445.69
379.027	425.69
379.253	425.69
379.478	426.69
379.704	423.69
379.929	405.69
380.155	421.69
380.38	439.69
380.606	421.69
380.831	431.69
381.057	426.69
381.282	411.69
381.507	421.69
381.733	405.69
381.958	430.69
382.184	438.69
382.409	435.69
382.634	436.69
382.86	446.69
383.085	446.69
383.31	457.69
383.535	449.69
383.761	451.69
383.986	461.69
384.211	458.69
384.436	459.69
384.662	464.69
384.887	457.69
385.112	448.69
385.337	444.69
385.562	461.69
385.787	469.69
386.013	467.69
386.238	482.69
386.463	482.69
386.688	478.69
386.913	473.69
387.138	477.69
387.363	485.69
387.588	487.69
387.813	493.69
388.038	469.69
388.263	481.69
388.488	491.69
388.713	469.69
388.938	480.69
389.163	483.69
389.387	477.69
389.612	478.69
389.837	488.69
390.062	499.69
390.287	478.69
390.512	473.69
390.736	466.69
390.961	475.69
391.186	484.69
391.411	464.69
391.636	500.69
391.86	491.69
392.085	500.69
392.31	521.69
392.534	491.69
392.759	509.69
392.984	493.69
393.208	471.69
393.433	493.69
393.658	490.69
393.882	499.69
394.107	493.69
394.331	493.69
394.556	476.69
394.78	497.69
395.005	510.69
395.229	500.69
395.454	515.69
395.678	493.69
395.903	541.69
396.127	544.69
396.352	519.69
396.576	511.69
396.801	502.69
397.025	499.69
397.249	502.69
397.474	525.69
397.698	519.69
397.922	508.69
398.147	526.69
398.371	543.69
398.595	560.69
398.82	553.69
399.044	577.69
399.268	595.69
399.492	643.69
399.717	660.69
399.941	667.69
400.165	728.69
400.389	717.69
400.613	648.69
400.837	629.69
401.062	607.69
401.286	585.69
401.51	558.69
401.734	573.69
401.958	551.69
402.182	558.69
402.406	560.69
402.63	591.69
402.854	591.69
403.078	602.69
403.302	613.69
403.526	612.69
403.75	597.69
403.974	608.69
404.198	600.69
404.422	627.69
404.645	601.69
404.869	604.69
405.093	622.69
405.317	682.69
405.541	720.69
405.765	672.69
405.988	616.69
406.212	611.69
406.436	643.69
406.66	691.69
406.883	649.69
407.107	674.69
407.331	708.69
407.555	773.69
407.778	783.69
408.002	718.69
408.226	680.69
408.449	668.69
408.673	638.69
408.896	664.69
409.12	703.69
409.344	670.69
409.567	614.69
409.791	598.69
410.014	618.69
410.238	615.69
410.461	598.69
410.685	585.69
410.908	646.69
411.132	685.69
411.355	671.69
411.578	665.69
411.802	620.69
412.025	601.69
412.249	615.69
412.472	632.69
412.695	655.69
412.919	661.69
413.142	593.69
413.365	581.69
413.589	592.69
413.812	583.69
414.035	571.69
414.258	569.69
414.482	559.69
414.705	567.69
414.928	580.69
415.151	574.69
415.374	577.69
415.597	571.69
415.821	575.69
416.044	582.69
416.267	572.69
416.49	561.69
416.713	565.69
416.936	577.69
417.159	555.69
417.382	577.69
417.605	559.69
417.828	583.69
418.051	587.69
418.274	572.69
418.497	573.69
418.72	561.69
418.943	569.69
419.166	585.69
419.389	645.69
419.611	617.69
419.834	625.69
420.057	612.69
420.28	590.69
420.503	595.69
420.726	588.69
420.948	605.69
421.171	645.69
421.394	648.69
421.617	631.69
421.839	586.69
422.062	581.69
422.285	613.69
422.507	661.69
422.73	716.69
422.953	709.69
423.175	628.69
423.398	606.69
423.621	612.69
423.843	604.69
424.066	613.69
424.288	629.69
424.511	636.69
424.733	691.69
424.956	775.69
425.178	727.69
425.401	753.69
425.623	785.69
425.846	675.69
426.068	611.69
426.291	620.69
426.513	603.69
426.735	603.69
426.958	655.69
427.18	712.69
427.402	885.69
427.625	963.69
427.847	852.69
428.069	747.69
428.292	676.69
428.514	605.69
428.736	599.69
428.958	600.69
429.181	576.69
429.403	591.69
429.625	593.69
429.847	607.69
430.069	691.69
430.292	673.69
430.514	598.69
430.736	581.69
430.958	564.69
431.18	511.69
431.402	564.69
431.624	563.69
431.846	548.69
432.068	543.69
432.29	561.69
432.512	550.69
432.734	572.69
432.956	555.69
433.178	550.69
433.4	575.69
433.622	565.69
433.844	523.69
434.066	527.69
434.287	577.69
434.509	559.69
434.731	579.69
434.953	575.69
435.175	578.69
435.397	634.69
435.618	605.69
435.84	666.69
436.062	752.69
436.284	827.69
436.505	698.69
436.727	623.69
436.949	596.69
437.17	587.69
437.392	574.69
437.614	592.69
437.835	615.69
438.057	688.69
438.278	815.69
438.5	811.69
438.721	884.69
438.943	849.69
439.165	683.69
439.386	645.69
439.608	604.69
439.829	638.69
440.05	655.69
440.272	729.69
440.493	640.69
440.715	628.69
440.936	609.69
441.158	597.69
441.379	603.69
441.6	592.69
441.822	630.69
442.043	665.69
442.264	739.69
442.486	789.69
442.707	651.69
442.928	636.69
443.149	633.69
443.371	637.69
443.592	709.69
443.813	814.69
444.034	853.69
444.255	742.69
444.476	656.69
444.698	634.69
444.919	663.69
445.14	728.69
445.361	697.69
445.582	662.69
445.803	703.69
446.024	859.69
446.245	853.69
446.466	764.69
446.687	666.69
446.908	622.69
447.129	584.69
447.35	573.69
447.571	591.69
447.792	565.69
448.013	585.69
448.234	579.69
448.455	633.69
448.675	729.69
448.896	876.69
449.117	743.69
449.338	701.69
449.559	819.69
449.779	905.69
450	765.69
450.221	614.69
450.442	560.69
450.662	574.69
450.883	569.69
451.104	558.69
451.324	574.69
451.545	552.69
451.766	529.69
451.986	541.69
452.207	516.69
452.428	513.69
452.648	519.69
452.869	511.69
453.089	522.69
453.31	528.69
453.53	527.69
453.751	533.69
453.971	493.69
454.192	529.69
454.412	530.69
454.633	492.69
454.853	523.69
455.073	519.69
455.294	535.69
455.514	611.69
455.734	595.69
455.955	505.69
456.175	481.69
456.395	482.69
456.616	487.69
456.836	482.69
457.056	461.69
457.276	474.69
457.497	505.69
457.717	504.69
457.937	511.69
458.157	508.69
458.377	514.69
458.598	558.69
458.818	584.69
459.038	668.69
459.258	689.69
459.478	599.69
459.698	569.69
459.918	574.69
460.138	577.69
460.358	557.69
460.578	579.69
460.798	571.69
461.018	615.69
461.238	582.69
461.458	556.69
461.678	573.69
461.898	581.69
462.118	589.69
462.338	587.69
462.558	609.69
462.777	608.69
462.997	628.69
463.217	645.69
463.437	658.69
463.657	647.69
463.876	641.69
464.096	631.69
464.316	616.69
464.536	626.69
464.755	615.69
464.975	628.69
465.195	674.69
465.414	736.69
465.634	653.69
465.854	593.69
466.073	576.69
466.293	566.69
466.512	558.69
466.732	557.69
466.951	534.69
467.171	511.69
467.391	537.69
467.61	569.69
467.829	580.69
468.049	548.69
468.268	547.69
468.488	527.69
468.707	527.69
468.927	507.69
469.146	530.69
469.365	512.69
469.585	529.69
469.804	534.69
470.023	543.69
470.243	531.69
470.462	559.69
470.681	549.69
470.901	569.69
471.12	554.69
471.339	547.69
471.558	575.69
471.777	557.69
471.997	553.69
472.216	527.69
472.435	559.69
472.654	564.69
472.873	547.69
473.092	521.69
473.311	540.69
473.53	523.69
473.749	531.69
473.968	589.69
474.187	674.69
474.406	688.69
474.625	600.69
474.844	551.69
475.063	551.69
475.282	560.69
475.501	547.69
475.72	537.69
475.939	547.69
476.158	567.69
476.377	572.69
476.596	556.69
476.814	577.69
477.033	555.69
477.252	554.69
477.471	564.69
477.69	593.69
477.908	601.69
478.127	605.69
478.346	608.69
478.564	610.69
478.783	605.69
479.002	614.69
479.22	631.69
479.439	651.69
479.658	657.69
479.876	642.69
480.095	656.69
480.313	703.69
480.532	699.69
480.751	654.69
480.969	661.69
481.188	707.69
481.406	745.69
481.624	697.69
481.843	667.69
482.061	651.69
482.28	639.69
482.498	634.69
482.717	624.69
482.935	629.69
483.153	632.69
483.372	636.69
483.59	627.69
483.808	641.69
484.027	634.69
484.245	640.69
484.463	650.69
484.681	665.69
484.9	655.69
485.118	641.69
485.336	639.69
485.554	640.69
485.772	669.69
485.99	647.69
486.209	649.69
486.427	649.69
486.645	671.69
486.863	672.69
487.081	682.69
487.299	684.69
487.517	657.69
487.735	651.69
487.953	669.69
488.171	675.69
488.389	665.69
488.607	676.69
488.825	678.69
489.043	669.69
489.261	694.69
489.479	685.69
489.696	689.69
489.914	679.69
490.132	724.69
490.35	711.69
490.568	706.69
490.786	724.69
491.003	723.69
491.221	743.69
491.439	747.69
491.657	752.69
491.874	756.69
492.092	761.69
492.31	765.69
492.527	758.69
492.745	757.69
492.963	742.69
493.18	762.69
493.398	775.69
493.615	796.69
493.833	807.69
494.05	782.69
494.268	801.69
494.485	768.69
494.703	786.69
494.92	780.69
495.138	785.69
495.355	827.69
495.573	816.69
495.79	805.69
496.008	795.69
496.225	817.69
496.442	791.69
496.66	815.69
496.877	797.69
497.094	815.69
497.312	828.69
497.529	840.69
497.746	837.69
497.963	855.69
498.181	861.69
498.398	897.69
498.615	912.69
498.832	952.69
499.049	939.69
499.267	962.69
499.484	1045.69
499.701	1071.69
499.918	1086.69
500.135	1191.69
500.352	1214.69
500.569	1246.69
500.786	1221.69
501.003	1264.69
501.22	1191.69
501.437	1129.69
501.654	1080.69
501.871	1072.69
