Data from 1979.PennyLincolnUp.Lamp.En5.5.200Scan.071719.P1_HRD10591_16-19-18-865.txt Node
Date: Thu Jul 18 16:19:18 EDT 2019
User: cochatt
Spectrometer: HR+D1059
Trigger mode: 1
Integration Time (sec): 1.000000E-1
Scans to average: 1
Electric dark correction enabled: true
Nonlinearity correction enabled: false
Boxcar width: 0
XAxis mode: Wavelengths
Number of Pixels in Spectrum: 2048
>>>>>Begin Spectral Data<<<<<
223.165	-5.5
223.4	-5.5
223.635	-5.5
223.869	-9.5
224.104	-11.5
224.338	-4.5
224.573	-6.5
224.808	-13.5
225.042	-22.5
225.277	-2.5
225.511	-7.5
225.746	-5.5
225.98	0.5
226.215	4.5
226.449	23.5
226.683	13.5
226.918	24.5
227.152	22.5
227.387	31.5
227.621	35.5
227.856	54.5
228.09	38.5
228.324	50.5
228.559	42.5
228.793	56.5
229.027	79.5
229.262	91.5
229.496	114.5
229.73	116.5
229.964	146.5
230.199	117.5
230.433	114.5
230.667	109.5
230.901	105.5
231.136	115.5
231.37	117.5
231.604	101.5
231.838	114.5
232.072	115.5
232.306	97.5
232.541	100.5
232.775	102.5
233.009	102.5
233.243	121.5
233.477	102.5
233.711	106.5
233.945	107.5
234.179	115.5
234.413	118.5
234.647	107.5
234.881	118.5
235.115	113.5
235.349	107.5
235.583	114.5
235.817	112.5
236.051	128.5
236.285	121.5
236.519	106.5
236.753	117.5
236.987	131.5
237.221	157.5
237.455	188.5
237.689	176.5
237.922	132.5
238.156	126.5
238.39	122.5
238.624	107.5
238.858	112.5
239.091	105.5
239.325	109.5
239.559	127.5
239.793	134.5
240.027	142.5
240.26	144.5
240.494	150.5
240.728	145.5
240.961	118.5
241.195	130.5
241.429	124.5
241.662	121.5
241.896	122.5
242.13	123.5
242.363	130.5
242.597	132.5
242.83	127.5
243.064	148.5
243.298	145.5
243.531	153.5
243.765	150.5
243.998	131.5
244.232	134.5
244.465	155.5
244.699	149.5
244.932	166.5
245.166	130.5
245.399	156.5
245.633	142.5
245.866	127.5
246.099	144.5
246.333	158.5
246.566	156.5
246.8	156.5
247.033	143.5
247.266	149.5
247.5	152.5
247.733	159.5
247.966	152.5
248.2	164.5
248.433	170.5
248.666	163.5
248.899	182.5
249.133	203.5
249.366	204.5
249.599	190.5
249.832	172.5
250.066	187.5
250.299	157.5
250.532	180.5
250.765	201.5
250.998	200.5
251.231	221.5
251.465	211.5
251.698	183.5
251.931	190.5
252.164	188.5
252.397	194.5
252.63	188.5
252.863	194.5
253.096	194.5
253.329	204.5
253.562	195.5
253.795	209.5
254.028	205.5
254.261	203.5
254.494	209.5
254.727	235.5
254.96	265.5
255.193	260.5
255.426	216.5
255.659	215.5
255.892	206.5
256.124	213.5
256.357	226.5
256.59	207.5
256.823	188.5
257.056	204.5
257.289	201.5
257.521	202.5
257.754	198.5
257.987	199.5
258.22	206.5
258.452	185.5
258.685	183.5
258.918	179.5
259.151	197.5
259.383	210.5
259.616	211.5
259.849	192.5
260.081	230.5
260.314	225.5
260.547	230.5
260.779	233.5
261.012	209.5
261.244	204.5
261.477	216.5
261.71	200.5
261.942	213.5
262.175	228.5
262.407	230.5
262.64	214.5
262.872	203.5
263.105	218.5
263.337	213.5
263.57	218.5
263.802	205.5
264.035	194.5
264.267	214.5
264.499	218.5
264.732	220.5
264.964	200.5
265.197	202.5
265.429	199.5
265.661	211.5
265.894	203.5
266.126	226.5
266.358	231.5
266.591	207.5
266.823	223.5
267.055	221.5
267.287	242.5
267.52	220.5
267.752	200.5
267.984	227.5
268.216	208.5
268.448	217.5
268.681	241.5
268.913	240.5
269.145	244.5
269.377	257.5
269.609	253.5
269.841	256.5
270.073	270.5
270.306	272.5
270.538	266.5
270.77	269.5
271.002	265.5
271.234	270.5
271.466	275.5
271.698	288.5
271.93	268.5
272.162	282.5
272.394	288.5
272.626	284.5
272.858	260.5
273.09	241.5
273.322	260.5
273.553	256.5
273.785	254.5
274.017	238.5
274.249	245.5
274.481	247.5
274.713	255.5
274.945	259.5
275.176	252.5
275.408	236.5
275.64	260.5
275.872	247.5
276.104	255.5
276.335	274.5
276.567	254.5
276.799	272.5
277.031	299.5
277.262	280.5
277.494	294.5
277.726	274.5
277.957	284.5
278.189	282.5
278.421	269.5
278.652	273.5
278.884	255.5
279.115	259.5
279.347	257.5
279.579	242.5
279.81	251.5
280.042	273.5
280.273	252.5
280.505	264.5
280.736	257.5
280.968	243.5
281.199	255.5
281.431	258.5
281.662	277.5
281.894	281.5
282.125	270.5
282.356	286.5
282.588	290.5
282.819	279.5
283.051	297.5
283.282	261.5
283.513	272.5
283.745	275.5
283.976	287.5
284.207	261.5
284.439	269.5
284.67	269.5
284.901	276.5
285.132	276.5
285.364	243.5
285.595	277.5
285.826	273.5
286.057	294.5
286.288	267.5
286.52	262.5
286.751	273.5
286.982	283.5
287.213	294.5
287.444	275.5
287.675	294.5
287.906	289.5
288.138	312.5
288.369	303.5
288.6	304.5
288.831	299.5
289.062	290.5
289.293	300.5
289.524	278.5
289.755	277.5
289.986	270.5
290.217	291.5
290.448	285.5
290.679	289.5
290.91	280.5
291.141	298.5
291.371	290.5
291.602	272.5
291.833	298.5
292.064	268.5
292.295	285.5
292.526	294.5
292.757	308.5
292.987	296.5
293.218	281.5
293.449	285.5
293.68	301.5
293.91	297.5
294.141	297.5
294.372	299.5
294.603	291.5
294.833	281.5
295.064	293.5
295.295	298.5
295.525	278.5
295.756	316.5
295.987	292.5
296.217	328.5
296.448	336.5
296.679	321.5
296.909	314.5
297.14	310.5
297.37	307.5
297.601	294.5
297.831	311.5
298.062	322.5
298.292	311.5
298.523	310.5
298.753	309.5
298.984	315.5
299.214	318.5
299.445	305.5
299.675	305.5
299.905	333.5
300.136	322.5
300.366	308.5
300.597	313.5
300.827	333.5
301.057	309.5
301.288	321.5
301.518	326.5
301.748	308.5
301.979	318.5
302.209	332.5
302.439	349.5
302.669	332.5
302.9	315.5
303.13	321.5
303.36	320.5
303.59	325.5
303.82	334.5
304.051	331.5
304.281	333.5
304.511	339.5
304.741	319.5
304.971	318.5
305.201	310.5
305.431	326.5
305.661	317.5
305.891	343.5
306.121	324.5
306.352	310.5
306.582	332.5
306.812	339.5
307.042	350.5
307.272	333.5
307.502	329.5
307.731	324.5
307.961	324.5
308.191	336.5
308.421	314.5
308.651	329.5
308.881	348.5
309.111	355.5
309.341	339.5
309.571	350.5
309.8	359.5
310.03	357.5
310.26	380.5
310.49	361.5
310.72	369.5
310.949	401.5
311.179	377.5
311.409	366.5
311.639	384.5
311.868	366.5
312.098	378.5
312.328	376.5
312.557	381.5
312.787	389.5
313.017	414.5
313.246	387.5
313.476	381.5
313.706	374.5
313.935	374.5
314.165	393.5
314.394	396.5
314.624	373.5
314.853	390.5
315.083	370.5
315.312	372.5
315.542	373.5
315.771	368.5
316.001	359.5
316.23	372.5
316.46	372.5
316.689	384.5
316.919	380.5
317.148	384.5
317.377	384.5
317.607	369.5
317.836	378.5
318.065	365.5
318.295	376.5
318.524	352.5
318.753	362.5
318.983	377.5
319.212	364.5
319.441	396.5
319.67	385.5
319.9	365.5
320.129	388.5
320.358	382.5
320.587	382.5
320.816	372.5
321.046	385.5
321.275	404.5
321.504	373.5
321.733	417.5
321.962	408.5
322.191	407.5
322.42	430.5
322.649	436.5
322.878	442.5
323.108	468.5
323.337	459.5
323.566	457.5
323.795	503.5
324.024	538.5
324.253	642.5
324.482	862.5
324.71	1408.5
324.939	2056.5
325.168	1740.5
325.397	866.5
325.626	598.5
325.855	542.5
326.084	512.5
326.313	490.5
326.542	493.5
326.77	539.5
326.999	629.5
327.228	836.5
327.457	1270.5
327.686	1570.5
327.914	997.5
328.143	671.5
328.372	582.5
328.6	552.5
328.829	533.5
329.058	524.5
329.287	565.5
329.515	515.5
329.744	500.5
329.972	475.5
330.201	503.5
330.43	526.5
330.658	550.5
330.887	559.5
331.115	563.5
331.344	514.5
331.572	479.5
331.801	472.5
332.03	467.5
332.258	477.5
332.486	469.5
332.715	451.5
332.943	449.5
333.172	472.5
333.4	453.5
333.629	478.5
333.857	475.5
334.085	487.5
334.314	521.5
334.542	526.5
334.771	547.5
334.999	515.5
335.227	468.5
335.455	464.5
335.684	473.5
335.912	470.5
336.14	468.5
336.369	452.5
336.597	461.5
336.825	462.5
337.053	445.5
337.281	468.5
337.51	462.5
337.738	450.5
337.966	445.5
338.194	452.5
338.422	446.5
338.65	454.5
338.878	429.5
339.106	420.5
339.334	433.5
339.562	423.5
339.79	436.5
340.018	428.5
340.246	436.5
340.474	463.5
340.702	445.5
340.93	443.5
341.158	426.5
341.386	417.5
341.614	417.5
341.842	457.5
342.07	430.5
342.298	408.5
342.526	412.5
342.754	404.5
342.981	444.5
343.209	445.5
343.437	446.5
343.665	432.5
343.893	446.5
344.12	457.5
344.348	454.5
344.576	474.5
344.804	457.5
345.031	471.5
345.259	442.5
345.487	463.5
345.714	435.5
345.942	420.5
346.17	439.5
346.397	430.5
346.625	398.5
346.853	426.5
347.08	422.5
347.308	428.5
347.535	443.5
347.763	434.5
347.99	424.5
348.218	454.5
348.445	415.5
348.673	436.5
348.9	418.5
349.128	404.5
349.355	398.5
349.583	386.5
349.81	421.5
350.037	406.5
350.265	410.5
350.492	409.5
350.72	404.5
350.947	430.5
351.174	416.5
351.402	417.5
351.629	419.5
351.856	426.5
352.083	444.5
352.311	444.5
352.538	424.5
352.765	440.5
352.992	428.5
353.22	446.5
353.447	411.5
353.674	411.5
353.901	400.5
354.128	413.5
354.355	404.5
354.583	408.5
354.81	424.5
355.037	411.5
355.264	401.5
355.491	398.5
355.718	396.5
355.945	400.5
356.172	418.5
356.399	378.5
356.626	379.5
356.853	400.5
357.08	395.5
357.307	406.5
357.534	395.5
357.761	399.5
357.988	401.5
358.215	411.5
358.441	409.5
358.668	400.5
358.895	386.5
359.122	403.5
359.349	378.5
359.576	428.5
359.802	433.5
360.029	446.5
360.256	460.5
360.483	454.5
360.709	430.5
360.936	420.5
361.163	436.5
361.39	427.5
361.616	434.5
361.843	440.5
362.07	427.5
362.296	424.5
362.523	436.5
362.749	427.5
362.976	408.5
363.203	436.5
363.429	398.5
363.656	408.5
363.882	404.5
364.109	396.5
364.335	410.5
364.562	397.5
364.788	429.5
365.015	398.5
365.241	411.5
365.468	417.5
365.694	422.5
365.92	417.5
366.147	430.5
366.373	403.5
366.599	400.5
366.826	396.5
367.052	410.5
367.278	416.5
367.505	428.5
367.731	416.5
367.957	413.5
368.184	417.5
368.41	420.5
368.636	427.5
368.862	442.5
369.089	434.5
369.315	417.5
369.541	426.5
369.767	421.5
369.993	409.5
370.219	421.5
370.445	422.5
370.672	411.5
370.898	429.5
371.124	410.5
371.35	407.5
371.576	416.5
371.802	410.5
372.028	412.5
372.254	390.5
372.48	400.5
372.706	425.5
372.932	431.5
373.158	432.5
373.384	425.5
373.61	427.5
373.835	411.5
374.061	440.5
374.287	424.5
374.513	426.5
374.739	424.5
374.965	418.5
375.191	449.5
375.416	436.5
375.642	444.5
375.868	416.5
376.094	412.5
376.319	412.5
376.545	446.5
376.771	426.5
376.997	416.5
377.222	420.5
377.448	430.5
377.674	402.5
377.899	423.5
378.125	410.5
378.35	409.5
378.576	430.5
378.802	410.5
379.027	413.5
379.253	427.5
379.478	436.5
379.704	413.5
379.929	438.5
380.155	422.5
380.38	420.5
380.606	437.5
380.831	429.5
381.057	434.5
381.282	421.5
381.507	424.5
381.733	435.5
381.958	436.5
382.184	449.5
382.409	441.5
382.634	433.5
382.86	441.5
383.085	432.5
383.31	457.5
383.535	447.5
383.761	424.5
383.986	476.5
384.211	459.5
384.436	452.5
384.662	469.5
384.887	461.5
385.112	461.5
385.337	497.5
385.562	480.5
385.787	468.5
386.013	491.5
386.238	470.5
386.463	482.5
386.688	462.5
386.913	461.5
387.138	472.5
387.363	467.5
387.588	475.5
387.813	471.5
388.038	500.5
388.263	445.5
388.488	478.5
388.713	468.5
388.938	464.5
389.163	473.5
389.387	477.5
389.612	462.5
389.837	485.5
390.062	480.5
390.287	467.5
390.512	468.5
390.736	486.5
390.961	476.5
391.186	466.5
391.411	489.5
391.636	488.5
391.86	500.5
392.085	502.5
392.31	507.5
392.534	466.5
392.759	484.5
392.984	472.5
393.208	489.5
393.433	503.5
393.658	484.5
393.882	512.5
394.107	476.5
394.331	492.5
394.556	493.5
394.78	478.5
395.005	487.5
395.229	492.5
395.454	521.5
395.678	496.5
395.903	520.5
396.127	554.5
396.352	527.5
396.576	483.5
396.801	498.5
397.025	508.5
397.249	515.5
397.474	514.5
397.698	506.5
397.922	535.5
398.147	510.5
398.371	561.5
398.595	534.5
398.82	556.5
399.044	548.5
399.268	589.5
399.492	652.5
399.717	678.5
399.941	675.5
400.165	703.5
400.389	672.5
400.613	653.5
400.837	609.5
401.062	570.5
401.286	579.5
401.51	568.5
401.734	550.5
401.958	578.5
402.182	570.5
402.406	580.5
402.63	588.5
402.854	561.5
403.078	570.5
403.302	582.5
403.526	598.5
403.75	601.5
403.974	591.5
404.198	572.5
404.422	597.5
404.645	583.5
404.869	621.5
405.093	615.5
405.317	661.5
405.541	679.5
405.765	652.5
405.988	643.5
406.212	626.5
406.436	632.5
406.66	649.5
406.883	636.5
407.107	658.5
407.331	681.5
407.555	782.5
407.778	740.5
408.002	706.5
408.226	670.5
408.449	652.5
408.673	645.5
408.896	642.5
409.12	694.5
409.344	679.5
409.567	632.5
409.791	619.5
410.014	611.5
410.238	601.5
410.461	613.5
410.685	606.5
410.908	611.5
411.132	631.5
411.355	698.5
411.578	654.5
411.802	594.5
412.025	602.5
412.249	605.5
412.472	634.5
412.695	659.5
412.919	665.5
413.142	590.5
413.365	570.5
413.589	597.5
413.812	557.5
414.035	571.5
414.258	564.5
414.482	556.5
414.705	564.5
414.928	568.5
415.151	568.5
415.374	565.5
415.597	559.5
415.821	554.5
416.044	540.5
416.267	560.5
416.49	559.5
416.713	574.5
416.936	557.5
417.159	548.5
417.382	571.5
417.605	554.5
417.828	576.5
418.051	566.5
418.274	591.5
418.497	549.5
418.72	582.5
418.943	549.5
419.166	578.5
419.389	612.5
419.611	616.5
419.834	606.5
420.057	591.5
420.28	578.5
420.503	566.5
420.726	577.5
420.948	602.5
421.171	646.5
421.394	682.5
421.617	593.5
421.839	576.5
422.062	574.5
422.285	579.5
422.507	652.5
422.73	723.5
422.953	678.5
423.175	614.5
423.398	607.5
423.621	603.5
423.843	638.5
424.066	624.5
424.288	625.5
424.511	630.5
424.733	684.5
424.956	771.5
425.178	718.5
425.401	731.5
425.623	765.5
425.846	624.5
426.068	614.5
426.291	605.5
426.513	627.5
426.735	614.5
426.958	622.5
427.18	722.5
427.402	838.5
427.625	930.5
427.847	807.5
428.069	700.5
428.292	638.5
428.514	589.5
428.736	585.5
428.958	580.5
429.181	544.5
429.403	564.5
429.625	576.5
429.847	598.5
430.069	646.5
430.292	657.5
430.514	602.5
430.736	581.5
430.958	568.5
431.18	554.5
431.402	548.5
431.624	545.5
431.846	556.5
432.068	549.5
432.29	550.5
432.512	553.5
432.734	565.5
432.956	553.5
433.178	544.5
433.4	555.5
433.622	548.5
433.844	569.5
434.066	550.5
434.287	552.5
434.509	566.5
434.731	560.5
434.953	594.5
435.175	565.5
435.397	597.5
435.618	643.5
435.84	631.5
436.062	731.5
436.284	776.5
436.505	706.5
436.727	637.5
436.949	584.5
437.17	578.5
437.392	543.5
437.614	566.5
437.835	599.5
438.057	690.5
438.278	796.5
438.5	822.5
438.721	858.5
438.943	831.5
439.165	660.5
439.386	610.5
439.608	624.5
439.829	598.5
440.05	643.5
440.272	678.5
440.493	636.5
440.715	601.5
440.936	580.5
441.158	578.5
441.379	573.5
441.6	596.5
441.822	633.5
442.043	648.5
442.264	716.5
442.486	750.5
442.707	650.5
442.928	601.5
443.149	633.5
443.371	676.5
443.592	685.5
443.813	786.5
444.034	828.5
444.255	715.5
444.476	647.5
444.698	640.5
444.919	644.5
445.14	718.5
445.361	675.5
445.582	670.5
445.803	721.5
446.024	828.5
446.245	820.5
446.466	770.5
446.687	650.5
446.908	611.5
447.129	576.5
447.35	560.5
447.571	569.5
447.792	556.5
448.013	577.5
448.234	577.5
448.455	614.5
448.675	706.5
448.896	848.5
449.117	732.5
449.338	674.5
449.559	782.5
449.779	915.5
450	733.5
450.221	613.5
450.442	567.5
450.662	565.5
450.883	538.5
451.104	550.5
451.324	560.5
451.545	531.5
451.766	519.5
451.986	524.5
452.207	497.5
452.428	491.5
452.648	516.5
452.869	513.5
453.089	514.5
453.31	507.5
453.53	520.5
453.751	521.5
453.971	526.5
454.192	557.5
454.412	491.5
454.633	501.5
454.853	509.5
455.073	520.5
455.294	538.5
455.514	587.5
455.734	573.5
455.955	508.5
456.175	492.5
456.395	458.5
456.616	490.5
456.836	476.5
457.056	491.5
457.276	459.5
457.497	476.5
457.717	482.5
457.937	477.5
458.157	479.5
458.377	502.5
458.598	540.5
458.818	582.5
459.038	622.5
459.258	661.5
459.478	568.5
459.698	554.5
459.918	564.5
460.138	564.5
460.358	554.5
460.578	558.5
460.798	581.5
461.018	576.5
461.238	543.5
461.458	565.5
461.678	585.5
461.898	573.5
462.118	578.5
462.338	584.5
462.558	563.5
462.777	610.5
462.997	608.5
463.217	638.5
463.437	654.5
463.657	628.5
463.876	597.5
464.096	628.5
464.316	627.5
464.536	619.5
464.755	628.5
464.975	624.5
465.195	644.5
465.414	707.5
465.634	619.5
465.854	577.5
466.073	566.5
466.293	570.5
466.512	531.5
466.732	521.5
466.951	519.5
467.171	525.5
467.391	556.5
467.61	548.5
467.829	561.5
468.049	534.5
468.268	524.5
468.488	531.5
468.707	514.5
468.927	544.5
469.146	516.5
469.365	523.5
469.585	524.5
469.804	532.5
470.023	568.5
470.243	549.5
470.462	552.5
470.681	571.5
470.901	546.5
471.12	545.5
471.339	538.5
471.558	534.5
471.777	542.5
471.997	530.5
472.216	553.5
472.435	562.5
472.654	522.5
472.873	533.5
473.092	514.5
473.311	547.5
473.53	535.5
473.749	545.5
473.968	564.5
474.187	664.5
474.406	692.5
474.625	584.5
474.844	537.5
475.063	539.5
475.282	533.5
475.501	559.5
475.72	546.5
475.939	552.5
476.158	552.5
476.377	551.5
476.596	541.5
476.814	568.5
477.033	569.5
477.252	577.5
477.471	564.5
477.69	549.5
477.908	586.5
478.127	603.5
478.346	600.5
478.564	583.5
478.783	613.5
479.002	615.5
479.22	618.5
479.439	620.5
479.658	634.5
479.876	646.5
480.095	654.5
480.313	661.5
480.532	666.5
480.751	678.5
480.969	666.5
481.188	684.5
481.406	740.5
481.624	649.5
481.843	637.5
482.061	638.5
482.28	626.5
482.498	647.5
482.717	616.5
482.935	637.5
483.153	624.5
483.372	647.5
483.59	631.5
483.808	620.5
484.027	642.5
484.245	618.5
484.463	624.5
484.681	640.5
484.9	641.5
485.118	654.5
485.336	642.5
485.554	640.5
485.772	652.5
485.99	655.5
486.209	644.5
486.427	652.5
486.645	644.5
486.863	700.5
487.081	660.5
487.299	675.5
487.517	642.5
487.735	672.5
487.953	680.5
488.171	675.5
488.389	641.5
488.607	666.5
488.825	660.5
489.043	677.5
489.261	659.5
489.479	676.5
489.696	683.5
489.914	664.5
490.132	681.5
490.35	682.5
490.568	700.5
490.786	700.5
491.003	703.5
491.221	742.5
491.439	723.5
491.657	733.5
491.874	746.5
492.092	719.5
492.31	751.5
492.527	774.5
492.745	769.5
492.963	744.5
493.18	753.5
493.398	773.5
493.615	762.5
493.833	778.5
494.05	737.5
494.268	781.5
494.485	777.5
494.703	754.5
494.92	781.5
495.138	774.5
495.355	785.5
495.573	762.5
495.79	792.5
496.008	804.5
496.225	778.5
496.442	765.5
496.66	760.5
496.877	786.5
497.094	769.5
497.312	820.5
497.529	840.5
497.746	822.5
497.963	847.5
498.181	856.5
498.398	874.5
498.615	908.5
498.832	918.5
499.049	921.5
499.267	963.5
499.484	1013.5
499.701	1067.5
499.918	1115.5
500.135	1147.5
500.352	1234.5
500.569	1260.5
500.786	1248.5
501.003	1248.5
501.22	1156.5
501.437	1096.5
501.654	1079.5
501.871	1085.5
502.088	1034.5
502.305	988.5
502.522	947.5
502.739	909.5
502.956	893.5
503.172	874.5
503.389	838.5
503.606	826.5
503.823	846.5
504.04	820.5
504.256	832.5
504.473	842.5
504.69	803.5
504.907	823.5
505.123	792.5
505.34	764.5
505.557	756.5
505.773	772.5
505.99	752.5
506.207	752.5
506.423	744.5
506.64	754.5
506.856	712.5
507.073	727.5
507.289	717.5
507.506	721.5
507.722	756.5
507.939	722.5
508.155	725.5
508.372	734.5
508.588	694.5
508.805	732.5
509.021	704.5
509.238	711.5
509.454	692.5
509.67	706.5
509.887	692.5
510.103	680.5
510.319	672.5
510.536	797.5
510.752	1273.5
510.968	1054.5
511.184	729.5
511.401	677.5
511.617	673.5
511.833	653.5
512.049	678.5
512.265	668.5
512.481	655.5
512.698	626.5
512.914	658.5
513.13	665.5
513.346	660.5
513.562	672.5
513.778	660.5
513.994	669.5
514.21	670.5
514.426	711.5
514.642	718.5
514.858	747.5
515.074	774.5
515.29	924.5
515.506	1308.5
515.721	1097.5
515.937	778.5
516.153	743.5
516.369	738.5
516.585	698.5
516.801	722.5
517.016	674.5
517.232	729.5
517.448	730.5
517.664	737.5
517.879	722.5
518.095	737.5
518.311	701.5
518.527	722.5
518.742	716.5
518.958	716.5
519.173	654.5
519.389	685.5
519.605	684.5
519.82	672.5
