Data from 1979.PennyLincolnUp.Lamp.En5.5.200Scan.071719.P1_HRD10591_16-19-12-862.txt Node
Date: Thu Jul 18 16:19:12 EDT 2019
User: cochatt
Spectrometer: HR+D1059
Trigger mode: 1
Integration Time (sec): 1.000000E-1
Scans to average: 1
Electric dark correction enabled: true
Nonlinearity correction enabled: false
Boxcar width: 0
XAxis mode: Wavelengths
Number of Pixels in Spectrum: 2048
>>>>>Begin Spectral Data<<<<<
223.165	-24.81
223.4	-24.81
223.635	-24.81
223.869	-26.81
224.104	-5.81
224.338	0.19
224.573	-9.81
224.808	-10.81
225.042	-14.81
225.277	-16.81
225.511	3.19
225.746	-7.81
225.98	5.19
226.215	7.19
226.449	19.19
226.683	20.19
226.918	34.19
227.152	28.19
227.387	31.19
227.621	41.19
227.856	47.19
228.09	46.19
228.324	49.19
228.559	56.19
228.793	58.19
229.027	102.19
229.262	98.19
229.496	114.19
229.73	118.19
229.964	123.19
230.199	128.19
230.433	112.19
230.667	105.19
230.901	119.19
231.136	104.19
231.37	94.19
231.604	111.19
231.838	110.19
232.072	107.19
232.306	102.19
232.541	96.19
232.775	103.19
233.009	111.19
233.243	113.19
233.477	106.19
233.711	103.19
233.945	105.19
234.179	115.19
234.413	112.19
234.647	124.19
234.881	123.19
235.115	110.19
235.349	110.19
235.583	106.19
235.817	120.19
236.051	120.19
236.285	128.19
236.519	117.19
236.753	119.19
236.987	138.19
237.221	159.19
237.455	212.19
237.689	168.19
237.922	130.19
238.156	126.19
238.39	139.19
238.624	128.19
238.858	100.19
239.091	94.19
239.325	120.19
239.559	118.19
239.793	122.19
240.027	126.19
240.26	129.19
240.494	150.19
240.728	137.19
240.961	148.19
241.195	150.19
241.429	135.19
241.662	122.19
241.896	115.19
242.13	118.19
242.363	119.19
242.597	123.19
242.83	127.19
243.064	146.19
243.298	131.19
243.531	136.19
243.765	134.19
243.998	135.19
244.232	121.19
244.465	113.19
244.699	127.19
244.932	146.19
245.166	144.19
245.399	142.19
245.633	159.19
245.866	134.19
246.099	152.19
246.333	150.19
246.566	148.19
246.8	147.19
247.033	147.19
247.266	160.19
247.5	151.19
247.733	155.19
247.966	162.19
248.2	154.19
248.433	155.19
248.666	150.19
248.899	172.19
249.133	175.19
249.366	202.19
249.599	178.19
249.832	164.19
250.066	162.19
250.299	167.19
250.532	175.19
250.765	189.19
250.998	199.19
251.231	200.19
251.465	192.19
251.698	194.19
251.931	177.19
252.164	199.19
252.397	174.19
252.63	187.19
252.863	184.19
253.096	201.19
253.329	201.19
253.562	219.19
253.795	199.19
254.028	196.19
254.261	193.19
254.494	222.19
254.727	217.19
254.96	251.19
255.193	237.19
255.426	213.19
255.659	218.19
255.892	203.19
256.124	218.19
256.357	213.19
256.59	210.19
256.823	199.19
257.056	190.19
257.289	204.19
257.521	184.19
257.754	185.19
257.987	186.19
258.22	190.19
258.452	184.19
258.685	194.19
258.918	198.19
259.151	198.19
259.383	195.19
259.616	199.19
259.849	206.19
260.081	211.19
260.314	222.19
260.547	226.19
260.779	214.19
261.012	212.19
261.244	203.19
261.477	202.19
261.71	199.19
261.942	221.19
262.175	232.19
262.407	219.19
262.64	207.19
262.872	219.19
263.105	204.19
263.337	210.19
263.57	202.19
263.802	188.19
264.035	190.19
264.267	216.19
264.499	207.19
264.732	200.19
264.964	195.19
265.197	198.19
265.429	199.19
265.661	206.19
265.894	194.19
266.126	186.19
266.358	213.19
266.591	218.19
266.823	215.19
267.055	209.19
267.287	200.19
267.52	207.19
267.752	190.19
267.984	218.19
268.216	222.19
268.448	219.19
268.681	218.19
268.913	239.19
269.145	236.19
269.377	257.19
269.609	258.19
269.841	245.19
270.073	234.19
270.306	272.19
270.538	287.19
270.77	265.19
271.002	264.19
271.234	262.19
271.466	255.19
271.698	275.19
271.93	282.19
272.162	265.19
272.394	282.19
272.626	268.19
272.858	255.19
273.09	261.19
273.322	241.19
273.553	247.19
273.785	235.19
274.017	240.19
274.249	238.19
274.481	248.19
274.713	254.19
274.945	239.19
275.176	246.19
275.408	257.19
275.64	261.19
275.872	258.19
276.104	248.19
276.335	250.19
276.567	252.19
276.799	252.19
277.031	286.19
277.262	288.19
277.494	271.19
277.726	268.19
277.957	261.19
278.189	270.19
278.421	261.19
278.652	229.19
278.884	264.19
279.115	243.19
279.347	265.19
279.579	252.19
279.81	238.19
280.042	246.19
280.273	253.19
280.505	246.19
280.736	260.19
280.968	254.19
281.199	265.19
281.431	258.19
281.662	261.19
281.894	254.19
282.125	241.19
282.356	250.19
282.588	282.19
282.819	307.19
283.051	264.19
283.282	277.19
283.513	267.19
283.745	255.19
283.976	273.19
284.207	272.19
284.439	266.19
284.67	259.19
284.901	246.19
285.132	259.19
285.364	266.19
285.595	266.19
285.826	242.19
286.057	272.19
286.288	258.19
286.52	262.19
286.751	270.19
286.982	267.19
287.213	268.19
287.444	279.19
287.675	274.19
287.906	278.19
288.138	282.19
288.369	272.19
288.6	266.19
288.831	294.19
289.062	274.19
289.293	291.19
289.524	266.19
289.755	262.19
289.986	271.19
290.217	278.19
290.448	273.19
290.679	283.19
290.91	274.19
291.141	269.19
291.371	275.19
291.602	293.19
291.833	268.19
292.064	289.19
292.295	281.19
292.526	288.19
292.757	280.19
292.987	271.19
293.218	275.19
293.449	286.19
293.68	291.19
293.91	273.19
294.141	274.19
294.372	282.19
294.603	288.19
294.833	277.19
295.064	275.19
295.295	284.19
295.525	287.19
295.756	291.19
295.987	290.19
296.217	310.19
296.448	299.19
296.679	280.19
296.909	292.19
297.14	292.19
297.37	283.19
297.601	283.19
297.831	289.19
298.062	293.19
298.292	285.19
298.523	294.19
298.753	290.19
298.984	302.19
299.214	296.19
299.445	298.19
299.675	297.19
299.905	297.19
300.136	300.19
300.366	316.19
300.597	297.19
300.827	297.19
301.057	317.19
301.288	305.19
301.518	308.19
301.748	312.19
301.979	307.19
302.209	318.19
302.439	316.19
302.669	328.19
302.9	313.19
303.13	314.19
303.36	323.19
303.59	322.19
303.82	306.19
304.051	324.19
304.281	324.19
304.511	316.19
304.741	327.19
304.971	322.19
305.201	326.19
305.431	313.19
305.661	312.19
305.891	311.19
306.121	318.19
306.352	326.19
306.582	329.19
306.812	323.19
307.042	317.19
307.272	316.19
307.502	332.19
307.731	330.19
307.961	307.19
308.191	316.19
308.421	326.19
308.651	299.19
308.881	318.19
309.111	325.19
309.341	323.19
309.571	337.19
309.8	336.19
310.03	343.19
310.26	347.19
310.49	343.19
310.72	372.19
310.949	357.19
311.179	383.19
311.409	363.19
311.639	357.19
311.868	360.19
312.098	364.19
312.328	353.19
312.557	373.19
312.787	388.19
313.017	379.19
313.246	378.19
313.476	356.19
313.706	352.19
313.935	354.19
314.165	374.19
314.394	396.19
314.624	368.19
314.853	358.19
315.083	376.19
315.312	382.19
315.542	366.19
315.771	355.19
316.001	382.19
316.23	360.19
316.46	361.19
316.689	378.19
316.919	352.19
317.148	372.19
317.377	358.19
317.607	376.19
317.836	364.19
318.065	372.19
318.295	375.19
318.524	370.19
318.753	364.19
318.983	353.19
319.212	361.19
319.441	371.19
319.67	348.19
319.9	378.19
320.129	351.19
320.358	361.19
320.587	372.19
320.816	383.19
321.046	368.19
321.275	378.19
321.504	398.19
321.733	377.19
321.962	377.19
322.191	354.19
322.42	418.19
322.649	416.19
322.878	436.19
323.108	448.19
323.337	448.19
323.566	458.19
323.795	471.19
324.024	512.19
324.253	630.19
324.482	867.19
324.71	1351.19
324.939	2038.19
325.168	1756.19
325.397	852.19
325.626	604.19
325.855	499.19
326.084	466.19
326.313	442.19
326.542	466.19
326.77	523.19
326.999	587.19
327.228	818.19
327.457	1235.19
327.686	1539.19
327.914	982.19
328.143	642.19
328.372	592.19
328.6	521.19
328.829	519.19
329.058	527.19
329.287	515.19
329.515	478.19
329.744	479.19
329.972	467.19
330.201	486.19
330.43	515.19
330.658	537.19
330.887	587.19
331.115	539.19
331.344	490.19
331.572	462.19
331.801	445.19
332.03	457.19
332.258	426.19
332.486	446.19
332.715	420.19
332.943	448.19
333.172	446.19
333.4	450.19
333.629	492.19
333.857	475.19
334.085	468.19
334.314	491.19
334.542	520.19
334.771	525.19
334.999	485.19
335.227	450.19
335.455	462.19
335.684	454.19
335.912	448.19
336.14	417.19
336.369	463.19
336.597	456.19
336.825	434.19
337.053	408.19
337.281	430.19
337.51	419.19
337.738	422.19
337.966	427.19
338.194	454.19
338.422	438.19
338.65	425.19
338.878	438.19
339.106	421.19
339.334	432.19
339.562	430.19
339.79	414.19
340.018	406.19
340.246	425.19
340.474	413.19
340.702	438.19
340.93	422.19
341.158	418.19
341.386	417.19
341.614	439.19
341.842	415.19
342.07	428.19
342.298	404.19
342.526	400.19
342.754	415.19
342.981	396.19
343.209	404.19
343.437	433.19
343.665	437.19
343.893	444.19
344.12	437.19
344.348	427.19
344.576	439.19
344.804	446.19
345.031	441.19
345.259	451.19
345.487	430.19
345.714	422.19
345.942	399.19
346.17	389.19
346.397	407.19
346.625	418.19
346.853	413.19
347.08	419.19
347.308	423.19
347.535	417.19
347.763	433.19
347.99	418.19
348.218	411.19
348.445	405.19
348.673	406.19
348.9	399.19
349.128	410.19
349.355	402.19
349.583	408.19
349.81	387.19
350.037	390.19
350.265	386.19
350.492	394.19
350.72	399.19
350.947	420.19
351.174	403.19
351.402	421.19
351.629	388.19
351.856	400.19
352.083	424.19
352.311	413.19
352.538	414.19
352.765	431.19
352.992	416.19
353.22	416.19
353.447	389.19
353.674	406.19
353.901	376.19
354.128	397.19
354.355	402.19
354.583	392.19
354.81	412.19
355.037	383.19
355.264	384.19
355.491	377.19
355.718	407.19
355.945	374.19
356.172	409.19
356.399	389.19
356.626	385.19
356.853	397.19
357.08	378.19
357.307	394.19
357.534	391.19
357.761	379.19
357.988	373.19
358.215	376.19
358.441	384.19
358.668	385.19
358.895	383.19
359.122	387.19
359.349	398.19
359.576	422.19
359.802	423.19
360.029	457.19
360.256	450.19
360.483	444.19
360.709	422.19
360.936	410.19
361.163	400.19
361.39	393.19
361.616	410.19
361.843	400.19
362.07	411.19
362.296	421.19
362.523	406.19
362.749	407.19
362.976	400.19
363.203	392.19
363.429	386.19
363.656	394.19
363.882	395.19
364.109	403.19
364.335	385.19
364.562	400.19
364.788	395.19
365.015	400.19
365.241	404.19
365.468	401.19
365.694	401.19
365.92	399.19
366.147	383.19
366.373	389.19
366.599	397.19
366.826	391.19
367.052	405.19
367.278	395.19
367.505	397.19
367.731	422.19
367.957	396.19
368.184	407.19
368.41	411.19
368.636	428.19
368.862	434.19
369.089	400.19
369.315	408.19
369.541	407.19
369.767	412.19
369.993	389.19
370.219	398.19
370.445	397.19
370.672	404.19
370.898	392.19
371.124	400.19
371.35	416.19
371.576	408.19
371.802	421.19
372.028	420.19
372.254	422.19
372.48	427.19
372.706	412.19
372.932	423.19
373.158	404.19
373.384	406.19
373.61	405.19
373.835	400.19
374.061	396.19
374.287	406.19
374.513	412.19
374.739	426.19
374.965	408.19
375.191	415.19
375.416	426.19
375.642	421.19
375.868	419.19
376.094	416.19
376.319	405.19
376.545	414.19
376.771	425.19
376.997	387.19
377.222	409.19
377.448	408.19
377.674	388.19
377.899	430.19
378.125	414.19
378.35	407.19
378.576	395.19
378.802	398.19
379.027	399.19
379.253	427.19
379.478	415.19
379.704	416.19
379.929	394.19
380.155	424.19
380.38	420.19
380.606	408.19
380.831	403.19
381.057	436.19
381.282	430.19
381.507	407.19
381.733	408.19
381.958	408.19
382.184	416.19
382.409	442.19
382.634	440.19
382.86	418.19
383.085	424.19
383.31	435.19
383.535	426.19
383.761	450.19
383.986	417.19
384.211	423.19
384.436	457.19
384.662	437.19
384.887	450.19
385.112	435.19
385.337	441.19
385.562	449.19
385.787	457.19
386.013	444.19
386.238	463.19
386.463	467.19
386.688	463.19
386.913	463.19
387.138	446.19
387.363	459.19
387.588	444.19
387.813	452.19
388.038	451.19
388.263	476.19
388.488	468.19
388.713	479.19
388.938	470.19
389.163	473.19
389.387	445.19
389.612	430.19
389.837	476.19
390.062	482.19
390.287	454.19
390.512	445.19
390.736	454.19
390.961	454.19
391.186	472.19
391.411	473.19
391.636	475.19
391.86	473.19
392.085	471.19
392.31	493.19
392.534	487.19
392.759	473.19
392.984	484.19
393.208	448.19
393.433	456.19
393.658	472.19
393.882	463.19
394.107	482.19
394.331	469.19
394.556	477.19
394.78	467.19
395.005	474.19
395.229	470.19
395.454	484.19
395.678	496.19
395.903	483.19
396.127	511.19
396.352	516.19
396.576	489.19
396.801	510.19
397.025	502.19
397.249	478.19
397.474	487.19
397.698	489.19
397.922	500.19
398.147	529.19
398.371	532.19
398.595	519.19
398.82	530.19
399.044	555.19
399.268	562.19
399.492	620.19
399.717	632.19
399.941	670.19
400.165	672.19
400.389	668.19
400.613	622.19
400.837	571.19
401.062	540.19
401.286	555.19
401.51	555.19
401.734	535.19
401.958	531.19
402.182	539.19
402.406	572.19
402.63	560.19
402.854	534.19
403.078	573.19
403.302	555.19
403.526	579.19
403.75	590.19
403.974	569.19
404.198	564.19
404.422	593.19
404.645	554.19
404.869	546.19
405.093	605.19
405.317	633.19
405.541	668.19
405.765	612.19
405.988	572.19
406.212	587.19
406.436	616.19
406.66	638.19
406.883	606.19
407.107	648.19
407.331	668.19
407.555	743.19
407.778	740.19
408.002	700.19
408.226	634.19
408.449	613.19
408.673	608.19
408.896	676.19
409.12	696.19
409.344	673.19
409.567	611.19
409.791	575.19
410.014	577.19
410.238	568.19
410.461	576.19
410.685	586.19
410.908	607.19
411.132	624.19
411.355	657.19
411.578	630.19
411.802	576.19
412.025	564.19
412.249	586.19
412.472	586.19
412.695	629.19
412.919	617.19
413.142	566.19
413.365	558.19
413.589	545.19
413.812	546.19
414.035	531.19
414.258	536.19
414.482	556.19
414.705	559.19
414.928	534.19
415.151	562.19
415.374	550.19
415.597	529.19
415.821	522.19
416.044	554.19
416.267	528.19
416.49	531.19
416.713	542.19
416.936	528.19
417.159	543.19
417.382	575.19
417.605	532.19
417.828	538.19
418.051	566.19
418.274	566.19
418.497	540.19
418.72	517.19
418.943	556.19
419.166	537.19
419.389	596.19
419.611	587.19
419.834	576.19
420.057	554.19
420.28	559.19
420.503	568.19
420.726	559.19
420.948	558.19
421.171	608.19
421.394	623.19
421.617	572.19
421.839	565.19
422.062	537.19
422.285	572.19
422.507	626.19
422.73	706.19
422.953	663.19
423.175	609.19
423.398	594.19
423.621	578.19
423.843	591.19
424.066	594.19
424.288	591.19
424.511	630.19
424.733	636.19
424.956	736.19
425.178	712.19
425.401	732.19
425.623	734.19
425.846	634.19
426.068	606.19
426.291	613.19
426.513	591.19
426.735	609.19
426.958	609.19
427.18	704.19
427.402	853.19
427.625	928.19
427.847	788.19
428.069	690.19
428.292	605.19
428.514	591.19
428.736	579.19
428.958	553.19
429.181	550.19
429.403	533.19
429.625	542.19
429.847	611.19
430.069	660.19
430.292	648.19
430.514	564.19
430.736	558.19
430.958	522.19
431.18	530.19
431.402	503.19
431.624	498.19
431.846	533.19
432.068	500.19
432.29	505.19
432.512	514.19
432.734	545.19
432.956	542.19
433.178	544.19
433.4	547.19
433.622	550.19
433.844	535.19
434.066	516.19
434.287	515.19
434.509	514.19
434.731	532.19
434.953	540.19
435.175	568.19
435.397	582.19
435.618	571.19
435.84	625.19
436.062	707.19
436.284	780.19
436.505	657.19
436.727	576.19
436.949	558.19
437.17	535.19
437.392	551.19
437.614	563.19
437.835	594.19
438.057	656.19
438.278	782.19
438.5	770.19
438.721	828.19
438.943	818.19
439.165	662.19
439.386	622.19
439.608	607.19
439.829	599.19
440.05	584.19
440.272	687.19
440.493	603.19
440.715	574.19
440.936	571.19
441.158	544.19
441.379	554.19
441.6	582.19
441.822	577.19
442.043	659.19
442.264	694.19
442.486	739.19
442.707	642.19
442.928	600.19
443.149	610.19
443.371	640.19
443.592	670.19
443.813	754.19
444.034	807.19
444.255	690.19
444.476	646.19
444.698	652.19
444.919	647.19
445.14	696.19
445.361	654.19
445.582	643.19
445.803	705.19
446.024	784.19
446.245	806.19
446.466	716.19
446.687	624.19
446.908	599.19
447.129	570.19
447.35	531.19
447.571	549.19
447.792	508.19
448.013	536.19
448.234	553.19
448.455	586.19
448.675	715.19
448.896	813.19
449.117	710.19
449.338	662.19
449.559	737.19
449.779	882.19
450	696.19
450.221	587.19
450.442	532.19
450.662	526.19
450.883	556.19
451.104	532.19
451.324	550.19
451.545	538.19
451.766	513.19
451.986	494.19
452.207	498.19
452.428	483.19
452.648	494.19
452.869	491.19
453.089	491.19
453.31	511.19
453.53	522.19
453.751	507.19
453.971	492.19
454.192	524.19
454.412	496.19
454.633	478.19
454.853	484.19
455.073	475.19
455.294	521.19
455.514	566.19
455.734	555.19
455.955	475.19
456.175	481.19
456.395	441.19
456.616	458.19
456.836	480.19
457.056	459.19
457.276	475.19
457.497	488.19
457.717	481.19
457.937	488.19
458.157	475.19
458.377	476.19
458.598	512.19
458.818	547.19
459.038	653.19
459.258	635.19
459.478	568.19
459.698	522.19
459.918	536.19
460.138	534.19
460.358	537.19
460.578	542.19
460.798	536.19
461.018	546.19
461.238	576.19
461.458	577.19
461.678	560.19
461.898	562.19
462.118	552.19
462.338	551.19
462.558	587.19
462.777	568.19
462.997	614.19
463.217	609.19
463.437	633.19
463.657	610.19
463.876	608.19
464.096	594.19
464.316	579.19
464.536	581.19
464.755	605.19
464.975	614.19
465.195	606.19
465.414	730.19
465.634	638.19
465.854	566.19
466.073	562.19
466.293	548.19
466.512	540.19
466.732	511.19
466.951	503.19
467.171	495.19
467.391	533.19
467.61	509.19
467.829	515.19
468.049	524.19
468.268	496.19
468.488	504.19
468.707	498.19
468.927	500.19
469.146	481.19
469.365	495.19
469.585	483.19
469.804	505.19
470.023	532.19
470.243	526.19
470.462	519.19
470.681	534.19
470.901	523.19
471.12	518.19
471.339	531.19
471.558	521.19
471.777	518.19
471.997	516.19
472.216	532.19
472.435	538.19
472.654	528.19
472.873	509.19
473.092	521.19
473.311	515.19
473.53	512.19
473.749	498.19
473.968	572.19
474.187	635.19
474.406	638.19
474.625	568.19
474.844	527.19
475.063	532.19
475.282	524.19
475.501	529.19
475.72	522.19
475.939	507.19
476.158	539.19
476.377	541.19
476.596	544.19
476.814	577.19
477.033	538.19
477.252	558.19
477.471	568.19
477.69	565.19
477.908	587.19
478.127	568.19
478.346	568.19
478.564	577.19
478.783	570.19
479.002	596.19
479.22	583.19
479.439	625.19
479.658	611.19
479.876	624.19
480.095	611.19
480.313	642.19
480.532	653.19
480.751	636.19
480.969	626.19
481.188	677.19
481.406	733.19
481.624	675.19
481.843	628.19
482.061	598.19
482.28	609.19
482.498	593.19
482.717	610.19
482.935	590.19
483.153	603.19
483.372	586.19
483.59	595.19
483.808	605.19
484.027	597.19
484.245	606.19
484.463	610.19
484.681	610.19
484.9	620.19
485.118	639.19
485.336	622.19
485.554	645.19
485.772	638.19
485.99	630.19
486.209	613.19
486.427	631.19
486.645	630.19
486.863	674.19
487.081	638.19
487.299	626.19
487.517	650.19
487.735	642.19
487.953	656.19
488.171	642.19
488.389	651.19
488.607	636.19
488.825	672.19
489.043	627.19
489.261	631.19
489.479	631.19
489.696	650.19
489.914	648.19
490.132	647.19
490.35	668.19
490.568	662.19
490.786	694.19
491.003	685.19
491.221	682.19
491.439	710.19
491.657	722.19
491.874	698.19
492.092	713.19
492.31	720.19
492.527	721.19
492.745	742.19
492.963	750.19
493.18	723.19
493.398	737.19
493.615	748.19
493.833	752.19
494.05	733.19
494.268	750.19
494.485	739.19
494.703	744.19
494.92	721.19
495.138	725.19
495.355	737.19
495.573	730.19
495.79	744.19
496.008	747.19
496.225	752.19
496.442	771.19
496.66	752.19
496.877	786.19
497.094	809.19
497.312	768.19
497.529	788.19
497.746	798.19
497.963	863.19
498.181	859.19
498.398	873.19
498.615	891.19
498.832	898.19
499.049	918.19
499.267	947.19
499.484	965.19
499.701	1002.19
499.918	1070.19
500.135	1134.19
500.352	1203.19
500.569	1208.19
500.786	1168.19
501.003	1168.19
501.22	1123.19
501.437	1062.19
501.654	1045.19
501.871	1027.19
