Data from 1979.PennyLincolnUp.Lamp.En5.5.200Scan.071719.P1_HRD10591_16-20-16-863.txt Node
Date: Thu Jul 18 16:20:16 EDT 2019
User: cochatt
Spectrometer: HR+D1059
Trigger mode: 1
Integration Time (sec): 1.000000E-1
Scans to average: 1
Electric dark correction enabled: true
Nonlinearity correction enabled: false
Boxcar width: 0
XAxis mode: Wavelengths
Number of Pixels in Spectrum: 2048
>>>>>Begin Spectral Data<<<<<
223.165	-22.25
223.4	-22.25
223.635	-22.25
223.869	-3.25
224.104	-24.25
224.338	-25.25
224.573	-8.25
224.808	-16.25
225.042	-1.25
225.277	-3.25
225.511	-13.25
225.746	4.75
225.98	17.75
226.215	4.75
226.449	0.75
226.683	24.75
226.918	32.75
227.152	31.75
227.387	25.75
227.621	55.75
227.856	36.75
228.09	43.75
228.324	38.75
228.559	57.75
228.793	57.75
229.027	99.75
229.262	94.75
229.496	104.75
229.73	122.75
229.964	157.75
230.199	117.75
230.433	111.75
230.667	117.75
230.901	107.75
231.136	108.75
231.37	97.75
231.604	111.75
231.838	106.75
232.072	110.75
232.306	128.75
232.541	122.75
232.775	110.75
233.009	109.75
233.243	117.75
233.477	115.75
233.711	128.75
233.945	125.75
234.179	118.75
234.413	135.75
234.647	120.75
234.881	133.75
235.115	116.75
235.349	107.75
235.583	115.75
235.817	123.75
236.051	124.75
236.285	133.75
236.519	115.75
236.753	121.75
236.987	133.75
237.221	181.75
237.455	225.75
237.689	177.75
237.922	144.75
238.156	133.75
238.39	127.75
238.624	125.75
238.858	140.75
239.091	117.75
239.325	111.75
239.559	123.75
239.793	130.75
240.027	140.75
240.26	145.75
240.494	154.75
240.728	145.75
240.961	146.75
241.195	144.75
241.429	138.75
241.662	126.75
241.896	133.75
242.13	133.75
242.363	126.75
242.597	147.75
242.83	146.75
243.064	127.75
243.298	123.75
243.531	151.75
243.765	137.75
243.998	142.75
244.232	136.75
244.465	143.75
244.699	132.75
244.932	139.75
245.166	160.75
245.399	149.75
245.633	145.75
245.866	152.75
246.099	149.75
246.333	140.75
246.566	145.75
246.8	144.75
247.033	151.75
247.266	157.75
247.5	160.75
247.733	163.75
247.966	176.75
248.2	177.75
248.433	169.75
248.666	174.75
248.899	167.75
249.133	190.75
249.366	207.75
249.599	191.75
249.832	200.75
250.066	177.75
250.299	175.75
250.532	192.75
250.765	201.75
250.998	202.75
251.231	218.75
251.465	215.75
251.698	200.75
251.931	191.75
252.164	184.75
252.397	209.75
252.63	196.75
252.863	194.75
253.096	206.75
253.329	199.75
253.562	212.75
253.795	206.75
254.028	203.75
254.261	198.75
254.494	201.75
254.727	245.75
254.96	259.75
255.193	272.75
255.426	228.75
255.659	220.75
255.892	208.75
256.124	219.75
256.357	225.75
256.59	223.75
256.823	205.75
257.056	230.75
257.289	216.75
257.521	215.75
257.754	202.75
257.987	211.75
258.22	213.75
258.452	214.75
258.685	193.75
258.918	215.75
259.151	196.75
259.383	198.75
259.616	206.75
259.849	216.75
260.081	216.75
260.314	258.75
260.547	253.75
260.779	228.75
261.012	219.75
261.244	226.75
261.477	226.75
261.71	233.75
261.942	232.75
262.175	244.75
262.407	231.75
262.64	205.75
262.872	223.75
263.105	215.75
263.337	224.75
263.57	213.75
263.802	213.75
264.035	221.75
264.267	224.75
264.499	216.75
264.732	211.75
264.964	207.75
265.197	189.75
265.429	216.75
265.661	208.75
265.894	216.75
266.126	210.75
266.358	213.75
266.591	230.75
266.823	212.75
267.055	211.75
267.287	221.75
267.52	212.75
267.752	216.75
267.984	235.75
268.216	231.75
268.448	236.75
268.681	236.75
268.913	231.75
269.145	254.75
269.377	265.75
269.609	249.75
269.841	253.75
270.073	267.75
270.306	269.75
270.538	271.75
270.77	281.75
271.002	289.75
271.234	298.75
271.466	289.75
271.698	280.75
271.93	308.75
272.162	296.75
272.394	284.75
272.626	297.75
272.858	262.75
273.09	259.75
273.322	252.75
273.553	237.75
273.785	237.75
274.017	262.75
274.249	239.75
274.481	229.75
274.713	248.75
274.945	275.75
275.176	259.75
275.408	265.75
275.64	268.75
275.872	249.75
276.104	263.75
276.335	261.75
276.567	263.75
276.799	276.75
277.031	282.75
277.262	292.75
277.494	307.75
277.726	276.75
277.957	271.75
278.189	264.75
278.421	266.75
278.652	256.75
278.884	277.75
279.115	286.75
279.347	275.75
279.579	260.75
279.81	260.75
280.042	263.75
280.273	267.75
280.505	273.75
280.736	260.75
280.968	254.75
281.199	259.75
281.431	256.75
281.662	261.75
281.894	266.75
282.125	258.75
282.356	254.75
282.588	294.75
282.819	301.75
283.051	278.75
283.282	267.75
283.513	267.75
283.745	256.75
283.976	272.75
284.207	281.75
284.439	275.75
284.67	279.75
284.901	283.75
285.132	284.75
285.364	269.75
285.595	260.75
285.826	279.75
286.057	283.75
286.288	268.75
286.52	269.75
286.751	287.75
286.982	296.75
287.213	256.75
287.444	268.75
287.675	281.75
287.906	272.75
288.138	283.75
288.369	281.75
288.6	292.75
288.831	284.75
289.062	282.75
289.293	280.75
289.524	278.75
289.755	284.75
289.986	293.75
290.217	287.75
290.448	288.75
290.679	293.75
290.91	292.75
291.141	281.75
291.371	291.75
291.602	280.75
291.833	280.75
292.064	295.75
292.295	300.75
292.526	303.75
292.757	293.75
292.987	299.75
293.218	285.75
293.449	275.75
293.68	296.75
293.91	281.75
294.141	277.75
294.372	288.75
294.603	295.75
294.833	319.75
295.064	302.75
295.295	291.75
295.525	275.75
295.756	296.75
295.987	313.75
296.217	313.75
296.448	326.75
296.679	311.75
296.909	300.75
297.14	309.75
297.37	308.75
297.601	306.75
297.831	296.75
298.062	289.75
298.292	318.75
298.523	318.75
298.753	310.75
298.984	295.75
299.214	319.75
299.445	298.75
299.675	303.75
299.905	309.75
300.136	299.75
300.366	314.75
300.597	315.75
300.827	323.75
301.057	317.75
301.288	331.75
301.518	320.75
301.748	331.75
301.979	331.75
302.209	319.75
302.439	332.75
302.669	315.75
302.9	319.75
303.13	311.75
303.36	327.75
303.59	330.75
303.82	344.75
304.051	331.75
304.281	315.75
304.511	336.75
304.741	334.75
304.971	323.75
305.201	331.75
305.431	332.75
305.661	320.75
305.891	320.75
306.121	318.75
306.352	321.75
306.582	328.75
306.812	328.75
307.042	323.75
307.272	317.75
307.502	313.75
307.731	320.75
307.961	324.75
308.191	324.75
308.421	320.75
308.651	313.75
308.881	335.75
309.111	330.75
309.341	335.75
309.571	350.75
309.8	359.75
310.03	369.75
310.26	350.75
310.49	358.75
310.72	364.75
310.949	366.75
311.179	394.75
311.409	352.75
311.639	371.75
311.868	381.75
312.098	374.75
312.328	355.75
312.557	383.75
312.787	379.75
313.017	392.75
313.246	373.75
313.476	382.75
313.706	377.75
313.935	362.75
314.165	385.75
314.394	401.75
314.624	394.75
314.853	396.75
315.083	388.75
315.312	366.75
315.542	365.75
315.771	355.75
316.001	346.75
316.23	380.75
316.46	368.75
316.689	365.75
316.919	368.75
317.148	384.75
317.377	373.75
317.607	403.75
317.836	389.75
318.065	380.75
318.295	374.75
318.524	366.75
318.753	368.75
318.983	379.75
319.212	359.75
319.441	387.75
319.67	387.75
319.9	376.75
320.129	362.75
320.358	379.75
320.587	387.75
320.816	380.75
321.046	409.75
321.275	389.75
321.504	394.75
321.733	407.75
321.962	402.75
322.191	391.75
322.42	421.75
322.649	420.75
322.878	446.75
323.108	423.75
323.337	471.75
323.566	478.75
323.795	489.75
324.024	548.75
324.253	639.75
324.482	927.75
324.71	1477.75
324.939	2148.75
325.168	1867.75
325.397	931.75
325.626	599.75
325.855	528.75
326.084	471.75
326.313	502.75
326.542	498.75
326.77	532.75
326.999	624.75
327.228	833.75
327.457	1325.75
327.686	1648.75
327.914	1038.75
328.143	674.75
328.372	581.75
328.6	577.75
328.829	543.75
329.058	555.75
329.287	550.75
329.515	537.75
329.744	502.75
329.972	492.75
330.201	498.75
330.43	549.75
330.658	540.75
330.887	593.75
331.115	577.75
331.344	519.75
331.572	499.75
331.801	495.75
332.03	494.75
332.258	476.75
332.486	456.75
332.715	455.75
332.943	472.75
333.172	466.75
333.4	467.75
333.629	467.75
333.857	486.75
334.085	496.75
334.314	495.75
334.542	540.75
334.771	576.75
334.999	504.75
335.227	490.75
335.455	483.75
335.684	477.75
335.912	467.75
336.14	445.75
336.369	444.75
336.597	469.75
336.825	471.75
337.053	463.75
337.281	453.75
337.51	435.75
337.738	445.75
337.966	447.75
338.194	456.75
338.422	454.75
338.65	445.75
338.878	424.75
339.106	435.75
339.334	439.75
339.562	410.75
339.79	431.75
340.018	447.75
340.246	431.75
340.474	441.75
340.702	432.75
340.93	442.75
341.158	436.75
341.386	432.75
341.614	442.75
341.842	433.75
342.07	427.75
342.298	441.75
342.526	424.75
342.754	408.75
342.981	422.75
343.209	409.75
343.437	422.75
343.665	422.75
343.893	448.75
344.12	441.75
344.348	462.75
344.576	443.75
344.804	437.75
345.031	470.75
345.259	446.75
345.487	457.75
345.714	430.75
345.942	411.75
346.17	405.75
346.397	425.75
346.625	398.75
346.853	412.75
347.08	407.75
347.308	416.75
347.535	407.75
347.763	440.75
347.99	446.75
348.218	432.75
348.445	448.75
348.673	447.75
348.9	427.75
349.128	413.75
349.355	413.75
349.583	400.75
349.81	392.75
350.037	401.75
350.265	403.75
350.492	416.75
350.72	411.75
350.947	421.75
351.174	403.75
351.402	415.75
351.629	430.75
351.856	429.75
352.083	448.75
352.311	419.75
352.538	430.75
352.765	440.75
352.992	422.75
353.22	403.75
353.447	422.75
353.674	405.75
353.901	381.75
354.128	432.75
354.355	398.75
354.583	399.75
354.81	411.75
355.037	409.75
355.264	379.75
355.491	392.75
355.718	385.75
355.945	396.75
356.172	379.75
356.399	388.75
356.626	371.75
356.853	381.75
357.08	391.75
357.307	387.75
357.534	392.75
357.761	373.75
357.988	401.75
358.215	390.75
358.441	382.75
358.668	386.75
358.895	390.75
359.122	421.75
359.349	397.75
359.576	420.75
359.802	449.75
360.029	438.75
360.256	483.75
360.483	477.75
360.709	444.75
360.936	420.75
361.163	407.75
361.39	438.75
361.616	429.75
361.843	424.75
362.07	419.75
362.296	414.75
362.523	429.75
362.749	420.75
362.976	421.75
363.203	396.75
363.429	411.75
363.656	405.75
363.882	407.75
364.109	417.75
364.335	407.75
364.562	400.75
364.788	398.75
365.015	390.75
365.241	387.75
365.468	423.75
365.694	412.75
365.92	429.75
366.147	402.75
366.373	403.75
366.599	425.75
366.826	407.75
367.052	412.75
367.278	397.75
367.505	382.75
367.731	399.75
367.957	405.75
368.184	397.75
368.41	413.75
368.636	445.75
368.862	444.75
369.089	413.75
369.315	405.75
369.541	419.75
369.767	402.75
369.993	408.75
370.219	419.75
370.445	421.75
370.672	408.75
370.898	401.75
371.124	407.75
371.35	409.75
371.576	389.75
371.802	416.75
372.028	445.75
372.254	414.75
372.48	428.75
372.706	428.75
372.932	423.75
373.158	418.75
373.384	437.75
373.61	421.75
373.835	418.75
374.061	413.75
374.287	431.75
374.513	425.75
374.739	427.75
374.965	412.75
375.191	413.75
375.416	427.75
375.642	419.75
375.868	407.75
376.094	416.75
376.319	428.75
376.545	412.75
376.771	433.75
376.997	408.75
377.222	401.75
377.448	416.75
377.674	411.75
377.899	417.75
378.125	419.75
378.35	412.75
378.576	410.75
378.802	412.75
379.027	394.75
379.253	419.75
379.478	431.75
379.704	417.75
379.929	416.75
380.155	418.75
380.38	417.75
380.606	423.75
380.831	428.75
381.057	424.75
381.282	422.75
381.507	411.75
381.733	414.75
381.958	425.75
382.184	419.75
382.409	427.75
382.634	428.75
382.86	445.75
383.085	433.75
383.31	439.75
383.535	443.75
383.761	415.75
383.986	431.75
384.211	449.75
384.436	438.75
384.662	448.75
384.887	463.75
385.112	452.75
385.337	463.75
385.562	453.75
385.787	441.75
386.013	460.75
386.238	447.75
386.463	484.75
386.688	475.75
386.913	459.75
387.138	466.75
387.363	472.75
387.588	455.75
387.813	456.75
388.038	476.75
388.263	469.75
388.488	473.75
388.713	464.75
388.938	470.75
389.163	464.75
389.387	464.75
389.612	456.75
389.837	473.75
390.062	445.75
390.287	459.75
390.512	449.75
390.736	472.75
390.961	457.75
391.186	455.75
391.411	482.75
391.636	477.75
391.86	487.75
392.085	493.75
392.31	474.75
392.534	475.75
392.759	487.75
392.984	461.75
393.208	470.75
393.433	469.75
393.658	479.75
393.882	472.75
394.107	483.75
394.331	483.75
394.556	474.75
394.78	489.75
395.005	488.75
395.229	476.75
395.454	479.75
395.678	488.75
395.903	508.75
396.127	492.75
396.352	534.75
396.576	509.75
396.801	474.75
397.025	478.75
397.249	493.75
397.474	495.75
397.698	523.75
397.922	547.75
398.147	528.75
398.371	533.75
398.595	550.75
398.82	542.75
399.044	562.75
399.268	576.75
399.492	613.75
399.717	669.75
399.941	659.75
400.165	656.75
400.389	693.75
400.613	617.75
400.837	607.75
401.062	562.75
401.286	555.75
401.51	567.75
401.734	557.75
401.958	564.75
402.182	571.75
402.406	572.75
402.63	593.75
402.854	568.75
403.078	571.75
403.302	581.75
403.526	588.75
403.75	589.75
403.974	591.75
404.198	561.75
404.422	618.75
404.645	594.75
404.869	581.75
405.093	630.75
405.317	665.75
405.541	687.75
405.765	638.75
405.988	609.75
406.212	616.75
406.436	638.75
406.66	673.75
406.883	639.75
407.107	644.75
407.331	694.75
407.555	743.75
407.778	782.75
408.002	702.75
408.226	651.75
408.449	645.75
408.673	631.75
408.896	657.75
409.12	715.75
409.344	649.75
409.567	592.75
409.791	589.75
410.014	591.75
410.238	573.75
410.461	595.75
410.685	573.75
410.908	600.75
411.132	639.75
411.355	666.75
411.578	637.75
411.802	587.75
412.025	559.75
412.249	608.75
412.472	624.75
412.695	633.75
412.919	620.75
413.142	611.75
413.365	550.75
413.589	565.75
413.812	567.75
414.035	566.75
414.258	548.75
414.482	550.75
414.705	554.75
414.928	573.75
415.151	557.75
415.374	533.75
415.597	549.75
415.821	539.75
416.044	556.75
416.267	545.75
416.49	536.75
416.713	564.75
416.936	548.75
417.159	551.75
417.382	555.75
417.605	543.75
417.828	556.75
418.051	582.75
418.274	567.75
418.497	555.75
418.72	569.75
418.943	539.75
419.166	585.75
419.389	579.75
419.611	607.75
419.834	608.75
420.057	589.75
420.28	596.75
420.503	585.75
420.726	570.75
420.948	597.75
421.171	617.75
421.394	663.75
421.617	592.75
421.839	575.75
422.062	579.75
422.285	584.75
422.507	660.75
422.73	718.75
422.953	666.75
423.175	615.75
423.398	594.75
423.621	594.75
423.843	611.75
424.066	604.75
424.288	592.75
424.511	622.75
424.733	680.75
424.956	755.75
425.178	716.75
425.401	701.75
425.623	742.75
425.846	659.75
426.068	626.75
426.291	593.75
426.513	599.75
426.735	613.75
426.958	642.75
427.18	735.75
427.402	896.75
427.625	952.75
427.847	813.75
428.069	731.75
428.292	636.75
428.514	597.75
428.736	581.75
428.958	581.75
429.181	558.75
429.403	545.75
429.625	564.75
429.847	595.75
430.069	666.75
430.292	664.75
430.514	595.75
430.736	584.75
430.958	547.75
431.18	539.75
431.402	550.75
431.624	535.75
431.846	515.75
432.068	527.75
432.29	532.75
432.512	521.75
432.734	559.75
432.956	559.75
433.178	533.75
433.4	557.75
433.622	535.75
433.844	526.75
434.066	540.75
434.287	554.75
434.509	564.75
434.731	568.75
434.953	544.75
435.175	594.75
435.397	603.75
435.618	604.75
435.84	648.75
436.062	714.75
436.284	793.75
436.505	688.75
436.727	629.75
436.949	574.75
437.17	547.75
437.392	550.75
437.614	580.75
437.835	602.75
438.057	682.75
438.278	786.75
438.5	783.75
438.721	848.75
438.943	854.75
439.165	674.75
439.386	615.75
439.608	608.75
439.829	619.75
440.05	651.75
440.272	672.75
440.493	639.75
440.715	596.75
440.936	566.75
441.158	560.75
441.379	582.75
441.6	580.75
441.822	596.75
442.043	672.75
442.264	738.75
442.486	755.75
442.707	651.75
442.928	615.75
443.149	620.75
443.371	671.75
443.592	703.75
443.813	804.75
444.034	825.75
444.255	705.75
444.476	636.75
444.698	595.75
444.919	614.75
445.14	700.75
445.361	670.75
445.582	661.75
445.803	689.75
446.024	805.75
446.245	829.75
446.466	773.75
446.687	643.75
446.908	597.75
447.129	552.75
447.35	560.75
447.571	554.75
447.792	551.75
448.013	562.75
448.234	565.75
448.455	605.75
448.675	725.75
448.896	817.75
449.117	699.75
449.338	693.75
449.559	805.75
449.779	899.75
450	707.75
450.221	613.75
450.442	572.75
450.662	536.75
450.883	539.75
451.104	569.75
451.324	556.75
451.545	528.75
451.766	524.75
451.986	507.75
452.207	488.75
452.428	501.75
452.648	513.75
452.869	502.75
453.089	521.75
453.31	518.75
453.53	506.75
453.751	495.75
453.971	494.75
454.192	525.75
454.412	506.75
454.633	485.75
454.853	500.75
455.073	505.75
455.294	520.75
455.514	558.75
455.734	552.75
455.955	511.75
456.175	488.75
456.395	477.75
456.616	478.75
456.836	484.75
457.056	497.75
457.276	475.75
457.497	488.75
457.717	480.75
457.937	482.75
458.157	491.75
458.377	485.75
458.598	518.75
458.818	565.75
459.038	658.75
459.258	655.75
459.478	581.75
459.698	555.75
459.918	535.75
460.138	545.75
460.358	555.75
460.578	535.75
460.798	574.75
461.018	587.75
461.238	579.75
461.458	564.75
461.678	551.75
461.898	569.75
462.118	551.75
462.338	560.75
462.558	585.75
462.777	604.75
462.997	608.75
463.217	632.75
463.437	633.75
463.657	607.75
463.876	603.75
464.096	616.75
464.316	592.75
464.536	593.75
464.755	627.75
464.975	609.75
465.195	640.75
465.414	694.75
465.634	621.75
465.854	587.75
466.073	560.75
466.293	543.75
466.512	523.75
466.732	523.75
466.951	528.75
467.171	515.75
467.391	543.75
467.61	558.75
467.829	542.75
468.049	542.75
468.268	530.75
468.488	519.75
468.707	507.75
468.927	520.75
469.146	500.75
469.365	511.75
469.585	501.75
469.804	514.75
470.023	543.75
470.243	521.75
470.462	529.75
470.681	558.75
470.901	559.75
471.12	536.75
471.339	523.75
471.558	546.75
471.777	509.75
471.997	513.75
472.216	522.75
472.435	555.75
472.654	573.75
472.873	541.75
473.092	517.75
473.311	522.75
473.53	519.75
473.749	535.75
473.968	566.75
474.187	667.75
474.406	706.75
474.625	582.75
474.844	552.75
475.063	537.75
475.282	542.75
475.501	508.75
475.72	541.75
475.939	555.75
476.158	537.75
476.377	529.75
476.596	546.75
476.814	559.75
477.033	575.75
477.252	547.75
477.471	530.75
477.69	579.75
477.908	571.75
478.127	576.75
478.346	585.75
478.564	603.75
478.783	589.75
479.002	595.75
479.22	618.75
479.439	622.75
479.658	633.75
479.876	627.75
480.095	650.75
480.313	658.75
480.532	654.75
480.751	670.75
480.969	647.75
481.188	700.75
481.406	747.75
481.624	683.75
481.843	637.75
482.061	616.75
482.28	624.75
482.498	592.75
482.717	613.75
482.935	611.75
483.153	618.75
483.372	576.75
483.59	620.75
483.808	620.75
484.027	604.75
484.245	619.75
484.463	625.75
484.681	630.75
484.9	637.75
485.118	615.75
485.336	626.75
485.554	647.75
485.772	665.75
485.99	630.75
486.209	611.75
486.427	609.75
486.645	653.75
486.863	661.75
487.081	656.75
487.299	657.75
487.517	653.75
487.735	663.75
487.953	676.75
488.171	653.75
488.389	653.75
488.607	651.75
488.825	639.75
489.043	663.75
489.261	684.75
489.479	680.75
489.696	645.75
489.914	655.75
490.132	695.75
490.35	679.75
490.568	709.75
490.786	696.75
491.003	691.75
491.221	731.75
491.439	739.75
491.657	732.75
491.874	748.75
492.092	740.75
492.31	782.75
492.527	743.75
492.745	763.75
492.963	739.75
493.18	753.75
493.398	794.75
493.615	787.75
493.833	764.75
494.05	752.75
494.268	746.75
494.485	749.75
494.703	766.75
494.92	752.75
495.138	760.75
495.355	756.75
495.573	793.75
495.79	795.75
496.008	803.75
496.225	789.75
496.442	791.75
496.66	750.75
496.877	775.75
497.094	811.75
497.312	812.75
497.529	783.75
497.746	826.75
497.963	815.75
498.181	890.75
498.398	855.75
498.615	885.75
498.832	910.75
499.049	943.75
499.267	957.75
499.484	985.75
499.701	1029.75
499.918	1068.75
500.135	1124.75
500.352	1194.75
500.569	1219.75
500.786	1224.75
501.003	1185.75
501.22	1133.75
501.437	1093.75
501.654	1061.75
501.871	1037.75
