Data from 1979.PennyLincolnUp.Lamp.En5.5.200Scan.071719.P1_HRD10591_16-17-25-863.txt Node
Date: Thu Jul 18 16:17:25 EDT 2019
User: cochatt
Spectrometer: HR+D1059
Trigger mode: 1
Integration Time (sec): 1.000000E-1
Scans to average: 1
Electric dark correction enabled: true
Nonlinearity correction enabled: false
Boxcar width: 0
XAxis mode: Wavelengths
Number of Pixels in Spectrum: 2048
>>>>>Begin Spectral Data<<<<<
223.165	-21.81
223.4	-21.81
223.635	-21.81
223.869	-23.81
224.104	-20.81
224.338	-12.81
224.573	-7.81
224.808	-2.81
225.042	-17.81
225.277	-8.81
225.511	9.19
225.746	-3.81
225.98	2.19
226.215	9.19
226.449	21.19
226.683	28.19
226.918	23.19
227.152	27.19
227.387	38.19
227.621	44.19
227.856	37.19
228.09	32.19
228.324	55.19
228.559	49.19
228.793	61.19
229.027	85.19
229.262	104.19
229.496	123.19
229.73	121.19
229.964	149.19
230.199	134.19
230.433	99.19
230.667	114.19
230.901	114.19
231.136	109.19
231.37	103.19
231.604	106.19
231.838	109.19
232.072	122.19
232.306	104.19
232.541	116.19
232.775	114.19
233.009	104.19
233.243	120.19
233.477	108.19
233.711	107.19
233.945	130.19
234.179	130.19
234.413	122.19
234.647	128.19
234.881	133.19
235.115	127.19
235.349	108.19
235.583	118.19
235.817	102.19
236.051	123.19
236.285	128.19
236.519	117.19
236.753	119.19
236.987	119.19
237.221	159.19
237.455	217.19
237.689	170.19
237.922	143.19
238.156	144.19
238.39	113.19
238.624	116.19
238.858	128.19
239.091	115.19
239.325	126.19
239.559	130.19
239.793	128.19
240.027	122.19
240.26	139.19
240.494	154.19
240.728	157.19
240.961	142.19
241.195	143.19
241.429	142.19
241.662	120.19
241.896	142.19
242.13	153.19
242.363	125.19
242.597	125.19
242.83	123.19
243.064	133.19
243.298	126.19
243.531	138.19
243.765	134.19
243.998	136.19
244.232	141.19
244.465	139.19
244.699	148.19
244.932	142.19
245.166	131.19
245.399	148.19
245.633	137.19
245.866	146.19
246.099	143.19
246.333	146.19
246.566	139.19
246.8	139.19
247.033	137.19
247.266	155.19
247.5	158.19
247.733	156.19
247.966	162.19
248.2	171.19
248.433	171.19
248.666	173.19
248.899	163.19
249.133	182.19
249.366	192.19
249.599	182.19
249.832	163.19
250.066	164.19
250.299	161.19
250.532	182.19
250.765	179.19
250.998	215.19
251.231	206.19
251.465	211.19
251.698	194.19
251.931	187.19
252.164	198.19
252.397	173.19
252.63	176.19
252.863	197.19
253.096	198.19
253.329	204.19
253.562	205.19
253.795	196.19
254.028	189.19
254.261	203.19
254.494	197.19
254.727	231.19
254.96	248.19
255.193	242.19
255.426	219.19
255.659	192.19
255.892	206.19
256.124	194.19
256.357	210.19
256.59	204.19
256.823	190.19
257.056	185.19
257.289	190.19
257.521	192.19
257.754	205.19
257.987	196.19
258.22	197.19
258.452	193.19
258.685	199.19
258.918	198.19
259.151	196.19
259.383	211.19
259.616	191.19
259.849	225.19
260.081	216.19
260.314	231.19
260.547	257.19
260.779	220.19
261.012	221.19
261.244	213.19
261.477	198.19
261.71	211.19
261.942	211.19
262.175	242.19
262.407	221.19
262.64	215.19
262.872	220.19
263.105	199.19
263.337	221.19
263.57	206.19
263.802	196.19
264.035	196.19
264.267	211.19
264.499	210.19
264.732	205.19
264.964	211.19
265.197	202.19
265.429	216.19
265.661	192.19
265.894	219.19
266.126	215.19
266.358	219.19
266.591	224.19
266.823	216.19
267.055	209.19
267.287	225.19
267.52	216.19
267.752	209.19
267.984	224.19
268.216	200.19
268.448	212.19
268.681	235.19
268.913	242.19
269.145	233.19
269.377	262.19
269.609	256.19
269.841	249.19
270.073	250.19
270.306	278.19
270.538	296.19
270.77	308.19
271.002	267.19
271.234	264.19
271.466	277.19
271.698	281.19
271.93	307.19
272.162	302.19
272.394	298.19
272.626	275.19
272.858	270.19
273.09	242.19
273.322	258.19
273.553	260.19
273.785	255.19
274.017	241.19
274.249	239.19
274.481	262.19
274.713	252.19
274.945	254.19
275.176	253.19
275.408	275.19
275.64	264.19
275.872	253.19
276.104	270.19
276.335	262.19
276.567	252.19
276.799	285.19
277.031	300.19
277.262	310.19
277.494	309.19
277.726	274.19
277.957	265.19
278.189	267.19
278.421	262.19
278.652	267.19
278.884	274.19
279.115	286.19
279.347	271.19
279.579	311.19
279.81	371.19
280.042	333.19
280.273	316.19
280.505	318.19
280.736	307.19
280.968	276.19
281.199	273.19
281.431	268.19
281.662	275.19
281.894	267.19
282.125	270.19
282.356	282.19
282.588	308.19
282.819	320.19
283.051	280.19
283.282	264.19
283.513	276.19
283.745	276.19
283.976	260.19
284.207	271.19
284.439	275.19
284.67	289.19
284.901	271.19
285.132	268.19
285.364	294.19
285.595	288.19
285.826	283.19
286.057	256.19
286.288	276.19
286.52	268.19
286.751	299.19
286.982	284.19
287.213	277.19
287.444	263.19
287.675	281.19
287.906	307.19
288.138	308.19
288.369	324.19
288.6	317.19
288.831	308.19
289.062	283.19
289.293	291.19
289.524	304.19
289.755	288.19
289.986	284.19
290.217	282.19
290.448	289.19
290.679	286.19
290.91	290.19
291.141	292.19
291.371	293.19
291.602	286.19
291.833	289.19
292.064	286.19
292.295	276.19
292.526	284.19
292.757	262.19
292.987	291.19
293.218	282.19
293.449	280.19
293.68	294.19
293.91	291.19
294.141	295.19
294.372	290.19
294.603	297.19
294.833	305.19
295.064	294.19
295.295	288.19
295.525	291.19
295.756	282.19
295.987	305.19
296.217	344.19
296.448	353.19
296.679	320.19
296.909	305.19
297.14	308.19
297.37	316.19
297.601	311.19
297.831	304.19
298.062	305.19
298.292	281.19
298.523	292.19
298.753	308.19
298.984	294.19
299.214	335.19
299.445	318.19
299.675	327.19
299.905	321.19
300.136	324.19
300.366	317.19
300.597	335.19
300.827	322.19
301.057	314.19
301.288	336.19
301.518	332.19
301.748	342.19
301.979	334.19
302.209	331.19
302.439	320.19
302.669	317.19
302.9	320.19
303.13	332.19
303.36	335.19
303.59	359.19
303.82	356.19
304.051	346.19
304.281	328.19
304.511	318.19
304.741	346.19
304.971	317.19
305.201	346.19
305.431	350.19
305.661	354.19
305.891	348.19
306.121	346.19
306.352	363.19
306.582	335.19
306.812	320.19
307.042	325.19
307.272	339.19
307.502	348.19
307.731	347.19
307.961	345.19
308.191	333.19
308.421	356.19
308.651	343.19
308.881	350.19
309.111	359.19
309.341	356.19
309.571	354.19
309.8	388.19
310.03	390.19
310.26	404.19
310.49	378.19
310.72	394.19
310.949	398.19
311.179	407.19
311.409	391.19
311.639	365.19
311.868	373.19
312.098	388.19
312.328	382.19
312.557	404.19
312.787	425.19
313.017	422.19
313.246	401.19
313.476	365.19
313.706	405.19
313.935	400.19
314.165	386.19
314.394	422.19
314.624	401.19
314.853	384.19
315.083	404.19
315.312	396.19
315.542	379.19
315.771	384.19
316.001	402.19
316.23	405.19
316.46	380.19
316.689	390.19
316.919	381.19
317.148	398.19
317.377	397.19
317.607	405.19
317.836	418.19
318.065	426.19
318.295	429.19
318.524	421.19
318.753	408.19
318.983	384.19
319.212	386.19
319.441	403.19
319.67	412.19
319.9	405.19
320.129	390.19
320.358	387.19
320.587	389.19
320.816	399.19
321.046	406.19
321.275	409.19
321.504	404.19
321.733	417.19
321.962	442.19
322.191	429.19
322.42	457.19
322.649	466.19
322.878	458.19
323.108	461.19
323.337	497.19
323.566	530.19
323.795	581.19
324.024	614.19
324.253	716.19
324.482	1041.19
324.71	1765.19
324.939	2665.19
325.168	2228.19
325.397	1056.19
325.626	678.19
325.855	579.19
326.084	522.19
326.313	509.19
326.542	538.19
326.77	578.19
326.999	682.19
327.228	1029.19
327.457	1581.19
327.686	1997.19
327.914	1235.19
328.143	776.19
328.372	642.19
328.6	644.19
328.829	570.19
329.058	602.19
329.287	606.19
329.515	552.19
329.744	510.19
329.972	531.19
330.201	550.19
330.43	587.19
330.658	593.19
330.887	627.19
331.115	623.19
331.344	554.19
331.572	524.19
331.801	513.19
332.03	507.19
332.258	482.19
332.486	462.19
332.715	445.19
332.943	473.19
333.172	466.19
333.4	490.19
333.629	489.19
333.857	510.19
334.085	508.19
334.314	538.19
334.542	532.19
334.771	551.19
334.999	525.19
335.227	506.19
335.455	462.19
335.684	468.19
335.912	483.19
336.14	462.19
336.369	452.19
336.597	474.19
336.825	481.19
337.053	471.19
337.281	458.19
337.51	460.19
337.738	439.19
337.966	449.19
338.194	462.19
338.422	470.19
338.65	462.19
338.878	457.19
339.106	439.19
339.334	449.19
339.562	464.19
339.79	421.19
340.018	426.19
340.246	445.19
340.474	449.19
340.702	468.19
340.93	430.19
341.158	446.19
341.386	432.19
341.614	451.19
341.842	451.19
342.07	440.19
342.298	436.19
342.526	424.19
342.754	430.19
342.981	425.19
343.209	413.19
343.437	428.19
343.665	445.19
343.893	460.19
344.12	468.19
344.348	471.19
344.576	453.19
344.804	444.19
345.031	460.19
345.259	476.19
345.487	449.19
345.714	443.19
345.942	434.19
346.17	448.19
346.397	438.19
346.625	422.19
346.853	435.19
347.08	428.19
347.308	449.19
347.535	449.19
347.763	422.19
347.99	429.19
348.218	459.19
348.445	460.19
348.673	449.19
348.9	435.19
349.128	426.19
349.355	402.19
349.583	401.19
349.81	421.19
350.037	421.19
350.265	424.19
350.492	417.19
350.72	433.19
350.947	413.19
351.174	414.19
351.402	429.19
351.629	435.19
351.856	438.19
352.083	438.19
352.311	470.19
352.538	460.19
352.765	442.19
352.992	456.19
353.22	435.19
353.447	452.19
353.674	447.19
353.901	406.19
354.128	412.19
354.355	406.19
354.583	411.19
354.81	418.19
355.037	424.19
355.264	409.19
355.491	419.19
355.718	396.19
355.945	392.19
356.172	399.19
356.399	393.19
356.626	417.19
356.853	408.19
357.08	402.19
357.307	379.19
357.534	412.19
357.761	413.19
357.988	417.19
358.215	416.19
358.441	417.19
358.668	415.19
358.895	425.19
359.122	404.19
359.349	414.19
359.576	454.19
359.802	454.19
360.029	494.19
360.256	496.19
360.483	508.19
360.709	455.19
360.936	442.19
361.163	451.19
361.39	449.19
361.616	451.19
361.843	441.19
362.07	445.19
362.296	447.19
362.523	459.19
362.749	446.19
362.976	443.19
363.203	449.19
363.429	437.19
363.656	399.19
363.882	411.19
364.109	424.19
364.335	413.19
364.562	418.19
364.788	403.19
365.015	429.19
365.241	436.19
365.468	419.19
365.694	432.19
365.92	402.19
366.147	412.19
366.373	417.19
366.599	413.19
366.826	401.19
367.052	405.19
367.278	430.19
367.505	414.19
367.731	435.19
367.957	434.19
368.184	400.19
368.41	410.19
368.636	456.19
368.862	449.19
369.089	428.19
369.315	422.19
369.541	426.19
369.767	418.19
369.993	438.19
370.219	441.19
370.445	425.19
370.672	426.19
370.898	425.19
371.124	428.19
371.35	450.19
371.576	427.19
371.802	428.19
372.028	415.19
372.254	443.19
372.48	440.19
372.706	419.19
372.932	435.19
373.158	418.19
373.384	438.19
373.61	440.19
373.835	438.19
374.061	445.19
374.287	443.19
374.513	451.19
374.739	437.19
374.965	457.19
375.191	470.19
375.416	435.19
375.642	427.19
375.868	438.19
376.094	429.19
376.319	420.19
376.545	424.19
376.771	440.19
376.997	441.19
377.222	421.19
377.448	426.19
377.674	423.19
377.899	422.19
378.125	410.19
378.35	421.19
378.576	423.19
378.802	428.19
379.027	426.19
379.253	418.19
379.478	422.19
379.704	428.19
379.929	418.19
380.155	421.19
380.38	426.19
380.606	440.19
380.831	433.19
381.057	429.19
381.282	446.19
381.507	457.19
381.733	441.19
381.958	465.19
382.184	459.19
382.409	436.19
382.634	471.19
382.86	466.19
383.085	462.19
383.31	462.19
383.535	472.19
383.761	454.19
383.986	475.19
384.211	476.19
384.436	488.19
384.662	488.19
384.887	483.19
385.112	491.19
385.337	499.19
385.562	517.19
385.787	498.19
386.013	518.19
386.238	520.19
386.463	498.19
386.688	521.19
386.913	511.19
387.138	484.19
387.363	514.19
387.588	477.19
387.813	476.19
388.038	501.19
388.263	491.19
388.488	512.19
388.713	484.19
388.938	486.19
389.163	477.19
389.387	473.19
389.612	480.19
389.837	476.19
390.062	462.19
390.287	492.19
390.512	452.19
390.736	471.19
390.961	486.19
391.186	480.19
391.411	484.19
391.636	501.19
391.86	522.19
392.085	503.19
392.31	508.19
392.534	519.19
392.759	532.19
392.984	568.19
393.208	700.19
393.433	982.19
393.658	1104.19
393.882	690.19
394.107	546.19
394.331	530.19
394.556	525.19
394.78	518.19
395.005	505.19
395.229	516.19
395.454	504.19
395.678	531.19
395.903	540.19
396.127	583.19
396.352	582.19
396.576	614.19
396.801	697.19
397.025	884.19
397.249	736.19
397.474	566.19
397.698	549.19
397.922	554.19
398.147	568.19
398.371	553.19
398.595	559.19
398.82	558.19
399.044	573.19
399.268	599.19
399.492	644.19
399.717	678.19
399.941	685.19
400.165	716.19
400.389	685.19
400.613	661.19
400.837	601.19
401.062	598.19
401.286	584.19
401.51	570.19
401.734	573.19
401.958	587.19
402.182	584.19
402.406	599.19
402.63	600.19
402.854	584.19
403.078	588.19
403.302	581.19
403.526	600.19
403.75	602.19
403.974	608.19
404.198	603.19
404.422	609.19
404.645	591.19
404.869	598.19
405.093	635.19
405.317	688.19
405.541	690.19
405.765	655.19
405.988	627.19
406.212	635.19
406.436	656.19
406.66	692.19
406.883	657.19
407.107	660.19
407.331	708.19
407.555	756.19
407.778	772.19
408.002	709.19
408.226	672.19
408.449	671.19
408.673	662.19
408.896	684.19
409.12	713.19
409.344	694.19
409.567	638.19
409.791	616.19
410.014	591.19
410.238	602.19
410.461	615.19
410.685	623.19
410.908	632.19
411.132	676.19
411.355	697.19
411.578	656.19
411.802	641.19
412.025	584.19
412.249	602.19
412.472	592.19
412.695	642.19
412.919	627.19
413.142	608.19
413.365	598.19
413.589	593.19
413.812	577.19
414.035	579.19
414.258	586.19
414.482	592.19
414.705	581.19
414.928	588.19
415.151	604.19
415.374	590.19
415.597	565.19
415.821	555.19
416.044	574.19
416.267	580.19
416.49	557.19
416.713	538.19
416.936	584.19
417.159	560.19
417.382	566.19
417.605	595.19
417.828	563.19
418.051	585.19
418.274	614.19
418.497	568.19
418.72	583.19
418.943	565.19
419.166	593.19
419.389	638.19
419.611	622.19
419.834	628.19
420.057	606.19
420.28	576.19
420.503	582.19
420.726	594.19
420.948	604.19
421.171	650.19
421.394	688.19
421.617	625.19
421.839	602.19
422.062	571.19
422.285	621.19
422.507	675.19
422.73	784.19
422.953	840.19
423.175	654.19
423.398	632.19
423.621	617.19
423.843	630.19
424.066	638.19
424.288	637.19
424.511	643.19
424.733	696.19
424.956	755.19
425.178	734.19
425.401	749.19
425.623	724.19
425.846	668.19
426.068	627.19
426.291	587.19
426.513	612.19
426.735	651.19
426.958	644.19
427.18	715.19
427.402	854.19
427.625	969.19
427.847	896.19
428.069	744.19
428.292	678.19
428.514	634.19
428.736	599.19
428.958	598.19
429.181	574.19
429.403	598.19
429.625	601.19
429.847	648.19
430.069	672.19
430.292	690.19
430.514	614.19
430.736	596.19
430.958	580.19
431.18	550.19
431.402	572.19
431.624	545.19
431.846	555.19
432.068	553.19
432.29	567.19
432.512	569.19
432.734	553.19
432.956	560.19
433.178	566.19
433.4	556.19
433.622	565.19
433.844	576.19
434.066	573.19
434.287	570.19
434.509	556.19
434.731	586.19
434.953	577.19
435.175	582.19
435.397	609.19
435.618	611.19
435.84	653.19
436.062	757.19
436.284	809.19
436.505	681.19
436.727	644.19
436.949	590.19
437.17	580.19
437.392	585.19
437.614	597.19
437.835	613.19
438.057	712.19
438.278	824.19
438.5	786.19
438.721	864.19
438.943	835.19
439.165	674.19
439.386	642.19
439.608	630.19
439.829	605.19
440.05	667.19
440.272	729.19
440.493	650.19
440.715	594.19
440.936	602.19
441.158	589.19
441.379	588.19
441.6	574.19
441.822	619.19
442.043	670.19
442.264	754.19
442.486	766.19
442.707	681.19
442.928	631.19
443.149	652.19
443.371	678.19
443.592	733.19
443.813	779.19
444.034	862.19
444.255	726.19
444.476	662.19
444.698	648.19
444.919	646.19
445.14	772.19
445.361	690.19
445.582	691.19
445.803	741.19
446.024	835.19
446.245	830.19
446.466	775.19
446.687	663.19
446.908	608.19
447.129	571.19
447.35	587.19
447.571	581.19
447.792	577.19
448.013	580.19
448.234	588.19
448.455	617.19
448.675	744.19
448.896	852.19
449.117	723.19
449.338	676.19
449.559	790.19
449.779	897.19
450	735.19
450.221	633.19
450.442	582.19
450.662	548.19
450.883	573.19
451.104	596.19
451.324	603.19
451.545	574.19
451.766	516.19
451.986	515.19
452.207	513.19
452.428	520.19
452.648	536.19
452.869	508.19
453.089	541.19
453.31	546.19
453.53	548.19
453.751	552.19
453.971	508.19
454.192	529.19
454.412	552.19
454.633	513.19
454.853	520.19
455.073	524.19
455.294	536.19
455.514	592.19
455.734	611.19
455.955	553.19
456.175	492.19
456.395	504.19
456.616	500.19
456.836	502.19
457.056	492.19
457.276	483.19
457.497	504.19
457.717	518.19
457.937	518.19
458.157	490.19
458.377	501.19
458.598	516.19
458.818	628.19
459.038	678.19
459.258	706.19
459.478	632.19
459.698	553.19
459.918	592.19
460.138	597.19
460.358	592.19
460.578	580.19
460.798	586.19
461.018	595.19
461.238	594.19
461.458	600.19
461.678	570.19
461.898	580.19
462.118	591.19
462.338	598.19
462.558	602.19
462.777	636.19
462.997	645.19
463.217	632.19
463.437	661.19
463.657	666.19
463.876	640.19
464.096	648.19
464.316	626.19
464.536	627.19
464.755	657.19
464.975	655.19
465.195	707.19
465.414	801.19
465.634	676.19
465.854	605.19
466.073	566.19
466.293	567.19
466.512	549.19
466.732	566.19
466.951	553.19
467.171	553.19
467.391	558.19
467.61	547.19
467.829	574.19
468.049	562.19
468.268	582.19
468.488	549.19
468.707	528.19
468.927	563.19
469.146	534.19
469.365	547.19
469.585	536.19
469.804	524.19
470.023	575.19
470.243	545.19
470.462	552.19
470.681	610.19
470.901	576.19
471.12	577.19
471.339	562.19
471.558	576.19
471.777	541.19
471.997	564.19
472.216	544.19
472.435	579.19
472.654	575.19
472.873	547.19
473.092	544.19
473.311	532.19
473.53	557.19
473.749	539.19
473.968	597.19
474.187	675.19
474.406	690.19
474.625	605.19
474.844	564.19
475.063	558.19
475.282	531.19
475.501	547.19
475.72	559.19
475.939	548.19
476.158	544.19
476.377	561.19
476.596	567.19
476.814	567.19
477.033	592.19
477.252	581.19
477.471	584.19
477.69	580.19
477.908	619.19
478.127	603.19
478.346	612.19
478.564	634.19
478.783	642.19
479.002	657.19
479.22	638.19
479.439	647.19
479.658	661.19
479.876	682.19
480.095	678.19
480.313	684.19
480.532	708.19
480.751	698.19
480.969	683.19
481.188	709.19
481.406	759.19
481.624	710.19
481.843	682.19
482.061	652.19
482.28	672.19
482.498	635.19
482.717	646.19
482.935	662.19
483.153	633.19
483.372	662.19
483.59	654.19
483.808	644.19
484.027	629.19
484.245	668.19
484.463	682.19
484.681	683.19
484.9	652.19
485.118	679.19
485.336	663.19
485.554	698.19
485.772	692.19
485.99	670.19
486.209	674.19
486.427	682.19
486.645	709.19
486.863	699.19
487.081	711.19
487.299	690.19
487.517	682.19
487.735	690.19
487.953	709.19
488.171	695.19
488.389	694.19
488.607	681.19
488.825	690.19
489.043	693.19
489.261	704.19
489.479	709.19
489.696	710.19
489.914	703.19
490.132	718.19
490.35	734.19
490.568	717.19
490.786	731.19
491.003	741.19
491.221	721.19
491.439	787.19
491.657	758.19
491.874	770.19
492.092	753.19
492.31	772.19
492.527	766.19
492.745	772.19
492.963	775.19
493.18	771.19
493.398	775.19
493.615	795.19
493.833	801.19
494.05	795.19
494.268	791.19
494.485	795.19
494.703	770.19
494.92	752.19
495.138	775.19
495.355	816.19
495.573	804.19
495.79	829.19
496.008	836.19
496.225	821.19
496.442	803.19
496.66	822.19
496.877	818.19
497.094	796.19
497.312	824.19
497.529	852.19
497.746	861.19
497.963	861.19
498.181	919.19
498.398	910.19
498.615	934.19
498.832	953.19
499.049	970.19
499.267	1020.19
499.484	1047.19
499.701	1078.19
499.918	1106.19
500.135	1168.19
500.352	1273.19
500.569	1298.19
500.786	1280.19
501.003	1243.19
501.22	1163.19
501.437	1156.19
501.654	1102.19
