Data from 1979.PennyLincolnUp.Lamp.En5.5.200Scan.071719.P1_HRD10591_16-20-21-864.txt Node
Date: Thu Jul 18 16:20:21 EDT 2019
User: cochatt
Spectrometer: HR+D1059
Trigger mode: 1
Integration Time (sec): 1.000000E-1
Scans to average: 1
Electric dark correction enabled: true
Nonlinearity correction enabled: false
Boxcar width: 0
XAxis mode: Wavelengths
Number of Pixels in Spectrum: 2048
>>>>>Begin Spectral Data<<<<<
223.165	-19.94
223.4	-19.94
223.635	-19.94
223.869	-20.94
224.104	-21.94
224.338	-25.94
224.573	-7.94
224.808	-19.94
225.042	-7.94
225.277	-2.94
225.511	6.06
225.746	16.06
225.98	8.06
226.215	9.06
226.449	11.06
226.683	28.06
226.918	24.06
227.152	25.06
227.387	36.06
227.621	37.06
227.856	32.06
228.09	45.06
228.324	49.06
228.559	33.06
228.793	71.06
229.027	96.06
229.262	99.06
229.496	107.06
229.73	115.06
229.964	150.06
230.199	131.06
230.433	111.06
230.667	115.06
230.901	124.06
231.136	111.06
231.37	101.06
231.604	115.06
231.838	105.06
232.072	103.06
232.306	117.06
232.541	118.06
232.775	124.06
233.009	113.06
233.243	101.06
233.477	128.06
233.711	111.06
233.945	116.06
234.179	103.06
234.413	111.06
234.647	123.06
234.881	108.06
235.115	123.06
235.349	127.06
235.583	113.06
235.817	132.06
236.051	116.06
236.285	123.06
236.519	113.06
236.753	127.06
236.987	142.06
237.221	175.06
237.455	216.06
237.689	191.06
237.922	158.06
238.156	129.06
238.39	131.06
238.624	123.06
238.858	119.06
239.091	122.06
239.325	118.06
239.559	113.06
239.793	117.06
240.027	130.06
240.26	136.06
240.494	141.06
240.728	161.06
240.961	147.06
241.195	138.06
241.429	139.06
241.662	128.06
241.896	127.06
242.13	131.06
242.363	137.06
242.597	131.06
242.83	141.06
243.064	122.06
243.298	132.06
243.531	127.06
243.765	141.06
243.998	140.06
244.232	136.06
244.465	135.06
244.699	165.06
244.932	143.06
245.166	150.06
245.399	160.06
245.633	156.06
245.866	137.06
246.099	136.06
246.333	149.06
246.566	143.06
246.8	149.06
247.033	147.06
247.266	141.06
247.5	143.06
247.733	149.06
247.966	165.06
248.2	160.06
248.433	172.06
248.666	151.06
248.899	166.06
249.133	181.06
249.366	187.06
249.599	203.06
249.832	169.06
250.066	172.06
250.299	165.06
250.532	183.06
250.765	189.06
250.998	216.06
251.231	214.06
251.465	207.06
251.698	199.06
251.931	181.06
252.164	200.06
252.397	179.06
252.63	187.06
252.863	192.06
253.096	181.06
253.329	210.06
253.562	207.06
253.795	214.06
254.028	191.06
254.261	200.06
254.494	204.06
254.727	241.06
254.96	262.06
255.193	235.06
255.426	245.06
255.659	218.06
255.892	204.06
256.124	219.06
256.357	237.06
256.59	209.06
256.823	225.06
257.056	203.06
257.289	204.06
257.521	203.06
257.754	203.06
257.987	198.06
258.22	199.06
258.452	210.06
258.685	203.06
258.918	196.06
259.151	206.06
259.383	206.06
259.616	197.06
259.849	217.06
260.081	217.06
260.314	252.06
260.547	251.06
260.779	228.06
261.012	232.06
261.244	208.06
261.477	224.06
261.71	209.06
261.942	207.06
262.175	236.06
262.407	227.06
262.64	202.06
262.872	196.06
263.105	212.06
263.337	209.06
263.57	218.06
263.802	210.06
264.035	219.06
264.267	217.06
264.499	201.06
264.732	203.06
264.964	209.06
265.197	203.06
265.429	208.06
265.661	200.06
265.894	213.06
266.126	223.06
266.358	225.06
266.591	209.06
266.823	225.06
267.055	229.06
267.287	232.06
267.52	239.06
267.752	220.06
267.984	226.06
268.216	225.06
268.448	227.06
268.681	243.06
268.913	232.06
269.145	255.06
269.377	274.06
269.609	277.06
269.841	239.06
270.073	246.06
270.306	267.06
270.538	305.06
270.77	305.06
271.002	283.06
271.234	284.06
271.466	300.06
271.698	296.06
271.93	307.06
272.162	309.06
272.394	292.06
272.626	304.06
272.858	275.06
273.09	270.06
273.322	262.06
273.553	269.06
273.785	259.06
274.017	262.06
274.249	263.06
274.481	247.06
274.713	269.06
274.945	267.06
275.176	248.06
275.408	249.06
275.64	232.06
275.872	253.06
276.104	247.06
276.335	281.06
276.567	280.06
276.799	275.06
277.031	305.06
277.262	300.06
277.494	295.06
277.726	295.06
277.957	274.06
278.189	260.06
278.421	251.06
278.652	275.06
278.884	248.06
279.115	261.06
279.347	257.06
279.579	257.06
279.81	263.06
280.042	283.06
280.273	269.06
280.505	249.06
280.736	268.06
280.968	260.06
281.199	264.06
281.431	251.06
281.662	259.06
281.894	272.06
282.125	252.06
282.356	295.06
282.588	289.06
282.819	307.06
283.051	262.06
283.282	273.06
283.513	276.06
283.745	266.06
283.976	271.06
284.207	257.06
284.439	279.06
284.67	272.06
284.901	270.06
285.132	265.06
285.364	275.06
285.595	278.06
285.826	293.06
286.057	289.06
286.288	285.06
286.52	271.06
286.751	268.06
286.982	289.06
287.213	281.06
287.444	279.06
287.675	281.06
287.906	293.06
288.138	306.06
288.369	291.06
288.6	300.06
288.831	278.06
289.062	295.06
289.293	277.06
289.524	267.06
289.755	286.06
289.986	283.06
290.217	303.06
290.448	277.06
290.679	300.06
290.91	281.06
291.141	309.06
291.371	288.06
291.602	278.06
291.833	284.06
292.064	289.06
292.295	281.06
292.526	268.06
292.757	288.06
292.987	296.06
293.218	289.06
293.449	282.06
293.68	317.06
293.91	282.06
294.141	287.06
294.372	270.06
294.603	290.06
294.833	289.06
295.064	289.06
295.295	282.06
295.525	289.06
295.756	296.06
295.987	319.06
296.217	315.06
296.448	333.06
296.679	316.06
296.909	280.06
297.14	301.06
297.37	315.06
297.601	301.06
297.831	291.06
298.062	288.06
298.292	308.06
298.523	312.06
298.753	298.06
298.984	310.06
299.214	295.06
299.445	296.06
299.675	303.06
299.905	332.06
300.136	295.06
300.366	319.06
300.597	315.06
300.827	313.06
301.057	327.06
301.288	349.06
301.518	342.06
301.748	322.06
301.979	320.06
302.209	344.06
302.439	332.06
302.669	350.06
302.9	324.06
303.13	315.06
303.36	317.06
303.59	321.06
303.82	309.06
304.051	328.06
304.281	331.06
304.511	327.06
304.741	313.06
304.971	334.06
305.201	332.06
305.431	338.06
305.661	324.06
305.891	332.06
306.121	329.06
306.352	331.06
306.582	346.06
306.812	336.06
307.042	350.06
307.272	341.06
307.502	351.06
307.731	353.06
307.961	338.06
308.191	339.06
308.421	334.06
308.651	344.06
308.881	348.06
309.111	344.06
309.341	355.06
309.571	362.06
309.8	365.06
310.03	371.06
310.26	369.06
310.49	362.06
310.72	383.06
310.949	391.06
311.179	395.06
311.409	382.06
311.639	372.06
311.868	365.06
312.098	354.06
312.328	355.06
312.557	391.06
312.787	407.06
313.017	398.06
313.246	379.06
313.476	378.06
313.706	351.06
313.935	377.06
314.165	393.06
314.394	404.06
314.624	383.06
314.853	369.06
315.083	389.06
315.312	369.06
315.542	372.06
315.771	360.06
316.001	376.06
316.23	379.06
316.46	369.06
316.689	387.06
316.919	378.06
317.148	380.06
317.377	384.06
317.607	381.06
317.836	375.06
318.065	370.06
318.295	375.06
318.524	370.06
318.753	373.06
318.983	375.06
319.212	378.06
319.441	381.06
319.67	414.06
319.9	381.06
320.129	381.06
320.358	379.06
320.587	387.06
320.816	413.06
321.046	387.06
321.275	401.06
321.504	386.06
321.733	401.06
321.962	387.06
322.191	419.06
322.42	414.06
322.649	434.06
322.878	441.06
323.108	457.06
323.337	483.06
323.566	505.06
323.795	495.06
324.024	572.06
324.253	645.06
324.482	915.06
324.71	1465.06
324.939	2191.06
325.168	1852.06
325.397	951.06
325.626	617.06
325.855	548.06
326.084	506.06
326.313	519.06
326.542	499.06
326.77	546.06
326.999	609.06
327.228	852.06
327.457	1337.06
327.686	1666.06
327.914	1065.06
328.143	709.06
328.372	637.06
328.6	586.06
328.829	536.06
329.058	567.06
329.287	557.06
329.515	540.06
329.744	505.06
329.972	479.06
330.201	526.06
330.43	565.06
330.658	564.06
330.887	600.06
331.115	585.06
331.344	517.06
331.572	503.06
331.801	501.06
332.03	481.06
332.258	465.06
332.486	434.06
332.715	448.06
332.943	461.06
333.172	454.06
333.4	481.06
333.629	492.06
333.857	499.06
334.085	503.06
334.314	507.06
334.542	549.06
334.771	581.06
334.999	513.06
335.227	485.06
335.455	466.06
335.684	461.06
335.912	464.06
336.14	453.06
336.369	477.06
336.597	473.06
336.825	473.06
337.053	466.06
337.281	453.06
337.51	468.06
337.738	450.06
337.966	460.06
338.194	428.06
338.422	460.06
338.65	419.06
338.878	435.06
339.106	442.06
339.334	441.06
339.562	426.06
339.79	426.06
340.018	441.06
340.246	454.06
340.474	450.06
340.702	447.06
340.93	458.06
341.158	436.06
341.386	443.06
341.614	453.06
341.842	445.06
342.07	448.06
342.298	427.06
342.526	424.06
342.754	435.06
342.981	405.06
343.209	433.06
343.437	421.06
343.665	449.06
343.893	454.06
344.12	449.06
344.348	461.06
344.576	453.06
344.804	457.06
345.031	460.06
345.259	478.06
345.487	473.06
345.714	444.06
345.942	443.06
346.17	455.06
346.397	428.06
346.625	426.06
346.853	419.06
347.08	421.06
347.308	428.06
347.535	438.06
347.763	421.06
347.99	445.06
348.218	439.06
348.445	449.06
348.673	439.06
348.9	440.06
349.128	422.06
349.355	418.06
349.583	399.06
349.81	397.06
350.037	408.06
350.265	407.06
350.492	400.06
350.72	401.06
350.947	404.06
351.174	420.06
351.402	398.06
351.629	421.06
351.856	438.06
352.083	431.06
352.311	419.06
352.538	425.06
352.765	443.06
352.992	436.06
353.22	400.06
353.447	418.06
353.674	404.06
353.901	423.06
354.128	394.06
354.355	397.06
354.583	416.06
354.81	403.06
355.037	395.06
355.264	393.06
355.491	394.06
355.718	407.06
355.945	368.06
356.172	401.06
356.399	409.06
356.626	410.06
356.853	418.06
357.08	372.06
357.307	411.06
357.534	408.06
357.761	400.06
357.988	406.06
358.215	396.06
358.441	426.06
358.668	393.06
358.895	400.06
359.122	411.06
359.349	401.06
359.576	405.06
359.802	436.06
360.029	468.06
360.256	483.06
360.483	466.06
360.709	428.06
360.936	426.06
361.163	416.06
361.39	425.06
361.616	439.06
361.843	440.06
362.07	427.06
362.296	421.06
362.523	426.06
362.749	420.06
362.976	396.06
363.203	420.06
363.429	419.06
363.656	399.06
363.882	408.06
364.109	415.06
364.335	393.06
364.562	418.06
364.788	403.06
365.015	413.06
365.241	408.06
365.468	408.06
365.694	428.06
365.92	411.06
366.147	414.06
366.373	415.06
366.599	402.06
366.826	407.06
367.052	398.06
367.278	423.06
367.505	408.06
367.731	419.06
367.957	436.06
368.184	419.06
368.41	427.06
368.636	410.06
368.862	420.06
369.089	427.06
369.315	423.06
369.541	405.06
369.767	398.06
369.993	420.06
370.219	419.06
370.445	422.06
370.672	409.06
370.898	400.06
371.124	427.06
371.35	440.06
371.576	413.06
371.802	413.06
372.028	434.06
372.254	413.06
372.48	414.06
372.706	417.06
372.932	433.06
373.158	422.06
373.384	415.06
373.61	417.06
373.835	409.06
374.061	409.06
374.287	433.06
374.513	438.06
374.739	420.06
374.965	444.06
375.191	444.06
375.416	447.06
375.642	429.06
375.868	439.06
376.094	428.06
376.319	415.06
376.545	437.06
376.771	416.06
376.997	421.06
377.222	424.06
377.448	398.06
377.674	420.06
377.899	427.06
378.125	412.06
378.35	418.06
378.576	421.06
378.802	425.06
379.027	410.06
379.253	408.06
379.478	409.06
379.704	406.06
379.929	412.06
380.155	410.06
380.38	417.06
380.606	422.06
380.831	418.06
381.057	409.06
381.282	427.06
381.507	415.06
381.733	432.06
381.958	423.06
382.184	427.06
382.409	435.06
382.634	443.06
382.86	425.06
383.085	430.06
383.31	443.06
383.535	445.06
383.761	436.06
383.986	458.06
384.211	446.06
384.436	452.06
384.662	469.06
384.887	469.06
385.112	464.06
385.337	445.06
385.562	475.06
385.787	487.06
386.013	467.06
386.238	479.06
386.463	504.06
386.688	461.06
386.913	461.06
387.138	449.06
387.363	489.06
387.588	464.06
387.813	484.06
388.038	465.06
388.263	490.06
388.488	462.06
388.713	474.06
388.938	461.06
389.163	464.06
389.387	470.06
389.612	474.06
389.837	458.06
390.062	464.06
390.287	470.06
390.512	487.06
390.736	472.06
390.961	456.06
391.186	466.06
391.411	497.06
391.636	485.06
391.86	484.06
392.085	500.06
392.31	495.06
392.534	465.06
392.759	480.06
392.984	476.06
393.208	479.06
393.433	487.06
393.658	487.06
393.882	483.06
394.107	475.06
394.331	488.06
394.556	510.06
394.78	472.06
395.005	491.06
395.229	487.06
395.454	477.06
395.678	500.06
395.903	510.06
396.127	523.06
396.352	547.06
396.576	503.06
396.801	491.06
397.025	489.06
397.249	505.06
397.474	505.06
397.698	552.06
397.922	549.06
398.147	524.06
398.371	537.06
398.595	529.06
398.82	551.06
399.044	576.06
399.268	587.06
399.492	629.06
399.717	678.06
399.941	687.06
400.165	687.06
400.389	679.06
400.613	648.06
400.837	594.06
401.062	587.06
401.286	588.06
401.51	582.06
401.734	571.06
401.958	564.06
402.182	569.06
402.406	580.06
402.63	590.06
402.854	576.06
403.078	588.06
403.302	589.06
403.526	594.06
403.75	585.06
403.974	592.06
404.198	565.06
404.422	602.06
404.645	573.06
404.869	575.06
405.093	648.06
405.317	675.06
405.541	706.06
405.765	649.06
405.988	620.06
406.212	613.06
406.436	635.06
406.66	641.06
406.883	640.06
407.107	657.06
407.331	690.06
407.555	764.06
407.778	765.06
408.002	706.06
408.226	670.06
408.449	639.06
408.673	666.06
408.896	693.06
409.12	705.06
409.344	684.06
409.567	612.06
409.791	600.06
410.014	577.06
410.238	592.06
410.461	583.06
410.685	615.06
410.908	624.06
411.132	643.06
411.355	677.06
411.578	669.06
411.802	594.06
412.025	614.06
412.249	609.06
412.472	621.06
412.695	631.06
412.919	614.06
413.142	603.06
413.365	590.06
413.589	580.06
413.812	589.06
414.035	556.06
414.258	561.06
414.482	559.06
414.705	572.06
414.928	559.06
415.151	588.06
415.374	578.06
415.597	542.06
415.821	551.06
416.044	563.06
416.267	541.06
416.49	543.06
416.713	565.06
416.936	569.06
417.159	546.06
417.382	575.06
417.605	574.06
417.828	590.06
418.051	576.06
418.274	586.06
418.497	561.06
418.72	577.06
418.943	567.06
419.166	607.06
419.389	607.06
419.611	604.06
419.834	594.06
420.057	597.06
420.28	579.06
420.503	576.06
420.726	591.06
420.948	595.06
421.171	642.06
421.394	663.06
421.617	587.06
421.839	586.06
422.062	583.06
422.285	600.06
422.507	654.06
422.73	754.06
422.953	676.06
423.175	627.06
423.398	588.06
423.621	599.06
423.843	599.06
424.066	629.06
424.288	643.06
424.511	627.06
424.733	685.06
424.956	767.06
425.178	767.06
425.401	752.06
425.623	753.06
425.846	668.06
426.068	621.06
426.291	593.06
426.513	616.06
426.735	620.06
426.958	673.06
427.18	734.06
427.402	851.06
427.625	957.06
427.847	828.06
428.069	723.06
428.292	664.06
428.514	597.06
428.736	608.06
428.958	600.06
429.181	569.06
429.403	561.06
429.625	574.06
429.847	597.06
430.069	680.06
430.292	687.06
430.514	591.06
430.736	571.06
430.958	552.06
431.18	560.06
431.402	550.06
431.624	537.06
431.846	549.06
432.068	552.06
432.29	557.06
432.512	531.06
432.734	582.06
432.956	562.06
433.178	581.06
433.4	564.06
433.622	545.06
433.844	542.06
434.066	537.06
434.287	554.06
434.509	553.06
434.731	569.06
434.953	552.06
435.175	591.06
435.397	603.06
435.618	598.06
435.84	644.06
436.062	762.06
436.284	838.06
436.505	687.06
436.727	637.06
436.949	595.06
437.17	586.06
437.392	547.06
437.614	595.06
437.835	609.06
438.057	706.06
438.278	808.06
438.5	802.06
438.721	889.06
438.943	853.06
439.165	691.06
439.386	644.06
439.608	621.06
439.829	618.06
440.05	651.06
440.272	695.06
440.493	656.06
440.715	609.06
440.936	559.06
441.158	604.06
441.379	577.06
441.6	587.06
441.822	635.06
442.043	673.06
442.264	720.06
442.486	787.06
442.707	652.06
442.928	620.06
443.149	629.06
443.371	665.06
443.592	693.06
443.813	806.06
444.034	848.06
444.255	693.06
444.476	659.06
444.698	645.06
444.919	650.06
445.14	740.06
445.361	690.06
445.582	687.06
445.803	721.06
446.024	828.06
446.245	854.06
446.466	748.06
446.687	647.06
446.908	620.06
447.129	581.06
447.35	555.06
447.571	601.06
447.792	555.06
448.013	572.06
448.234	612.06
448.455	634.06
448.675	761.06
448.896	842.06
449.117	729.06
449.338	694.06
449.559	791.06
449.779	908.06
450	727.06
450.221	599.06
450.442	559.06
450.662	567.06
450.883	547.06
451.104	565.06
451.324	559.06
451.545	547.06
451.766	501.06
451.986	515.06
452.207	523.06
452.428	511.06
452.648	507.06
452.869	513.06
453.089	518.06
453.31	540.06
453.53	517.06
453.751	521.06
453.971	488.06
454.192	539.06
454.412	511.06
454.633	515.06
454.853	500.06
455.073	510.06
455.294	519.06
455.514	576.06
455.734	583.06
455.955	515.06
456.175	499.06
456.395	476.06
456.616	467.06
456.836	495.06
457.056	497.06
457.276	479.06
457.497	486.06
457.717	477.06
457.937	498.06
458.157	483.06
458.377	513.06
458.598	541.06
458.818	589.06
459.038	643.06
459.258	681.06
459.478	593.06
459.698	549.06
459.918	543.06
460.138	553.06
460.358	555.06
460.578	563.06
460.798	571.06
461.018	574.06
461.238	551.06
461.458	553.06
461.678	579.06
461.898	570.06
462.118	575.06
462.338	591.06
462.558	604.06
462.777	610.06
462.997	628.06
463.217	663.06
463.437	662.06
463.657	619.06
463.876	641.06
464.096	608.06
464.316	604.06
464.536	624.06
464.755	614.06
464.975	618.06
465.195	656.06
465.414	741.06
465.634	633.06
465.854	627.06
466.073	563.06
466.293	566.06
466.512	529.06
466.732	540.06
466.951	561.06
467.171	531.06
467.391	543.06
467.61	557.06
467.829	548.06
468.049	559.06
468.268	521.06
468.488	540.06
468.707	529.06
468.927	548.06
469.146	512.06
469.365	519.06
469.585	522.06
469.804	530.06
470.023	573.06
470.243	530.06
470.462	531.06
470.681	582.06
470.901	554.06
471.12	530.06
471.339	555.06
471.558	551.06
471.777	537.06
471.997	524.06
472.216	547.06
472.435	572.06
472.654	569.06
472.873	535.06
473.092	539.06
473.311	538.06
473.53	535.06
473.749	545.06
473.968	571.06
474.187	667.06
474.406	687.06
474.625	579.06
474.844	563.06
475.063	560.06
475.282	546.06
475.501	509.06
475.72	537.06
475.939	546.06
476.158	547.06
476.377	531.06
476.596	573.06
476.814	596.06
477.033	550.06
477.252	574.06
477.471	592.06
477.69	563.06
477.908	575.06
478.127	588.06
478.346	570.06
478.564	600.06
478.783	593.06
479.002	625.06
479.22	635.06
479.439	623.06
479.658	619.06
479.876	663.06
480.095	629.06
480.313	679.06
480.532	683.06
480.751	654.06
480.969	666.06
481.188	735.06
481.406	794.06
481.624	665.06
481.843	633.06
482.061	639.06
482.28	629.06
482.498	647.06
482.717	629.06
482.935	637.06
483.153	611.06
483.372	649.06
483.59	621.06
483.808	638.06
484.027	620.06
484.245	649.06
484.463	623.06
484.681	647.06
484.9	652.06
485.118	646.06
485.336	647.06
485.554	646.06
485.772	645.06
485.99	632.06
486.209	648.06
486.427	648.06
486.645	676.06
486.863	680.06
487.081	685.06
487.299	676.06
487.517	674.06
487.735	662.06
487.953	639.06
488.171	649.06
488.389	680.06
488.607	669.06
488.825	671.06
489.043	654.06
489.261	678.06
489.479	676.06
489.696	698.06
489.914	692.06
490.132	696.06
490.35	699.06
490.568	694.06
490.786	726.06
491.003	716.06
491.221	728.06
491.439	760.06
491.657	732.06
491.874	736.06
492.092	749.06
492.31	784.06
492.527	755.06
492.745	753.06
492.963	783.06
493.18	774.06
493.398	787.06
493.615	815.06
493.833	779.06
494.05	777.06
494.268	778.06
494.485	799.06
494.703	779.06
494.92	779.06
495.138	757.06
495.355	772.06
495.573	755.06
495.79	799.06
496.008	785.06
496.225	806.06
496.442	793.06
496.66	804.06
496.877	806.06
497.094	798.06
497.312	790.06
497.529	834.06
497.746	848.06
497.963	837.06
498.181	863.06
498.398	883.06
498.615	929.06
498.832	949.06
499.049	953.06
499.267	1031.06
499.484	1026.06
499.701	1040.06
499.918	1092.06
500.135	1178.06
500.352	1221.06
500.569	1229.06
500.786	1232.06
501.003	1196.06
501.22	1185.06
501.437	1123.06
501.654	1074.06
501.871	1043.06
