Data from 1979.PennyLincolnUp.Lamp.En5.5.200Scan.071719.P1_HRD10591_16-17-28-863.txt Node
Date: Thu Jul 18 16:17:28 EDT 2019
User: cochatt
Spectrometer: HR+D1059
Trigger mode: 1
Integration Time (sec): 1.000000E-1
Scans to average: 1
Electric dark correction enabled: true
Nonlinearity correction enabled: false
Boxcar width: 0
XAxis mode: Wavelengths
Number of Pixels in Spectrum: 2048
>>>>>Begin Spectral Data<<<<<
223.165	-13.25
223.4	-13.25
223.635	-13.25
223.869	-16.25
224.104	-14.25
224.338	-9.25
224.573	-16.25
224.808	-3.25
225.042	-8.25
225.277	-8.25
225.511	-15.25
225.746	8.75
225.98	-0.25
226.215	20.75
226.449	-4.25
226.683	13.75
226.918	27.75
227.152	37.75
227.387	43.75
227.621	45.75
227.856	50.75
228.09	56.75
228.324	59.75
228.559	60.75
228.793	68.75
229.027	88.75
229.262	93.75
229.496	108.75
229.73	112.75
229.964	122.75
230.199	104.75
230.433	98.75
230.667	104.75
230.901	114.75
231.136	110.75
231.37	120.75
231.604	118.75
231.838	121.75
232.072	101.75
232.306	103.75
232.541	110.75
232.775	119.75
233.009	111.75
233.243	102.75
233.477	111.75
233.711	114.75
233.945	106.75
234.179	127.75
234.413	125.75
234.647	108.75
234.881	111.75
235.115	117.75
235.349	109.75
235.583	104.75
235.817	119.75
236.051	127.75
236.285	117.75
236.519	120.75
236.753	127.75
236.987	126.75
237.221	139.75
237.455	177.75
237.689	143.75
237.922	138.75
238.156	123.75
238.39	129.75
238.624	107.75
238.858	111.75
239.091	121.75
239.325	112.75
239.559	110.75
239.793	104.75
240.027	113.75
240.26	120.75
240.494	133.75
240.728	135.75
240.961	128.75
241.195	120.75
241.429	121.75
241.662	130.75
241.896	121.75
242.13	127.75
242.363	131.75
242.597	121.75
242.83	138.75
243.064	124.75
243.298	137.75
243.531	124.75
243.765	126.75
243.998	135.75
244.232	130.75
244.465	129.75
244.699	134.75
244.932	126.75
245.166	138.75
245.399	118.75
245.633	142.75
245.866	142.75
246.099	149.75
246.333	133.75
246.566	137.75
246.8	143.75
247.033	139.75
247.266	150.75
247.5	151.75
247.733	153.75
247.966	170.75
248.2	151.75
248.433	146.75
248.666	155.75
248.899	176.75
249.133	174.75
249.366	170.75
249.599	168.75
249.832	151.75
250.066	158.75
250.299	142.75
250.532	161.75
250.765	162.75
250.998	181.75
251.231	174.75
251.465	168.75
251.698	178.75
251.931	183.75
252.164	167.75
252.397	168.75
252.63	158.75
252.863	185.75
253.096	179.75
253.329	188.75
253.562	186.75
253.795	167.75
254.028	192.75
254.261	169.75
254.494	180.75
254.727	206.75
254.96	212.75
255.193	210.75
255.426	193.75
255.659	181.75
255.892	170.75
256.124	177.75
256.357	192.75
256.59	178.75
256.823	155.75
257.056	178.75
257.289	182.75
257.521	190.75
257.754	162.75
257.987	187.75
258.22	185.75
258.452	160.75
258.685	178.75
258.918	171.75
259.151	204.75
259.383	185.75
259.616	191.75
259.849	179.75
260.081	192.75
260.314	202.75
260.547	196.75
260.779	206.75
261.012	204.75
261.244	207.75
261.477	203.75
261.71	196.75
261.942	181.75
262.175	193.75
262.407	197.75
262.64	202.75
262.872	198.75
263.105	182.75
263.337	177.75
263.57	184.75
263.802	185.75
264.035	184.75
264.267	182.75
264.499	174.75
264.732	193.75
264.964	191.75
265.197	189.75
265.429	192.75
265.661	192.75
265.894	194.75
266.126	199.75
266.358	193.75
266.591	195.75
266.823	209.75
267.055	192.75
267.287	194.75
267.52	192.75
267.752	185.75
267.984	200.75
268.216	199.75
268.448	199.75
268.681	201.75
268.913	214.75
269.145	210.75
269.377	226.75
269.609	225.75
269.841	207.75
270.073	217.75
270.306	223.75
270.538	234.75
270.77	237.75
271.002	233.75
271.234	232.75
271.466	243.75
271.698	242.75
271.93	239.75
272.162	238.75
272.394	221.75
272.626	250.75
272.858	234.75
273.09	232.75
273.322	218.75
273.553	221.75
273.785	232.75
274.017	231.75
274.249	214.75
274.481	240.75
274.713	238.75
274.945	222.75
275.176	217.75
275.408	207.75
275.64	232.75
275.872	219.75
276.104	217.75
276.335	237.75
276.567	236.75
276.799	231.75
277.031	239.75
277.262	256.75
277.494	245.75
277.726	240.75
277.957	240.75
278.189	236.75
278.421	229.75
278.652	237.75
278.884	238.75
279.115	218.75
279.347	235.75
279.579	239.75
279.81	262.75
280.042	271.75
280.273	237.75
280.505	239.75
280.736	242.75
280.968	256.75
281.199	230.75
281.431	221.75
281.662	220.75
281.894	227.75
282.125	230.75
282.356	250.75
282.588	247.75
282.819	236.75
283.051	228.75
283.282	247.75
283.513	236.75
283.745	239.75
283.976	246.75
284.207	232.75
284.439	248.75
284.67	265.75
284.901	248.75
285.132	239.75
285.364	228.75
285.595	242.75
285.826	261.75
286.057	238.75
286.288	234.75
286.52	257.75
286.751	250.75
286.982	249.75
287.213	253.75
287.444	249.75
287.675	257.75
287.906	251.75
288.138	254.75
288.369	261.75
288.6	262.75
288.831	276.75
289.062	254.75
289.293	256.75
289.524	233.75
289.755	267.75
289.986	239.75
290.217	244.75
290.448	239.75
290.679	267.75
290.91	261.75
291.141	249.75
291.371	254.75
291.602	267.75
291.833	263.75
292.064	273.75
292.295	259.75
292.526	245.75
292.757	261.75
292.987	257.75
293.218	254.75
293.449	259.75
293.68	257.75
293.91	258.75
294.141	264.75
294.372	271.75
294.603	274.75
294.833	275.75
295.064	241.75
295.295	261.75
295.525	271.75
295.756	276.75
295.987	256.75
296.217	274.75
296.448	294.75
296.679	281.75
296.909	271.75
297.14	274.75
297.37	273.75
297.601	276.75
297.831	270.75
298.062	258.75
298.292	278.75
298.523	277.75
298.753	270.75
298.984	266.75
299.214	281.75
299.445	267.75
299.675	269.75
299.905	286.75
300.136	277.75
300.366	284.75
300.597	289.75
300.827	277.75
301.057	283.75
301.288	293.75
301.518	295.75
301.748	297.75
301.979	298.75
302.209	303.75
302.439	299.75
302.669	310.75
302.9	301.75
303.13	299.75
303.36	314.75
303.59	289.75
303.82	298.75
304.051	306.75
304.281	317.75
304.511	291.75
304.741	301.75
304.971	291.75
305.201	296.75
305.431	280.75
305.661	302.75
305.891	291.75
306.121	285.75
306.352	294.75
306.582	285.75
306.812	294.75
307.042	281.75
307.272	289.75
307.502	309.75
307.731	290.75
307.961	297.75
308.191	288.75
308.421	310.75
308.651	305.75
308.881	304.75
309.111	313.75
309.341	292.75
309.571	312.75
309.8	320.75
310.03	338.75
310.26	321.75
310.49	336.75
310.72	330.75
310.949	331.75
311.179	315.75
311.409	320.75
311.639	311.75
311.868	320.75
312.098	333.75
312.328	324.75
312.557	320.75
312.787	326.75
313.017	344.75
313.246	325.75
313.476	305.75
313.706	311.75
313.935	325.75
314.165	321.75
314.394	343.75
314.624	328.75
314.853	315.75
315.083	334.75
315.312	329.75
315.542	321.75
315.771	320.75
316.001	330.75
316.23	333.75
316.46	318.75
316.689	316.75
316.919	324.75
317.148	318.75
317.377	331.75
317.607	339.75
317.836	329.75
318.065	341.75
318.295	322.75
318.524	322.75
318.753	337.75
318.983	346.75
319.212	332.75
319.441	338.75
319.67	342.75
319.9	325.75
320.129	347.75
320.358	324.75
320.587	349.75
320.816	336.75
321.046	337.75
321.275	342.75
321.504	352.75
321.733	338.75
321.962	334.75
322.191	375.75
322.42	368.75
322.649	358.75
322.878	370.75
323.108	366.75
323.337	362.75
323.566	367.75
323.795	388.75
324.024	393.75
324.253	447.75
324.482	612.75
324.71	927.75
324.939	1357.75
325.168	1178.75
325.397	593.75
325.626	454.75
325.855	403.75
326.084	394.75
326.313	401.75
326.542	393.75
326.77	406.75
326.999	457.75
327.228	591.75
327.457	842.75
327.686	1039.75
327.914	674.75
328.143	490.75
328.372	431.75
328.6	406.75
328.829	407.75
329.058	414.75
329.287	429.75
329.515	415.75
329.744	405.75
329.972	377.75
330.201	381.75
330.43	401.75
330.658	417.75
330.887	418.75
331.115	428.75
331.344	419.75
331.572	389.75
331.801	411.75
332.03	425.75
332.258	401.75
332.486	379.75
332.715	386.75
332.943	402.75
333.172	392.75
333.4	416.75
333.629	416.75
333.857	408.75
334.085	425.75
334.314	412.75
334.542	448.75
334.771	449.75
334.999	441.75
335.227	428.75
335.455	411.75
335.684	416.75
335.912	399.75
336.14	416.75
336.369	409.75
336.597	397.75
336.825	407.75
337.053	409.75
337.281	388.75
337.51	393.75
337.738	415.75
337.966	393.75
338.194	397.75
338.422	386.75
338.65	369.75
338.878	378.75
339.106	377.75
339.334	379.75
339.562	389.75
339.79	390.75
340.018	400.75
340.246	397.75
340.474	373.75
340.702	383.75
340.93	366.75
341.158	401.75
341.386	386.75
341.614	383.75
341.842	391.75
342.07	382.75
342.298	383.75
342.526	375.75
342.754	386.75
342.981	403.75
343.209	390.75
343.437	395.75
343.665	413.75
343.893	401.75
344.12	409.75
344.348	409.75
344.576	395.75
344.804	393.75
345.031	384.75
345.259	403.75
345.487	401.75
345.714	394.75
345.942	377.75
346.17	363.75
346.397	364.75
346.625	367.75
346.853	369.75
347.08	382.75
347.308	365.75
347.535	370.75
347.763	367.75
347.99	367.75
348.218	388.75
348.445	389.75
348.673	383.75
348.9	365.75
349.128	381.75
349.355	384.75
349.583	364.75
349.81	379.75
350.037	361.75
350.265	357.75
350.492	368.75
350.72	359.75
350.947	353.75
351.174	364.75
351.402	383.75
351.629	363.75
351.856	372.75
352.083	382.75
352.311	378.75
352.538	376.75
352.765	395.75
352.992	386.75
353.22	374.75
353.447	368.75
353.674	381.75
353.901	346.75
354.128	357.75
354.355	373.75
354.583	357.75
354.81	360.75
355.037	365.75
355.264	360.75
355.491	368.75
355.718	354.75
355.945	362.75
356.172	385.75
356.399	366.75
356.626	373.75
356.853	357.75
357.08	387.75
357.307	354.75
357.534	364.75
357.761	379.75
357.988	349.75
358.215	361.75
358.441	355.75
358.668	368.75
358.895	362.75
359.122	368.75
359.349	375.75
359.576	370.75
359.802	369.75
360.029	385.75
360.256	432.75
360.483	395.75
360.709	383.75
360.936	370.75
361.163	371.75
361.39	381.75
361.616	370.75
361.843	385.75
362.07	369.75
362.296	375.75
362.523	361.75
362.749	377.75
362.976	387.75
363.203	398.75
363.429	366.75
363.656	385.75
363.882	358.75
364.109	362.75
364.335	357.75
364.562	384.75
364.788	384.75
365.015	382.75
365.241	373.75
365.468	376.75
365.694	377.75
365.92	369.75
366.147	367.75
366.373	373.75
366.599	375.75
366.826	360.75
367.052	358.75
367.278	353.75
367.505	385.75
367.731	369.75
367.957	365.75
368.184	371.75
368.41	370.75
368.636	389.75
368.862	374.75
369.089	381.75
369.315	399.75
369.541	396.75
369.767	391.75
369.993	385.75
370.219	385.75
370.445	380.75
370.672	374.75
370.898	366.75
371.124	382.75
371.35	387.75
371.576	387.75
371.802	369.75
372.028	386.75
372.254	396.75
372.48	397.75
372.706	391.75
372.932	393.75
373.158	418.75
373.384	409.75
373.61	384.75
373.835	381.75
374.061	384.75
374.287	393.75
374.513	372.75
374.739	400.75
374.965	407.75
375.191	394.75
375.416	387.75
375.642	391.75
375.868	385.75
376.094	393.75
376.319	400.75
376.545	395.75
376.771	400.75
376.997	384.75
377.222	382.75
377.448	381.75
377.674	397.75
377.899	384.75
378.125	399.75
378.35	415.75
378.576	408.75
378.802	383.75
379.027	409.75
379.253	387.75
379.478	385.75
379.704	417.75
379.929	408.75
380.155	409.75
380.38	399.75
380.606	404.75
380.831	391.75
381.057	406.75
381.282	391.75
381.507	391.75
381.733	394.75
381.958	403.75
382.184	386.75
382.409	402.75
382.634	401.75
382.86	402.75
383.085	403.75
383.31	406.75
383.535	423.75
383.761	408.75
383.986	415.75
384.211	415.75
384.436	407.75
384.662	430.75
384.887	439.75
385.112	453.75
385.337	442.75
385.562	415.75
385.787	453.75
386.013	458.75
386.238	463.75
386.463	439.75
386.688	447.75
386.913	455.75
387.138	438.75
387.363	443.75
387.588	451.75
387.813	450.75
388.038	454.75
388.263	451.75
388.488	458.75
388.713	462.75
388.938	454.75
389.163	442.75
389.387	433.75
389.612	439.75
389.837	442.75
390.062	438.75
390.287	427.75
390.512	447.75
390.736	450.75
390.961	446.75
391.186	459.75
391.411	444.75
391.636	459.75
391.86	465.75
392.085	470.75
392.31	456.75
392.534	456.75
392.759	463.75
392.984	454.75
393.208	489.75
393.433	531.75
393.658	567.75
393.882	470.75
394.107	446.75
394.331	462.75
394.556	464.75
394.78	476.75
395.005	461.75
395.229	475.75
395.454	455.75
395.678	465.75
395.903	475.75
396.127	525.75
396.352	489.75
396.576	482.75
396.801	502.75
397.025	495.75
397.249	502.75
397.474	486.75
397.698	474.75
397.922	518.75
398.147	507.75
398.371	528.75
398.595	497.75
398.82	499.75
399.044	531.75
399.268	544.75
399.492	581.75
399.717	611.75
399.941	620.75
400.165	645.75
400.389	637.75
400.613	572.75
400.837	565.75
401.062	542.75
401.286	543.75
401.51	523.75
401.734	496.75
401.958	519.75
402.182	520.75
402.406	525.75
402.63	528.75
402.854	519.75
403.078	529.75
403.302	525.75
403.526	545.75
403.75	547.75
403.974	561.75
404.198	537.75
404.422	530.75
404.645	529.75
404.869	563.75
405.093	568.75
405.317	619.75
405.541	609.75
405.765	557.75
405.988	565.75
406.212	585.75
406.436	592.75
406.66	593.75
406.883	583.75
407.107	590.75
407.331	639.75
407.555	678.75
407.778	684.75
408.002	630.75
408.226	615.75
408.449	587.75
408.673	604.75
408.896	573.75
409.12	634.75
409.344	614.75
409.567	556.75
409.791	539.75
410.014	545.75
410.238	549.75
410.461	547.75
410.685	562.75
410.908	554.75
411.132	577.75
411.355	600.75
411.578	605.75
411.802	527.75
412.025	551.75
412.249	550.75
412.472	556.75
412.695	570.75
412.919	557.75
413.142	557.75
413.365	538.75
413.589	527.75
413.812	520.75
414.035	520.75
414.258	534.75
414.482	529.75
414.705	535.75
414.928	517.75
415.151	506.75
415.374	519.75
415.597	523.75
415.821	515.75
416.044	506.75
416.267	518.75
416.49	491.75
416.713	504.75
416.936	537.75
417.159	507.75
417.382	509.75
417.605	505.75
417.828	513.75
418.051	526.75
418.274	523.75
418.497	490.75
418.72	510.75
418.943	517.75
419.166	541.75
419.389	553.75
419.611	557.75
419.834	556.75
420.057	542.75
420.28	541.75
420.503	537.75
420.726	523.75
420.948	538.75
421.171	563.75
421.394	567.75
421.617	542.75
421.839	531.75
422.062	521.75
422.285	529.75
422.507	569.75
422.73	626.75
422.953	633.75
423.175	568.75
423.398	553.75
423.621	511.75
423.843	555.75
424.066	547.75
424.288	507.75
424.511	535.75
424.733	590.75
424.956	627.75
425.178	635.75
425.401	596.75
425.623	639.75
425.846	572.75
426.068	548.75
426.291	518.75
426.513	535.75
426.735	522.75
426.958	567.75
427.18	641.75
427.402	708.75
427.625	767.75
427.847	651.75
428.069	608.75
428.292	541.75
428.514	518.75
428.736	522.75
428.958	515.75
429.181	504.75
429.403	509.75
429.625	520.75
429.847	524.75
430.069	590.75
430.292	562.75
430.514	507.75
430.736	530.75
430.958	512.75
431.18	490.75
431.402	497.75
431.624	512.75
431.846	506.75
432.068	495.75
432.29	480.75
432.512	493.75
432.734	506.75
432.956	527.75
433.178	521.75
433.4	535.75
433.622	492.75
433.844	501.75
434.066	493.75
434.287	508.75
434.509	522.75
434.731	506.75
434.953	526.75
435.175	527.75
435.397	569.75
435.618	532.75
435.84	563.75
436.062	631.75
436.284	683.75
436.505	602.75
436.727	551.75
436.949	516.75
437.17	529.75
437.392	494.75
437.614	507.75
437.835	531.75
438.057	591.75
438.278	656.75
438.5	674.75
438.721	722.75
438.943	702.75
439.165	581.75
439.386	526.75
439.608	549.75
439.829	536.75
440.05	546.75
440.272	583.75
440.493	568.75
440.715	536.75
440.936	534.75
441.158	527.75
441.379	535.75
441.6	513.75
441.822	553.75
442.043	578.75
442.264	641.75
442.486	673.75
442.707	577.75
442.928	555.75
443.149	539.75
443.371	566.75
443.592	594.75
443.813	657.75
444.034	720.75
444.255	638.75
444.476	574.75
444.698	590.75
444.919	580.75
445.14	633.75
445.361	604.75
445.582	576.75
445.803	598.75
446.024	669.75
446.245	684.75
446.466	618.75
446.687	557.75
446.908	525.75
447.129	506.75
447.35	523.75
447.571	491.75
447.792	509.75
448.013	497.75
448.234	490.75
448.455	527.75
448.675	625.75
448.896	693.75
449.117	585.75
449.338	580.75
449.559	673.75
449.779	745.75
450	617.75
450.221	517.75
450.442	492.75
450.662	483.75
450.883	473.75
451.104	485.75
451.324	496.75
451.545	466.75
451.766	471.75
451.986	473.75
452.207	455.75
452.428	452.75
452.648	454.75
452.869	456.75
453.089	448.75
453.31	461.75
453.53	445.75
453.751	449.75
453.971	460.75
454.192	459.75
454.412	466.75
454.633	466.75
454.853	450.75
455.073	429.75
455.294	455.75
455.514	482.75
455.734	492.75
455.955	442.75
456.175	462.75
456.395	442.75
456.616	422.75
456.836	442.75
457.056	453.75
457.276	446.75
457.497	449.75
457.717	446.75
457.937	460.75
458.157	451.75
458.377	447.75
458.598	468.75
458.818	490.75
459.038	547.75
459.258	550.75
459.478	498.75
459.698	522.75
459.918	486.75
460.138	509.75
460.358	492.75
460.578	519.75
460.798	517.75
461.018	538.75
461.238	534.75
461.458	522.75
461.678	524.75
461.898	524.75
462.118	533.75
462.338	537.75
462.558	571.75
462.777	585.75
462.997	579.75
463.217	607.75
463.437	595.75
463.657	586.75
463.876	564.75
464.096	579.75
464.316	559.75
464.536	586.75
464.755	558.75
464.975	583.75
465.195	569.75
465.414	609.75
465.634	557.75
465.854	554.75
466.073	507.75
466.293	498.75
466.512	489.75
466.732	498.75
466.951	494.75
467.171	495.75
467.391	502.75
467.61	488.75
467.829	501.75
468.049	481.75
468.268	497.75
468.488	485.75
468.707	485.75
468.927	481.75
469.146	455.75
469.365	483.75
469.585	491.75
469.804	486.75
470.023	501.75
470.243	479.75
470.462	489.75
470.681	498.75
470.901	513.75
471.12	483.75
471.339	497.75
471.558	482.75
471.777	462.75
471.997	477.75
472.216	490.75
472.435	493.75
472.654	492.75
472.873	481.75
473.092	492.75
473.311	494.75
473.53	485.75
473.749	494.75
473.968	494.75
474.187	594.75
474.406	585.75
474.625	523.75
474.844	486.75
475.063	481.75
475.282	470.75
475.501	477.75
475.72	487.75
475.939	490.75
476.158	506.75
476.377	514.75
476.596	505.75
476.814	520.75
477.033	489.75
477.252	526.75
477.471	527.75
477.69	539.75
477.908	528.75
478.127	531.75
478.346	528.75
478.564	551.75
478.783	569.75
479.002	578.75
479.22	583.75
479.439	559.75
479.658	589.75
479.876	572.75
480.095	605.75
480.313	609.75
480.532	616.75
480.751	603.75
480.969	588.75
481.188	619.75
481.406	625.75
481.624	599.75
481.843	559.75
482.061	582.75
482.28	573.75
482.498	577.75
482.717	595.75
482.935	557.75
483.153	557.75
483.372	567.75
483.59	558.75
483.808	592.75
484.027	572.75
484.245	577.75
484.463	602.75
484.681	580.75
484.9	559.75
485.118	596.75
485.336	593.75
485.554	601.75
485.772	595.75
485.99	607.75
486.209	586.75
486.427	571.75
486.645	610.75
486.863	605.75
487.081	618.75
487.299	602.75
487.517	615.75
487.735	622.75
487.953	620.75
488.171	599.75
488.389	615.75
488.607	624.75
488.825	614.75
489.043	606.75
489.261	594.75
489.479	587.75
489.696	626.75
489.914	605.75
490.132	625.75
490.35	637.75
490.568	634.75
490.786	644.75
491.003	657.75
491.221	645.75
491.439	642.75
491.657	647.75
491.874	657.75
492.092	655.75
492.31	648.75
492.527	684.75
492.745	662.75
492.963	686.75
493.18	675.75
493.398	659.75
493.615	684.75
493.833	701.75
494.05	679.75
494.268	707.75
494.485	676.75
494.703	715.75
494.92	687.75
495.138	692.75
495.355	699.75
495.573	696.75
495.79	697.75
496.008	716.75
496.225	720.75
496.442	703.75
496.66	716.75
496.877	704.75
497.094	715.75
497.312	725.75
497.529	729.75
497.746	763.75
497.963	780.75
498.181	789.75
498.398	793.75
498.615	816.75
498.832	856.75
499.049	876.75
499.267	885.75
499.484	925.75
499.701	985.75
499.918	1023.75
500.135	1089.75
500.352	1121.75
500.569	1162.75
500.786	1167.75
501.003	1133.75
501.22	1117.75
501.437	1020.75
501.654	1022.75
501.871	955.75
