Data from 1979.PennyLincolnUp.Lamp.En5.5.200Scan.071719.P1_HRD10591_16-18-55-864.txt Node
Date: Thu Jul 18 16:18:55 EDT 2019
User: cochatt
Spectrometer: HR+D1059
Trigger mode: 1
Integration Time (sec): 1.000000E-1
Scans to average: 1
Electric dark correction enabled: true
Nonlinearity correction enabled: false
Boxcar width: 0
XAxis mode: Wavelengths
Number of Pixels in Spectrum: 2048
>>>>>Begin Spectral Data<<<<<
223.165	-4.56
223.4	-4.56
223.635	-4.56
223.869	-11.56
224.104	-27.56
224.338	-8.56
224.573	-10.56
224.808	-27.56
225.042	-6.56
225.277	-5.56
225.511	-7.56
225.746	1.44
225.98	15.44
226.215	15.44
226.449	26.44
226.683	19.44
226.918	13.44
227.152	18.44
227.387	25.44
227.621	27.44
227.856	48.44
228.09	49.44
228.324	52.44
228.559	58.44
228.793	74.44
229.027	85.44
229.262	104.44
229.496	106.44
229.73	123.44
229.964	152.44
230.199	124.44
230.433	102.44
230.667	118.44
230.901	109.44
231.136	98.44
231.37	88.44
231.604	116.44
231.838	122.44
232.072	105.44
232.306	108.44
232.541	96.44
232.775	106.44
233.009	123.44
233.243	107.44
233.477	115.44
233.711	123.44
233.945	109.44
234.179	112.44
234.413	106.44
234.647	112.44
234.881	104.44
235.115	120.44
235.349	125.44
235.583	107.44
235.817	107.44
236.051	116.44
236.285	124.44
236.519	116.44
236.753	109.44
236.987	122.44
237.221	146.44
237.455	195.44
237.689	180.44
237.922	136.44
238.156	121.44
238.39	127.44
238.624	103.44
238.858	121.44
239.091	110.44
239.325	105.44
239.559	122.44
239.793	125.44
240.027	122.44
240.26	137.44
240.494	141.44
240.728	150.44
240.961	144.44
241.195	134.44
241.429	137.44
241.662	136.44
241.896	151.44
242.13	130.44
242.363	130.44
242.597	125.44
242.83	136.44
243.064	139.44
243.298	138.44
243.531	145.44
243.765	146.44
243.998	145.44
244.232	139.44
244.465	142.44
244.699	134.44
244.932	133.44
245.166	137.44
245.399	132.44
245.633	152.44
245.866	137.44
246.099	144.44
246.333	136.44
246.566	133.44
246.8	157.44
247.033	147.44
247.266	141.44
247.5	158.44
247.733	160.44
247.966	149.44
248.2	165.44
248.433	164.44
248.666	165.44
248.899	162.44
249.133	180.44
249.366	197.44
249.599	188.44
249.832	167.44
250.066	168.44
250.299	160.44
250.532	176.44
250.765	190.44
250.998	216.44
251.231	204.44
251.465	199.44
251.698	184.44
251.931	200.44
252.164	178.44
252.397	185.44
252.63	184.44
252.863	178.44
253.096	205.44
253.329	201.44
253.562	205.44
253.795	222.44
254.028	194.44
254.261	205.44
254.494	207.44
254.727	220.44
254.96	248.44
255.193	237.44
255.426	234.44
255.659	204.44
255.892	204.44
256.124	225.44
256.357	224.44
256.59	212.44
256.823	198.44
257.056	196.44
257.289	211.44
257.521	190.44
257.754	190.44
257.987	206.44
258.22	216.44
258.452	202.44
258.685	196.44
258.918	186.44
259.151	185.44
259.383	204.44
259.616	193.44
259.849	194.44
260.081	203.44
260.314	235.44
260.547	221.44
260.779	214.44
261.012	226.44
261.244	207.44
261.477	196.44
261.71	198.44
261.942	203.44
262.175	216.44
262.407	205.44
262.64	214.44
262.872	217.44
263.105	210.44
263.337	194.44
263.57	219.44
263.802	212.44
264.035	192.44
264.267	201.44
264.499	206.44
264.732	201.44
264.964	222.44
265.197	188.44
265.429	210.44
265.661	207.44
265.894	200.44
266.126	211.44
266.358	192.44
266.591	200.44
266.823	214.44
267.055	229.44
267.287	204.44
267.52	224.44
267.752	203.44
267.984	205.44
268.216	228.44
268.448	220.44
268.681	227.44
268.913	237.44
269.145	218.44
269.377	266.44
269.609	261.44
269.841	221.44
270.073	234.44
270.306	260.44
270.538	284.44
270.77	274.44
271.002	269.44
271.234	260.44
271.466	280.44
271.698	264.44
271.93	275.44
272.162	272.44
272.394	272.44
272.626	268.44
272.858	260.44
273.09	256.44
273.322	250.44
273.553	253.44
273.785	234.44
274.017	230.44
274.249	253.44
274.481	237.44
274.713	261.44
274.945	254.44
275.176	253.44
275.408	246.44
275.64	253.44
275.872	246.44
276.104	251.44
276.335	242.44
276.567	259.44
276.799	281.44
277.031	267.44
277.262	288.44
277.494	300.44
277.726	261.44
277.957	266.44
278.189	268.44
278.421	251.44
278.652	262.44
278.884	238.44
279.115	243.44
279.347	244.44
279.579	248.44
279.81	253.44
280.042	254.44
280.273	263.44
280.505	263.44
280.736	263.44
280.968	243.44
281.199	247.44
281.431	259.44
281.662	256.44
281.894	248.44
282.125	252.44
282.356	271.44
282.588	294.44
282.819	270.44
283.051	261.44
283.282	261.44
283.513	269.44
283.745	256.44
283.976	275.44
284.207	262.44
284.439	265.44
284.67	268.44
284.901	266.44
285.132	275.44
285.364	277.44
285.595	276.44
285.826	260.44
286.057	271.44
286.288	264.44
286.52	263.44
286.751	266.44
286.982	276.44
287.213	273.44
287.444	279.44
287.675	299.44
287.906	273.44
288.138	286.44
288.369	292.44
288.6	292.44
288.831	271.44
289.062	274.44
289.293	261.44
289.524	262.44
289.755	271.44
289.986	283.44
290.217	284.44
290.448	269.44
290.679	292.44
290.91	269.44
291.141	275.44
291.371	276.44
291.602	274.44
291.833	274.44
292.064	265.44
292.295	298.44
292.526	295.44
292.757	292.44
292.987	276.44
293.218	281.44
293.449	282.44
293.68	273.44
293.91	270.44
294.141	272.44
294.372	277.44
294.603	290.44
294.833	266.44
295.064	279.44
295.295	290.44
295.525	281.44
295.756	298.44
295.987	295.44
296.217	286.44
296.448	323.44
296.679	307.44
296.909	293.44
297.14	292.44
297.37	295.44
297.601	285.44
297.831	292.44
298.062	308.44
298.292	293.44
298.523	289.44
298.753	315.44
298.984	289.44
299.214	295.44
299.445	302.44
299.675	302.44
299.905	307.44
300.136	316.44
300.366	288.44
300.597	315.44
300.827	301.44
301.057	320.44
301.288	316.44
301.518	324.44
301.748	325.44
301.979	302.44
302.209	321.44
302.439	317.44
302.669	307.44
302.9	316.44
303.13	325.44
303.36	324.44
303.59	309.44
303.82	345.44
304.051	316.44
304.281	331.44
304.511	329.44
304.741	322.44
304.971	313.44
305.201	332.44
305.431	323.44
305.661	320.44
305.891	324.44
306.121	318.44
306.352	340.44
306.582	322.44
306.812	323.44
307.042	328.44
307.272	316.44
307.502	321.44
307.731	316.44
307.961	335.44
308.191	315.44
308.421	349.44
308.651	337.44
308.881	337.44
309.111	316.44
309.341	324.44
309.571	353.44
309.8	340.44
310.03	353.44
310.26	350.44
310.49	366.44
310.72	358.44
310.949	380.44
311.179	376.44
311.409	341.44
311.639	359.44
311.868	361.44
312.098	356.44
312.328	374.44
312.557	380.44
312.787	392.44
313.017	388.44
313.246	368.44
313.476	361.44
313.706	358.44
313.935	369.44
314.165	366.44
314.394	369.44
314.624	380.44
314.853	358.44
315.083	362.44
315.312	368.44
315.542	358.44
315.771	350.44
316.001	353.44
316.23	364.44
316.46	357.44
316.689	353.44
316.919	377.44
317.148	389.44
317.377	376.44
317.607	388.44
317.836	365.44
318.065	355.44
318.295	381.44
318.524	355.44
318.753	377.44
318.983	360.44
319.212	353.44
319.441	387.44
319.67	384.44
319.9	371.44
320.129	358.44
320.358	386.44
320.587	359.44
320.816	359.44
321.046	371.44
321.275	392.44
321.504	381.44
321.733	376.44
321.962	402.44
322.191	378.44
322.42	417.44
322.649	425.44
322.878	406.44
323.108	433.44
323.337	441.44
323.566	454.44
323.795	456.44
324.024	520.44
324.253	604.44
324.482	862.44
324.71	1332.44
324.939	2018.44
325.168	1706.44
325.397	857.44
325.626	590.44
325.855	491.44
326.084	471.44
326.313	456.44
326.542	470.44
326.77	493.44
326.999	588.44
327.228	820.44
327.457	1205.44
327.686	1507.44
327.914	987.44
328.143	631.44
328.372	580.44
328.6	554.44
328.829	523.44
329.058	524.44
329.287	528.44
329.515	512.44
329.744	476.44
329.972	498.44
330.201	489.44
330.43	516.44
330.658	544.44
330.887	553.44
331.115	561.44
331.344	497.44
331.572	462.44
331.801	481.44
332.03	480.44
332.258	456.44
332.486	445.44
332.715	454.44
332.943	448.44
333.172	424.44
333.4	442.44
333.629	486.44
333.857	500.44
334.085	480.44
334.314	486.44
334.542	531.44
334.771	544.44
334.999	479.44
335.227	480.44
335.455	467.44
335.684	455.44
335.912	442.44
336.14	453.44
336.369	461.44
336.597	445.44
336.825	449.44
337.053	440.44
337.281	430.44
337.51	443.44
337.738	443.44
337.966	442.44
338.194	438.44
338.422	456.44
338.65	418.44
338.878	416.44
339.106	407.44
339.334	428.44
339.562	424.44
339.79	408.44
340.018	427.44
340.246	426.44
340.474	406.44
340.702	430.44
340.93	424.44
341.158	436.44
341.386	416.44
341.614	405.44
341.842	432.44
342.07	425.44
342.298	426.44
342.526	404.44
342.754	400.44
342.981	417.44
343.209	422.44
343.437	436.44
343.665	428.44
343.893	422.44
344.12	450.44
344.348	446.44
344.576	422.44
344.804	456.44
345.031	417.44
345.259	426.44
345.487	445.44
345.714	423.44
345.942	425.44
346.17	399.44
346.397	401.44
346.625	417.44
346.853	405.44
347.08	401.44
347.308	416.44
347.535	405.44
347.763	432.44
347.99	411.44
348.218	409.44
348.445	427.44
348.673	416.44
348.9	404.44
349.128	415.44
349.355	390.44
349.583	386.44
349.81	392.44
350.037	410.44
350.265	394.44
350.492	409.44
350.72	403.44
350.947	408.44
351.174	396.44
351.402	420.44
351.629	404.44
351.856	429.44
352.083	405.44
352.311	408.44
352.538	426.44
352.765	425.44
352.992	425.44
353.22	410.44
353.447	388.44
353.674	406.44
353.901	382.44
354.128	388.44
354.355	373.44
354.583	380.44
354.81	394.44
355.037	389.44
355.264	388.44
355.491	384.44
355.718	379.44
355.945	371.44
356.172	376.44
356.399	384.44
356.626	392.44
356.853	385.44
357.08	397.44
357.307	398.44
357.534	402.44
357.761	388.44
357.988	387.44
358.215	392.44
358.441	395.44
358.668	400.44
358.895	396.44
359.122	385.44
359.349	398.44
359.576	423.44
359.802	412.44
360.029	453.44
360.256	449.44
360.483	434.44
360.709	419.44
360.936	410.44
361.163	391.44
361.39	419.44
361.616	419.44
361.843	413.44
362.07	413.44
362.296	416.44
362.523	418.44
362.749	423.44
362.976	414.44
363.203	397.44
363.429	390.44
363.656	407.44
363.882	405.44
364.109	397.44
364.335	397.44
364.562	416.44
364.788	395.44
365.015	388.44
365.241	392.44
365.468	397.44
365.694	396.44
365.92	407.44
366.147	381.44
366.373	395.44
366.599	404.44
366.826	404.44
367.052	414.44
367.278	395.44
367.505	412.44
367.731	404.44
367.957	403.44
368.184	389.44
368.41	412.44
368.636	418.44
368.862	414.44
369.089	420.44
369.315	412.44
369.541	408.44
369.767	408.44
369.993	406.44
370.219	416.44
370.445	436.44
370.672	403.44
370.898	414.44
371.124	394.44
371.35	419.44
371.576	403.44
371.802	396.44
372.028	396.44
372.254	405.44
372.48	404.44
372.706	420.44
372.932	417.44
373.158	415.44
373.384	413.44
373.61	418.44
373.835	401.44
374.061	421.44
374.287	414.44
374.513	430.44
374.739	449.44
374.965	419.44
375.191	411.44
375.416	430.44
375.642	397.44
375.868	418.44
376.094	406.44
376.319	391.44
376.545	400.44
376.771	394.44
376.997	410.44
377.222	411.44
377.448	416.44
377.674	387.44
377.899	409.44
378.125	401.44
378.35	406.44
378.576	407.44
378.802	392.44
379.027	405.44
379.253	398.44
379.478	413.44
379.704	402.44
379.929	407.44
380.155	409.44
380.38	408.44
380.606	409.44
380.831	403.44
381.057	420.44
381.282	419.44
381.507	417.44
381.733	432.44
381.958	433.44
382.184	404.44
382.409	417.44
382.634	417.44
382.86	422.44
383.085	434.44
383.31	447.44
383.535	418.44
383.761	432.44
383.986	423.44
384.211	438.44
384.436	448.44
384.662	449.44
384.887	465.44
385.112	440.44
385.337	452.44
385.562	456.44
385.787	451.44
386.013	456.44
386.238	458.44
386.463	467.44
386.688	442.44
386.913	467.44
387.138	456.44
387.363	454.44
387.588	458.44
387.813	445.44
388.038	464.44
388.263	466.44
388.488	468.44
388.713	461.44
388.938	482.44
389.163	434.44
389.387	461.44
389.612	443.44
389.837	451.44
390.062	458.44
390.287	456.44
390.512	464.44
390.736	476.44
390.961	473.44
391.186	461.44
391.411	461.44
391.636	459.44
391.86	480.44
392.085	470.44
392.31	497.44
392.534	466.44
392.759	474.44
392.984	461.44
393.208	465.44
393.433	493.44
393.658	464.44
393.882	483.44
394.107	477.44
394.331	498.44
394.556	478.44
394.78	486.44
395.005	498.44
395.229	472.44
395.454	528.44
395.678	485.44
395.903	514.44
396.127	523.44
396.352	494.44
396.576	485.44
396.801	487.44
397.025	490.44
397.249	454.44
397.474	490.44
397.698	497.44
397.922	523.44
398.147	529.44
398.371	538.44
398.595	492.44
398.82	527.44
399.044	544.44
399.268	586.44
399.492	613.44
399.717	640.44
399.941	674.44
400.165	698.44
400.389	692.44
400.613	638.44
400.837	590.44
401.062	584.44
401.286	544.44
401.51	569.44
401.734	544.44
401.958	568.44
402.182	561.44
402.406	563.44
402.63	565.44
402.854	552.44
403.078	578.44
403.302	576.44
403.526	584.44
403.75	550.44
403.974	577.44
404.198	581.44
404.422	599.44
404.645	576.44
404.869	595.44
405.093	617.44
405.317	664.44
405.541	674.44
405.765	644.44
405.988	603.44
406.212	620.44
406.436	617.44
406.66	654.44
406.883	620.44
407.107	619.44
407.331	680.44
407.555	775.44
407.778	744.44
408.002	696.44
408.226	640.44
408.449	636.44
408.673	624.44
408.896	643.44
409.12	663.44
409.344	654.44
409.567	596.44
409.791	595.44
410.014	575.44
410.238	568.44
410.461	583.44
410.685	599.44
410.908	587.44
411.132	614.44
411.355	670.44
411.578	630.44
411.802	592.44
412.025	552.44
412.249	574.44
412.472	606.44
412.695	640.44
412.919	635.44
413.142	589.44
413.365	554.44
413.589	572.44
413.812	571.44
414.035	549.44
414.258	538.44
414.482	531.44
414.705	547.44
414.928	563.44
415.151	544.44
415.374	537.44
415.597	556.44
415.821	520.44
416.044	545.44
416.267	541.44
416.49	530.44
416.713	549.44
416.936	530.44
417.159	531.44
417.382	533.44
417.605	535.44
417.828	557.44
418.051	564.44
418.274	562.44
418.497	542.44
418.72	561.44
418.943	534.44
419.166	573.44
419.389	589.44
419.611	586.44
419.834	571.44
420.057	589.44
420.28	570.44
420.503	571.44
420.726	569.44
420.948	573.44
421.171	592.44
421.394	625.44
421.617	560.44
421.839	557.44
422.062	557.44
422.285	572.44
422.507	613.44
422.73	699.44
422.953	679.44
423.175	601.44
423.398	596.44
423.621	594.44
423.843	608.44
424.066	598.44
424.288	595.44
424.511	610.44
424.733	655.44
424.956	725.44
425.178	724.44
425.401	699.44
425.623	718.44
425.846	626.44
426.068	605.44
426.291	583.44
426.513	596.44
426.735	578.44
426.958	640.44
427.18	696.44
427.402	813.44
427.625	896.44
427.847	770.44
428.069	710.44
428.292	625.44
428.514	562.44
428.736	567.44
428.958	581.44
429.181	551.44
429.403	541.44
429.625	561.44
429.847	574.44
430.069	646.44
430.292	650.44
430.514	549.44
430.736	573.44
430.958	538.44
431.18	518.44
431.402	526.44
431.624	513.44
431.846	516.44
432.068	514.44
432.29	516.44
432.512	533.44
432.734	537.44
432.956	545.44
433.178	553.44
433.4	552.44
433.622	535.44
433.844	524.44
434.066	512.44
434.287	527.44
434.509	532.44
434.731	534.44
434.953	560.44
435.175	546.44
435.397	599.44
435.618	585.44
435.84	630.44
436.062	746.44
436.284	778.44
436.505	654.44
436.727	614.44
436.949	573.44
437.17	568.44
437.392	557.44
437.614	564.44
437.835	586.44
438.057	665.44
438.278	757.44
438.5	755.44
438.721	843.44
438.943	806.44
439.165	630.44
439.386	592.44
439.608	604.44
439.829	583.44
440.05	620.44
440.272	671.44
440.493	636.44
440.715	580.44
440.936	560.44
441.158	553.44
441.379	568.44
441.6	582.44
441.822	596.44
442.043	624.44
442.264	680.44
442.486	734.44
442.707	609.44
442.928	599.44
443.149	592.44
443.371	612.44
443.592	669.44
443.813	745.44
444.034	797.44
444.255	678.44
444.476	614.44
444.698	619.44
444.919	599.44
445.14	696.44
445.361	658.44
445.582	617.44
445.803	718.44
446.024	784.44
446.245	788.44
446.466	729.44
446.687	621.44
446.908	585.44
447.129	565.44
447.35	552.44
447.571	544.44
447.792	543.44
448.013	547.44
448.234	545.44
448.455	583.44
448.675	698.44
448.896	820.44
449.117	695.44
449.338	646.44
449.559	721.44
449.779	854.44
450	691.44
450.221	563.44
450.442	537.44
450.662	536.44
450.883	549.44
451.104	538.44
451.324	524.44
451.545	502.44
451.766	501.44
451.986	481.44
452.207	476.44
452.428	484.44
452.648	500.44
452.869	508.44
453.089	492.44
453.31	504.44
453.53	483.44
453.751	481.44
453.971	504.44
454.192	515.44
454.412	499.44
454.633	483.44
454.853	481.44
455.073	479.44
455.294	517.44
455.514	569.44
455.734	547.44
455.955	465.44
456.175	478.44
456.395	465.44
456.616	465.44
456.836	465.44
457.056	466.44
457.276	466.44
457.497	482.44
457.717	474.44
457.937	472.44
458.157	462.44
458.377	480.44
458.598	503.44
458.818	554.44
459.038	612.44
459.258	666.44
459.478	571.44
459.698	534.44
459.918	522.44
460.138	526.44
460.358	544.44
460.578	558.44
460.798	567.44
461.018	576.44
461.238	526.44
461.458	542.44
461.678	540.44
461.898	561.44
462.118	556.44
462.338	568.44
462.558	580.44
462.777	589.44
462.997	619.44
463.217	627.44
463.437	630.44
463.657	579.44
463.876	594.44
464.096	610.44
464.316	587.44
464.536	604.44
464.755	570.44
464.975	614.44
465.195	614.44
465.414	697.44
465.634	613.44
465.854	574.44
466.073	526.44
466.293	518.44
466.512	528.44
466.732	506.44
466.951	522.44
467.171	510.44
467.391	521.44
467.61	540.44
467.829	539.44
468.049	511.44
468.268	526.44
468.488	489.44
468.707	492.44
468.927	510.44
469.146	486.44
469.365	489.44
469.585	502.44
469.804	524.44
470.023	539.44
470.243	522.44
470.462	538.44
470.681	546.44
470.901	509.44
471.12	513.44
471.339	498.44
471.558	525.44
471.777	508.44
471.997	509.44
472.216	514.44
472.435	548.44
472.654	539.44
472.873	524.44
473.092	522.44
473.311	515.44
473.53	524.44
473.749	499.44
473.968	565.44
474.187	645.44
474.406	654.44
474.625	577.44
474.844	527.44
475.063	523.44
475.282	524.44
475.501	518.44
475.72	539.44
475.939	532.44
476.158	547.44
476.377	534.44
476.596	515.44
476.814	538.44
477.033	555.44
477.252	540.44
477.471	547.44
477.69	562.44
477.908	562.44
478.127	560.44
478.346	577.44
478.564	583.44
478.783	582.44
479.002	602.44
479.22	608.44
479.439	629.44
479.658	613.44
479.876	616.44
480.095	626.44
480.313	664.44
480.532	644.44
480.751	666.44
480.969	638.44
481.188	707.44
481.406	716.44
481.624	668.44
481.843	634.44
482.061	622.44
482.28	593.44
482.498	628.44
482.717	603.44
482.935	602.44
483.153	600.44
483.372	605.44
483.59	602.44
483.808	608.44
484.027	597.44
484.245	608.44
484.463	619.44
484.681	630.44
484.9	614.44
485.118	630.44
485.336	628.44
485.554	612.44
485.772	642.44
485.99	634.44
486.209	659.44
486.427	616.44
486.645	644.44
486.863	657.44
487.081	657.44
487.299	651.44
487.517	655.44
487.735	640.44
487.953	652.44
488.171	640.44
488.389	631.44
488.607	635.44
488.825	669.44
489.043	648.44
489.261	662.44
489.479	652.44
489.696	655.44
489.914	650.44
490.132	654.44
490.35	651.44
490.568	670.44
490.786	700.44
491.003	697.44
491.221	700.44
491.439	714.44
491.657	714.44
491.874	698.44
492.092	729.44
492.31	727.44
492.527	747.44
492.745	713.44
492.963	703.44
493.18	741.44
493.398	745.44
493.615	741.44
493.833	739.44
494.05	747.44
494.268	727.44
494.485	753.44
494.703	753.44
494.92	747.44
495.138	744.44
495.355	732.44
495.573	770.44
495.79	787.44
496.008	780.44
496.225	730.44
496.442	768.44
496.66	786.44
496.877	770.44
497.094	768.44
497.312	795.44
497.529	762.44
497.746	790.44
497.963	805.44
498.181	859.44
498.398	849.44
498.615	860.44
498.832	915.44
499.049	910.44
499.267	948.44
499.484	986.44
499.701	1038.44
499.918	1056.44
500.135	1126.44
500.352	1214.44
500.569	1223.44
500.786	1204.44
501.003	1203.44
501.22	1154.44
501.437	1092.44
501.654	1016.44
501.871	1013.44
