Data from 1979.PennyLincolnUp.Lamp.En5.5.200Scan.071719.P1_HRD10591_16-19-40-863.txt Node
Date: Thu Jul 18 16:19:40 EDT 2019
User: cochatt
Spectrometer: HR+D1059
Trigger mode: 1
Integration Time (sec): 1.000000E-1
Scans to average: 1
Electric dark correction enabled: true
Nonlinearity correction enabled: false
Boxcar width: 0
XAxis mode: Wavelengths
Number of Pixels in Spectrum: 2048
>>>>>Begin Spectral Data<<<<<
223.165	-17.88
223.4	-17.88
223.635	-17.88
223.869	-17.88
224.104	-18.88
224.338	-21.88
224.573	-11.88
224.808	-11.88
225.042	-3.88
225.277	1.12
225.511	-4.88
225.746	10.12
225.98	6.12
226.215	6.12
226.449	3.12
226.683	10.12
226.918	31.12
227.152	41.12
227.387	32.12
227.621	38.12
227.856	46.12
228.09	37.12
228.324	62.12
228.559	57.12
228.793	60.12
229.027	96.12
229.262	102.12
229.496	107.12
229.73	132.12
229.964	142.12
230.199	139.12
230.433	106.12
230.667	103.12
230.901	94.12
231.136	111.12
231.37	99.12
231.604	107.12
231.838	111.12
232.072	116.12
232.306	120.12
232.541	125.12
232.775	124.12
233.009	117.12
233.243	126.12
233.477	125.12
233.711	110.12
233.945	134.12
234.179	137.12
234.413	121.12
234.647	109.12
234.881	119.12
235.115	137.12
235.349	122.12
235.583	121.12
235.817	120.12
236.051	118.12
236.285	123.12
236.519	105.12
236.753	125.12
236.987	144.12
237.221	184.12
237.455	201.12
237.689	173.12
237.922	141.12
238.156	133.12
238.39	133.12
238.624	124.12
238.858	121.12
239.091	117.12
239.325	130.12
239.559	118.12
239.793	126.12
240.027	133.12
240.26	138.12
240.494	152.12
240.728	131.12
240.961	142.12
241.195	132.12
241.429	131.12
241.662	143.12
241.896	126.12
242.13	140.12
242.363	130.12
242.597	137.12
242.83	142.12
243.064	150.12
243.298	144.12
243.531	122.12
243.765	133.12
243.998	136.12
244.232	136.12
244.465	153.12
244.699	141.12
244.932	132.12
245.166	152.12
245.399	136.12
245.633	152.12
245.866	143.12
246.099	130.12
246.333	136.12
246.566	171.12
246.8	153.12
247.033	160.12
247.266	157.12
247.5	144.12
247.733	144.12
247.966	168.12
248.2	162.12
248.433	164.12
248.666	166.12
248.899	184.12
249.133	182.12
249.366	194.12
249.599	184.12
249.832	186.12
250.066	193.12
250.299	162.12
250.532	173.12
250.765	177.12
250.998	214.12
251.231	218.12
251.465	197.12
251.698	204.12
251.931	188.12
252.164	180.12
252.397	192.12
252.63	177.12
252.863	197.12
253.096	212.12
253.329	222.12
253.562	208.12
253.795	211.12
254.028	209.12
254.261	190.12
254.494	208.12
254.727	241.12
254.96	262.12
255.193	255.12
255.426	229.12
255.659	233.12
255.892	216.12
256.124	200.12
256.357	212.12
256.59	206.12
256.823	203.12
257.056	199.12
257.289	204.12
257.521	198.12
257.754	194.12
257.987	194.12
258.22	189.12
258.452	201.12
258.685	202.12
258.918	202.12
259.151	216.12
259.383	212.12
259.616	204.12
259.849	216.12
260.081	223.12
260.314	244.12
260.547	245.12
260.779	225.12
261.012	216.12
261.244	227.12
261.477	208.12
261.71	210.12
261.942	240.12
262.175	213.12
262.407	234.12
262.64	206.12
262.872	201.12
263.105	188.12
263.337	201.12
263.57	206.12
263.802	221.12
264.035	212.12
264.267	192.12
264.499	206.12
264.732	209.12
264.964	220.12
265.197	208.12
265.429	209.12
265.661	205.12
265.894	212.12
266.126	225.12
266.358	220.12
266.591	215.12
266.823	210.12
267.055	214.12
267.287	228.12
267.52	227.12
267.752	214.12
267.984	229.12
268.216	229.12
268.448	229.12
268.681	248.12
268.913	225.12
269.145	238.12
269.377	235.12
269.609	258.12
269.841	251.12
270.073	242.12
270.306	273.12
270.538	299.12
270.77	301.12
271.002	279.12
271.234	275.12
271.466	273.12
271.698	290.12
271.93	286.12
272.162	286.12
272.394	299.12
272.626	306.12
272.858	264.12
273.09	249.12
273.322	271.12
273.553	260.12
273.785	251.12
274.017	262.12
274.249	254.12
274.481	257.12
274.713	245.12
274.945	253.12
275.176	256.12
275.408	254.12
275.64	241.12
275.872	243.12
276.104	273.12
276.335	251.12
276.567	258.12
276.799	271.12
277.031	293.12
277.262	300.12
277.494	304.12
277.726	286.12
277.957	293.12
278.189	294.12
278.421	258.12
278.652	249.12
278.884	273.12
279.115	268.12
279.347	257.12
279.579	272.12
279.81	270.12
280.042	271.12
280.273	261.12
280.505	276.12
280.736	248.12
280.968	249.12
281.199	242.12
281.431	261.12
281.662	255.12
281.894	279.12
282.125	273.12
282.356	278.12
282.588	294.12
282.819	291.12
283.051	288.12
283.282	268.12
283.513	267.12
283.745	279.12
283.976	296.12
284.207	279.12
284.439	281.12
284.67	283.12
284.901	279.12
285.132	276.12
285.364	255.12
285.595	275.12
285.826	274.12
286.057	278.12
286.288	276.12
286.52	260.12
286.751	266.12
286.982	263.12
287.213	269.12
287.444	283.12
287.675	298.12
287.906	275.12
288.138	284.12
288.369	292.12
288.6	321.12
288.831	283.12
289.062	280.12
289.293	272.12
289.524	257.12
289.755	268.12
289.986	296.12
290.217	283.12
290.448	291.12
290.679	287.12
290.91	288.12
291.141	291.12
291.371	293.12
291.602	269.12
291.833	275.12
292.064	307.12
292.295	305.12
292.526	267.12
292.757	278.12
292.987	281.12
293.218	286.12
293.449	289.12
293.68	292.12
293.91	273.12
294.141	291.12
294.372	294.12
294.603	291.12
294.833	290.12
295.064	302.12
295.295	292.12
295.525	284.12
295.756	291.12
295.987	303.12
296.217	325.12
296.448	323.12
296.679	317.12
296.909	286.12
297.14	306.12
297.37	294.12
297.601	276.12
297.831	293.12
298.062	309.12
298.292	313.12
298.523	312.12
298.753	297.12
298.984	292.12
299.214	315.12
299.445	327.12
299.675	321.12
299.905	324.12
300.136	311.12
300.366	305.12
300.597	328.12
300.827	327.12
301.057	331.12
301.288	337.12
301.518	328.12
301.748	321.12
301.979	318.12
302.209	334.12
302.439	348.12
302.669	316.12
302.9	308.12
303.13	326.12
303.36	355.12
303.59	321.12
303.82	334.12
304.051	338.12
304.281	326.12
304.511	321.12
304.741	330.12
304.971	323.12
305.201	321.12
305.431	310.12
305.661	323.12
305.891	322.12
306.121	310.12
306.352	341.12
306.582	325.12
306.812	332.12
307.042	345.12
307.272	320.12
307.502	326.12
307.731	353.12
307.961	343.12
308.191	340.12
308.421	333.12
308.651	327.12
308.881	324.12
309.111	340.12
309.341	324.12
309.571	345.12
309.8	323.12
310.03	350.12
310.26	366.12
310.49	379.12
310.72	374.12
310.949	377.12
311.179	386.12
311.409	372.12
311.639	378.12
311.868	371.12
312.098	373.12
312.328	361.12
312.557	376.12
312.787	388.12
313.017	402.12
313.246	376.12
313.476	363.12
313.706	382.12
313.935	387.12
314.165	394.12
314.394	398.12
314.624	388.12
314.853	378.12
315.083	365.12
315.312	378.12
315.542	364.12
315.771	366.12
316.001	361.12
316.23	385.12
316.46	359.12
316.689	365.12
316.919	370.12
317.148	378.12
317.377	415.12
317.607	378.12
317.836	370.12
318.065	376.12
318.295	372.12
318.524	381.12
318.753	385.12
318.983	370.12
319.212	364.12
319.441	386.12
319.67	366.12
319.9	370.12
320.129	388.12
320.358	384.12
320.587	380.12
320.816	418.12
321.046	396.12
321.275	394.12
321.504	404.12
321.733	406.12
321.962	405.12
322.191	401.12
322.42	429.12
322.649	428.12
322.878	428.12
323.108	458.12
323.337	466.12
323.566	485.12
323.795	493.12
324.024	538.12
324.253	646.12
324.482	897.12
324.71	1417.12
324.939	2153.12
325.168	1844.12
325.397	893.12
325.626	613.12
325.855	510.12
326.084	511.12
326.313	476.12
326.542	497.12
326.77	552.12
326.999	599.12
327.228	864.12
327.457	1328.12
327.686	1624.12
327.914	1049.12
328.143	676.12
328.372	600.12
328.6	551.12
328.829	528.12
329.058	557.12
329.287	548.12
329.515	500.12
329.744	493.12
329.972	469.12
330.201	505.12
330.43	529.12
330.658	568.12
330.887	580.12
331.115	566.12
331.344	483.12
331.572	479.12
331.801	479.12
332.03	478.12
332.258	475.12
332.486	460.12
332.715	447.12
332.943	455.12
333.172	445.12
333.4	488.12
333.629	483.12
333.857	500.12
334.085	502.12
334.314	485.12
334.542	527.12
334.771	549.12
334.999	485.12
335.227	496.12
335.455	487.12
335.684	454.12
335.912	482.12
336.14	448.12
336.369	466.12
336.597	462.12
336.825	465.12
337.053	448.12
337.281	436.12
337.51	456.12
337.738	430.12
337.966	436.12
338.194	440.12
338.422	454.12
338.65	421.12
338.878	447.12
339.106	435.12
339.334	437.12
339.562	406.12
339.79	426.12
340.018	434.12
340.246	441.12
340.474	436.12
340.702	454.12
340.93	420.12
341.158	421.12
341.386	431.12
341.614	438.12
341.842	434.12
342.07	420.12
342.298	446.12
342.526	408.12
342.754	417.12
342.981	432.12
343.209	422.12
343.437	424.12
343.665	436.12
343.893	464.12
344.12	457.12
344.348	435.12
344.576	438.12
344.804	441.12
345.031	458.12
345.259	455.12
345.487	437.12
345.714	432.12
345.942	439.12
346.17	438.12
346.397	434.12
346.625	422.12
346.853	418.12
347.08	424.12
347.308	434.12
347.535	428.12
347.763	425.12
347.99	413.12
348.218	438.12
348.445	428.12
348.673	420.12
348.9	432.12
349.128	406.12
349.355	424.12
349.583	419.12
349.81	412.12
350.037	387.12
350.265	408.12
350.492	416.12
350.72	416.12
350.947	419.12
351.174	409.12
351.402	439.12
351.629	422.12
351.856	442.12
352.083	434.12
352.311	447.12
352.538	416.12
352.765	428.12
352.992	425.12
353.22	415.12
353.447	432.12
353.674	429.12
353.901	410.12
354.128	403.12
354.355	387.12
354.583	409.12
354.81	388.12
355.037	400.12
355.264	387.12
355.491	404.12
355.718	388.12
355.945	392.12
356.172	410.12
356.399	396.12
356.626	394.12
356.853	407.12
357.08	398.12
357.307	400.12
357.534	385.12
357.761	402.12
357.988	403.12
358.215	400.12
358.441	409.12
358.668	380.12
358.895	418.12
359.122	399.12
359.349	417.12
359.576	410.12
359.802	442.12
360.029	447.12
360.256	461.12
360.483	475.12
360.709	437.12
360.936	432.12
361.163	429.12
361.39	429.12
361.616	430.12
361.843	409.12
362.07	416.12
362.296	415.12
362.523	434.12
362.749	436.12
362.976	428.12
363.203	411.12
363.429	418.12
363.656	414.12
363.882	397.12
364.109	419.12
364.335	384.12
364.562	416.12
364.788	432.12
365.015	411.12
365.241	416.12
365.468	406.12
365.694	423.12
365.92	418.12
366.147	416.12
366.373	420.12
366.599	404.12
366.826	407.12
367.052	408.12
367.278	412.12
367.505	408.12
367.731	413.12
367.957	422.12
368.184	419.12
368.41	436.12
368.636	450.12
368.862	445.12
369.089	441.12
369.315	427.12
369.541	444.12
369.767	437.12
369.993	408.12
370.219	406.12
370.445	433.12
370.672	420.12
370.898	410.12
371.124	417.12
371.35	436.12
371.576	425.12
371.802	421.12
372.028	417.12
372.254	411.12
372.48	418.12
372.706	409.12
372.932	422.12
373.158	413.12
373.384	422.12
373.61	429.12
373.835	444.12
374.061	409.12
374.287	444.12
374.513	423.12
374.739	410.12
374.965	440.12
375.191	427.12
375.416	449.12
375.642	422.12
375.868	404.12
376.094	419.12
376.319	417.12
376.545	426.12
376.771	421.12
376.997	412.12
377.222	428.12
377.448	408.12
377.674	406.12
377.899	417.12
378.125	394.12
378.35	403.12
378.576	428.12
378.802	413.12
379.027	438.12
379.253	421.12
379.478	417.12
379.704	435.12
379.929	420.12
380.155	418.12
380.38	422.12
380.606	437.12
380.831	420.12
381.057	432.12
381.282	422.12
381.507	432.12
381.733	439.12
381.958	421.12
382.184	436.12
382.409	440.12
382.634	440.12
382.86	432.12
383.085	448.12
383.31	435.12
383.535	443.12
383.761	440.12
383.986	455.12
384.211	467.12
384.436	453.12
384.662	462.12
384.887	481.12
385.112	479.12
385.337	468.12
385.562	462.12
385.787	458.12
386.013	487.12
386.238	505.12
386.463	479.12
386.688	478.12
386.913	470.12
387.138	480.12
387.363	458.12
387.588	443.12
387.813	476.12
388.038	478.12
388.263	448.12
388.488	456.12
388.713	480.12
388.938	470.12
389.163	499.12
389.387	462.12
389.612	466.12
389.837	475.12
390.062	456.12
390.287	468.12
390.512	486.12
390.736	459.12
390.961	483.12
391.186	460.12
391.411	480.12
391.636	476.12
391.86	507.12
392.085	523.12
392.31	494.12
392.534	496.12
392.759	508.12
392.984	482.12
393.208	490.12
393.433	490.12
393.658	492.12
393.882	490.12
394.107	468.12
394.331	502.12
394.556	476.12
394.78	491.12
395.005	481.12
395.229	498.12
395.454	483.12
395.678	491.12
395.903	496.12
396.127	540.12
396.352	539.12
396.576	504.12
396.801	508.12
397.025	509.12
397.249	488.12
397.474	517.12
397.698	540.12
397.922	533.12
398.147	533.12
398.371	547.12
398.595	549.12
398.82	542.12
399.044	560.12
399.268	595.12
399.492	617.12
399.717	676.12
399.941	688.12
400.165	698.12
400.389	699.12
400.613	630.12
400.837	612.12
401.062	581.12
401.286	560.12
401.51	558.12
401.734	547.12
401.958	560.12
402.182	582.12
402.406	579.12
402.63	588.12
402.854	563.12
403.078	585.12
403.302	597.12
403.526	581.12
403.75	609.12
403.974	616.12
404.198	593.12
404.422	599.12
404.645	583.12
404.869	617.12
405.093	621.12
405.317	670.12
405.541	699.12
405.765	639.12
405.988	621.12
406.212	623.12
406.436	640.12
406.66	680.12
406.883	648.12
407.107	652.12
407.331	697.12
407.555	794.12
407.778	776.12
408.002	690.12
408.226	660.12
408.449	638.12
408.673	646.12
408.896	646.12
409.12	713.12
409.344	668.12
409.567	613.12
409.791	601.12
410.014	599.12
410.238	605.12
410.461	606.12
410.685	594.12
410.908	608.12
411.132	641.12
411.355	646.12
411.578	642.12
411.802	585.12
412.025	590.12
412.249	600.12
412.472	626.12
412.695	666.12
412.919	663.12
413.142	598.12
413.365	559.12
413.589	590.12
413.812	594.12
414.035	562.12
414.258	559.12
414.482	549.12
414.705	568.12
414.928	546.12
415.151	551.12
415.374	538.12
415.597	554.12
415.821	533.12
416.044	557.12
416.267	564.12
416.49	560.12
416.713	540.12
416.936	554.12
417.159	572.12
417.382	575.12
417.605	585.12
417.828	572.12
418.051	590.12
418.274	574.12
418.497	550.12
418.72	557.12
418.943	560.12
419.166	580.12
419.389	600.12
419.611	592.12
419.834	596.12
420.057	604.12
420.28	592.12
420.503	581.12
420.726	588.12
420.948	585.12
421.171	646.12
421.394	692.12
421.617	620.12
421.839	574.12
422.062	584.12
422.285	580.12
422.507	663.12
422.73	729.12
422.953	689.12
423.175	635.12
423.398	639.12
423.621	615.12
423.843	628.12
424.066	618.12
424.288	612.12
424.511	633.12
424.733	679.12
424.956	765.12
425.178	736.12
425.401	722.12
425.623	755.12
425.846	666.12
426.068	604.12
426.291	593.12
426.513	618.12
426.735	594.12
426.958	684.12
427.18	731.12
427.402	838.12
427.625	954.12
427.847	857.12
428.069	732.12
428.292	650.12
428.514	579.12
428.736	572.12
428.958	603.12
429.181	549.12
429.403	558.12
429.625	564.12
429.847	619.12
430.069	673.12
430.292	664.12
430.514	596.12
430.736	565.12
430.958	572.12
431.18	547.12
431.402	517.12
431.624	525.12
431.846	533.12
432.068	546.12
432.29	546.12
432.512	561.12
432.734	558.12
432.956	556.12
433.178	553.12
433.4	545.12
433.622	564.12
433.844	562.12
434.066	562.12
434.287	563.12
434.509	557.12
434.731	575.12
434.953	582.12
435.175	590.12
435.397	629.12
435.618	603.12
435.84	640.12
436.062	744.12
436.284	797.12
436.505	680.12
436.727	618.12
436.949	608.12
437.17	581.12
437.392	577.12
437.614	575.12
437.835	621.12
438.057	694.12
438.278	811.12
438.5	781.12
438.721	839.12
438.943	819.12
439.165	670.12
439.386	616.12
439.608	610.12
439.829	610.12
440.05	628.12
440.272	693.12
440.493	653.12
440.715	608.12
440.936	589.12
441.158	585.12
441.379	611.12
441.6	591.12
441.822	627.12
442.043	647.12
442.264	725.12
442.486	772.12
442.707	649.12
442.928	617.12
443.149	650.12
443.371	681.12
443.592	704.12
443.813	768.12
444.034	834.12
444.255	718.12
444.476	630.12
444.698	619.12
444.919	661.12
445.14	736.12
445.361	691.12
445.582	671.12
445.803	724.12
446.024	818.12
446.245	813.12
446.466	752.12
446.687	652.12
446.908	598.12
447.129	571.12
447.35	552.12
447.571	570.12
447.792	582.12
448.013	552.12
448.234	565.12
448.455	640.12
448.675	725.12
448.896	861.12
449.117	713.12
449.338	672.12
449.559	797.12
449.779	880.12
450	717.12
450.221	617.12
450.442	573.12
450.662	564.12
450.883	527.12
451.104	576.12
451.324	564.12
451.545	538.12
451.766	516.12
451.986	524.12
452.207	526.12
452.428	516.12
452.648	492.12
452.869	517.12
453.089	502.12
453.31	532.12
453.53	500.12
453.751	496.12
453.971	535.12
454.192	532.12
454.412	525.12
454.633	488.12
454.853	489.12
455.073	501.12
455.294	523.12
455.514	599.12
455.734	578.12
455.955	493.12
456.175	484.12
456.395	491.12
456.616	471.12
456.836	479.12
457.056	464.12
457.276	481.12
457.497	471.12
457.717	466.12
457.937	489.12
458.157	502.12
458.377	506.12
458.598	527.12
458.818	570.12
459.038	661.12
459.258	671.12
459.478	608.12
459.698	554.12
459.918	541.12
460.138	535.12
460.358	569.12
460.578	564.12
460.798	573.12
461.018	562.12
461.238	550.12
461.458	574.12
461.678	564.12
461.898	566.12
462.118	561.12
462.338	595.12
462.558	595.12
462.777	630.12
462.997	603.12
463.217	662.12
463.437	663.12
463.657	634.12
463.876	626.12
464.096	625.12
464.316	616.12
464.536	605.12
464.755	630.12
464.975	628.12
465.195	651.12
465.414	699.12
465.634	615.12
465.854	602.12
466.073	575.12
466.293	551.12
466.512	523.12
466.732	532.12
466.951	549.12
467.171	532.12
467.391	538.12
467.61	559.12
467.829	558.12
468.049	548.12
468.268	562.12
468.488	548.12
468.707	498.12
468.927	509.12
469.146	493.12
469.365	529.12
469.585	505.12
469.804	531.12
470.023	553.12
470.243	525.12
470.462	528.12
470.681	547.12
470.901	547.12
471.12	545.12
471.339	524.12
471.558	558.12
471.777	515.12
471.997	510.12
472.216	556.12
472.435	591.12
472.654	550.12
472.873	560.12
473.092	527.12
473.311	531.12
473.53	507.12
473.749	541.12
473.968	551.12
474.187	647.12
474.406	674.12
474.625	588.12
474.844	546.12
475.063	527.12
475.282	556.12
475.501	536.12
475.72	544.12
475.939	537.12
476.158	560.12
476.377	571.12
476.596	560.12
476.814	538.12
477.033	541.12
477.252	561.12
477.471	569.12
477.69	564.12
477.908	570.12
478.127	614.12
478.346	587.12
478.564	595.12
478.783	586.12
479.002	596.12
479.22	606.12
479.439	634.12
479.658	647.12
479.876	646.12
480.095	657.12
480.313	668.12
480.532	669.12
480.751	673.12
480.969	675.12
481.188	727.12
481.406	739.12
481.624	652.12
481.843	626.12
482.061	646.12
482.28	641.12
482.498	612.12
482.717	640.12
482.935	630.12
483.153	626.12
483.372	643.12
483.59	613.12
483.808	612.12
484.027	606.12
484.245	636.12
484.463	649.12
484.681	646.12
484.9	640.12
485.118	664.12
485.336	633.12
485.554	629.12
485.772	639.12
485.99	648.12
486.209	642.12
486.427	661.12
486.645	666.12
486.863	664.12
487.081	693.12
487.299	656.12
487.517	654.12
487.735	650.12
487.953	675.12
488.171	660.12
488.389	673.12
488.607	688.12
488.825	671.12
489.043	662.12
489.261	685.12
489.479	673.12
489.696	684.12
489.914	656.12
490.132	682.12
490.35	678.12
490.568	709.12
490.786	727.12
491.003	743.12
491.221	724.12
491.439	752.12
491.657	736.12
491.874	736.12
492.092	753.12
492.31	770.12
492.527	749.12
492.745	764.12
492.963	785.12
493.18	778.12
493.398	749.12
493.615	784.12
493.833	794.12
494.05	782.12
494.268	793.12
494.485	792.12
494.703	757.12
494.92	780.12
495.138	765.12
495.355	765.12
495.573	817.12
495.79	819.12
496.008	771.12
496.225	789.12
496.442	789.12
496.66	794.12
496.877	782.12
497.094	780.12
497.312	796.12
497.529	814.12
497.746	805.12
497.963	844.12
498.181	840.12
498.398	895.12
498.615	922.12
498.832	935.12
499.049	960.12
499.267	976.12
499.484	1031.12
499.701	1052.12
499.918	1086.12
500.135	1166.12
500.352	1216.12
500.569	1257.12
500.786	1234.12
501.003	1218.12
501.22	1139.12
501.437	1136.12
501.654	1070.12
501.871	1049.12
