Data from 1979.PennyLincolnUp.Lamp.En5.5.200Scan.071719.P1_HRD10591_16-18-17-863.txt Node
Date: Thu Jul 18 16:18:17 EDT 2019
User: cochatt
Spectrometer: HR+D1059
Trigger mode: 1
Integration Time (sec): 1.000000E-1
Scans to average: 1
Electric dark correction enabled: true
Nonlinearity correction enabled: false
Boxcar width: 0
XAxis mode: Wavelengths
Number of Pixels in Spectrum: 2048
>>>>>Begin Spectral Data<<<<<
223.165	-1.69
223.4	-1.69
223.635	-1.69
223.869	-15.69
224.104	-23.69
224.338	-19.69
224.573	-8.69
224.808	-21.69
225.042	-5.69
225.277	-10.69
225.511	-2.69
225.746	2.31
225.98	1.31
226.215	21.31
226.449	23.31
226.683	20.31
226.918	25.31
227.152	16.31
227.387	28.31
227.621	34.31
227.856	41.31
228.09	47.31
228.324	57.31
228.559	66.31
228.793	62.31
229.027	94.31
229.262	102.31
229.496	93.31
229.73	115.31
229.964	138.31
230.199	138.31
230.433	105.31
230.667	122.31
230.901	109.31
231.136	92.31
231.37	110.31
231.604	102.31
231.838	105.31
232.072	111.31
232.306	107.31
232.541	108.31
232.775	115.31
233.009	117.31
233.243	113.31
233.477	91.31
233.711	112.31
233.945	113.31
234.179	104.31
234.413	94.31
234.647	120.31
234.881	120.31
235.115	117.31
235.349	123.31
235.583	123.31
235.817	103.31
236.051	132.31
236.285	114.31
236.519	127.31
236.753	109.31
236.987	130.31
237.221	164.31
237.455	199.31
237.689	166.31
237.922	134.31
238.156	137.31
238.39	120.31
238.624	123.31
238.858	101.31
239.091	120.31
239.325	128.31
239.559	138.31
239.793	124.31
240.027	133.31
240.26	144.31
240.494	137.31
240.728	136.31
240.961	158.31
241.195	125.31
241.429	128.31
241.662	123.31
241.896	130.31
242.13	133.31
242.363	119.31
242.597	112.31
242.83	118.31
243.064	127.31
243.298	136.31
243.531	126.31
243.765	121.31
243.998	134.31
244.232	137.31
244.465	138.31
244.699	146.31
244.932	134.31
245.166	147.31
245.399	130.31
245.633	132.31
245.866	129.31
246.099	137.31
246.333	144.31
246.566	136.31
246.8	154.31
247.033	148.31
247.266	154.31
247.5	153.31
247.733	159.31
247.966	156.31
248.2	159.31
248.433	165.31
248.666	169.31
248.899	161.31
249.133	178.31
249.366	179.31
249.599	169.31
249.832	193.31
250.066	201.31
250.299	165.31
250.532	179.31
250.765	172.31
250.998	194.31
251.231	214.31
251.465	183.31
251.698	186.31
251.931	205.31
252.164	173.31
252.397	167.31
252.63	182.31
252.863	178.31
253.096	197.31
253.329	206.31
253.562	194.31
253.795	197.31
254.028	211.31
254.261	205.31
254.494	205.31
254.727	216.31
254.96	250.31
255.193	218.31
255.426	220.31
255.659	192.31
255.892	220.31
256.124	209.31
256.357	201.31
256.59	204.31
256.823	193.31
257.056	187.31
257.289	189.31
257.521	200.31
257.754	195.31
257.987	203.31
258.22	190.31
258.452	192.31
258.685	187.31
258.918	194.31
259.151	198.31
259.383	213.31
259.616	216.31
259.849	195.31
260.081	206.31
260.314	208.31
260.547	207.31
260.779	221.31
261.012	211.31
261.244	202.31
261.477	206.31
261.71	206.31
261.942	216.31
262.175	211.31
262.407	209.31
262.64	203.31
262.872	211.31
263.105	182.31
263.337	198.31
263.57	202.31
263.802	191.31
264.035	198.31
264.267	203.31
264.499	185.31
264.732	218.31
264.964	198.31
265.197	200.31
265.429	219.31
265.661	199.31
265.894	201.31
266.126	215.31
266.358	217.31
266.591	203.31
266.823	217.31
267.055	204.31
267.287	208.31
267.52	208.31
267.752	203.31
267.984	216.31
268.216	201.31
268.448	217.31
268.681	196.31
268.913	209.31
269.145	210.31
269.377	221.31
269.609	251.31
269.841	243.31
270.073	243.31
270.306	253.31
270.538	280.31
270.77	285.31
271.002	270.31
271.234	257.31
271.466	262.31
271.698	278.31
271.93	279.31
272.162	282.31
272.394	272.31
272.626	267.31
272.858	257.31
273.09	246.31
273.322	248.31
273.553	235.31
273.785	242.31
274.017	253.31
274.249	248.31
274.481	246.31
274.713	242.31
274.945	232.31
275.176	252.31
275.408	256.31
275.64	236.31
275.872	249.31
276.104	240.31
276.335	253.31
276.567	248.31
276.799	229.31
277.031	277.31
277.262	280.31
277.494	285.31
277.726	285.31
277.957	263.31
278.189	257.31
278.421	240.31
278.652	268.31
278.884	249.31
279.115	246.31
279.347	241.31
279.579	240.31
279.81	260.31
280.042	263.31
280.273	235.31
280.505	240.31
280.736	257.31
280.968	232.31
281.199	251.31
281.431	266.31
281.662	256.31
281.894	246.31
282.125	251.31
282.356	267.31
282.588	282.31
282.819	282.31
283.051	249.31
283.282	259.31
283.513	268.31
283.745	273.31
283.976	277.31
284.207	259.31
284.439	272.31
284.67	264.31
284.901	259.31
285.132	260.31
285.364	269.31
285.595	269.31
285.826	262.31
286.057	276.31
286.288	266.31
286.52	274.31
286.751	268.31
286.982	255.31
287.213	247.31
287.444	267.31
287.675	267.31
287.906	276.31
288.138	270.31
288.369	273.31
288.6	269.31
288.831	280.31
289.062	278.31
289.293	281.31
289.524	270.31
289.755	269.31
289.986	270.31
290.217	266.31
290.448	277.31
290.679	277.31
290.91	283.31
291.141	261.31
291.371	276.31
291.602	271.31
291.833	275.31
292.064	251.31
292.295	273.31
292.526	280.31
292.757	272.31
292.987	269.31
293.218	272.31
293.449	276.31
293.68	273.31
293.91	284.31
294.141	279.31
294.372	281.31
294.603	284.31
294.833	282.31
295.064	279.31
295.295	291.31
295.525	286.31
295.756	281.31
295.987	292.31
296.217	297.31
296.448	321.31
296.679	302.31
296.909	280.31
297.14	281.31
297.37	283.31
297.601	289.31
297.831	296.31
298.062	290.31
298.292	293.31
298.523	285.31
298.753	299.31
298.984	315.31
299.214	306.31
299.445	280.31
299.675	295.31
299.905	297.31
300.136	308.31
300.366	295.31
300.597	312.31
300.827	307.31
301.057	315.31
301.288	315.31
301.518	287.31
301.748	318.31
301.979	310.31
302.209	327.31
302.439	308.31
302.669	327.31
302.9	317.31
303.13	314.31
303.36	317.31
303.59	328.31
303.82	324.31
304.051	311.31
304.281	328.31
304.511	313.31
304.741	326.31
304.971	320.31
305.201	308.31
305.431	324.31
305.661	314.31
305.891	321.31
306.121	299.31
306.352	310.31
306.582	327.31
306.812	317.31
307.042	308.31
307.272	316.31
307.502	321.31
307.731	319.31
307.961	314.31
308.191	310.31
308.421	318.31
308.651	331.31
308.881	321.31
309.111	312.31
309.341	306.31
309.571	340.31
309.8	362.31
310.03	349.31
310.26	341.31
310.49	331.31
310.72	347.31
310.949	349.31
311.179	367.31
311.409	344.31
311.639	355.31
311.868	362.31
312.098	356.31
312.328	349.31
312.557	362.31
312.787	370.31
313.017	372.31
313.246	373.31
313.476	340.31
313.706	364.31
313.935	356.31
314.165	363.31
314.394	358.31
314.624	369.31
314.853	350.31
315.083	373.31
315.312	355.31
315.542	348.31
315.771	355.31
316.001	332.31
316.23	359.31
316.46	361.31
316.689	355.31
316.919	384.31
317.148	372.31
317.377	364.31
317.607	363.31
317.836	350.31
318.065	373.31
318.295	352.31
318.524	354.31
318.753	358.31
318.983	362.31
319.212	355.31
319.441	373.31
319.67	378.31
319.9	351.31
320.129	336.31
320.358	363.31
320.587	358.31
320.816	382.31
321.046	380.31
321.275	377.31
321.504	385.31
321.733	374.31
321.962	352.31
322.191	375.31
322.42	410.31
322.649	411.31
322.878	404.31
323.108	418.31
323.337	438.31
323.566	447.31
323.795	469.31
324.024	493.31
324.253	602.31
324.482	806.31
324.71	1236.31
324.939	1852.31
325.168	1598.31
325.397	777.31
325.626	562.31
325.855	468.31
326.084	473.31
326.313	441.31
326.542	472.31
326.77	492.31
326.999	557.31
327.228	780.31
327.457	1163.31
327.686	1435.31
327.914	918.31
328.143	627.31
328.372	555.31
328.6	507.31
328.829	478.31
329.058	492.31
329.287	530.31
329.515	488.31
329.744	456.31
329.972	462.31
330.201	485.31
330.43	508.31
330.658	533.31
330.887	544.31
331.115	523.31
331.344	485.31
331.572	452.31
331.801	436.31
332.03	436.31
332.258	422.31
332.486	458.31
332.715	443.31
332.943	452.31
333.172	445.31
333.4	448.31
333.629	436.31
333.857	463.31
334.085	467.31
334.314	475.31
334.542	492.31
334.771	487.31
334.999	490.31
335.227	461.31
335.455	446.31
335.684	422.31
335.912	445.31
336.14	441.31
336.369	427.31
336.597	436.31
336.825	419.31
337.053	430.31
337.281	438.31
337.51	403.31
337.738	436.31
337.966	401.31
338.194	412.31
338.422	438.31
338.65	417.31
338.878	417.31
339.106	449.31
339.334	416.31
339.562	416.31
339.79	420.31
340.018	404.31
340.246	404.31
340.474	421.31
340.702	422.31
340.93	418.31
341.158	425.31
341.386	411.31
341.614	418.31
341.842	425.31
342.07	421.31
342.298	405.31
342.526	427.31
342.754	388.31
342.981	393.31
343.209	395.31
343.437	426.31
343.665	417.31
343.893	410.31
344.12	448.31
344.348	452.31
344.576	427.31
344.804	448.31
345.031	423.31
345.259	425.31
345.487	419.31
345.714	428.31
345.942	433.31
346.17	386.31
346.397	396.31
346.625	404.31
346.853	390.31
347.08	396.31
347.308	390.31
347.535	402.31
347.763	389.31
347.99	416.31
348.218	434.31
348.445	417.31
348.673	402.31
348.9	408.31
349.128	401.31
349.355	395.31
349.583	384.31
349.81	380.31
350.037	401.31
350.265	382.31
350.492	392.31
350.72	395.31
350.947	383.31
351.174	397.31
351.402	402.31
351.629	400.31
351.856	407.31
352.083	399.31
352.311	422.31
352.538	395.31
352.765	391.31
352.992	390.31
353.22	380.31
353.447	392.31
353.674	395.31
353.901	388.31
354.128	384.31
354.355	380.31
354.583	385.31
354.81	379.31
355.037	386.31
355.264	361.31
355.491	357.31
355.718	368.31
355.945	376.31
356.172	384.31
356.399	380.31
356.626	374.31
356.853	404.31
357.08	390.31
357.307	382.31
357.534	368.31
357.761	393.31
357.988	384.31
358.215	379.31
358.441	388.31
358.668	405.31
358.895	392.31
359.122	392.31
359.349	392.31
359.576	427.31
359.802	420.31
360.029	424.31
360.256	442.31
360.483	416.31
360.709	411.31
360.936	394.31
361.163	414.31
361.39	388.31
361.616	404.31
361.843	393.31
362.07	408.31
362.296	421.31
362.523	406.31
362.749	392.31
362.976	410.31
363.203	416.31
363.429	392.31
363.656	389.31
363.882	386.31
364.109	400.31
364.335	392.31
364.562	380.31
364.788	387.31
365.015	398.31
365.241	389.31
365.468	410.31
365.694	404.31
365.92	402.31
366.147	414.31
366.373	386.31
366.599	389.31
366.826	385.31
367.052	381.31
367.278	394.31
367.505	404.31
367.731	393.31
367.957	416.31
368.184	384.31
368.41	415.31
368.636	408.31
368.862	429.31
369.089	399.31
369.315	391.31
369.541	392.31
369.767	382.31
369.993	384.31
370.219	391.31
370.445	382.31
370.672	409.31
370.898	398.31
371.124	403.31
371.35	419.31
371.576	388.31
371.802	395.31
372.028	389.31
372.254	416.31
372.48	411.31
372.706	406.31
372.932	410.31
373.158	423.31
373.384	413.31
373.61	393.31
373.835	405.31
374.061	414.31
374.287	417.31
374.513	405.31
374.739	404.31
374.965	418.31
375.191	404.31
375.416	411.31
375.642	407.31
375.868	414.31
376.094	410.31
376.319	405.31
376.545	408.31
376.771	411.31
376.997	411.31
377.222	389.31
377.448	411.31
377.674	409.31
377.899	396.31
378.125	412.31
378.35	385.31
378.576	381.31
378.802	408.31
379.027	404.31
379.253	408.31
379.478	383.31
379.704	398.31
379.929	392.31
380.155	394.31
380.38	401.31
380.606	391.31
380.831	388.31
381.057	418.31
381.282	404.31
381.507	401.31
381.733	430.31
381.958	412.31
382.184	424.31
382.409	427.31
382.634	434.31
382.86	413.31
383.085	418.31
383.31	421.31
383.535	421.31
383.761	448.31
383.986	428.31
384.211	416.31
384.436	429.31
384.662	448.31
384.887	451.31
385.112	436.31
385.337	426.31
385.562	442.31
385.787	437.31
386.013	466.31
386.238	451.31
386.463	461.31
386.688	446.31
386.913	450.31
387.138	439.31
387.363	467.31
387.588	443.31
387.813	455.31
388.038	454.31
388.263	453.31
388.488	456.31
388.713	454.31
388.938	465.31
389.163	446.31
389.387	464.31
389.612	421.31
389.837	451.31
390.062	438.31
390.287	447.31
390.512	449.31
390.736	471.31
390.961	457.31
391.186	456.31
391.411	478.31
391.636	477.31
391.86	490.31
392.085	481.31
392.31	480.31
392.534	472.31
392.759	462.31
392.984	461.31
393.208	480.31
393.433	478.31
393.658	472.31
393.882	479.31
394.107	468.31
394.331	458.31
394.556	480.31
394.78	479.31
395.005	465.31
395.229	462.31
395.454	477.31
395.678	486.31
395.903	498.31
396.127	509.31
396.352	500.31
396.576	459.31
396.801	481.31
397.025	504.31
397.249	488.31
397.474	506.31
397.698	514.31
397.922	503.31
398.147	534.31
398.371	510.31
398.595	531.31
398.82	547.31
399.044	569.31
399.268	567.31
399.492	600.31
399.717	632.31
399.941	667.31
400.165	666.31
400.389	662.31
400.613	608.31
400.837	571.31
401.062	536.31
401.286	546.31
401.51	550.31
401.734	547.31
401.958	552.31
402.182	564.31
402.406	579.31
402.63	551.31
402.854	547.31
403.078	550.31
403.302	538.31
403.526	572.31
403.75	569.31
403.974	577.31
404.198	565.31
404.422	560.31
404.645	552.31
404.869	576.31
405.093	606.31
405.317	632.31
405.541	658.31
405.765	612.31
405.988	585.31
406.212	594.31
406.436	629.31
406.66	615.31
406.883	595.31
407.107	637.31
407.331	671.31
407.555	741.31
407.778	731.31
408.002	662.31
408.226	606.31
408.449	606.31
408.673	624.31
408.896	653.31
409.12	676.31
409.344	659.31
409.567	590.31
409.791	577.31
410.014	569.31
410.238	546.31
410.461	563.31
410.685	574.31
410.908	569.31
411.132	604.31
411.355	622.31
411.578	617.31
411.802	594.31
412.025	566.31
412.249	570.31
412.472	606.31
412.695	635.31
412.919	628.31
413.142	581.31
413.365	564.31
413.589	555.31
413.812	535.31
414.035	555.31
414.258	539.31
414.482	540.31
414.705	526.31
414.928	536.31
415.151	568.31
415.374	531.31
415.597	512.31
415.821	536.31
416.044	539.31
416.267	558.31
416.49	522.31
416.713	531.31
416.936	546.31
417.159	516.31
417.382	524.31
417.605	536.31
417.828	555.31
418.051	563.31
418.274	547.31
418.497	515.31
418.72	533.31
418.943	548.31
419.166	583.31
419.389	587.31
419.611	593.31
419.834	567.31
420.057	551.31
420.28	551.31
420.503	565.31
420.726	541.31
420.948	580.31
421.171	570.31
421.394	618.31
421.617	557.31
421.839	533.31
422.062	544.31
422.285	564.31
422.507	619.31
422.73	706.31
422.953	674.31
423.175	577.31
423.398	577.31
423.621	589.31
423.843	590.31
424.066	602.31
424.288	570.31
424.511	591.31
424.733	618.31
424.956	707.31
425.178	702.31
425.401	686.31
425.623	709.31
425.846	631.31
426.068	569.31
426.291	586.31
426.513	579.31
426.735	571.31
426.958	614.31
427.18	684.31
427.402	770.31
427.625	882.31
427.847	771.31
428.069	675.31
428.292	618.31
428.514	573.31
428.736	564.31
428.958	561.31
429.181	543.31
429.403	534.31
429.625	557.31
429.847	560.31
430.069	640.31
430.292	626.31
430.514	554.31
430.736	525.31
430.958	544.31
431.18	551.31
431.402	501.31
431.624	498.31
431.846	490.31
432.068	524.31
432.29	520.31
432.512	514.31
432.734	535.31
432.956	536.31
433.178	549.31
433.4	562.31
433.622	531.31
433.844	527.31
434.066	516.31
434.287	516.31
434.509	546.31
434.731	536.31
434.953	551.31
435.175	566.31
435.397	591.31
435.618	598.31
435.84	607.31
436.062	717.31
436.284	744.31
436.505	634.31
436.727	599.31
436.949	558.31
437.17	540.31
437.392	537.31
437.614	537.31
437.835	585.31
438.057	661.31
438.278	738.31
438.5	733.31
438.721	830.31
438.943	789.31
439.165	633.31
439.386	586.31
439.608	572.31
439.829	558.31
440.05	618.31
440.272	641.31
440.493	608.31
440.715	583.31
440.936	568.31
441.158	568.31
441.379	544.31
441.6	553.31
441.822	568.31
442.043	598.31
442.264	708.31
442.486	742.31
442.707	627.31
442.928	625.31
443.149	580.31
443.371	609.31
443.592	665.31
443.813	718.31
444.034	794.31
444.255	646.31
444.476	608.31
444.698	622.31
444.919	632.31
445.14	736.31
445.361	663.31
445.582	633.31
445.803	679.31
446.024	758.31
446.245	771.31
446.466	716.31
446.687	612.31
446.908	562.31
447.129	549.31
447.35	563.31
447.571	539.31
447.792	514.31
448.013	539.31
448.234	535.31
448.455	579.31
448.675	694.31
448.896	782.31
449.117	688.31
449.338	648.31
449.559	701.31
449.779	851.31
450	668.31
450.221	570.31
450.442	551.31
450.662	517.31
450.883	538.31
451.104	534.31
451.324	526.31
451.545	482.31
451.766	490.31
451.986	511.31
452.207	493.31
452.428	477.31
452.648	486.31
452.869	498.31
453.089	489.31
453.31	486.31
453.53	498.31
453.751	469.31
453.971	473.31
454.192	500.31
454.412	491.31
454.633	458.31
454.853	492.31
455.073	466.31
455.294	510.31
455.514	566.31
455.734	544.31
455.955	467.31
456.175	471.31
456.395	457.31
456.616	474.31
456.836	460.31
457.056	457.31
457.276	458.31
457.497	452.31
457.717	458.31
457.937	463.31
458.157	455.31
458.377	475.31
458.598	490.31
458.818	545.31
459.038	608.31
459.258	619.31
459.478	561.31
459.698	528.31
459.918	540.31
460.138	533.31
460.358	530.31
460.578	537.31
460.798	536.31
461.018	548.31
461.238	564.31
461.458	527.31
461.678	552.31
461.898	555.31
462.118	557.31
462.338	561.31
462.558	568.31
462.777	579.31
462.997	604.31
463.217	601.31
463.437	602.31
463.657	607.31
463.876	605.31
464.096	586.31
464.316	589.31
464.536	606.31
464.755	573.31
464.975	602.31
465.195	621.31
465.414	674.31
465.634	574.31
465.854	558.31
466.073	557.31
466.293	530.31
466.512	541.31
466.732	497.31
466.951	477.31
467.171	518.31
467.391	500.31
467.61	509.31
467.829	491.31
468.049	522.31
468.268	514.31
468.488	500.31
468.707	499.31
468.927	496.31
469.146	467.31
469.365	513.31
469.585	470.31
469.804	516.31
470.023	531.31
470.243	513.31
470.462	523.31
470.681	539.31
470.901	543.31
471.12	504.31
471.339	513.31
471.558	505.31
471.777	511.31
471.997	530.31
472.216	513.31
472.435	527.31
472.654	550.31
472.873	522.31
473.092	523.31
473.311	519.31
473.53	501.31
473.749	514.31
473.968	530.31
474.187	631.31
474.406	648.31
474.625	535.31
474.844	548.31
475.063	512.31
475.282	491.31
475.501	534.31
475.72	519.31
475.939	514.31
476.158	535.31
476.377	552.31
476.596	537.31
476.814	522.31
477.033	550.31
477.252	546.31
477.471	544.31
477.69	557.31
477.908	554.31
478.127	553.31
478.346	548.31
478.564	560.31
478.783	554.31
479.002	599.31
479.22	618.31
479.439	629.31
479.658	600.31
479.876	632.31
480.095	631.31
480.313	626.31
480.532	648.31
480.751	621.31
480.969	638.31
481.188	671.31
481.406	717.31
481.624	633.31
481.843	635.31
482.061	607.31
482.28	608.31
482.498	600.31
482.717	599.31
482.935	601.31
483.153	590.31
483.372	571.31
483.59	606.31
483.808	584.31
484.027	586.31
484.245	586.31
484.463	610.31
484.681	609.31
484.9	610.31
485.118	612.31
485.336	621.31
485.554	624.31
485.772	648.31
485.99	622.31
486.209	629.31
486.427	624.31
486.645	629.31
486.863	637.31
487.081	636.31
487.299	648.31
487.517	650.31
487.735	641.31
487.953	626.31
488.171	619.31
488.389	620.31
488.607	620.31
488.825	610.31
489.043	624.31
489.261	606.31
489.479	675.31
489.696	640.31
489.914	630.31
490.132	650.31
490.35	664.31
490.568	672.31
490.786	683.31
491.003	686.31
491.221	685.31
491.439	714.31
491.657	709.31
491.874	686.31
492.092	705.31
492.31	704.31
492.527	713.31
492.745	717.31
492.963	699.31
493.18	729.31
493.398	750.31
493.615	745.31
493.833	736.31
494.05	723.31
494.268	731.31
494.485	726.31
494.703	719.31
494.92	728.31
495.138	718.31
495.355	733.31
495.573	735.31
495.79	769.31
496.008	755.31
496.225	769.31
496.442	789.31
496.66	750.31
496.877	756.31
497.094	767.31
497.312	762.31
497.529	769.31
497.746	758.31
497.963	791.31
498.181	836.31
498.398	846.31
498.615	864.31
498.832	914.31
499.049	922.31
499.267	945.31
499.484	982.31
499.701	999.31
499.918	1036.31
500.135	1131.31
500.352	1191.31
500.569	1194.31
500.786	1186.31
501.003	1186.31
501.22	1114.31
501.437	1076.31
501.654	1033.31
501.871	1022.31
