Data from 1979.PennyLincolnUp.Lamp.En5.5.200Scan.071719.P1_HRD10591_16-19-55-863.txt Node
Date: Thu Jul 18 16:19:55 EDT 2019
User: cochatt
Spectrometer: HR+D1059
Trigger mode: 1
Integration Time (sec): 1.000000E-1
Scans to average: 1
Electric dark correction enabled: true
Nonlinearity correction enabled: false
Boxcar width: 0
XAxis mode: Wavelengths
Number of Pixels in Spectrum: 2048
>>>>>Begin Spectral Data<<<<<
223.165	-2.06
223.4	-2.06
223.635	-2.06
223.869	-27.06
224.104	-32.06
224.338	-17.06
224.573	-21.06
224.808	-8.06
225.042	-4.06
225.277	-2.06
225.511	-5.06
225.746	7.94
225.98	5.94
226.215	14.94
226.449	20.94
226.683	20.94
226.918	15.94
227.152	31.94
227.387	27.94
227.621	24.94
227.856	45.94
228.09	50.94
228.324	42.94
228.559	43.94
228.793	72.94
229.027	100.94
229.262	106.94
229.496	115.94
229.73	119.94
229.964	149.94
230.199	132.94
230.433	117.94
230.667	114.94
230.901	104.94
231.136	112.94
231.37	95.94
231.604	109.94
231.838	127.94
232.072	102.94
232.306	109.94
232.541	126.94
232.775	123.94
233.009	116.94
233.243	108.94
233.477	104.94
233.711	111.94
233.945	115.94
234.179	100.94
234.413	115.94
234.647	121.94
234.881	124.94
235.115	128.94
235.349	131.94
235.583	127.94
235.817	122.94
236.051	139.94
236.285	127.94
236.519	125.94
236.753	126.94
236.987	141.94
237.221	188.94
237.455	229.94
237.689	171.94
237.922	123.94
238.156	123.94
238.39	135.94
238.624	119.94
238.858	116.94
239.091	121.94
239.325	115.94
239.559	117.94
239.793	135.94
240.027	138.94
240.26	159.94
240.494	155.94
240.728	158.94
240.961	158.94
241.195	142.94
241.429	144.94
241.662	133.94
241.896	131.94
242.13	139.94
242.363	141.94
242.597	145.94
242.83	133.94
243.064	125.94
243.298	141.94
243.531	126.94
243.765	143.94
243.998	151.94
244.232	142.94
244.465	139.94
244.699	149.94
244.932	140.94
245.166	149.94
245.399	147.94
245.633	154.94
245.866	142.94
246.099	155.94
246.333	151.94
246.566	151.94
246.8	139.94
247.033	153.94
247.266	144.94
247.5	168.94
247.733	168.94
247.966	169.94
248.2	162.94
248.433	154.94
248.666	173.94
248.899	169.94
249.133	187.94
249.366	203.94
249.599	200.94
249.832	180.94
250.066	166.94
250.299	181.94
250.532	196.94
250.765	199.94
250.998	212.94
251.231	222.94
251.465	220.94
251.698	184.94
251.931	186.94
252.164	205.94
252.397	195.94
252.63	190.94
252.863	196.94
253.096	202.94
253.329	225.94
253.562	197.94
253.795	202.94
254.028	207.94
254.261	188.94
254.494	205.94
254.727	230.94
254.96	273.94
255.193	257.94
255.426	220.94
255.659	231.94
255.892	214.94
256.124	216.94
256.357	228.94
256.59	225.94
256.823	211.94
257.056	194.94
257.289	202.94
257.521	200.94
257.754	197.94
257.987	199.94
258.22	202.94
258.452	211.94
258.685	206.94
258.918	193.94
259.151	200.94
259.383	211.94
259.616	217.94
259.849	211.94
260.081	223.94
260.314	238.94
260.547	252.94
260.779	218.94
261.012	213.94
261.244	218.94
261.477	221.94
261.71	205.94
261.942	235.94
262.175	222.94
262.407	213.94
262.64	207.94
262.872	203.94
263.105	208.94
263.337	197.94
263.57	198.94
263.802	205.94
264.035	206.94
264.267	202.94
264.499	216.94
264.732	214.94
264.964	223.94
265.197	204.94
265.429	211.94
265.661	204.94
265.894	225.94
266.126	206.94
266.358	220.94
266.591	201.94
266.823	226.94
267.055	221.94
267.287	242.94
267.52	227.94
267.752	215.94
267.984	234.94
268.216	225.94
268.448	234.94
268.681	216.94
268.913	241.94
269.145	244.94
269.377	265.94
269.609	252.94
269.841	238.94
270.073	251.94
270.306	276.94
270.538	309.94
270.77	293.94
271.002	269.94
271.234	287.94
271.466	283.94
271.698	293.94
271.93	311.94
272.162	306.94
272.394	286.94
272.626	293.94
272.858	271.94
273.09	268.94
273.322	259.94
273.553	267.94
273.785	257.94
274.017	266.94
274.249	242.94
274.481	270.94
274.713	277.94
274.945	257.94
275.176	262.94
275.408	281.94
275.64	255.94
275.872	249.94
276.104	286.94
276.335	259.94
276.567	262.94
276.799	285.94
277.031	293.94
277.262	318.94
277.494	300.94
277.726	283.94
277.957	278.94
278.189	274.94
278.421	278.94
278.652	271.94
278.884	281.94
279.115	254.94
279.347	259.94
279.579	259.94
279.81	259.94
280.042	267.94
280.273	277.94
280.505	270.94
280.736	258.94
280.968	257.94
281.199	263.94
281.431	266.94
281.662	278.94
281.894	265.94
282.125	276.94
282.356	291.94
282.588	300.94
282.819	315.94
283.051	272.94
283.282	275.94
283.513	292.94
283.745	277.94
283.976	298.94
284.207	287.94
284.439	277.94
284.67	261.94
284.901	286.94
285.132	273.94
285.364	282.94
285.595	274.94
285.826	285.94
286.057	268.94
286.288	284.94
286.52	291.94
286.751	286.94
286.982	270.94
287.213	293.94
287.444	271.94
287.675	286.94
287.906	301.94
288.138	293.94
288.369	315.94
288.6	292.94
288.831	315.94
289.062	303.94
289.293	287.94
289.524	285.94
289.755	290.94
289.986	297.94
290.217	283.94
290.448	291.94
290.679	281.94
290.91	280.94
291.141	283.94
291.371	295.94
291.602	306.94
291.833	306.94
292.064	285.94
292.295	279.94
292.526	291.94
292.757	284.94
292.987	296.94
293.218	285.94
293.449	288.94
293.68	281.94
293.91	292.94
294.141	295.94
294.372	298.94
294.603	283.94
294.833	311.94
295.064	299.94
295.295	312.94
295.525	297.94
295.756	294.94
295.987	317.94
296.217	315.94
296.448	330.94
296.679	310.94
296.909	317.94
297.14	323.94
297.37	329.94
297.601	290.94
297.831	306.94
298.062	291.94
298.292	315.94
298.523	307.94
298.753	313.94
298.984	291.94
299.214	309.94
299.445	317.94
299.675	322.94
299.905	317.94
300.136	309.94
300.366	321.94
300.597	318.94
300.827	326.94
301.057	326.94
301.288	331.94
301.518	335.94
301.748	328.94
301.979	334.94
302.209	333.94
302.439	344.94
302.669	322.94
302.9	335.94
303.13	339.94
303.36	336.94
303.59	328.94
303.82	354.94
304.051	348.94
304.281	337.94
304.511	338.94
304.741	336.94
304.971	345.94
305.201	320.94
305.431	349.94
305.661	324.94
305.891	353.94
306.121	338.94
306.352	334.94
306.582	346.94
306.812	338.94
307.042	335.94
307.272	333.94
307.502	351.94
307.731	316.94
307.961	340.94
308.191	327.94
308.421	337.94
308.651	331.94
308.881	342.94
309.111	325.94
309.341	363.94
309.571	349.94
309.8	353.94
310.03	382.94
310.26	371.94
310.49	361.94
310.72	375.94
310.949	393.94
311.179	396.94
311.409	389.94
311.639	382.94
311.868	387.94
312.098	368.94
312.328	378.94
312.557	389.94
312.787	398.94
313.017	394.94
313.246	394.94
313.476	383.94
313.706	385.94
313.935	361.94
314.165	403.94
314.394	385.94
314.624	394.94
314.853	382.94
315.083	386.94
315.312	357.94
315.542	351.94
315.771	373.94
316.001	366.94
316.23	358.94
316.46	382.94
316.689	363.94
316.919	393.94
317.148	393.94
317.377	389.94
317.607	395.94
317.836	373.94
318.065	387.94
318.295	383.94
318.524	374.94
318.753	357.94
318.983	381.94
319.212	387.94
319.441	373.94
319.67	395.94
319.9	392.94
320.129	374.94
320.358	380.94
320.587	385.94
320.816	391.94
321.046	389.94
321.275	400.94
321.504	391.94
321.733	414.94
321.962	405.94
322.191	411.94
322.42	436.94
322.649	442.94
322.878	431.94
323.108	454.94
323.337	480.94
323.566	485.94
323.795	511.94
324.024	531.94
324.253	661.94
324.482	938.94
324.71	1433.94
324.939	2191.94
325.168	1869.94
325.397	947.94
325.626	630.94
325.855	551.94
326.084	509.94
326.313	491.94
326.542	509.94
326.77	539.94
326.999	633.94
327.228	857.94
327.457	1288.94
327.686	1643.94
327.914	1045.94
328.143	692.94
328.372	597.94
328.6	575.94
328.829	541.94
329.058	547.94
329.287	577.94
329.515	555.94
329.744	503.94
329.972	502.94
330.201	548.94
330.43	582.94
330.658	577.94
330.887	582.94
331.115	590.94
331.344	520.94
331.572	497.94
331.801	472.94
332.03	492.94
332.258	477.94
332.486	469.94
332.715	459.94
332.943	476.94
333.172	469.94
333.4	485.94
333.629	490.94
333.857	487.94
334.085	511.94
334.314	523.94
334.542	539.94
334.771	568.94
334.999	509.94
335.227	480.94
335.455	461.94
335.684	469.94
335.912	477.94
336.14	458.94
336.369	461.94
336.597	469.94
336.825	484.94
337.053	474.94
337.281	468.94
337.51	459.94
337.738	469.94
337.966	456.94
338.194	449.94
338.422	451.94
338.65	474.94
338.878	449.94
339.106	441.94
339.334	461.94
339.562	457.94
339.79	442.94
340.018	421.94
340.246	425.94
340.474	455.94
340.702	443.94
340.93	444.94
341.158	445.94
341.386	440.94
341.614	452.94
341.842	407.94
342.07	426.94
342.298	444.94
342.526	423.94
342.754	419.94
342.981	434.94
343.209	417.94
343.437	445.94
343.665	442.94
343.893	462.94
344.12	446.94
344.348	448.94
344.576	458.94
344.804	462.94
345.031	454.94
345.259	462.94
345.487	446.94
345.714	452.94
345.942	418.94
346.17	422.94
346.397	419.94
346.625	426.94
346.853	454.94
347.08	417.94
347.308	447.94
347.535	434.94
347.763	437.94
347.99	452.94
348.218	431.94
348.445	453.94
348.673	439.94
348.9	418.94
349.128	421.94
349.355	444.94
349.583	426.94
349.81	422.94
350.037	411.94
350.265	422.94
350.492	418.94
350.72	424.94
350.947	413.94
351.174	417.94
351.402	421.94
351.629	449.94
351.856	442.94
352.083	443.94
352.311	441.94
352.538	422.94
352.765	445.94
352.992	439.94
353.22	438.94
353.447	447.94
353.674	412.94
353.901	415.94
354.128	408.94
354.355	411.94
354.583	400.94
354.81	392.94
355.037	421.94
355.264	393.94
355.491	429.94
355.718	395.94
355.945	404.94
356.172	413.94
356.399	418.94
356.626	391.94
356.853	395.94
357.08	398.94
357.307	403.94
357.534	390.94
357.761	389.94
357.988	404.94
358.215	420.94
358.441	410.94
358.668	407.94
358.895	367.94
359.122	419.94
359.349	419.94
359.576	418.94
359.802	440.94
360.029	478.94
360.256	482.94
360.483	451.94
360.709	441.94
360.936	439.94
361.163	429.94
361.39	439.94
361.616	435.94
361.843	417.94
362.07	428.94
362.296	450.94
362.523	429.94
362.749	413.94
362.976	427.94
363.203	429.94
363.429	417.94
363.656	438.94
363.882	408.94
364.109	425.94
364.335	409.94
364.562	408.94
364.788	423.94
365.015	429.94
365.241	424.94
365.468	426.94
365.694	420.94
365.92	426.94
366.147	411.94
366.373	431.94
366.599	410.94
366.826	410.94
367.052	407.94
367.278	418.94
367.505	420.94
367.731	411.94
367.957	421.94
368.184	417.94
368.41	411.94
368.636	410.94
368.862	423.94
369.089	411.94
369.315	420.94
369.541	418.94
369.767	415.94
369.993	438.94
370.219	426.94
370.445	433.94
370.672	433.94
370.898	406.94
371.124	415.94
371.35	402.94
371.576	417.94
371.802	419.94
372.028	432.94
372.254	428.94
372.48	428.94
372.706	433.94
372.932	426.94
373.158	423.94
373.384	429.94
373.61	423.94
373.835	442.94
374.061	437.94
374.287	439.94
374.513	423.94
374.739	444.94
374.965	452.94
375.191	421.94
375.416	439.94
375.642	429.94
375.868	429.94
376.094	434.94
376.319	435.94
376.545	411.94
376.771	429.94
376.997	430.94
377.222	436.94
377.448	420.94
377.674	406.94
377.899	403.94
378.125	407.94
378.35	451.94
378.576	404.94
378.802	412.94
379.027	426.94
379.253	404.94
379.478	429.94
379.704	422.94
379.929	445.94
380.155	428.94
380.38	424.94
380.606	415.94
380.831	431.94
381.057	444.94
381.282	428.94
381.507	426.94
381.733	442.94
381.958	423.94
382.184	439.94
382.409	445.94
382.634	434.94
382.86	419.94
383.085	443.94
383.31	439.94
383.535	453.94
383.761	447.94
383.986	468.94
384.211	462.94
384.436	457.94
384.662	462.94
384.887	479.94
385.112	474.94
385.337	459.94
385.562	468.94
385.787	474.94
386.013	486.94
386.238	490.94
386.463	481.94
386.688	486.94
386.913	480.94
387.138	468.94
387.363	461.94
387.588	461.94
387.813	468.94
388.038	459.94
388.263	481.94
388.488	471.94
388.713	478.94
388.938	487.94
389.163	487.94
389.387	447.94
389.612	462.94
389.837	494.94
390.062	472.94
390.287	471.94
390.512	475.94
390.736	488.94
390.961	486.94
391.186	481.94
391.411	481.94
391.636	502.94
391.86	508.94
392.085	490.94
392.31	494.94
392.534	497.94
392.759	500.94
392.984	497.94
393.208	495.94
393.433	502.94
393.658	481.94
393.882	497.94
394.107	475.94
394.331	486.94
394.556	504.94
394.78	497.94
395.005	475.94
395.229	491.94
395.454	490.94
395.678	514.94
395.903	515.94
396.127	520.94
396.352	550.94
396.576	503.94
396.801	497.94
397.025	508.94
397.249	500.94
397.474	521.94
397.698	548.94
397.922	543.94
398.147	533.94
398.371	550.94
398.595	550.94
398.82	552.94
399.044	557.94
399.268	587.94
399.492	659.94
399.717	667.94
399.941	689.94
400.165	694.94
400.389	697.94
400.613	638.94
400.837	602.94
401.062	577.94
401.286	583.94
401.51	584.94
401.734	567.94
401.958	569.94
402.182	572.94
402.406	597.94
402.63	608.94
402.854	572.94
403.078	586.94
403.302	595.94
403.526	596.94
403.75	607.94
403.974	589.94
404.198	601.94
404.422	612.94
404.645	590.94
404.869	605.94
405.093	645.94
405.317	688.94
405.541	725.94
405.765	635.94
405.988	610.94
406.212	634.94
406.436	660.94
406.66	671.94
406.883	663.94
407.107	680.94
407.331	740.94
407.555	797.94
407.778	764.94
408.002	692.94
408.226	672.94
408.449	671.94
408.673	653.94
408.896	684.94
409.12	702.94
409.344	690.94
409.567	625.94
409.791	613.94
410.014	590.94
410.238	595.94
410.461	596.94
410.685	578.94
410.908	621.94
411.132	630.94
411.355	681.94
411.578	646.94
411.802	627.94
412.025	610.94
412.249	606.94
412.472	645.94
412.695	644.94
412.919	664.94
413.142	640.94
413.365	600.94
413.589	579.94
413.812	586.94
414.035	569.94
414.258	578.94
414.482	573.94
414.705	555.94
414.928	579.94
415.151	574.94
415.374	565.94
415.597	554.94
415.821	562.94
416.044	555.94
416.267	563.94
416.49	597.94
416.713	555.94
416.936	563.94
417.159	582.94
417.382	572.94
417.605	558.94
417.828	577.94
418.051	595.94
418.274	566.94
418.497	545.94
418.72	567.94
418.943	548.94
419.166	594.94
419.389	619.94
419.611	615.94
419.834	617.94
420.057	613.94
420.28	585.94
420.503	589.94
420.726	579.94
420.948	587.94
421.171	618.94
421.394	661.94
421.617	585.94
421.839	597.94
422.062	591.94
422.285	595.94
422.507	666.94
422.73	737.94
422.953	711.94
423.175	628.94
423.398	602.94
423.621	595.94
423.843	619.94
424.066	642.94
424.288	621.94
424.511	644.94
424.733	700.94
424.956	781.94
425.178	761.94
425.401	728.94
425.623	782.94
425.846	653.94
426.068	642.94
426.291	627.94
426.513	616.94
426.735	633.94
426.958	659.94
427.18	756.94
427.402	847.94
427.625	971.94
427.847	847.94
428.069	707.94
428.292	658.94
428.514	609.94
428.736	581.94
428.958	594.94
429.181	575.94
429.403	578.94
429.625	558.94
429.847	617.94
430.069	647.94
430.292	680.94
430.514	568.94
430.736	557.94
430.958	549.94
431.18	566.94
431.402	544.94
431.624	519.94
431.846	548.94
432.068	541.94
432.29	556.94
432.512	531.94
432.734	555.94
432.956	559.94
433.178	557.94
433.4	546.94
433.622	564.94
433.844	518.94
434.066	557.94
434.287	543.94
434.509	564.94
434.731	585.94
434.953	604.94
435.175	595.94
435.397	598.94
435.618	597.94
435.84	637.94
436.062	762.94
436.284	817.94
436.505	665.94
436.727	631.94
436.949	598.94
437.17	573.94
437.392	577.94
437.614	572.94
437.835	615.94
438.057	695.94
438.278	802.94
438.5	803.94
438.721	892.94
438.943	861.94
439.165	695.94
439.386	633.94
439.608	622.94
439.829	616.94
440.05	619.94
440.272	675.94
440.493	659.94
440.715	623.94
440.936	580.94
441.158	591.94
441.379	580.94
441.6	589.94
441.822	626.94
442.043	668.94
442.264	720.94
442.486	774.94
442.707	665.94
442.928	613.94
443.149	621.94
443.371	637.94
443.592	681.94
443.813	781.94
444.034	890.94
444.255	731.94
444.476	681.94
444.698	605.94
444.919	626.94
445.14	745.94
445.361	699.94
445.582	691.94
445.803	742.94
446.024	846.94
446.245	840.94
446.466	761.94
446.687	644.94
446.908	616.94
447.129	575.94
447.35	560.94
447.571	587.94
447.792	551.94
448.013	543.94
448.234	579.94
448.455	622.94
448.675	737.94
448.896	870.94
449.117	740.94
449.338	698.94
449.559	818.94
449.779	893.94
450	737.94
450.221	605.94
450.442	567.94
450.662	599.94
450.883	586.94
451.104	586.94
451.324	570.94
451.545	563.94
451.766	538.94
451.986	528.94
452.207	515.94
452.428	496.94
452.648	498.94
452.869	494.94
453.089	517.94
453.31	520.94
453.53	537.94
453.751	500.94
453.971	517.94
454.192	539.94
454.412	537.94
454.633	523.94
454.853	516.94
455.073	531.94
455.294	542.94
455.514	610.94
455.734	573.94
455.955	499.94
456.175	485.94
456.395	480.94
456.616	481.94
456.836	493.94
457.056	477.94
457.276	486.94
457.497	475.94
457.717	484.94
457.937	495.94
458.157	493.94
458.377	511.94
458.598	542.94
458.818	590.94
459.038	670.94
459.258	679.94
459.478	625.94
459.698	541.94
459.918	568.94
460.138	561.94
460.358	598.94
460.578	587.94
460.798	602.94
461.018	582.94
461.238	607.94
461.458	577.94
461.678	587.94
461.898	578.94
462.118	563.94
462.338	598.94
462.558	585.94
462.777	611.94
462.997	629.94
463.217	641.94
463.437	663.94
463.657	629.94
463.876	627.94
464.096	636.94
464.316	616.94
464.536	633.94
464.755	628.94
464.975	605.94
465.195	650.94
465.414	707.94
465.634	629.94
465.854	603.94
466.073	580.94
466.293	545.94
466.512	529.94
466.732	535.94
466.951	540.94
467.171	519.94
467.391	527.94
467.61	547.94
467.829	553.94
468.049	552.94
468.268	549.94
468.488	519.94
468.707	517.94
468.927	549.94
469.146	513.94
469.365	519.94
469.585	539.94
469.804	535.94
470.023	538.94
470.243	557.94
470.462	531.94
470.681	553.94
470.901	556.94
471.12	536.94
471.339	548.94
471.558	556.94
471.777	540.94
471.997	524.94
472.216	522.94
472.435	578.94
472.654	554.94
472.873	534.94
473.092	519.94
473.311	541.94
473.53	531.94
473.749	541.94
473.968	590.94
474.187	657.94
474.406	669.94
474.625	582.94
474.844	543.94
475.063	531.94
475.282	540.94
475.501	538.94
475.72	547.94
475.939	563.94
476.158	565.94
476.377	570.94
476.596	588.94
476.814	557.94
477.033	577.94
477.252	569.94
477.471	587.94
477.69	597.94
477.908	592.94
478.127	623.94
478.346	590.94
478.564	600.94
478.783	604.94
479.002	626.94
479.22	611.94
479.439	629.94
479.658	663.94
479.876	667.94
480.095	667.94
480.313	671.94
480.532	683.94
480.751	662.94
480.969	673.94
481.188	710.94
481.406	796.94
481.624	695.94
481.843	656.94
482.061	645.94
482.28	622.94
482.498	641.94
482.717	639.94
482.935	645.94
483.153	621.94
483.372	613.94
483.59	619.94
483.808	627.94
484.027	639.94
484.245	640.94
484.463	639.94
484.681	664.94
484.9	646.94
485.118	661.94
485.336	634.94
485.554	631.94
485.772	644.94
485.99	634.94
486.209	645.94
486.427	641.94
486.645	661.94
486.863	681.94
487.081	679.94
487.299	665.94
487.517	689.94
487.735	672.94
487.953	686.94
488.171	675.94
488.389	694.94
488.607	687.94
488.825	677.94
489.043	665.94
489.261	691.94
489.479	677.94
489.696	673.94
489.914	684.94
490.132	665.94
490.35	706.94
490.568	712.94
490.786	720.94
491.003	720.94
491.221	730.94
491.439	759.94
491.657	748.94
491.874	760.94
492.092	748.94
492.31	736.94
492.527	778.94
492.745	753.94
492.963	766.94
493.18	782.94
493.398	777.94
493.615	779.94
493.833	821.94
494.05	803.94
494.268	795.94
494.485	801.94
494.703	803.94
494.92	800.94
495.138	798.94
495.355	803.94
495.573	783.94
495.79	800.94
496.008	789.94
496.225	813.94
496.442	797.94
496.66	777.94
496.877	794.94
497.094	798.94
497.312	804.94
497.529	847.94
497.746	846.94
497.963	863.94
498.181	889.94
498.398	909.94
498.615	942.94
498.832	933.94
499.049	953.94
499.267	997.94
499.484	1045.94
499.701	1097.94
499.918	1127.94
500.135	1190.94
500.352	1254.94
500.569	1234.94
500.786	1265.94
501.003	1228.94
501.22	1162.94
501.437	1118.94
501.654	1107.94
501.871	1091.94
