Data from 1979.PennyLincolnUp.Lamp.En5.5.200Scan.071719.P1_HRD10591_16-17-26-863.txt Node
Date: Thu Jul 18 16:17:26 EDT 2019
User: cochatt
Spectrometer: HR+D1059
Trigger mode: 1
Integration Time (sec): 1.000000E-1
Scans to average: 1
Electric dark correction enabled: true
Nonlinearity correction enabled: false
Boxcar width: 0
XAxis mode: Wavelengths
Number of Pixels in Spectrum: 2048
>>>>>Begin Spectral Data<<<<<
223.165	-18.31
223.4	-18.31
223.635	-18.31
223.869	-24.31
224.104	-19.31
224.338	-25.31
224.573	-24.31
224.808	-4.31
225.042	-3.31
225.277	-1.31
225.511	-2.31
225.746	4.69
225.98	4.69
226.215	21.69
226.449	6.69
226.683	18.69
226.918	29.69
227.152	36.69
227.387	36.69
227.621	33.69
227.856	39.69
228.09	35.69
228.324	48.69
228.559	53.69
228.793	52.69
229.027	79.69
229.262	79.69
229.496	89.69
229.73	101.69
229.964	128.69
230.199	124.69
230.433	89.69
230.667	105.69
230.901	107.69
231.136	113.69
231.37	126.69
231.604	108.69
231.838	110.69
232.072	114.69
232.306	101.69
232.541	112.69
232.775	116.69
233.009	109.69
233.243	109.69
233.477	115.69
233.711	101.69
233.945	117.69
234.179	120.69
234.413	94.69
234.647	110.69
234.881	119.69
235.115	122.69
235.349	122.69
235.583	126.69
235.817	107.69
236.051	126.69
236.285	112.69
236.519	123.69
236.753	115.69
236.987	107.69
237.221	145.69
237.455	188.69
237.689	151.69
237.922	124.69
238.156	116.69
238.39	119.69
238.624	122.69
238.858	107.69
239.091	103.69
239.325	128.69
239.559	123.69
239.793	124.69
240.027	133.69
240.26	132.69
240.494	130.69
240.728	125.69
240.961	142.69
241.195	126.69
241.429	124.69
241.662	116.69
241.896	131.69
242.13	140.69
242.363	114.69
242.597	112.69
242.83	131.69
243.064	140.69
243.298	140.69
243.531	133.69
243.765	118.69
243.998	132.69
244.232	130.69
244.465	129.69
244.699	139.69
244.932	125.69
245.166	138.69
245.399	144.69
245.633	132.69
245.866	122.69
246.099	140.69
246.333	137.69
246.566	142.69
246.8	128.69
247.033	132.69
247.266	134.69
247.5	145.69
247.733	147.69
247.966	151.69
248.2	152.69
248.433	155.69
248.666	148.69
248.899	159.69
249.133	173.69
249.366	171.69
249.599	174.69
249.832	157.69
250.066	154.69
250.299	154.69
250.532	147.69
250.765	175.69
250.998	162.69
251.231	179.69
251.465	186.69
251.698	166.69
251.931	171.69
252.164	169.69
252.397	184.69
252.63	190.69
252.863	162.69
253.096	184.69
253.329	194.69
253.562	186.69
253.795	180.69
254.028	193.69
254.261	180.69
254.494	181.69
254.727	212.69
254.96	203.69
255.193	196.69
255.426	203.69
255.659	178.69
255.892	197.69
256.124	186.69
256.357	188.69
256.59	199.69
256.823	187.69
257.056	182.69
257.289	168.69
257.521	166.69
257.754	175.69
257.987	188.69
258.22	175.69
258.452	170.69
258.685	183.69
258.918	184.69
259.151	175.69
259.383	187.69
259.616	185.69
259.849	186.69
260.081	198.69
260.314	206.69
260.547	213.69
260.779	193.69
261.012	192.69
261.244	181.69
261.477	186.69
261.71	191.69
261.942	198.69
262.175	201.69
262.407	207.69
262.64	183.69
262.872	203.69
263.105	195.69
263.337	168.69
263.57	184.69
263.802	197.69
264.035	181.69
264.267	197.69
264.499	186.69
264.732	199.69
264.964	195.69
265.197	199.69
265.429	186.69
265.661	180.69
265.894	190.69
266.126	202.69
266.358	215.69
266.591	190.69
266.823	211.69
267.055	188.69
267.287	207.69
267.52	199.69
267.752	183.69
267.984	200.69
268.216	192.69
268.448	187.69
268.681	185.69
268.913	197.69
269.145	223.69
269.377	212.69
269.609	207.69
269.841	200.69
270.073	215.69
270.306	241.69
270.538	244.69
270.77	246.69
271.002	247.69
271.234	237.69
271.466	240.69
271.698	242.69
271.93	261.69
272.162	240.69
272.394	246.69
272.626	232.69
272.858	226.69
273.09	224.69
273.322	221.69
273.553	228.69
273.785	214.69
274.017	220.69
274.249	212.69
274.481	232.69
274.713	231.69
274.945	232.69
275.176	229.69
275.408	236.69
275.64	229.69
275.872	212.69
276.104	228.69
276.335	231.69
276.567	230.69
276.799	218.69
277.031	258.69
277.262	268.69
277.494	262.69
277.726	259.69
277.957	256.69
278.189	241.69
278.421	227.69
278.652	226.69
278.884	243.69
279.115	248.69
279.347	240.69
279.579	272.69
279.81	259.69
280.042	265.69
280.273	247.69
280.505	248.69
280.736	245.69
280.968	255.69
281.199	239.69
281.431	244.69
281.662	234.69
281.894	233.69
282.125	243.69
282.356	244.69
282.588	246.69
282.819	276.69
283.051	236.69
283.282	235.69
283.513	277.69
283.745	246.69
283.976	267.69
284.207	233.69
284.439	258.69
284.67	244.69
284.901	247.69
285.132	247.69
285.364	253.69
285.595	250.69
285.826	255.69
286.057	247.69
286.288	261.69
286.52	261.69
286.751	252.69
286.982	253.69
287.213	234.69
287.444	276.69
287.675	242.69
287.906	264.69
288.138	275.69
288.369	269.69
288.6	262.69
288.831	256.69
289.062	262.69
289.293	245.69
289.524	263.69
289.755	244.69
289.986	258.69
290.217	253.69
290.448	278.69
290.679	268.69
290.91	247.69
291.141	255.69
291.371	268.69
291.602	242.69
291.833	267.69
292.064	277.69
292.295	252.69
292.526	257.69
292.757	262.69
292.987	275.69
293.218	259.69
293.449	269.69
293.68	268.69
293.91	270.69
294.141	266.69
294.372	269.69
294.603	269.69
294.833	260.69
295.064	263.69
295.295	272.69
295.525	278.69
295.756	248.69
295.987	256.69
296.217	276.69
296.448	294.69
296.679	274.69
296.909	277.69
297.14	283.69
297.37	283.69
297.601	260.69
297.831	266.69
298.062	276.69
298.292	273.69
298.523	291.69
298.753	279.69
298.984	279.69
299.214	285.69
299.445	278.69
299.675	290.69
299.905	269.69
300.136	278.69
300.366	260.69
300.597	283.69
300.827	292.69
301.057	285.69
301.288	286.69
301.518	300.69
301.748	282.69
301.979	303.69
302.209	303.69
302.439	289.69
302.669	287.69
302.9	276.69
303.13	280.69
303.36	306.69
303.59	298.69
303.82	285.69
304.051	301.69
304.281	298.69
304.511	305.69
304.741	303.69
304.971	276.69
305.201	289.69
305.431	299.69
305.661	296.69
305.891	290.69
306.121	310.69
306.352	308.69
306.582	300.69
306.812	286.69
307.042	301.69
307.272	280.69
307.502	293.69
307.731	306.69
307.961	304.69
308.191	294.69
308.421	314.69
308.651	314.69
308.881	334.69
309.111	323.69
309.341	301.69
309.571	323.69
309.8	306.69
310.03	317.69
310.26	318.69
310.49	313.69
310.72	326.69
310.949	330.69
311.179	339.69
311.409	324.69
311.639	309.69
311.868	319.69
312.098	336.69
312.328	348.69
312.557	346.69
312.787	341.69
313.017	346.69
313.246	326.69
313.476	334.69
313.706	317.69
313.935	332.69
314.165	345.69
314.394	337.69
314.624	353.69
314.853	366.69
315.083	347.69
315.312	342.69
315.542	315.69
315.771	340.69
316.001	330.69
316.23	347.69
316.46	332.69
316.689	330.69
316.919	330.69
317.148	341.69
317.377	348.69
317.607	327.69
317.836	347.69
318.065	365.69
318.295	349.69
318.524	326.69
318.753	349.69
318.983	347.69
319.212	327.69
319.441	356.69
319.67	345.69
319.9	330.69
320.129	328.69
320.358	349.69
320.587	341.69
320.816	334.69
321.046	348.69
321.275	354.69
321.504	344.69
321.733	356.69
321.962	344.69
322.191	371.69
322.42	375.69
322.649	380.69
322.878	372.69
323.108	367.69
323.337	394.69
323.566	416.69
323.795	420.69
324.024	461.69
324.253	510.69
324.482	703.69
324.71	1090.69
324.939	1617.69
325.168	1360.69
325.397	679.69
325.626	506.69
325.855	434.69
326.084	398.69
326.313	404.69
326.542	420.69
326.77	430.69
326.999	491.69
327.228	664.69
327.457	1001.69
327.686	1192.69
327.914	770.69
328.143	550.69
328.372	475.69
328.6	440.69
328.829	450.69
329.058	423.69
329.287	455.69
329.515	423.69
329.744	398.69
329.972	399.69
330.201	407.69
330.43	452.69
330.658	473.69
330.887	458.69
331.115	462.69
331.344	420.69
331.572	400.69
331.801	427.69
332.03	427.69
332.258	412.69
332.486	403.69
332.715	407.69
332.943	382.69
333.172	410.69
333.4	416.69
333.629	449.69
333.857	430.69
334.085	429.69
334.314	429.69
334.542	456.69
334.771	452.69
334.999	424.69
335.227	421.69
335.455	405.69
335.684	415.69
335.912	408.69
336.14	383.69
336.369	398.69
336.597	400.69
336.825	422.69
337.053	411.69
337.281	397.69
337.51	392.69
337.738	400.69
337.966	400.69
338.194	407.69
338.422	411.69
338.65	409.69
338.878	388.69
339.106	390.69
339.334	401.69
339.562	378.69
339.79	374.69
340.018	370.69
340.246	400.69
340.474	374.69
340.702	391.69
340.93	379.69
341.158	401.69
341.386	388.69
341.614	373.69
341.842	405.69
342.07	381.69
342.298	388.69
342.526	365.69
342.754	410.69
342.981	387.69
343.209	408.69
343.437	404.69
343.665	385.69
343.893	398.69
344.12	426.69
344.348	403.69
344.576	399.69
344.804	415.69
345.031	405.69
345.259	399.69
345.487	398.69
345.714	380.69
345.942	391.69
346.17	398.69
346.397	389.69
346.625	378.69
346.853	367.69
347.08	361.69
347.308	372.69
347.535	366.69
347.763	373.69
347.99	385.69
348.218	376.69
348.445	394.69
348.673	395.69
348.9	384.69
349.128	385.69
349.355	378.69
349.583	390.69
349.81	360.69
350.037	370.69
350.265	353.69
350.492	379.69
350.72	370.69
350.947	352.69
351.174	380.69
351.402	379.69
351.629	379.69
351.856	393.69
352.083	394.69
352.311	394.69
352.538	380.69
352.765	379.69
352.992	384.69
353.22	366.69
353.447	379.69
353.674	374.69
353.901	359.69
354.128	364.69
354.355	364.69
354.583	362.69
354.81	361.69
355.037	350.69
355.264	357.69
355.491	367.69
355.718	366.69
355.945	355.69
356.172	362.69
356.399	376.69
356.626	342.69
356.853	355.69
357.08	370.69
357.307	366.69
357.534	360.69
357.761	356.69
357.988	378.69
358.215	379.69
358.441	371.69
358.668	391.69
358.895	382.69
359.122	374.69
359.349	368.69
359.576	376.69
359.802	382.69
360.029	402.69
360.256	418.69
360.483	398.69
360.709	377.69
360.936	392.69
361.163	382.69
361.39	386.69
361.616	385.69
361.843	380.69
362.07	374.69
362.296	390.69
362.523	383.69
362.749	371.69
362.976	391.69
363.203	388.69
363.429	382.69
363.656	386.69
363.882	361.69
364.109	374.69
364.335	366.69
364.562	370.69
364.788	382.69
365.015	387.69
365.241	394.69
365.468	381.69
365.694	374.69
365.92	367.69
366.147	370.69
366.373	378.69
366.599	387.69
366.826	362.69
367.052	386.69
367.278	376.69
367.505	371.69
367.731	384.69
367.957	370.69
368.184	357.69
368.41	370.69
368.636	383.69
368.862	395.69
369.089	363.69
369.315	388.69
369.541	382.69
369.767	384.69
369.993	381.69
370.219	380.69
370.445	381.69
370.672	390.69
370.898	383.69
371.124	389.69
371.35	388.69
371.576	386.69
371.802	378.69
372.028	395.69
372.254	371.69
372.48	383.69
372.706	394.69
372.932	397.69
373.158	414.69
373.384	390.69
373.61	388.69
373.835	409.69
374.061	404.69
374.287	391.69
374.513	401.69
374.739	389.69
374.965	409.69
375.191	411.69
375.416	399.69
375.642	397.69
375.868	420.69
376.094	404.69
376.319	404.69
376.545	387.69
376.771	392.69
376.997	388.69
377.222	391.69
377.448	401.69
377.674	398.69
377.899	386.69
378.125	381.69
378.35	375.69
378.576	376.69
378.802	385.69
379.027	388.69
379.253	382.69
379.478	388.69
379.704	392.69
379.929	404.69
380.155	377.69
380.38	399.69
380.606	413.69
380.831	386.69
381.057	413.69
381.282	389.69
381.507	390.69
381.733	421.69
381.958	401.69
382.184	397.69
382.409	414.69
382.634	407.69
382.86	416.69
383.085	444.69
383.31	405.69
383.535	427.69
383.761	421.69
383.986	413.69
384.211	422.69
384.436	424.69
384.662	422.69
384.887	426.69
385.112	429.69
385.337	451.69
385.562	459.69
385.787	458.69
386.013	473.69
386.238	478.69
386.463	479.69
386.688	448.69
386.913	451.69
387.138	439.69
387.363	450.69
387.588	427.69
387.813	446.69
388.038	452.69
388.263	459.69
388.488	487.69
388.713	447.69
388.938	426.69
389.163	440.69
389.387	461.69
389.612	444.69
389.837	453.69
390.062	448.69
390.287	449.69
390.512	429.69
390.736	461.69
390.961	443.69
391.186	439.69
391.411	447.69
391.636	444.69
391.86	491.69
392.085	482.69
392.31	466.69
392.534	450.69
392.759	472.69
392.984	472.69
393.208	529.69
393.433	634.69
393.658	677.69
393.882	508.69
394.107	438.69
394.331	454.69
394.556	448.69
394.78	456.69
395.005	459.69
395.229	446.69
395.454	469.69
395.678	478.69
395.903	474.69
396.127	489.69
396.352	506.69
396.576	479.69
396.801	518.69
397.025	571.69
397.249	556.69
397.474	499.69
397.698	492.69
397.922	516.69
398.147	499.69
398.371	519.69
398.595	493.69
398.82	520.69
399.044	546.69
399.268	566.69
399.492	584.69
399.717	615.69
399.941	647.69
400.165	628.69
400.389	635.69
400.613	584.69
400.837	562.69
401.062	550.69
401.286	532.69
401.51	527.69
401.734	519.69
401.958	525.69
402.182	519.69
402.406	533.69
402.63	549.69
402.854	547.69
403.078	553.69
403.302	535.69
403.526	546.69
403.75	546.69
403.974	569.69
404.198	542.69
404.422	526.69
404.645	541.69
404.869	528.69
405.093	560.69
405.317	593.69
405.541	614.69
405.765	595.69
405.988	552.69
406.212	596.69
406.436	574.69
406.66	585.69
406.883	570.69
407.107	598.69
407.331	638.69
407.555	688.69
407.778	699.69
408.002	645.69
408.226	604.69
408.449	590.69
408.673	584.69
408.896	619.69
409.12	641.69
409.344	634.69
409.567	554.69
409.791	579.69
410.014	579.69
410.238	556.69
410.461	545.69
410.685	549.69
410.908	541.69
411.132	551.69
411.355	623.69
411.578	607.69
411.802	544.69
412.025	522.69
412.249	530.69
412.472	559.69
412.695	570.69
412.919	570.69
413.142	531.69
413.365	546.69
413.589	540.69
413.812	524.69
414.035	525.69
414.258	531.69
414.482	526.69
414.705	529.69
414.928	536.69
415.151	543.69
415.374	547.69
415.597	516.69
415.821	520.69
416.044	543.69
416.267	512.69
416.49	507.69
416.713	508.69
416.936	523.69
417.159	501.69
417.382	503.69
417.605	531.69
417.828	518.69
418.051	542.69
418.274	536.69
418.497	525.69
418.72	521.69
418.943	528.69
419.166	548.69
419.389	569.69
419.611	569.69
419.834	549.69
420.057	532.69
420.28	541.69
420.503	523.69
420.726	526.69
420.948	549.69
421.171	566.69
421.394	593.69
421.617	526.69
421.839	535.69
422.062	539.69
422.285	521.69
422.507	584.69
422.73	634.69
422.953	658.69
423.175	568.69
423.398	561.69
423.621	536.69
423.843	571.69
424.066	550.69
424.288	544.69
424.511	559.69
424.733	598.69
424.956	666.69
425.178	651.69
425.401	644.69
425.623	642.69
425.846	600.69
426.068	559.69
426.291	541.69
426.513	558.69
426.735	566.69
426.958	588.69
427.18	636.69
427.402	759.69
427.625	826.69
427.847	690.69
428.069	627.69
428.292	576.69
428.514	548.69
428.736	514.69
428.958	542.69
429.181	516.69
429.403	503.69
429.625	531.69
429.847	544.69
430.069	584.69
430.292	588.69
430.514	523.69
430.736	534.69
430.958	526.69
431.18	509.69
431.402	518.69
431.624	518.69
431.846	511.69
432.068	510.69
432.29	520.69
432.512	501.69
432.734	505.69
432.956	495.69
433.178	499.69
433.4	514.69
433.622	513.69
433.844	516.69
434.066	486.69
434.287	495.69
434.509	500.69
434.731	536.69
434.953	525.69
435.175	543.69
435.397	547.69
435.618	564.69
435.84	586.69
436.062	644.69
436.284	690.69
436.505	594.69
436.727	551.69
436.949	520.69
437.17	521.69
437.392	505.69
437.614	529.69
437.835	550.69
438.057	592.69
438.278	678.69
438.5	684.69
438.721	756.69
438.943	703.69
439.165	608.69
439.386	544.69
439.608	564.69
439.829	544.69
440.05	571.69
440.272	600.69
440.493	574.69
440.715	548.69
440.936	517.69
441.158	514.69
441.379	531.69
441.6	550.69
441.822	530.69
442.043	585.69
442.264	624.69
442.486	653.69
442.707	603.69
442.928	554.69
443.149	571.69
443.371	599.69
443.592	610.69
443.813	661.69
444.034	758.69
444.255	648.69
444.476	587.69
444.698	580.69
444.919	580.69
445.14	649.69
445.361	621.69
445.582	598.69
445.803	615.69
446.024	704.69
446.245	705.69
446.466	630.69
446.687	580.69
446.908	552.69
447.129	532.69
447.35	507.69
447.571	518.69
447.792	500.69
448.013	506.69
448.234	515.69
448.455	533.69
448.675	636.69
448.896	729.69
449.117	618.69
449.338	607.69
449.559	679.69
449.779	767.69
450	626.69
450.221	524.69
450.442	509.69
450.662	483.69
450.883	510.69
451.104	520.69
451.324	500.69
451.545	483.69
451.766	478.69
451.986	469.69
452.207	465.69
452.428	460.69
452.648	454.69
452.869	445.69
453.089	465.69
453.31	484.69
453.53	482.69
453.751	474.69
453.971	468.69
454.192	482.69
454.412	468.69
454.633	458.69
454.853	470.69
455.073	471.69
455.294	483.69
455.514	521.69
455.734	508.69
455.955	462.69
456.175	445.69
456.395	455.69
456.616	446.69
456.836	446.69
457.056	446.69
457.276	457.69
457.497	459.69
457.717	445.69
457.937	450.69
458.157	467.69
458.377	477.69
458.598	469.69
458.818	517.69
459.038	559.69
459.258	591.69
459.478	524.69
459.698	490.69
459.918	490.69
460.138	532.69
460.358	529.69
460.578	532.69
460.798	535.69
461.018	543.69
461.238	531.69
461.458	533.69
461.678	533.69
461.898	541.69
462.118	544.69
462.338	565.69
462.558	570.69
462.777	564.69
462.997	581.69
463.217	574.69
463.437	605.69
463.657	577.69
463.876	574.69
464.096	604.69
464.316	574.69
464.536	579.69
464.755	587.69
464.975	582.69
465.195	586.69
465.414	624.69
465.634	580.69
465.854	546.69
466.073	523.69
466.293	525.69
466.512	506.69
466.732	523.69
466.951	500.69
467.171	491.69
467.391	492.69
467.61	489.69
467.829	506.69
468.049	483.69
468.268	473.69
468.488	498.69
468.707	472.69
468.927	464.69
469.146	475.69
469.365	484.69
469.585	474.69
469.804	490.69
470.023	513.69
470.243	480.69
470.462	498.69
470.681	510.69
470.901	503.69
471.12	470.69
471.339	489.69
471.558	490.69
471.777	498.69
471.997	480.69
472.216	496.69
472.435	512.69
472.654	488.69
472.873	502.69
473.092	476.69
473.311	488.69
473.53	485.69
473.749	503.69
473.968	523.69
474.187	571.69
474.406	579.69
474.625	524.69
474.844	499.69
475.063	492.69
475.282	499.69
475.501	490.69
475.72	500.69
475.939	504.69
476.158	500.69
476.377	509.69
476.596	515.69
476.814	510.69
477.033	512.69
477.252	518.69
477.471	539.69
477.69	549.69
477.908	529.69
478.127	544.69
478.346	556.69
478.564	553.69
478.783	573.69
479.002	582.69
479.22	582.69
479.439	611.69
479.658	589.69
479.876	580.69
480.095	590.69
480.313	622.69
480.532	636.69
480.751	637.69
480.969	619.69
481.188	638.69
481.406	639.69
481.624	618.69
481.843	595.69
482.061	599.69
482.28	574.69
482.498	589.69
482.717	574.69
482.935	591.69
483.153	575.69
483.372	587.69
483.59	572.69
483.808	579.69
484.027	582.69
484.245	580.69
484.463	586.69
484.681	607.69
484.9	612.69
485.118	615.69
485.336	612.69
485.554	606.69
485.772	607.69
485.99	599.69
486.209	610.69
486.427	606.69
486.645	615.69
486.863	607.69
487.081	610.69
487.299	626.69
487.517	612.69
487.735	619.69
487.953	638.69
488.171	595.69
488.389	623.69
488.607	630.69
488.825	614.69
489.043	610.69
489.261	621.69
489.479	611.69
489.696	642.69
489.914	634.69
490.132	636.69
490.35	644.69
490.568	667.69
490.786	656.69
491.003	660.69
491.221	690.69
491.439	679.69
491.657	654.69
491.874	687.69
492.092	683.69
492.31	684.69
492.527	677.69
492.745	690.69
492.963	703.69
493.18	676.69
493.398	683.69
493.615	709.69
493.833	666.69
494.05	670.69
494.268	695.69
494.485	705.69
494.703	684.69
494.92	702.69
495.138	702.69
495.355	694.69
495.573	702.69
495.79	700.69
496.008	740.69
496.225	726.69
496.442	711.69
496.66	706.69
496.877	714.69
497.094	739.69
497.312	740.69
497.529	767.69
497.746	767.69
497.963	755.69
498.181	802.69
498.398	807.69
498.615	799.69
498.832	853.69
499.049	889.69
499.267	885.69
499.484	905.69
499.701	1001.69
499.918	1008.69
500.135	1116.69
500.352	1158.69
500.569	1174.69
500.786	1172.69
501.003	1167.69
501.22	1059.69
501.437	1031.69
501.654	997.69
501.871	982.69
