Data from 1979.PennyLincolnUp.Lamp.En5.5.200Scan.071719.P1_HRD10591_16-18-29-864.txt Node
Date: Thu Jul 18 16:18:29 EDT 2019
User: cochatt
Spectrometer: HR+D1059
Trigger mode: 1
Integration Time (sec): 1.000000E-1
Scans to average: 1
Electric dark correction enabled: true
Nonlinearity correction enabled: false
Boxcar width: 0
XAxis mode: Wavelengths
Number of Pixels in Spectrum: 2048
>>>>>Begin Spectral Data<<<<<
223.165	-14.88
223.4	-14.88
223.635	-14.88
223.869	-16.88
224.104	-20.88
224.338	-19.88
224.573	-12.88
224.808	-18.88
225.042	-12.88
225.277	0.12
225.511	7.12
225.746	-7.88
225.98	5.12
226.215	12.12
226.449	21.12
226.683	24.12
226.918	26.12
227.152	29.12
227.387	32.12
227.621	35.12
227.856	53.12
228.09	65.12
228.324	44.12
228.559	46.12
228.793	79.12
229.027	96.12
229.262	112.12
229.496	108.12
229.73	119.12
229.964	153.12
230.199	106.12
230.433	103.12
230.667	108.12
230.901	89.12
231.136	108.12
231.37	120.12
231.604	110.12
231.838	121.12
232.072	120.12
232.306	118.12
232.541	116.12
232.775	110.12
233.009	121.12
233.243	119.12
233.477	120.12
233.711	105.12
233.945	107.12
234.179	117.12
234.413	119.12
234.647	109.12
234.881	100.12
235.115	119.12
235.349	121.12
235.583	118.12
235.817	132.12
236.051	137.12
236.285	120.12
236.519	120.12
236.753	113.12
236.987	129.12
237.221	158.12
237.455	206.12
237.689	171.12
237.922	129.12
238.156	126.12
238.39	120.12
238.624	125.12
238.858	120.12
239.091	116.12
239.325	110.12
239.559	115.12
239.793	106.12
240.027	126.12
240.26	115.12
240.494	138.12
240.728	144.12
240.961	155.12
241.195	135.12
241.429	137.12
241.662	137.12
241.896	126.12
242.13	125.12
242.363	122.12
242.597	138.12
242.83	137.12
243.064	134.12
243.298	134.12
243.531	132.12
243.765	139.12
243.998	125.12
244.232	123.12
244.465	143.12
244.699	137.12
244.932	127.12
245.166	143.12
245.399	125.12
245.633	138.12
245.866	161.12
246.099	144.12
246.333	135.12
246.566	147.12
246.8	146.12
247.033	156.12
247.266	160.12
247.5	153.12
247.733	156.12
247.966	163.12
248.2	155.12
248.433	161.12
248.666	161.12
248.899	160.12
249.133	180.12
249.366	180.12
249.599	191.12
249.832	169.12
250.066	186.12
250.299	175.12
250.532	189.12
250.765	179.12
250.998	205.12
251.231	212.12
251.465	201.12
251.698	183.12
251.931	194.12
252.164	186.12
252.397	176.12
252.63	191.12
252.863	192.12
253.096	194.12
253.329	205.12
253.562	198.12
253.795	182.12
254.028	203.12
254.261	191.12
254.494	194.12
254.727	215.12
254.96	251.12
255.193	257.12
255.426	197.12
255.659	204.12
255.892	216.12
256.124	204.12
256.357	215.12
256.59	208.12
256.823	200.12
257.056	190.12
257.289	192.12
257.521	200.12
257.754	188.12
257.987	190.12
258.22	200.12
258.452	204.12
258.685	181.12
258.918	181.12
259.151	183.12
259.383	193.12
259.616	188.12
259.849	216.12
260.081	238.12
260.314	251.12
260.547	224.12
260.779	213.12
261.012	204.12
261.244	211.12
261.477	206.12
261.71	207.12
261.942	202.12
262.175	218.12
262.407	221.12
262.64	198.12
262.872	187.12
263.105	196.12
263.337	219.12
263.57	196.12
263.802	185.12
264.035	197.12
264.267	203.12
264.499	199.12
264.732	200.12
264.964	187.12
265.197	195.12
265.429	188.12
265.661	186.12
265.894	200.12
266.126	214.12
266.358	214.12
266.591	213.12
266.823	205.12
267.055	208.12
267.287	214.12
267.52	202.12
267.752	213.12
267.984	215.12
268.216	209.12
268.448	224.12
268.681	213.12
268.913	219.12
269.145	224.12
269.377	230.12
269.609	236.12
269.841	234.12
270.073	222.12
270.306	246.12
270.538	267.12
270.77	273.12
271.002	264.12
271.234	253.12
271.466	272.12
271.698	271.12
271.93	273.12
272.162	283.12
272.394	267.12
272.626	277.12
272.858	276.12
273.09	249.12
273.322	236.12
273.553	246.12
273.785	227.12
274.017	250.12
274.249	245.12
274.481	253.12
274.713	239.12
274.945	245.12
275.176	257.12
275.408	239.12
275.64	242.12
275.872	247.12
276.104	256.12
276.335	241.12
276.567	261.12
276.799	268.12
277.031	262.12
277.262	285.12
277.494	282.12
277.726	271.12
277.957	247.12
278.189	251.12
278.421	248.12
278.652	249.12
278.884	245.12
279.115	230.12
279.347	243.12
279.579	232.12
279.81	237.12
280.042	246.12
280.273	243.12
280.505	224.12
280.736	253.12
280.968	246.12
281.199	238.12
281.431	271.12
281.662	257.12
281.894	251.12
282.125	269.12
282.356	274.12
282.588	281.12
282.819	288.12
283.051	248.12
283.282	248.12
283.513	253.12
283.745	271.12
283.976	266.12
284.207	271.12
284.439	272.12
284.67	247.12
284.901	271.12
285.132	271.12
285.364	254.12
285.595	263.12
285.826	255.12
286.057	252.12
286.288	259.12
286.52	277.12
286.751	252.12
286.982	260.12
287.213	264.12
287.444	267.12
287.675	259.12
287.906	268.12
288.138	264.12
288.369	292.12
288.6	277.12
288.831	271.12
289.062	280.12
289.293	287.12
289.524	286.12
289.755	272.12
289.986	264.12
290.217	240.12
290.448	248.12
290.679	259.12
290.91	269.12
291.141	271.12
291.371	273.12
291.602	285.12
291.833	280.12
292.064	295.12
292.295	279.12
292.526	288.12
292.757	259.12
292.987	289.12
293.218	280.12
293.449	287.12
293.68	283.12
293.91	270.12
294.141	258.12
294.372	282.12
294.603	279.12
294.833	282.12
295.064	288.12
295.295	279.12
295.525	281.12
295.756	278.12
295.987	294.12
296.217	291.12
296.448	319.12
296.679	292.12
296.909	297.12
297.14	302.12
297.37	275.12
297.601	273.12
297.831	285.12
298.062	280.12
298.292	284.12
298.523	300.12
298.753	289.12
298.984	281.12
299.214	299.12
299.445	293.12
299.675	278.12
299.905	300.12
300.136	297.12
300.366	284.12
300.597	299.12
300.827	301.12
301.057	322.12
301.288	311.12
301.518	307.12
301.748	309.12
301.979	296.12
302.209	298.12
302.439	301.12
302.669	327.12
302.9	309.12
303.13	315.12
303.36	289.12
303.59	312.12
303.82	335.12
304.051	340.12
304.281	303.12
304.511	293.12
304.741	297.12
304.971	333.12
305.201	314.12
305.431	307.12
305.661	302.12
305.891	311.12
306.121	307.12
306.352	318.12
306.582	315.12
306.812	322.12
307.042	319.12
307.272	304.12
307.502	313.12
307.731	327.12
307.961	327.12
308.191	310.12
308.421	323.12
308.651	315.12
308.881	340.12
309.111	311.12
309.341	327.12
309.571	330.12
309.8	328.12
310.03	327.12
310.26	339.12
310.49	351.12
310.72	351.12
310.949	351.12
311.179	382.12
311.409	376.12
311.639	374.12
311.868	341.12
312.098	335.12
312.328	353.12
312.557	360.12
312.787	360.12
313.017	359.12
313.246	374.12
313.476	343.12
313.706	347.12
313.935	359.12
314.165	369.12
314.394	377.12
314.624	355.12
314.853	357.12
315.083	371.12
315.312	359.12
315.542	361.12
315.771	348.12
316.001	362.12
316.23	356.12
316.46	329.12
316.689	361.12
316.919	354.12
317.148	363.12
317.377	364.12
317.607	362.12
317.836	354.12
318.065	352.12
318.295	357.12
318.524	333.12
318.753	350.12
318.983	355.12
319.212	350.12
319.441	371.12
319.67	371.12
319.9	356.12
320.129	361.12
320.358	361.12
320.587	367.12
320.816	371.12
321.046	354.12
321.275	377.12
321.504	375.12
321.733	355.12
321.962	387.12
322.191	386.12
322.42	391.12
322.649	405.12
322.878	403.12
323.108	421.12
323.337	445.12
323.566	441.12
323.795	472.12
324.024	501.12
324.253	601.12
324.482	820.12
324.71	1273.12
324.939	1871.12
325.168	1651.12
325.397	841.12
325.626	585.12
325.855	486.12
326.084	454.12
326.313	458.12
326.542	476.12
326.77	492.12
326.999	588.12
327.228	742.12
327.457	1177.12
327.686	1475.12
327.914	956.12
328.143	633.12
328.372	552.12
328.6	521.12
328.829	486.12
329.058	504.12
329.287	528.12
329.515	504.12
329.744	463.12
329.972	449.12
330.201	461.12
330.43	487.12
330.658	517.12
330.887	560.12
331.115	522.12
331.344	447.12
331.572	445.12
331.801	439.12
332.03	454.12
332.258	454.12
332.486	436.12
332.715	440.12
332.943	445.12
333.172	437.12
333.4	441.12
333.629	453.12
333.857	477.12
334.085	451.12
334.314	482.12
334.542	496.12
334.771	529.12
334.999	486.12
335.227	451.12
335.455	456.12
335.684	443.12
335.912	431.12
336.14	423.12
336.369	425.12
336.597	451.12
336.825	455.12
337.053	450.12
337.281	423.12
337.51	409.12
337.738	445.12
337.966	436.12
338.194	414.12
338.422	412.12
338.65	428.12
338.878	420.12
339.106	421.12
339.334	423.12
339.562	407.12
339.79	412.12
340.018	422.12
340.246	411.12
340.474	413.12
340.702	410.12
340.93	415.12
341.158	424.12
341.386	395.12
341.614	407.12
341.842	416.12
342.07	414.12
342.298	391.12
342.526	400.12
342.754	398.12
342.981	393.12
343.209	408.12
343.437	412.12
343.665	399.12
343.893	422.12
344.12	416.12
344.348	435.12
344.576	429.12
344.804	421.12
345.031	411.12
345.259	423.12
345.487	408.12
345.714	422.12
345.942	412.12
346.17	392.12
346.397	385.12
346.625	405.12
346.853	415.12
347.08	395.12
347.308	380.12
347.535	407.12
347.763	401.12
347.99	407.12
348.218	407.12
348.445	397.12
348.673	419.12
348.9	422.12
349.128	391.12
349.355	390.12
349.583	393.12
349.81	406.12
350.037	386.12
350.265	410.12
350.492	398.12
350.72	393.12
350.947	394.12
351.174	400.12
351.402	409.12
351.629	413.12
351.856	413.12
352.083	398.12
352.311	396.12
352.538	397.12
352.765	415.12
352.992	392.12
353.22	398.12
353.447	408.12
353.674	375.12
353.901	391.12
354.128	385.12
354.355	383.12
354.583	386.12
354.81	375.12
355.037	399.12
355.264	373.12
355.491	387.12
355.718	380.12
355.945	375.12
356.172	376.12
356.399	367.12
356.626	376.12
356.853	385.12
357.08	380.12
357.307	364.12
357.534	384.12
357.761	363.12
357.988	375.12
358.215	387.12
358.441	393.12
358.668	389.12
358.895	399.12
359.122	385.12
359.349	409.12
359.576	401.12
359.802	435.12
360.029	424.12
360.256	433.12
360.483	405.12
360.709	403.12
360.936	413.12
361.163	398.12
361.39	391.12
361.616	414.12
361.843	387.12
362.07	405.12
362.296	431.12
362.523	405.12
362.749	397.12
362.976	399.12
363.203	386.12
363.429	396.12
363.656	390.12
363.882	392.12
364.109	380.12
364.335	392.12
364.562	389.12
364.788	379.12
365.015	393.12
365.241	389.12
365.468	424.12
365.694	407.12
365.92	405.12
366.147	373.12
366.373	389.12
366.599	388.12
366.826	382.12
367.052	373.12
367.278	394.12
367.505	392.12
367.731	392.12
367.957	395.12
368.184	383.12
368.41	394.12
368.636	385.12
368.862	407.12
369.089	432.12
369.315	395.12
369.541	382.12
369.767	390.12
369.993	415.12
370.219	391.12
370.445	405.12
370.672	396.12
370.898	399.12
371.124	399.12
371.35	376.12
371.576	396.12
371.802	398.12
372.028	397.12
372.254	401.12
372.48	385.12
372.706	395.12
372.932	407.12
373.158	408.12
373.384	416.12
373.61	423.12
373.835	399.12
374.061	376.12
374.287	409.12
374.513	398.12
374.739	391.12
374.965	404.12
375.191	407.12
375.416	388.12
375.642	398.12
375.868	391.12
376.094	409.12
376.319	395.12
376.545	404.12
376.771	413.12
376.997	411.12
377.222	414.12
377.448	389.12
377.674	393.12
377.899	391.12
378.125	402.12
378.35	391.12
378.576	407.12
378.802	388.12
379.027	407.12
379.253	393.12
379.478	384.12
379.704	384.12
379.929	389.12
380.155	419.12
380.38	404.12
380.606	399.12
380.831	391.12
381.057	394.12
381.282	391.12
381.507	397.12
381.733	402.12
381.958	410.12
382.184	413.12
382.409	426.12
382.634	424.12
382.86	414.12
383.085	433.12
383.31	435.12
383.535	424.12
383.761	411.12
383.986	419.12
384.211	430.12
384.436	432.12
384.662	437.12
384.887	445.12
385.112	432.12
385.337	442.12
385.562	437.12
385.787	435.12
386.013	448.12
386.238	462.12
386.463	456.12
386.688	460.12
386.913	439.12
387.138	432.12
387.363	455.12
387.588	447.12
387.813	433.12
388.038	454.12
388.263	450.12
388.488	438.12
388.713	456.12
388.938	439.12
389.163	459.12
389.387	469.12
389.612	421.12
389.837	459.12
390.062	415.12
390.287	445.12
390.512	438.12
390.736	447.12
390.961	457.12
391.186	438.12
391.411	435.12
391.636	462.12
391.86	478.12
392.085	477.12
392.31	452.12
392.534	467.12
392.759	468.12
392.984	459.12
393.208	451.12
393.433	462.12
393.658	473.12
393.882	477.12
394.107	454.12
394.331	453.12
394.556	473.12
394.78	470.12
395.005	472.12
395.229	467.12
395.454	488.12
395.678	491.12
395.903	497.12
396.127	485.12
396.352	515.12
396.576	471.12
396.801	471.12
397.025	492.12
397.249	490.12
397.474	476.12
397.698	518.12
397.922	506.12
398.147	519.12
398.371	513.12
398.595	518.12
398.82	514.12
399.044	516.12
399.268	550.12
399.492	603.12
399.717	635.12
399.941	641.12
400.165	658.12
400.389	647.12
400.613	583.12
400.837	571.12
401.062	556.12
401.286	555.12
401.51	518.12
401.734	520.12
401.958	542.12
402.182	549.12
402.406	557.12
402.63	549.12
402.854	554.12
403.078	544.12
403.302	553.12
403.526	569.12
403.75	579.12
403.974	556.12
404.198	539.12
404.422	559.12
404.645	561.12
404.869	582.12
405.093	594.12
405.317	619.12
405.541	652.12
405.765	613.12
405.988	588.12
406.212	587.12
406.436	627.12
406.66	623.12
406.883	601.12
407.107	602.12
407.331	650.12
407.555	721.12
407.778	727.12
408.002	676.12
408.226	623.12
408.449	630.12
408.673	585.12
408.896	661.12
409.12	663.12
409.344	628.12
409.567	588.12
409.791	582.12
410.014	582.12
410.238	565.12
410.461	571.12
410.685	584.12
410.908	587.12
411.132	601.12
411.355	640.12
411.578	619.12
411.802	563.12
412.025	560.12
412.249	560.12
412.472	561.12
412.695	613.12
412.919	593.12
413.142	582.12
413.365	557.12
413.589	561.12
413.812	532.12
414.035	523.12
414.258	542.12
414.482	523.12
414.705	522.12
414.928	529.12
415.151	540.12
415.374	526.12
415.597	541.12
415.821	529.12
416.044	558.12
416.267	527.12
416.49	547.12
416.713	523.12
416.936	505.12
417.159	531.12
417.382	519.12
417.605	521.12
417.828	541.12
418.051	542.12
418.274	535.12
418.497	532.12
418.72	533.12
418.943	532.12
419.166	560.12
419.389	600.12
419.611	596.12
419.834	585.12
420.057	553.12
420.28	549.12
420.503	545.12
420.726	535.12
420.948	539.12
421.171	577.12
421.394	597.12
421.617	572.12
421.839	551.12
422.062	545.12
422.285	555.12
422.507	620.12
422.73	663.12
422.953	663.12
423.175	583.12
423.398	590.12
423.621	564.12
423.843	585.12
424.066	572.12
424.288	585.12
424.511	589.12
424.733	630.12
424.956	714.12
425.178	693.12
425.401	667.12
425.623	700.12
425.846	618.12
426.068	581.12
426.291	576.12
426.513	572.12
426.735	574.12
426.958	607.12
427.18	691.12
427.402	784.12
427.625	885.12
427.847	765.12
428.069	641.12
428.292	627.12
428.514	567.12
428.736	550.12
428.958	544.12
429.181	525.12
429.403	523.12
429.625	531.12
429.847	565.12
430.069	629.12
430.292	637.12
430.514	548.12
430.736	533.12
430.958	535.12
431.18	529.12
431.402	524.12
431.624	523.12
431.846	518.12
432.068	520.12
432.29	510.12
432.512	541.12
432.734	539.12
432.956	512.12
433.178	529.12
433.4	520.12
433.622	529.12
433.844	531.12
434.066	516.12
434.287	516.12
434.509	502.12
434.731	546.12
434.953	533.12
435.175	537.12
435.397	578.12
435.618	578.12
435.84	601.12
436.062	696.12
436.284	748.12
436.505	629.12
436.727	587.12
436.949	551.12
437.17	551.12
437.392	529.12
437.614	555.12
437.835	593.12
438.057	655.12
438.278	713.12
438.5	737.12
438.721	811.12
438.943	785.12
439.165	629.12
439.386	574.12
439.608	562.12
439.829	591.12
440.05	592.12
440.272	634.12
440.493	596.12
440.715	552.12
440.936	555.12
441.158	537.12
441.379	560.12
441.6	578.12
441.822	571.12
442.043	601.12
442.264	679.12
442.486	734.12
442.707	629.12
442.928	577.12
443.149	594.12
443.371	615.12
443.592	648.12
443.813	719.12
444.034	786.12
444.255	663.12
444.476	593.12
444.698	595.12
444.919	607.12
445.14	709.12
445.361	639.12
445.582	636.12
445.803	655.12
446.024	779.12
446.245	776.12
446.466	697.12
446.687	620.12
446.908	603.12
447.129	532.12
447.35	551.12
447.571	523.12
447.792	509.12
448.013	530.12
448.234	537.12
448.455	576.12
448.675	676.12
448.896	778.12
449.117	676.12
449.338	651.12
449.559	721.12
449.779	829.12
450	696.12
450.221	574.12
450.442	548.12
450.662	536.12
450.883	513.12
451.104	513.12
451.324	525.12
451.545	510.12
451.766	487.12
451.986	488.12
452.207	468.12
452.428	471.12
452.648	490.12
452.869	492.12
453.089	475.12
453.31	481.12
453.53	497.12
453.751	473.12
453.971	482.12
454.192	494.12
454.412	496.12
454.633	479.12
454.853	455.12
455.073	465.12
455.294	505.12
455.514	545.12
455.734	546.12
455.955	480.12
456.175	483.12
456.395	462.12
456.616	449.12
456.836	455.12
457.056	472.12
457.276	453.12
457.497	465.12
457.717	479.12
457.937	469.12
458.157	463.12
458.377	473.12
458.598	478.12
458.818	544.12
459.038	615.12
459.258	618.12
459.478	543.12
459.698	528.12
459.918	520.12
460.138	529.12
460.358	555.12
460.578	537.12
460.798	551.12
461.018	553.12
461.238	567.12
461.458	533.12
461.678	532.12
461.898	546.12
462.118	543.12
462.338	579.12
462.558	576.12
462.777	576.12
462.997	606.12
463.217	598.12
463.437	607.12
463.657	598.12
463.876	583.12
464.096	585.12
464.316	592.12
464.536	604.12
464.755	605.12
464.975	580.12
465.195	612.12
465.414	655.12
465.634	579.12
465.854	554.12
466.073	549.12
466.293	499.12
466.512	479.12
466.732	504.12
466.951	472.12
467.171	484.12
467.391	505.12
467.61	523.12
467.829	507.12
468.049	525.12
468.268	504.12
468.488	503.12
468.707	487.12
468.927	492.12
469.146	479.12
469.365	487.12
469.585	462.12
469.804	496.12
470.023	479.12
470.243	525.12
470.462	532.12
470.681	508.12
470.901	530.12
471.12	517.12
471.339	513.12
471.558	499.12
471.777	487.12
471.997	493.12
472.216	484.12
472.435	540.12
472.654	539.12
472.873	487.12
473.092	487.12
473.311	506.12
473.53	484.12
473.749	501.12
473.968	527.12
474.187	606.12
474.406	622.12
474.625	541.12
474.844	519.12
475.063	500.12
475.282	507.12
475.501	515.12
475.72	519.12
475.939	520.12
476.158	521.12
476.377	518.12
476.596	514.12
476.814	538.12
477.033	539.12
477.252	534.12
477.471	551.12
477.69	568.12
477.908	547.12
478.127	541.12
478.346	558.12
478.564	575.12
478.783	565.12
479.002	572.12
479.22	603.12
479.439	599.12
479.658	610.12
479.876	611.12
480.095	621.12
480.313	640.12
480.532	647.12
480.751	650.12
480.969	632.12
481.188	681.12
481.406	700.12
481.624	627.12
481.843	597.12
482.061	599.12
482.28	609.12
482.498	588.12
482.717	613.12
482.935	614.12
483.153	572.12
483.372	609.12
483.59	604.12
483.808	599.12
484.027	574.12
484.245	576.12
484.463	605.12
484.681	609.12
484.9	589.12
485.118	598.12
485.336	612.12
485.554	619.12
485.772	611.12
485.99	598.12
486.209	608.12
486.427	616.12
486.645	630.12
486.863	615.12
487.081	637.12
487.299	635.12
487.517	636.12
487.735	635.12
487.953	624.12
488.171	612.12
488.389	618.12
488.607	610.12
488.825	605.12
489.043	625.12
489.261	629.12
489.479	644.12
489.696	647.12
489.914	633.12
490.132	657.12
490.35	659.12
490.568	644.12
490.786	693.12
491.003	666.12
491.221	669.12
491.439	705.12
491.657	683.12
491.874	683.12
492.092	688.12
492.31	708.12
492.527	697.12
492.745	699.12
492.963	718.12
493.18	696.12
493.398	733.12
493.615	732.12
493.833	724.12
494.05	737.12
494.268	718.12
494.485	724.12
494.703	729.12
494.92	722.12
495.138	729.12
495.355	729.12
495.573	743.12
495.79	730.12
496.008	751.12
496.225	725.12
496.442	736.12
496.66	739.12
496.877	739.12
497.094	725.12
497.312	776.12
497.529	775.12
497.746	785.12
497.963	797.12
498.181	821.12
498.398	819.12
498.615	852.12
498.832	867.12
499.049	883.12
499.267	907.12
499.484	956.12
499.701	961.12
499.918	1054.12
500.135	1089.12
500.352	1155.12
500.569	1163.12
500.786	1175.12
501.003	1155.12
501.22	1073.12
501.437	1043.12
501.654	1016.12
501.871	1000.12
