Data from 1979.PennyLincolnUp.Lamp.En5.5.200Scan.071719.P1_HRD10591_16-17-47-863.txt Node
Date: Thu Jul 18 16:17:47 EDT 2019
User: cochatt
Spectrometer: HR+D1059
Trigger mode: 1
Integration Time (sec): 1.000000E-1
Scans to average: 1
Electric dark correction enabled: true
Nonlinearity correction enabled: false
Boxcar width: 0
XAxis mode: Wavelengths
Number of Pixels in Spectrum: 2048
>>>>>Begin Spectral Data<<<<<
223.165	-14.06
223.4	-14.06
223.635	-14.06
223.869	-13.06
224.104	-13.06
224.338	2.94
224.573	-13.06
224.808	-17.06
225.042	-20.06
225.277	-8.06
225.511	-8.06
225.746	-10.06
225.98	5.94
226.215	8.94
226.449	26.94
226.683	20.94
226.918	19.94
227.152	30.94
227.387	23.94
227.621	44.94
227.856	33.94
228.09	47.94
228.324	39.94
228.559	47.94
228.793	59.94
229.027	93.94
229.262	100.94
229.496	85.94
229.73	128.94
229.964	129.94
230.199	98.94
230.433	110.94
230.667	107.94
230.901	95.94
231.136	111.94
231.37	119.94
231.604	107.94
231.838	117.94
232.072	91.94
232.306	105.94
232.541	102.94
232.775	105.94
233.009	87.94
233.243	103.94
233.477	112.94
233.711	90.94
233.945	117.94
234.179	114.94
234.413	99.94
234.647	102.94
234.881	103.94
235.115	117.94
235.349	106.94
235.583	107.94
235.817	119.94
236.051	104.94
236.285	105.94
236.519	107.94
236.753	103.94
236.987	123.94
237.221	149.94
237.455	199.94
237.689	160.94
237.922	122.94
238.156	126.94
238.39	123.94
238.624	122.94
238.858	99.94
239.091	123.94
239.325	118.94
239.559	104.94
239.793	119.94
240.027	113.94
240.26	134.94
240.494	122.94
240.728	128.94
240.961	127.94
241.195	121.94
241.429	131.94
241.662	119.94
241.896	109.94
242.13	127.94
242.363	135.94
242.597	111.94
242.83	124.94
243.064	129.94
243.298	141.94
243.531	126.94
243.765	120.94
243.998	137.94
244.232	136.94
244.465	123.94
244.699	133.94
244.932	129.94
245.166	146.94
245.399	127.94
245.633	124.94
245.866	138.94
246.099	123.94
246.333	123.94
246.566	142.94
246.8	149.94
247.033	153.94
247.266	140.94
247.5	142.94
247.733	161.94
247.966	158.94
248.2	161.94
248.433	151.94
248.666	145.94
248.899	155.94
249.133	174.94
249.366	184.94
249.599	166.94
249.832	157.94
250.066	164.94
250.299	146.94
250.532	144.94
250.765	161.94
250.998	172.94
251.231	178.94
251.465	176.94
251.698	181.94
251.931	162.94
252.164	179.94
252.397	160.94
252.63	179.94
252.863	175.94
253.096	175.94
253.329	198.94
253.562	187.94
253.795	191.94
254.028	199.94
254.261	185.94
254.494	180.94
254.727	202.94
254.96	216.94
255.193	214.94
255.426	193.94
255.659	204.94
255.892	175.94
256.124	191.94
256.357	182.94
256.59	184.94
256.823	171.94
257.056	188.94
257.289	187.94
257.521	195.94
257.754	189.94
257.987	170.94
258.22	179.94
258.452	201.94
258.685	181.94
258.918	195.94
259.151	178.94
259.383	211.94
259.616	184.94
259.849	192.94
260.081	197.94
260.314	228.94
260.547	206.94
260.779	208.94
261.012	209.94
261.244	208.94
261.477	201.94
261.71	187.94
261.942	198.94
262.175	205.94
262.407	190.94
262.64	185.94
262.872	183.94
263.105	189.94
263.337	193.94
263.57	176.94
263.802	187.94
264.035	199.94
264.267	180.94
264.499	177.94
264.732	186.94
264.964	192.94
265.197	180.94
265.429	167.94
265.661	191.94
265.894	197.94
266.126	192.94
266.358	186.94
266.591	212.94
266.823	211.94
267.055	194.94
267.287	207.94
267.52	194.94
267.752	201.94
267.984	203.94
268.216	207.94
268.448	204.94
268.681	203.94
268.913	222.94
269.145	216.94
269.377	231.94
269.609	220.94
269.841	215.94
270.073	232.94
270.306	225.94
270.538	263.94
270.77	262.94
271.002	258.94
271.234	234.94
271.466	240.94
271.698	239.94
271.93	244.94
272.162	244.94
272.394	229.94
272.626	240.94
272.858	240.94
273.09	227.94
273.322	217.94
273.553	218.94
273.785	239.94
274.017	224.94
274.249	220.94
274.481	248.94
274.713	229.94
274.945	247.94
275.176	225.94
275.408	220.94
275.64	230.94
275.872	200.94
276.104	215.94
276.335	229.94
276.567	231.94
276.799	227.94
277.031	245.94
277.262	247.94
277.494	257.94
277.726	248.94
277.957	241.94
278.189	234.94
278.421	241.94
278.652	231.94
278.884	234.94
279.115	256.94
279.347	242.94
279.579	233.94
279.81	236.94
280.042	260.94
280.273	218.94
280.505	230.94
280.736	232.94
280.968	234.94
281.199	242.94
281.431	261.94
281.662	240.94
281.894	233.94
282.125	248.94
282.356	255.94
282.588	253.94
282.819	273.94
283.051	234.94
283.282	234.94
283.513	251.94
283.745	234.94
283.976	246.94
284.207	251.94
284.439	259.94
284.67	247.94
284.901	241.94
285.132	231.94
285.364	245.94
285.595	239.94
285.826	252.94
286.057	245.94
286.288	247.94
286.52	235.94
286.751	243.94
286.982	243.94
287.213	251.94
287.444	240.94
287.675	259.94
287.906	268.94
288.138	280.94
288.369	271.94
288.6	243.94
288.831	259.94
289.062	262.94
289.293	263.94
289.524	261.94
289.755	251.94
289.986	259.94
290.217	247.94
290.448	260.94
290.679	271.94
290.91	260.94
291.141	247.94
291.371	252.94
291.602	277.94
291.833	262.94
292.064	263.94
292.295	246.94
292.526	242.94
292.757	259.94
292.987	243.94
293.218	254.94
293.449	260.94
293.68	277.94
293.91	265.94
294.141	257.94
294.372	242.94
294.603	276.94
294.833	279.94
295.064	259.94
295.295	257.94
295.525	265.94
295.756	269.94
295.987	271.94
296.217	285.94
296.448	301.94
296.679	270.94
296.909	258.94
297.14	258.94
297.37	279.94
297.601	280.94
297.831	267.94
298.062	282.94
298.292	270.94
298.523	271.94
298.753	277.94
298.984	259.94
299.214	298.94
299.445	273.94
299.675	279.94
299.905	285.94
300.136	275.94
300.366	262.94
300.597	266.94
300.827	265.94
301.057	305.94
301.288	273.94
301.518	285.94
301.748	283.94
301.979	295.94
302.209	283.94
302.439	296.94
302.669	275.94
302.9	292.94
303.13	264.94
303.36	292.94
303.59	292.94
303.82	320.94
304.051	307.94
304.281	305.94
304.511	343.94
304.741	296.94
304.971	301.94
305.201	299.94
305.431	300.94
305.661	275.94
305.891	294.94
306.121	300.94
306.352	305.94
306.582	279.94
306.812	287.94
307.042	295.94
307.272	297.94
307.502	296.94
307.731	280.94
307.961	293.94
308.191	288.94
308.421	283.94
308.651	289.94
308.881	302.94
309.111	307.94
309.341	287.94
309.571	309.94
309.8	317.94
310.03	297.94
310.26	329.94
310.49	332.94
310.72	315.94
310.949	325.94
311.179	339.94
311.409	337.94
311.639	329.94
311.868	317.94
312.098	325.94
312.328	328.94
312.557	340.94
312.787	343.94
313.017	343.94
313.246	346.94
313.476	327.94
313.706	318.94
313.935	335.94
314.165	322.94
314.394	344.94
314.624	354.94
314.853	325.94
315.083	359.94
315.312	338.94
315.542	340.94
315.771	334.94
316.001	336.94
316.23	329.94
316.46	330.94
316.689	324.94
316.919	322.94
317.148	339.94
317.377	354.94
317.607	348.94
317.836	345.94
318.065	328.94
318.295	325.94
318.524	332.94
318.753	337.94
318.983	329.94
319.212	339.94
319.441	345.94
319.67	346.94
319.9	346.94
320.129	336.94
320.358	328.94
320.587	351.94
320.816	341.94
321.046	347.94
321.275	343.94
321.504	344.94
321.733	359.94
321.962	346.94
322.191	345.94
322.42	362.94
322.649	373.94
322.878	355.94
323.108	392.94
323.337	389.94
323.566	412.94
323.795	413.94
324.024	441.94
324.253	524.94
324.482	696.94
324.71	1061.94
324.939	1549.94
325.168	1376.94
325.397	687.94
325.626	468.94
325.855	419.94
326.084	433.94
326.313	395.94
326.542	398.94
326.77	443.94
326.999	504.94
327.228	652.94
327.457	974.94
327.686	1228.94
327.914	786.94
328.143	526.94
328.372	480.94
328.6	447.94
328.829	431.94
329.058	446.94
329.287	464.94
329.515	426.94
329.744	419.94
329.972	411.94
330.201	422.94
330.43	459.94
330.658	458.94
330.887	489.94
331.115	464.94
331.344	420.94
331.572	436.94
331.801	418.94
332.03	416.94
332.258	415.94
332.486	403.94
332.715	394.94
332.943	405.94
333.172	398.94
333.4	408.94
333.629	416.94
333.857	431.94
334.085	431.94
334.314	442.94
334.542	463.94
334.771	447.94
334.999	437.94
335.227	415.94
335.455	413.94
335.684	406.94
335.912	407.94
336.14	414.94
336.369	405.94
336.597	405.94
336.825	402.94
337.053	396.94
337.281	384.94
337.51	388.94
337.738	400.94
337.966	381.94
338.194	406.94
338.422	386.94
338.65	392.94
338.878	402.94
339.106	396.94
339.334	405.94
339.562	383.94
339.79	383.94
340.018	359.94
340.246	372.94
340.474	379.94
340.702	397.94
340.93	393.94
341.158	360.94
341.386	375.94
341.614	387.94
341.842	380.94
342.07	391.94
342.298	378.94
342.526	375.94
342.754	372.94
342.981	368.94
343.209	387.94
343.437	380.94
343.665	406.94
343.893	407.94
344.12	404.94
344.348	409.94
344.576	415.94
344.804	404.94
345.031	408.94
345.259	422.94
345.487	401.94
345.714	411.94
345.942	392.94
346.17	367.94
346.397	343.94
346.625	367.94
346.853	383.94
347.08	386.94
347.308	384.94
347.535	383.94
347.763	378.94
347.99	380.94
348.218	373.94
348.445	398.94
348.673	383.94
348.9	385.94
349.128	375.94
349.355	376.94
349.583	378.94
349.81	362.94
350.037	349.94
350.265	352.94
350.492	351.94
350.72	368.94
350.947	387.94
351.174	397.94
351.402	380.94
351.629	370.94
351.856	376.94
352.083	359.94
352.311	399.94
352.538	359.94
352.765	394.94
352.992	380.94
353.22	363.94
353.447	369.94
353.674	393.94
353.901	364.94
354.128	372.94
354.355	341.94
354.583	373.94
354.81	351.94
355.037	348.94
355.264	353.94
355.491	352.94
355.718	363.94
355.945	358.94
356.172	389.94
356.399	351.94
356.626	361.94
356.853	348.94
357.08	384.94
357.307	371.94
357.534	359.94
357.761	359.94
357.988	333.94
358.215	357.94
358.441	352.94
358.668	361.94
358.895	365.94
359.122	352.94
359.349	360.94
359.576	372.94
359.802	373.94
360.029	402.94
360.256	413.94
360.483	391.94
360.709	359.94
360.936	360.94
361.163	369.94
361.39	392.94
361.616	395.94
361.843	377.94
362.07	377.94
362.296	379.94
362.523	379.94
362.749	380.94
362.976	365.94
363.203	367.94
363.429	360.94
363.656	373.94
363.882	366.94
364.109	373.94
364.335	373.94
364.562	340.94
364.788	358.94
365.015	391.94
365.241	371.94
365.468	376.94
365.694	375.94
365.92	381.94
366.147	380.94
366.373	348.94
366.599	373.94
366.826	341.94
367.052	364.94
367.278	369.94
367.505	375.94
367.731	368.94
367.957	370.94
368.184	360.94
368.41	367.94
368.636	376.94
368.862	401.94
369.089	379.94
369.315	375.94
369.541	381.94
369.767	380.94
369.993	365.94
370.219	379.94
370.445	376.94
370.672	383.94
370.898	361.94
371.124	385.94
371.35	379.94
371.576	395.94
371.802	376.94
372.028	358.94
372.254	379.94
372.48	385.94
372.706	394.94
372.932	384.94
373.158	387.94
373.384	385.94
373.61	378.94
373.835	384.94
374.061	389.94
374.287	378.94
374.513	394.94
374.739	411.94
374.965	389.94
375.191	381.94
375.416	419.94
375.642	403.94
375.868	385.94
376.094	377.94
376.319	394.94
376.545	382.94
376.771	388.94
376.997	377.94
377.222	376.94
377.448	394.94
377.674	375.94
377.899	378.94
378.125	397.94
378.35	397.94
378.576	384.94
378.802	387.94
379.027	375.94
379.253	376.94
379.478	358.94
379.704	384.94
379.929	381.94
380.155	383.94
380.38	380.94
380.606	368.94
380.831	385.94
381.057	397.94
381.282	393.94
381.507	392.94
381.733	401.94
381.958	381.94
382.184	378.94
382.409	397.94
382.634	386.94
382.86	382.94
383.085	400.94
383.31	415.94
383.535	401.94
383.761	389.94
383.986	408.94
384.211	415.94
384.436	397.94
384.662	417.94
384.887	443.94
385.112	426.94
385.337	428.94
385.562	421.94
385.787	435.94
386.013	443.94
386.238	445.94
386.463	425.94
386.688	428.94
386.913	434.94
387.138	416.94
387.363	433.94
387.588	409.94
387.813	431.94
388.038	432.94
388.263	421.94
388.488	445.94
388.713	434.94
388.938	413.94
389.163	428.94
389.387	427.94
389.612	424.94
389.837	416.94
390.062	436.94
390.287	438.94
390.512	425.94
390.736	427.94
390.961	436.94
391.186	432.94
391.411	439.94
391.636	444.94
391.86	459.94
392.085	434.94
392.31	449.94
392.534	440.94
392.759	442.94
392.984	454.94
393.208	453.94
393.433	460.94
393.658	493.94
393.882	459.94
394.107	437.94
394.331	427.94
394.556	458.94
394.78	438.94
395.005	442.94
395.229	429.94
395.454	439.94
395.678	461.94
395.903	473.94
396.127	486.94
396.352	502.94
396.576	456.94
396.801	483.94
397.025	452.94
397.249	478.94
397.474	468.94
397.698	477.94
397.922	476.94
398.147	509.94
398.371	493.94
398.595	501.94
398.82	508.94
399.044	522.94
399.268	531.94
399.492	570.94
399.717	595.94
399.941	612.94
400.165	633.94
400.389	609.94
400.613	583.94
400.837	566.94
401.062	525.94
401.286	491.94
401.51	517.94
401.734	510.94
401.958	511.94
402.182	499.94
402.406	532.94
402.63	509.94
402.854	513.94
403.078	509.94
403.302	519.94
403.526	495.94
403.75	552.94
403.974	530.94
404.198	527.94
404.422	550.94
404.645	540.94
404.869	548.94
405.093	550.94
405.317	600.94
405.541	603.94
405.765	560.94
405.988	550.94
406.212	545.94
406.436	556.94
406.66	570.94
406.883	580.94
407.107	579.94
407.331	616.94
407.555	679.94
407.778	677.94
408.002	639.94
408.226	595.94
408.449	593.94
408.673	593.94
408.896	593.94
409.12	617.94
409.344	616.94
409.567	585.94
409.791	568.94
410.014	550.94
410.238	531.94
410.461	527.94
410.685	541.94
410.908	562.94
411.132	598.94
411.355	603.94
411.578	576.94
411.802	533.94
412.025	529.94
412.249	534.94
412.472	566.94
412.695	581.94
412.919	547.94
413.142	547.94
413.365	526.94
413.589	513.94
413.812	526.94
414.035	499.94
414.258	523.94
414.482	515.94
414.705	500.94
414.928	507.94
415.151	488.94
415.374	502.94
415.597	516.94
415.821	517.94
416.044	518.94
416.267	503.94
416.49	486.94
416.713	509.94
416.936	483.94
417.159	480.94
417.382	500.94
417.605	532.94
417.828	521.94
418.051	525.94
418.274	512.94
418.497	495.94
418.72	502.94
418.943	482.94
419.166	521.94
419.389	565.94
419.611	541.94
419.834	534.94
420.057	528.94
420.28	536.94
420.503	531.94
420.726	515.94
420.948	540.94
421.171	551.94
421.394	579.94
421.617	534.94
421.839	519.94
422.062	533.94
422.285	537.94
422.507	589.94
422.73	614.94
422.953	612.94
423.175	564.94
423.398	556.94
423.621	519.94
423.843	548.94
424.066	559.94
424.288	537.94
424.511	558.94
424.733	603.94
424.956	634.94
425.178	629.94
425.401	634.94
425.623	648.94
425.846	570.94
426.068	564.94
426.291	538.94
426.513	542.94
426.735	529.94
426.958	566.94
427.18	633.94
427.402	736.94
427.625	831.94
427.847	703.94
428.069	616.94
428.292	579.94
428.514	525.94
428.736	525.94
428.958	527.94
429.181	516.94
429.403	495.94
429.625	517.94
429.847	548.94
430.069	588.94
430.292	577.94
430.514	521.94
430.736	514.94
430.958	512.94
431.18	486.94
431.402	485.94
431.624	496.94
431.846	491.94
432.068	479.94
432.29	483.94
432.512	479.94
432.734	520.94
432.956	500.94
433.178	515.94
433.4	518.94
433.622	480.94
433.844	519.94
434.066	497.94
434.287	486.94
434.509	495.94
434.731	507.94
434.953	514.94
435.175	533.94
435.397	545.94
435.618	564.94
435.84	564.94
436.062	663.94
436.284	682.94
436.505	595.94
436.727	536.94
436.949	518.94
437.17	496.94
437.392	497.94
437.614	518.94
437.835	519.94
438.057	591.94
438.278	665.94
438.5	677.94
438.721	780.94
438.943	711.94
439.165	554.94
439.386	563.94
439.608	531.94
439.829	541.94
440.05	548.94
440.272	555.94
440.493	576.94
440.715	526.94
440.936	521.94
441.158	538.94
441.379	513.94
441.6	520.94
441.822	532.94
442.043	570.94
442.264	650.94
442.486	661.94
442.707	589.94
442.928	553.94
443.149	573.94
443.371	578.94
443.592	610.94
443.813	667.94
444.034	716.94
444.255	623.94
444.476	577.94
444.698	561.94
444.919	554.94
445.14	672.94
445.361	612.94
445.582	594.94
445.803	612.94
446.024	683.94
446.245	718.94
446.466	659.94
446.687	595.94
446.908	538.94
447.129	511.94
447.35	509.94
447.571	519.94
447.792	494.94
448.013	496.94
448.234	506.94
448.455	556.94
448.675	632.94
448.896	733.94
449.117	612.94
449.338	579.94
449.559	665.94
449.779	783.94
450	633.94
450.221	532.94
450.442	489.94
450.662	475.94
450.883	470.94
451.104	480.94
451.324	480.94
451.545	457.94
451.766	463.94
451.986	466.94
452.207	429.94
452.428	462.94
452.648	427.94
452.869	450.94
453.089	459.94
453.31	481.94
453.53	463.94
453.751	440.94
453.971	476.94
454.192	467.94
454.412	450.94
454.633	417.94
454.853	454.94
455.073	438.94
455.294	459.94
455.514	504.94
455.734	518.94
455.955	448.94
456.175	421.94
456.395	454.94
456.616	438.94
456.836	446.94
457.056	437.94
457.276	430.94
457.497	444.94
457.717	433.94
457.937	431.94
458.157	441.94
458.377	439.94
458.598	466.94
458.818	513.94
459.038	559.94
459.258	594.94
459.478	528.94
459.698	520.94
459.918	485.94
460.138	500.94
460.358	490.94
460.578	519.94
460.798	516.94
461.018	539.94
461.238	513.94
461.458	510.94
461.678	514.94
461.898	529.94
462.118	522.94
462.338	523.94
462.558	557.94
462.777	559.94
462.997	581.94
463.217	588.94
463.437	591.94
463.657	551.94
463.876	568.94
464.096	565.94
464.316	565.94
464.536	550.94
464.755	561.94
464.975	525.94
465.195	563.94
465.414	601.94
465.634	535.94
465.854	535.94
466.073	506.94
466.293	474.94
466.512	452.94
466.732	485.94
466.951	499.94
467.171	460.94
467.391	481.94
467.61	485.94
467.829	484.94
468.049	484.94
468.268	460.94
468.488	475.94
468.707	449.94
468.927	476.94
469.146	458.94
469.365	459.94
469.585	461.94
469.804	474.94
470.023	475.94
470.243	477.94
470.462	475.94
470.681	506.94
470.901	484.94
471.12	478.94
471.339	493.94
471.558	488.94
471.777	476.94
471.997	472.94
472.216	488.94
472.435	517.94
472.654	484.94
472.873	473.94
473.092	471.94
473.311	472.94
473.53	480.94
473.749	482.94
473.968	493.94
474.187	580.94
474.406	609.94
474.625	523.94
474.844	470.94
475.063	463.94
475.282	486.94
475.501	486.94
475.72	491.94
475.939	475.94
476.158	480.94
476.377	496.94
476.596	499.94
476.814	497.94
477.033	507.94
477.252	492.94
477.471	511.94
477.69	513.94
477.908	517.94
478.127	541.94
478.346	521.94
478.564	547.94
478.783	546.94
479.002	580.94
479.22	546.94
479.439	567.94
479.658	567.94
479.876	568.94
480.095	595.94
480.313	597.94
480.532	587.94
480.751	572.94
480.969	590.94
481.188	628.94
481.406	645.94
481.624	580.94
481.843	560.94
482.061	556.94
482.28	565.94
482.498	564.94
482.717	572.94
482.935	578.94
483.153	557.94
483.372	569.94
483.59	562.94
483.808	543.94
484.027	575.94
484.245	565.94
484.463	564.94
484.681	569.94
484.9	546.94
485.118	573.94
485.336	577.94
485.554	579.94
485.772	595.94
485.99	588.94
486.209	578.94
486.427	588.94
486.645	605.94
486.863	599.94
487.081	612.94
487.299	586.94
487.517	597.94
487.735	617.94
487.953	595.94
488.171	593.94
488.389	579.94
488.607	595.94
488.825	604.94
489.043	596.94
489.261	610.94
489.479	592.94
489.696	622.94
489.914	608.94
490.132	603.94
490.35	615.94
490.568	633.94
490.786	607.94
491.003	633.94
491.221	636.94
491.439	664.94
491.657	628.94
491.874	652.94
492.092	675.94
492.31	641.94
492.527	652.94
492.745	678.94
492.963	677.94
493.18	687.94
493.398	696.94
493.615	700.94
493.833	675.94
494.05	671.94
494.268	696.94
494.485	683.94
494.703	676.94
494.92	673.94
495.138	699.94
495.355	690.94
495.573	673.94
495.79	688.94
496.008	703.94
496.225	703.94
496.442	700.94
496.66	721.94
496.877	685.94
497.094	715.94
497.312	728.94
497.529	727.94
497.746	739.94
497.963	722.94
498.181	778.94
498.398	785.94
498.615	807.94
498.832	812.94
499.049	882.94
499.267	875.94
499.484	900.94
499.701	945.94
499.918	1001.94
500.135	1075.94
500.352	1119.94
500.569	1115.94
500.786	1130.94
501.003	1084.94
501.22	1052.94
501.437	1036.94
501.654	994.94
501.871	947.94
