Data from 1979.PennyLincolnUp.Lamp.En5.5.200Scan.071719.P1_HRD10591_16-17-46-863.txt Node
Date: Thu Jul 18 16:17:46 EDT 2019
User: cochatt
Spectrometer: HR+D1059
Trigger mode: 1
Integration Time (sec): 1.000000E-1
Scans to average: 1
Electric dark correction enabled: true
Nonlinearity correction enabled: false
Boxcar width: 0
XAxis mode: Wavelengths
Number of Pixels in Spectrum: 2048
>>>>>Begin Spectral Data<<<<<
223.165	-11.94
223.4	-11.94
223.635	-11.94
223.869	-9.94
224.104	-17.94
224.338	-24.94
224.573	-9.94
224.808	9.06
225.042	-9.94
225.277	0.06
225.511	-1.94
225.746	3.06
225.98	13.06
226.215	-3.94
226.449	9.06
226.683	14.06
226.918	18.06
227.152	24.06
227.387	36.06
227.621	38.06
227.856	37.06
228.09	54.06
228.324	51.06
228.559	47.06
228.793	59.06
229.027	79.06
229.262	91.06
229.496	91.06
229.73	128.06
229.964	131.06
230.199	103.06
230.433	99.06
230.667	99.06
230.901	84.06
231.136	100.06
231.37	103.06
231.604	104.06
231.838	103.06
232.072	102.06
232.306	99.06
232.541	114.06
232.775	105.06
233.009	99.06
233.243	97.06
233.477	98.06
233.711	98.06
233.945	124.06
234.179	95.06
234.413	99.06
234.647	123.06
234.881	108.06
235.115	113.06
235.349	113.06
235.583	101.06
235.817	106.06
236.051	128.06
236.285	108.06
236.519	108.06
236.753	122.06
236.987	127.06
237.221	166.06
237.455	194.06
237.689	137.06
237.922	137.06
238.156	118.06
238.39	106.06
238.624	125.06
238.858	127.06
239.091	113.06
239.325	125.06
239.559	123.06
239.793	118.06
240.027	124.06
240.26	117.06
240.494	130.06
240.728	133.06
240.961	133.06
241.195	132.06
241.429	106.06
241.662	116.06
241.896	117.06
242.13	131.06
242.363	117.06
242.597	134.06
242.83	124.06
243.064	121.06
243.298	133.06
243.531	127.06
243.765	115.06
243.998	120.06
244.232	139.06
244.465	133.06
244.699	148.06
244.932	129.06
245.166	131.06
245.399	132.06
245.633	141.06
245.866	147.06
246.099	139.06
246.333	125.06
246.566	134.06
246.8	141.06
247.033	147.06
247.266	138.06
247.5	147.06
247.733	145.06
247.966	148.06
248.2	152.06
248.433	163.06
248.666	159.06
248.899	161.06
249.133	175.06
249.366	179.06
249.599	180.06
249.832	164.06
250.066	170.06
250.299	134.06
250.532	156.06
250.765	174.06
250.998	167.06
251.231	183.06
251.465	185.06
251.698	165.06
251.931	165.06
252.164	154.06
252.397	171.06
252.63	180.06
252.863	166.06
253.096	185.06
253.329	197.06
253.562	189.06
253.795	205.06
254.028	175.06
254.261	188.06
254.494	182.06
254.727	207.06
254.96	211.06
255.193	213.06
255.426	196.06
255.659	190.06
255.892	192.06
256.124	176.06
256.357	192.06
256.59	202.06
256.823	193.06
257.056	183.06
257.289	186.06
257.521	181.06
257.754	185.06
257.987	179.06
258.22	183.06
258.452	177.06
258.685	185.06
258.918	180.06
259.151	189.06
259.383	179.06
259.616	189.06
259.849	202.06
260.081	177.06
260.314	209.06
260.547	211.06
260.779	209.06
261.012	196.06
261.244	204.06
261.477	196.06
261.71	177.06
261.942	179.06
262.175	195.06
262.407	194.06
262.64	187.06
262.872	180.06
263.105	191.06
263.337	200.06
263.57	181.06
263.802	191.06
264.035	193.06
264.267	183.06
264.499	191.06
264.732	180.06
264.964	189.06
265.197	184.06
265.429	176.06
265.661	181.06
265.894	199.06
266.126	210.06
266.358	191.06
266.591	195.06
266.823	192.06
267.055	202.06
267.287	207.06
267.52	201.06
267.752	205.06
267.984	194.06
268.216	205.06
268.448	188.06
268.681	215.06
268.913	224.06
269.145	229.06
269.377	225.06
269.609	225.06
269.841	219.06
270.073	241.06
270.306	243.06
270.538	257.06
270.77	259.06
271.002	259.06
271.234	223.06
271.466	244.06
271.698	234.06
271.93	250.06
272.162	262.06
272.394	272.06
272.626	248.06
272.858	236.06
273.09	229.06
273.322	216.06
273.553	233.06
273.785	229.06
274.017	232.06
274.249	219.06
274.481	209.06
274.713	217.06
274.945	229.06
275.176	234.06
275.408	228.06
275.64	205.06
275.872	216.06
276.104	215.06
276.335	239.06
276.567	234.06
276.799	239.06
277.031	251.06
277.262	257.06
277.494	247.06
277.726	233.06
277.957	249.06
278.189	254.06
278.421	222.06
278.652	215.06
278.884	240.06
279.115	237.06
279.347	237.06
279.579	244.06
279.81	230.06
280.042	235.06
280.273	235.06
280.505	247.06
280.736	237.06
280.968	236.06
281.199	221.06
281.431	227.06
281.662	245.06
281.894	246.06
282.125	220.06
282.356	251.06
282.588	268.06
282.819	277.06
283.051	242.06
283.282	261.06
283.513	251.06
283.745	248.06
283.976	257.06
284.207	245.06
284.439	249.06
284.67	243.06
284.901	235.06
285.132	235.06
285.364	257.06
285.595	253.06
285.826	256.06
286.057	249.06
286.288	255.06
286.52	248.06
286.751	252.06
286.982	267.06
287.213	257.06
287.444	256.06
287.675	261.06
287.906	247.06
288.138	268.06
288.369	263.06
288.6	267.06
288.831	280.06
289.062	234.06
289.293	273.06
289.524	259.06
289.755	253.06
289.986	260.06
290.217	259.06
290.448	261.06
290.679	266.06
290.91	268.06
291.141	260.06
291.371	271.06
291.602	262.06
291.833	250.06
292.064	269.06
292.295	262.06
292.526	263.06
292.757	271.06
292.987	259.06
293.218	265.06
293.449	276.06
293.68	248.06
293.91	263.06
294.141	260.06
294.372	259.06
294.603	263.06
294.833	259.06
295.064	264.06
295.295	272.06
295.525	255.06
295.756	270.06
295.987	284.06
296.217	287.06
296.448	280.06
296.679	272.06
296.909	270.06
297.14	278.06
297.37	250.06
297.601	266.06
297.831	283.06
298.062	272.06
298.292	274.06
298.523	279.06
298.753	279.06
298.984	273.06
299.214	269.06
299.445	269.06
299.675	294.06
299.905	277.06
300.136	277.06
300.366	275.06
300.597	272.06
300.827	286.06
301.057	290.06
301.288	283.06
301.518	297.06
301.748	292.06
301.979	295.06
302.209	311.06
302.439	292.06
302.669	296.06
302.9	294.06
303.13	287.06
303.36	305.06
303.59	326.06
303.82	313.06
304.051	299.06
304.281	297.06
304.511	275.06
304.741	286.06
304.971	288.06
305.201	295.06
305.431	296.06
305.661	307.06
305.891	294.06
306.121	291.06
306.352	298.06
306.582	288.06
306.812	320.06
307.042	306.06
307.272	297.06
307.502	309.06
307.731	300.06
307.961	304.06
308.191	301.06
308.421	299.06
308.651	294.06
308.881	302.06
309.111	296.06
309.341	307.06
309.571	303.06
309.8	308.06
310.03	317.06
310.26	332.06
310.49	323.06
310.72	347.06
310.949	323.06
311.179	321.06
311.409	316.06
311.639	304.06
311.868	304.06
312.098	324.06
312.328	319.06
312.557	313.06
312.787	361.06
313.017	354.06
313.246	330.06
313.476	307.06
313.706	347.06
313.935	329.06
314.165	339.06
314.394	348.06
314.624	335.06
314.853	351.06
315.083	329.06
315.312	331.06
315.542	330.06
315.771	312.06
316.001	320.06
316.23	330.06
316.46	309.06
316.689	335.06
316.919	327.06
317.148	338.06
317.377	346.06
317.607	347.06
317.836	316.06
318.065	336.06
318.295	344.06
318.524	331.06
318.753	327.06
318.983	343.06
319.212	324.06
319.441	334.06
319.67	336.06
319.9	333.06
320.129	324.06
320.358	317.06
320.587	335.06
320.816	344.06
321.046	347.06
321.275	355.06
321.504	325.06
321.733	325.06
321.962	343.06
322.191	347.06
322.42	362.06
322.649	354.06
322.878	388.06
323.108	370.06
323.337	394.06
323.566	406.06
323.795	421.06
324.024	428.06
324.253	510.06
324.482	699.06
324.71	1057.06
324.939	1556.06
325.168	1327.06
325.397	663.06
325.626	490.06
325.855	429.06
326.084	420.06
326.313	410.06
326.542	416.06
326.77	439.06
326.999	504.06
327.228	645.06
327.457	991.06
327.686	1177.06
327.914	769.06
328.143	527.06
328.372	471.06
328.6	449.06
328.829	431.06
329.058	449.06
329.287	443.06
329.515	420.06
329.744	391.06
329.972	426.06
330.201	423.06
330.43	433.06
330.658	456.06
330.887	484.06
331.115	454.06
331.344	411.06
331.572	405.06
331.801	416.06
332.03	435.06
332.258	407.06
332.486	398.06
332.715	400.06
332.943	395.06
333.172	406.06
333.4	424.06
333.629	423.06
333.857	440.06
334.085	458.06
334.314	426.06
334.542	462.06
334.771	463.06
334.999	447.06
335.227	421.06
335.455	421.06
335.684	418.06
335.912	431.06
336.14	409.06
336.369	394.06
336.597	425.06
336.825	409.06
337.053	393.06
337.281	401.06
337.51	413.06
337.738	396.06
337.966	383.06
338.194	401.06
338.422	391.06
338.65	392.06
338.878	403.06
339.106	382.06
339.334	397.06
339.562	410.06
339.79	389.06
340.018	378.06
340.246	375.06
340.474	405.06
340.702	380.06
340.93	387.06
341.158	383.06
341.386	399.06
341.614	372.06
341.842	375.06
342.07	383.06
342.298	378.06
342.526	374.06
342.754	367.06
342.981	379.06
343.209	375.06
343.437	413.06
343.665	402.06
343.893	397.06
344.12	418.06
344.348	409.06
344.576	387.06
344.804	393.06
345.031	404.06
345.259	379.06
345.487	395.06
345.714	393.06
345.942	391.06
346.17	396.06
346.397	377.06
346.625	389.06
346.853	375.06
347.08	356.06
347.308	385.06
347.535	400.06
347.763	365.06
347.99	383.06
348.218	375.06
348.445	369.06
348.673	382.06
348.9	369.06
349.128	376.06
349.355	359.06
349.583	340.06
349.81	378.06
350.037	352.06
350.265	363.06
350.492	356.06
350.72	352.06
350.947	359.06
351.174	355.06
351.402	361.06
351.629	374.06
351.856	359.06
352.083	363.06
352.311	383.06
352.538	372.06
352.765	385.06
352.992	386.06
353.22	374.06
353.447	363.06
353.674	359.06
353.901	368.06
354.128	361.06
354.355	364.06
354.583	346.06
354.81	361.06
355.037	363.06
355.264	363.06
355.491	362.06
355.718	373.06
355.945	362.06
356.172	355.06
356.399	362.06
356.626	367.06
356.853	394.06
357.08	348.06
357.307	368.06
357.534	379.06
357.761	351.06
357.988	360.06
358.215	358.06
358.441	361.06
358.668	372.06
358.895	373.06
359.122	372.06
359.349	384.06
359.576	372.06
359.802	414.06
360.029	396.06
360.256	401.06
360.483	401.06
360.709	378.06
360.936	400.06
361.163	364.06
361.39	375.06
361.616	375.06
361.843	371.06
362.07	354.06
362.296	368.06
362.523	369.06
362.749	377.06
362.976	379.06
363.203	379.06
363.429	363.06
363.656	371.06
363.882	358.06
364.109	355.06
364.335	373.06
364.562	377.06
364.788	360.06
365.015	362.06
365.241	348.06
365.468	359.06
365.694	377.06
365.92	377.06
366.147	351.06
366.373	367.06
366.599	379.06
366.826	370.06
367.052	368.06
367.278	378.06
367.505	372.06
367.731	368.06
367.957	372.06
368.184	368.06
368.41	372.06
368.636	381.06
368.862	354.06
369.089	371.06
369.315	383.06
369.541	375.06
369.767	364.06
369.993	368.06
370.219	365.06
370.445	377.06
370.672	383.06
370.898	376.06
371.124	371.06
371.35	373.06
371.576	376.06
371.802	394.06
372.028	400.06
372.254	402.06
372.48	383.06
372.706	394.06
372.932	384.06
373.158	383.06
373.384	377.06
373.61	378.06
373.835	393.06
374.061	374.06
374.287	377.06
374.513	402.06
374.739	398.06
374.965	406.06
375.191	397.06
375.416	411.06
375.642	380.06
375.868	389.06
376.094	387.06
376.319	376.06
376.545	392.06
376.771	389.06
376.997	393.06
377.222	388.06
377.448	388.06
377.674	385.06
377.899	368.06
378.125	386.06
378.35	402.06
378.576	391.06
378.802	389.06
379.027	384.06
379.253	380.06
379.478	379.06
379.704	392.06
379.929	368.06
380.155	379.06
380.38	382.06
380.606	363.06
380.831	375.06
381.057	393.06
381.282	393.06
381.507	380.06
381.733	404.06
381.958	392.06
382.184	394.06
382.409	397.06
382.634	395.06
382.86	387.06
383.085	403.06
383.31	398.06
383.535	400.06
383.761	405.06
383.986	419.06
384.211	404.06
384.436	422.06
384.662	432.06
384.887	439.06
385.112	428.06
385.337	443.06
385.562	411.06
385.787	417.06
386.013	442.06
386.238	440.06
386.463	437.06
386.688	428.06
386.913	432.06
387.138	423.06
387.363	428.06
387.588	433.06
387.813	431.06
388.038	429.06
388.263	415.06
388.488	432.06
388.713	438.06
388.938	449.06
389.163	445.06
389.387	428.06
389.612	419.06
389.837	421.06
390.062	421.06
390.287	417.06
390.512	439.06
390.736	431.06
390.961	412.06
391.186	437.06
391.411	446.06
391.636	439.06
391.86	444.06
392.085	464.06
392.31	458.06
392.534	457.06
392.759	454.06
392.984	453.06
393.208	452.06
393.433	471.06
393.658	472.06
393.882	456.06
394.107	445.06
394.331	434.06
394.556	434.06
394.78	471.06
395.005	443.06
395.229	451.06
395.454	448.06
395.678	461.06
395.903	471.06
396.127	470.06
396.352	499.06
396.576	457.06
396.801	459.06
397.025	486.06
397.249	443.06
397.474	465.06
397.698	483.06
397.922	484.06
398.147	488.06
398.371	529.06
398.595	507.06
398.82	504.06
399.044	514.06
399.268	539.06
399.492	589.06
399.717	621.06
399.941	605.06
400.165	634.06
400.389	625.06
400.613	578.06
400.837	532.06
401.062	519.06
401.286	505.06
401.51	519.06
401.734	508.06
401.958	529.06
402.182	526.06
402.406	539.06
402.63	503.06
402.854	531.06
403.078	501.06
403.302	540.06
403.526	537.06
403.75	531.06
403.974	535.06
404.198	521.06
404.422	533.06
404.645	525.06
404.869	537.06
405.093	590.06
405.317	606.06
405.541	617.06
405.765	591.06
405.988	553.06
406.212	580.06
406.436	557.06
406.66	567.06
406.883	575.06
407.107	580.06
407.331	628.06
407.555	695.06
407.778	689.06
408.002	636.06
408.226	613.06
408.449	593.06
408.673	592.06
408.896	603.06
409.12	633.06
409.344	607.06
409.567	586.06
409.791	562.06
410.014	554.06
410.238	541.06
410.461	548.06
410.685	524.06
410.908	557.06
411.132	586.06
411.355	593.06
411.578	572.06
411.802	543.06
412.025	539.06
412.249	538.06
412.472	576.06
412.695	579.06
412.919	589.06
413.142	536.06
413.365	520.06
413.589	510.06
413.812	500.06
414.035	520.06
414.258	513.06
414.482	509.06
414.705	519.06
414.928	498.06
415.151	518.06
415.374	500.06
415.597	509.06
415.821	499.06
416.044	502.06
416.267	490.06
416.49	505.06
416.713	496.06
416.936	542.06
417.159	503.06
417.382	506.06
417.605	508.06
417.828	512.06
418.051	530.06
418.274	521.06
418.497	509.06
418.72	514.06
418.943	536.06
419.166	518.06
419.389	566.06
419.611	546.06
419.834	538.06
420.057	525.06
420.28	511.06
420.503	525.06
420.726	519.06
420.948	543.06
421.171	550.06
421.394	617.06
421.617	546.06
421.839	540.06
422.062	512.06
422.285	527.06
422.507	563.06
422.73	642.06
422.953	631.06
423.175	556.06
423.398	552.06
423.621	532.06
423.843	569.06
424.066	572.06
424.288	565.06
424.511	589.06
424.733	611.06
424.956	674.06
425.178	628.06
425.401	627.06
425.623	650.06
425.846	579.06
426.068	547.06
426.291	543.06
426.513	547.06
426.735	533.06
426.958	601.06
427.18	637.06
427.402	741.06
427.625	827.06
427.847	711.06
428.069	620.06
428.292	548.06
428.514	524.06
428.736	514.06
428.958	520.06
429.181	499.06
429.403	494.06
429.625	494.06
429.847	534.06
430.069	583.06
430.292	593.06
430.514	509.06
430.736	523.06
430.958	505.06
431.18	500.06
431.402	505.06
431.624	493.06
431.846	479.06
432.068	486.06
432.29	520.06
432.512	485.06
432.734	487.06
432.956	482.06
433.178	490.06
433.4	500.06
433.622	513.06
433.844	497.06
434.066	477.06
434.287	485.06
434.509	502.06
434.731	536.06
434.953	539.06
435.175	526.06
435.397	541.06
435.618	565.06
435.84	555.06
436.062	635.06
436.284	706.06
436.505	611.06
436.727	569.06
436.949	531.06
437.17	514.06
437.392	490.06
437.614	543.06
437.835	548.06
438.057	602.06
438.278	697.06
438.5	682.06
438.721	758.06
438.943	753.06
439.165	611.06
439.386	556.06
439.608	539.06
439.829	529.06
440.05	547.06
440.272	599.06
440.493	568.06
440.715	547.06
440.936	531.06
441.158	522.06
441.379	515.06
441.6	524.06
441.822	543.06
442.043	563.06
442.264	646.06
442.486	689.06
442.707	570.06
442.928	543.06
443.149	559.06
443.371	573.06
443.592	591.06
443.813	668.06
444.034	731.06
444.255	635.06
444.476	580.06
444.698	551.06
444.919	594.06
445.14	729.06
445.361	631.06
445.582	567.06
445.803	610.06
446.024	707.06
446.245	715.06
446.466	654.06
446.687	574.06
446.908	539.06
447.129	513.06
447.35	509.06
447.571	505.06
447.792	490.06
448.013	500.06
448.234	493.06
448.455	546.06
448.675	631.06
448.896	726.06
449.117	625.06
449.338	601.06
449.559	685.06
449.779	758.06
450	636.06
450.221	527.06
450.442	489.06
450.662	466.06
450.883	474.06
451.104	496.06
451.324	488.06
451.545	478.06
451.766	454.06
451.986	457.06
452.207	456.06
452.428	453.06
452.648	456.06
452.869	455.06
453.089	470.06
453.31	457.06
453.53	450.06
453.751	463.06
453.971	453.06
454.192	474.06
454.412	458.06
454.633	451.06
454.853	452.06
455.073	439.06
455.294	467.06
455.514	523.06
455.734	524.06
455.955	452.06
456.175	443.06
456.395	424.06
456.616	431.06
456.836	424.06
457.056	418.06
457.276	430.06
457.497	434.06
457.717	436.06
457.937	453.06
458.157	442.06
458.377	459.06
458.598	457.06
458.818	508.06
459.038	547.06
459.258	581.06
459.478	515.06
459.698	498.06
459.918	468.06
460.138	513.06
460.358	513.06
460.578	500.06
460.798	519.06
461.018	529.06
461.238	508.06
461.458	532.06
461.678	501.06
461.898	540.06
462.118	516.06
462.338	536.06
462.558	579.06
462.777	546.06
462.997	570.06
463.217	589.06
463.437	610.06
463.657	556.06
463.876	560.06
464.096	559.06
464.316	559.06
464.536	555.06
464.755	552.06
464.975	564.06
465.195	592.06
465.414	609.06
465.634	549.06
465.854	529.06
466.073	512.06
466.293	478.06
466.512	464.06
466.732	475.06
466.951	471.06
467.171	488.06
467.391	479.06
467.61	471.06
467.829	497.06
468.049	496.06
468.268	470.06
468.488	476.06
468.707	472.06
468.927	463.06
469.146	487.06
469.365	474.06
469.585	465.06
469.804	464.06
470.023	465.06
470.243	501.06
470.462	466.06
470.681	514.06
470.901	489.06
471.12	478.06
471.339	489.06
471.558	473.06
471.777	491.06
471.997	472.06
472.216	487.06
472.435	504.06
472.654	482.06
472.873	477.06
473.092	453.06
473.311	499.06
473.53	497.06
473.749	471.06
473.968	525.06
474.187	575.06
474.406	601.06
474.625	521.06
474.844	501.06
475.063	492.06
475.282	479.06
475.501	488.06
475.72	502.06
475.939	512.06
476.158	507.06
476.377	463.06
476.596	484.06
476.814	491.06
477.033	529.06
477.252	515.06
477.471	519.06
477.69	518.06
477.908	534.06
478.127	515.06
478.346	538.06
478.564	543.06
478.783	543.06
479.002	556.06
479.22	561.06
479.439	580.06
479.658	576.06
479.876	583.06
480.095	607.06
480.313	589.06
480.532	592.06
480.751	597.06
480.969	623.06
481.188	600.06
481.406	647.06
481.624	589.06
481.843	570.06
482.061	563.06
482.28	564.06
482.498	555.06
482.717	561.06
482.935	556.06
483.153	563.06
483.372	551.06
483.59	565.06
483.808	563.06
484.027	560.06
484.245	565.06
484.463	566.06
484.681	570.06
484.9	599.06
485.118	585.06
485.336	546.06
485.554	601.06
485.772	581.06
485.99	596.06
486.209	580.06
486.427	582.06
486.645	610.06
486.863	589.06
487.081	600.06
487.299	614.06
487.517	624.06
487.735	589.06
487.953	571.06
488.171	595.06
488.389	610.06
488.607	593.06
488.825	588.06
489.043	593.06
489.261	611.06
489.479	593.06
489.696	590.06
489.914	600.06
490.132	598.06
490.35	595.06
490.568	606.06
490.786	613.06
491.003	623.06
491.221	649.06
491.439	652.06
491.657	647.06
491.874	681.06
492.092	661.06
492.31	673.06
492.527	666.06
492.745	679.06
492.963	683.06
493.18	682.06
493.398	695.06
493.615	710.06
493.833	678.06
494.05	676.06
494.268	697.06
494.485	667.06
494.703	679.06
494.92	678.06
495.138	673.06
495.355	705.06
495.573	683.06
495.79	705.06
496.008	711.06
496.225	697.06
496.442	730.06
496.66	707.06
496.877	693.06
497.094	723.06
497.312	730.06
497.529	749.06
497.746	753.06
497.963	763.06
498.181	755.06
498.398	778.06
498.615	785.06
498.832	853.06
499.049	842.06
499.267	899.06
499.484	935.06
499.701	972.06
499.918	1047.06
500.135	1085.06
500.352	1137.06
500.569	1150.06
500.786	1152.06
501.003	1101.06
501.22	1073.06
501.437	1012.06
501.654	992.06
501.871	951.06
502.088	916.06
