Data from 1979.PennyLincolnUp.Lamp.En5.5.200Scan.071719.P1_HRD10591_16-20-15-864.txt Node
Date: Thu Jul 18 16:20:15 EDT 2019
User: cochatt
Spectrometer: HR+D1059
Trigger mode: 1
Integration Time (sec): 1.000000E-1
Scans to average: 1
Electric dark correction enabled: true
Nonlinearity correction enabled: false
Boxcar width: 0
XAxis mode: Wavelengths
Number of Pixels in Spectrum: 2048
>>>>>Begin Spectral Data<<<<<
223.165	-9.75
223.4	-9.75
223.635	-9.75
223.869	-17.75
224.104	-2.75
224.338	-13.75
224.573	-18.75
224.808	-24.75
225.042	-9.75
225.277	4.25
225.511	-6.75
225.746	-8.75
225.98	0.25
226.215	1.25
226.449	15.25
226.683	23.25
226.918	36.25
227.152	32.25
227.387	46.25
227.621	49.25
227.856	48.25
228.09	60.25
228.324	50.25
228.559	62.25
228.793	60.25
229.027	103.25
229.262	115.25
229.496	121.25
229.73	137.25
229.964	152.25
230.199	128.25
230.433	108.25
230.667	113.25
230.901	118.25
231.136	117.25
231.37	113.25
231.604	113.25
231.838	110.25
232.072	114.25
232.306	117.25
232.541	111.25
232.775	130.25
233.009	108.25
233.243	115.25
233.477	107.25
233.711	99.25
233.945	109.25
234.179	109.25
234.413	113.25
234.647	127.25
234.881	125.25
235.115	118.25
235.349	132.25
235.583	127.25
235.817	119.25
236.051	139.25
236.285	137.25
236.519	132.25
236.753	133.25
236.987	158.25
237.221	189.25
237.455	227.25
237.689	170.25
237.922	151.25
238.156	148.25
238.39	143.25
238.624	139.25
238.858	134.25
239.091	133.25
239.325	128.25
239.559	130.25
239.793	120.25
240.027	144.25
240.26	146.25
240.494	166.25
240.728	144.25
240.961	153.25
241.195	145.25
241.429	150.25
241.662	141.25
241.896	127.25
242.13	145.25
242.363	135.25
242.597	138.25
242.83	146.25
243.064	138.25
243.298	147.25
243.531	150.25
243.765	148.25
243.998	148.25
244.232	161.25
244.465	137.25
244.699	154.25
244.932	152.25
245.166	157.25
245.399	147.25
245.633	171.25
245.866	168.25
246.099	160.25
246.333	143.25
246.566	157.25
246.8	151.25
247.033	162.25
247.266	148.25
247.5	152.25
247.733	168.25
247.966	186.25
248.2	171.25
248.433	173.25
248.666	181.25
248.899	185.25
249.133	186.25
249.366	211.25
249.599	194.25
249.832	191.25
250.066	191.25
250.299	189.25
250.532	189.25
250.765	202.25
250.998	207.25
251.231	218.25
251.465	207.25
251.698	196.25
251.931	204.25
252.164	197.25
252.397	198.25
252.63	210.25
252.863	205.25
253.096	198.25
253.329	219.25
253.562	220.25
253.795	220.25
254.028	218.25
254.261	199.25
254.494	234.25
254.727	230.25
254.96	274.25
255.193	279.25
255.426	255.25
255.659	209.25
255.892	221.25
256.124	218.25
256.357	250.25
256.59	210.25
256.823	210.25
257.056	215.25
257.289	192.25
257.521	195.25
257.754	208.25
257.987	220.25
258.22	222.25
258.452	205.25
258.685	223.25
258.918	206.25
259.151	209.25
259.383	218.25
259.616	230.25
259.849	229.25
260.081	222.25
260.314	237.25
260.547	247.25
260.779	253.25
261.012	230.25
261.244	223.25
261.477	211.25
261.71	226.25
261.942	231.25
262.175	243.25
262.407	214.25
262.64	220.25
262.872	195.25
263.105	200.25
263.337	212.25
263.57	223.25
263.802	221.25
264.035	216.25
264.267	213.25
264.499	228.25
264.732	209.25
264.964	215.25
265.197	228.25
265.429	219.25
265.661	218.25
265.894	214.25
266.126	225.25
266.358	221.25
266.591	221.25
266.823	214.25
267.055	233.25
267.287	220.25
267.52	218.25
267.752	198.25
267.984	250.25
268.216	240.25
268.448	244.25
268.681	236.25
268.913	242.25
269.145	263.25
269.377	282.25
269.609	270.25
269.841	276.25
270.073	279.25
270.306	292.25
270.538	300.25
270.77	290.25
271.002	303.25
271.234	281.25
271.466	280.25
271.698	298.25
271.93	309.25
272.162	301.25
272.394	298.25
272.626	311.25
272.858	276.25
273.09	272.25
273.322	266.25
273.553	260.25
273.785	253.25
274.017	253.25
274.249	273.25
274.481	281.25
274.713	259.25
274.945	266.25
275.176	250.25
275.408	283.25
275.64	267.25
275.872	272.25
276.104	247.25
276.335	249.25
276.567	269.25
276.799	281.25
277.031	299.25
277.262	312.25
277.494	311.25
277.726	298.25
277.957	286.25
278.189	278.25
278.421	268.25
278.652	269.25
278.884	273.25
279.115	264.25
279.347	276.25
279.579	270.25
279.81	259.25
280.042	267.25
280.273	269.25
280.505	256.25
280.736	273.25
280.968	282.25
281.199	279.25
281.431	260.25
281.662	256.25
281.894	284.25
282.125	271.25
282.356	293.25
282.588	306.25
282.819	305.25
283.051	285.25
283.282	284.25
283.513	290.25
283.745	267.25
283.976	272.25
284.207	286.25
284.439	291.25
284.67	277.25
284.901	283.25
285.132	287.25
285.364	282.25
285.595	282.25
285.826	266.25
286.057	282.25
286.288	293.25
286.52	283.25
286.751	281.25
286.982	273.25
287.213	288.25
287.444	293.25
287.675	294.25
287.906	295.25
288.138	302.25
288.369	298.25
288.6	323.25
288.831	297.25
289.062	304.25
289.293	309.25
289.524	300.25
289.755	314.25
289.986	301.25
290.217	297.25
290.448	297.25
290.679	297.25
290.91	307.25
291.141	292.25
291.371	301.25
291.602	309.25
291.833	296.25
292.064	297.25
292.295	293.25
292.526	293.25
292.757	301.25
292.987	304.25
293.218	301.25
293.449	299.25
293.68	298.25
293.91	315.25
294.141	290.25
294.372	282.25
294.603	304.25
294.833	300.25
295.064	291.25
295.295	300.25
295.525	299.25
295.756	313.25
295.987	317.25
296.217	345.25
296.448	358.25
296.679	315.25
296.909	295.25
297.14	311.25
297.37	315.25
297.601	327.25
297.831	322.25
298.062	311.25
298.292	325.25
298.523	311.25
298.753	317.25
298.984	328.25
299.214	311.25
299.445	327.25
299.675	326.25
299.905	328.25
300.136	326.25
300.366	327.25
300.597	332.25
300.827	309.25
301.057	329.25
301.288	349.25
301.518	347.25
301.748	336.25
301.979	326.25
302.209	321.25
302.439	337.25
302.669	321.25
302.9	352.25
303.13	333.25
303.36	344.25
303.59	351.25
303.82	350.25
304.051	344.25
304.281	327.25
304.511	331.25
304.741	337.25
304.971	341.25
305.201	338.25
305.431	344.25
305.661	345.25
305.891	321.25
306.121	354.25
306.352	335.25
306.582	340.25
306.812	344.25
307.042	344.25
307.272	347.25
307.502	354.25
307.731	356.25
307.961	350.25
308.191	334.25
308.421	339.25
308.651	349.25
308.881	351.25
309.111	341.25
309.341	337.25
309.571	355.25
309.8	378.25
310.03	356.25
310.26	397.25
310.49	377.25
310.72	393.25
310.949	413.25
311.179	406.25
311.409	386.25
311.639	401.25
311.868	395.25
312.098	395.25
312.328	398.25
312.557	390.25
312.787	411.25
313.017	426.25
313.246	393.25
313.476	383.25
313.706	404.25
313.935	407.25
314.165	399.25
314.394	402.25
314.624	410.25
314.853	406.25
315.083	402.25
315.312	398.25
315.542	399.25
315.771	402.25
316.001	384.25
316.23	397.25
316.46	402.25
316.689	401.25
316.919	386.25
317.148	415.25
317.377	405.25
317.607	396.25
317.836	380.25
318.065	395.25
318.295	391.25
318.524	377.25
318.753	388.25
318.983	393.25
319.212	387.25
319.441	388.25
319.67	399.25
319.9	424.25
320.129	404.25
320.358	405.25
320.587	406.25
320.816	421.25
321.046	403.25
321.275	407.25
321.504	403.25
321.733	417.25
321.962	395.25
322.191	434.25
322.42	447.25
322.649	429.25
322.878	440.25
323.108	451.25
323.337	481.25
323.566	501.25
323.795	523.25
324.024	562.25
324.253	671.25
324.482	953.25
324.71	1520.25
324.939	2247.25
325.168	1943.25
325.397	932.25
325.626	638.25
325.855	558.25
326.084	508.25
326.313	498.25
326.542	517.25
326.77	554.25
326.999	625.25
327.228	859.25
327.457	1375.25
327.686	1735.25
327.914	1109.25
328.143	722.25
328.372	626.25
328.6	599.25
328.829	549.25
329.058	577.25
329.287	569.25
329.515	558.25
329.744	492.25
329.972	529.25
330.201	543.25
330.43	542.25
330.658	563.25
330.887	624.25
331.115	604.25
331.344	517.25
331.572	513.25
331.801	495.25
332.03	506.25
332.258	488.25
332.486	476.25
332.715	478.25
332.943	484.25
333.172	480.25
333.4	482.25
333.629	511.25
333.857	511.25
334.085	535.25
334.314	553.25
334.542	557.25
334.771	581.25
334.999	531.25
335.227	514.25
335.455	509.25
335.684	486.25
335.912	467.25
336.14	480.25
336.369	480.25
336.597	463.25
336.825	473.25
337.053	488.25
337.281	470.25
337.51	445.25
337.738	485.25
337.966	464.25
338.194	490.25
338.422	468.25
338.65	466.25
338.878	458.25
339.106	451.25
339.334	462.25
339.562	459.25
339.79	463.25
340.018	453.25
340.246	452.25
340.474	455.25
340.702	474.25
340.93	443.25
341.158	456.25
341.386	438.25
341.614	443.25
341.842	447.25
342.07	446.25
342.298	454.25
342.526	442.25
342.754	454.25
342.981	427.25
343.209	444.25
343.437	447.25
343.665	446.25
343.893	468.25
344.12	468.25
344.348	476.25
344.576	477.25
344.804	457.25
345.031	468.25
345.259	486.25
345.487	472.25
345.714	471.25
345.942	447.25
346.17	435.25
346.397	426.25
346.625	433.25
346.853	427.25
347.08	442.25
347.308	449.25
347.535	457.25
347.763	444.25
347.99	459.25
348.218	445.25
348.445	445.25
348.673	455.25
348.9	448.25
349.128	453.25
349.355	426.25
349.583	422.25
349.81	429.25
350.037	421.25
350.265	426.25
350.492	415.25
350.72	412.25
350.947	431.25
351.174	443.25
351.402	441.25
351.629	453.25
351.856	445.25
352.083	421.25
352.311	444.25
352.538	436.25
352.765	445.25
352.992	439.25
353.22	443.25
353.447	428.25
353.674	443.25
353.901	415.25
354.128	409.25
354.355	415.25
354.583	423.25
354.81	422.25
355.037	402.25
355.264	416.25
355.491	411.25
355.718	426.25
355.945	411.25
356.172	406.25
356.399	399.25
356.626	412.25
356.853	411.25
357.08	421.25
357.307	415.25
357.534	418.25
357.761	408.25
357.988	413.25
358.215	393.25
358.441	435.25
358.668	414.25
358.895	414.25
359.122	438.25
359.349	427.25
359.576	442.25
359.802	455.25
360.029	505.25
360.256	507.25
360.483	480.25
360.709	451.25
360.936	434.25
361.163	464.25
361.39	438.25
361.616	441.25
361.843	445.25
362.07	434.25
362.296	420.25
362.523	441.25
362.749	432.25
362.976	455.25
363.203	430.25
363.429	442.25
363.656	427.25
363.882	451.25
364.109	437.25
364.335	415.25
364.562	422.25
364.788	429.25
365.015	423.25
365.241	429.25
365.468	427.25
365.694	427.25
365.92	443.25
366.147	448.25
366.373	439.25
366.599	420.25
366.826	427.25
367.052	438.25
367.278	420.25
367.505	435.25
367.731	407.25
367.957	419.25
368.184	441.25
368.41	429.25
368.636	463.25
368.862	449.25
369.089	434.25
369.315	424.25
369.541	428.25
369.767	438.25
369.993	445.25
370.219	415.25
370.445	453.25
370.672	453.25
370.898	412.25
371.124	421.25
371.35	432.25
371.576	418.25
371.802	434.25
372.028	439.25
372.254	425.25
372.48	423.25
372.706	430.25
372.932	434.25
373.158	426.25
373.384	431.25
373.61	438.25
373.835	461.25
374.061	434.25
374.287	439.25
374.513	428.25
374.739	456.25
374.965	451.25
375.191	451.25
375.416	442.25
375.642	450.25
375.868	428.25
376.094	439.25
376.319	458.25
376.545	434.25
376.771	412.25
376.997	439.25
377.222	442.25
377.448	438.25
377.674	437.25
377.899	433.25
378.125	421.25
378.35	442.25
378.576	423.25
378.802	429.25
379.027	458.25
379.253	452.25
379.478	441.25
379.704	420.25
379.929	433.25
380.155	433.25
380.38	400.25
380.606	426.25
380.831	432.25
381.057	454.25
381.282	411.25
381.507	442.25
381.733	442.25
381.958	464.25
382.184	442.25
382.409	449.25
382.634	462.25
382.86	440.25
383.085	441.25
383.31	449.25
383.535	456.25
383.761	459.25
383.986	465.25
384.211	456.25
384.436	464.25
384.662	479.25
384.887	493.25
385.112	477.25
385.337	481.25
385.562	471.25
385.787	485.25
386.013	488.25
386.238	508.25
386.463	515.25
386.688	478.25
386.913	469.25
387.138	486.25
387.363	468.25
387.588	492.25
387.813	479.25
388.038	489.25
388.263	515.25
388.488	482.25
388.713	515.25
388.938	487.25
389.163	492.25
389.387	477.25
389.612	483.25
389.837	480.25
390.062	482.25
390.287	492.25
390.512	490.25
390.736	485.25
390.961	495.25
391.186	497.25
391.411	486.25
391.636	492.25
391.86	480.25
392.085	497.25
392.31	505.25
392.534	511.25
392.759	514.25
392.984	495.25
393.208	487.25
393.433	489.25
393.658	494.25
393.882	487.25
394.107	466.25
394.331	506.25
394.556	501.25
394.78	498.25
395.005	509.25
395.229	496.25
395.454	511.25
395.678	515.25
395.903	544.25
396.127	560.25
396.352	565.25
396.576	538.25
396.801	504.25
397.025	529.25
397.249	541.25
397.474	522.25
397.698	531.25
397.922	549.25
398.147	570.25
398.371	593.25
398.595	565.25
398.82	569.25
399.044	571.25
399.268	601.25
399.492	645.25
399.717	671.25
399.941	712.25
400.165	690.25
400.389	704.25
400.613	665.25
400.837	608.25
401.062	585.25
401.286	592.25
401.51	592.25
401.734	591.25
401.958	592.25
402.182	599.25
402.406	605.25
402.63	595.25
402.854	593.25
403.078	591.25
403.302	595.25
403.526	622.25
403.75	579.25
403.974	596.25
404.198	614.25
404.422	613.25
404.645	625.25
404.869	627.25
405.093	654.25
405.317	682.25
405.541	741.25
405.765	661.25
405.988	641.25
406.212	643.25
406.436	661.25
406.66	680.25
406.883	664.25
407.107	679.25
407.331	730.25
407.555	803.25
407.778	806.25
408.002	769.25
408.226	677.25
408.449	667.25
408.673	654.25
408.896	687.25
409.12	731.25
409.344	696.25
409.567	632.25
409.791	613.25
410.014	601.25
410.238	617.25
410.461	610.25
410.685	609.25
410.908	642.25
411.132	647.25
411.355	682.25
411.578	637.25
411.802	615.25
412.025	617.25
412.249	617.25
412.472	637.25
412.695	689.25
412.919	649.25
413.142	620.25
413.365	606.25
413.589	609.25
413.812	561.25
414.035	563.25
414.258	574.25
414.482	600.25
414.705	613.25
414.928	580.25
415.151	606.25
415.374	583.25
415.597	572.25
415.821	587.25
416.044	585.25
416.267	568.25
416.49	575.25
416.713	577.25
416.936	560.25
417.159	547.25
417.382	563.25
417.605	580.25
417.828	603.25
418.051	609.25
418.274	591.25
418.497	577.25
418.72	599.25
418.943	601.25
419.166	600.25
419.389	635.25
419.611	629.25
419.834	622.25
420.057	613.25
420.28	624.25
420.503	610.25
420.726	602.25
420.948	599.25
421.171	647.25
421.394	674.25
421.617	605.25
421.839	591.25
422.062	605.25
422.285	603.25
422.507	649.25
422.73	765.25
422.953	696.25
423.175	611.25
423.398	630.25
423.621	590.25
423.843	632.25
424.066	643.25
424.288	638.25
424.511	645.25
424.733	723.25
424.956	791.25
425.178	774.25
425.401	787.25
425.623	777.25
425.846	672.25
426.068	642.25
426.291	643.25
426.513	635.25
426.735	649.25
426.958	672.25
427.18	786.25
427.402	911.25
427.625	983.25
427.847	868.25
428.069	743.25
428.292	665.25
428.514	641.25
428.736	625.25
428.958	611.25
429.181	585.25
429.403	583.25
429.625	590.25
429.847	617.25
430.069	691.25
430.292	694.25
430.514	616.25
430.736	597.25
430.958	588.25
431.18	553.25
431.402	555.25
431.624	557.25
431.846	540.25
432.068	551.25
432.29	577.25
432.512	565.25
432.734	562.25
432.956	559.25
433.178	571.25
433.4	585.25
433.622	579.25
433.844	572.25
434.066	552.25
434.287	553.25
434.509	555.25
434.731	585.25
434.953	583.25
435.175	612.25
435.397	641.25
435.618	639.25
435.84	673.25
436.062	759.25
436.284	840.25
436.505	701.25
436.727	660.25
436.949	616.25
437.17	579.25
437.392	599.25
437.614	601.25
437.835	608.25
438.057	735.25
438.278	818.25
438.5	829.25
438.721	938.25
438.943	905.25
439.165	697.25
439.386	641.25
439.608	657.25
439.829	630.25
440.05	669.25
440.272	708.25
440.493	663.25
440.715	625.25
440.936	600.25
441.158	594.25
441.379	635.25
441.6	605.25
441.822	641.25
442.043	667.25
442.264	757.25
442.486	812.25
442.707	715.25
442.928	641.25
443.149	663.25
443.371	673.25
443.592	704.25
443.813	818.25
444.034	887.25
444.255	741.25
444.476	673.25
444.698	673.25
444.919	666.25
445.14	751.25
445.361	703.25
445.582	699.25
445.803	766.25
446.024	848.25
446.245	846.25
446.466	782.25
446.687	695.25
446.908	649.25
447.129	579.25
447.35	602.25
447.571	604.25
447.792	573.25
448.013	594.25
448.234	595.25
448.455	677.25
448.675	742.25
448.896	873.25
449.117	736.25
449.338	705.25
449.559	809.25
449.779	934.25
450	759.25
450.221	616.25
450.442	554.25
450.662	572.25
450.883	581.25
451.104	579.25
451.324	607.25
451.545	554.25
451.766	533.25
451.986	503.25
452.207	523.25
452.428	530.25
452.648	517.25
452.869	496.25
453.089	542.25
453.31	545.25
453.53	541.25
453.751	535.25
453.971	531.25
454.192	540.25
454.412	544.25
454.633	527.25
454.853	505.25
455.073	512.25
455.294	558.25
455.514	623.25
455.734	586.25
455.955	520.25
456.175	503.25
456.395	506.25
456.616	484.25
456.836	485.25
457.056	482.25
457.276	497.25
457.497	482.25
457.717	493.25
457.937	505.25
458.157	517.25
458.377	522.25
458.598	535.25
458.818	587.25
459.038	687.25
459.258	693.25
459.478	640.25
459.698	565.25
459.918	541.25
460.138	557.25
460.358	587.25
460.578	593.25
460.798	598.25
461.018	615.25
461.238	612.25
461.458	579.25
461.678	589.25
461.898	603.25
462.118	603.25
462.338	630.25
462.558	618.25
462.777	633.25
462.997	634.25
463.217	663.25
463.437	676.25
463.657	641.25
463.876	628.25
464.096	619.25
464.316	594.25
464.536	649.25
464.755	646.25
464.975	625.25
465.195	651.25
465.414	769.25
465.634	640.25
465.854	592.25
466.073	591.25
466.293	566.25
466.512	547.25
466.732	573.25
466.951	560.25
467.171	544.25
467.391	530.25
467.61	567.25
467.829	557.25
468.049	534.25
468.268	561.25
468.488	535.25
468.707	526.25
468.927	531.25
469.146	531.25
469.365	537.25
469.585	524.25
469.804	522.25
470.023	558.25
470.243	556.25
470.462	559.25
470.681	574.25
470.901	557.25
471.12	549.25
471.339	558.25
471.558	566.25
471.777	552.25
471.997	528.25
472.216	551.25
472.435	576.25
472.654	552.25
472.873	545.25
473.092	547.25
473.311	549.25
473.53	544.25
473.749	547.25
473.968	566.25
474.187	684.25
474.406	684.25
474.625	596.25
474.844	583.25
475.063	565.25
475.282	562.25
475.501	567.25
475.72	567.25
475.939	585.25
476.158	566.25
476.377	563.25
476.596	592.25
476.814	583.25
477.033	574.25
477.252	560.25
477.471	583.25
477.69	581.25
477.908	616.25
478.127	617.25
478.346	625.25
478.564	635.25
478.783	620.25
479.002	648.25
479.22	646.25
479.439	655.25
479.658	671.25
479.876	667.25
480.095	644.25
480.313	705.25
480.532	678.25
480.751	671.25
480.969	667.25
481.188	723.25
481.406	779.25
481.624	713.25
481.843	675.25
482.061	653.25
482.28	659.25
482.498	643.25
482.717	641.25
482.935	645.25
483.153	629.25
483.372	665.25
483.59	668.25
483.808	638.25
484.027	647.25
484.245	651.25
484.463	662.25
484.681	650.25
484.9	649.25
485.118	665.25
485.336	658.25
485.554	669.25
485.772	647.25
485.99	681.25
486.209	660.25
486.427	646.25
486.645	692.25
486.863	677.25
487.081	690.25
487.299	682.25
487.517	693.25
487.735	703.25
487.953	714.25
488.171	707.25
488.389	674.25
488.607	688.25
488.825	686.25
489.043	689.25
489.261	686.25
489.479	716.25
489.696	691.25
489.914	691.25
490.132	712.25
490.35	714.25
490.568	713.25
490.786	747.25
491.003	747.25
491.221	740.25
491.439	787.25
491.657	771.25
491.874	766.25
492.092	769.25
492.31	777.25
492.527	753.25
492.745	779.25
492.963	794.25
493.18	797.25
493.398	791.25
493.615	803.25
493.833	817.25
494.05	793.25
494.268	797.25
494.485	818.25
494.703	809.25
494.92	795.25
495.138	798.25
495.355	819.25
495.573	837.25
495.79	804.25
496.008	809.25
496.225	798.25
496.442	816.25
496.66	803.25
496.877	809.25
497.094	824.25
497.312	846.25
497.529	833.25
497.746	845.25
497.963	857.25
498.181	915.25
498.398	921.25
498.615	922.25
498.832	934.25
499.049	984.25
499.267	1010.25
499.484	1059.25
499.701	1081.25
499.918	1120.25
500.135	1177.25
500.352	1260.25
500.569	1294.25
500.786	1288.25
501.003	1266.25
501.22	1217.25
501.437	1135.25
501.654	1105.25
501.871	1090.25
