Data from 1979.PennyLincolnUp.Lamp.En5.5.200Scan.071719.P1_HRD10591_16-20-09-863.txt Node
Date: Thu Jul 18 16:20:09 EDT 2019
User: cochatt
Spectrometer: HR+D1059
Trigger mode: 1
Integration Time (sec): 1.000000E-1
Scans to average: 1
Electric dark correction enabled: true
Nonlinearity correction enabled: false
Boxcar width: 0
XAxis mode: Wavelengths
Number of Pixels in Spectrum: 2048
>>>>>Begin Spectral Data<<<<<
223.165	-1.5
223.4	-1.5
223.635	-1.5
223.869	-19.5
224.104	-8.5
224.338	-30.5
224.573	-19.5
224.808	-22.5
225.042	-4.5
225.277	-3.5
225.511	-4.5
225.746	-2.5
225.98	7.5
226.215	24.5
226.449	31.5
226.683	15.5
226.918	24.5
227.152	13.5
227.387	41.5
227.621	28.5
227.856	44.5
228.09	35.5
228.324	41.5
228.559	54.5
228.793	61.5
229.027	79.5
229.262	105.5
229.496	102.5
229.73	122.5
229.964	159.5
230.199	124.5
230.433	108.5
230.667	101.5
230.901	120.5
231.136	112.5
231.37	107.5
231.604	91.5
231.838	100.5
232.072	113.5
232.306	111.5
232.541	100.5
232.775	111.5
233.009	86.5
233.243	112.5
233.477	99.5
233.711	117.5
233.945	115.5
234.179	111.5
234.413	121.5
234.647	107.5
234.881	105.5
235.115	107.5
235.349	122.5
235.583	122.5
235.817	125.5
236.051	127.5
236.285	123.5
236.519	135.5
236.753	118.5
236.987	123.5
237.221	169.5
237.455	217.5
237.689	179.5
237.922	151.5
238.156	141.5
238.39	123.5
238.624	131.5
238.858	121.5
239.091	114.5
239.325	111.5
239.559	129.5
239.793	127.5
240.027	133.5
240.26	146.5
240.494	158.5
240.728	164.5
240.961	161.5
241.195	138.5
241.429	142.5
241.662	135.5
241.896	127.5
242.13	135.5
242.363	134.5
242.597	140.5
242.83	136.5
243.064	137.5
243.298	129.5
243.531	139.5
243.765	137.5
243.998	133.5
244.232	139.5
244.465	152.5
244.699	145.5
244.932	139.5
245.166	149.5
245.399	156.5
245.633	151.5
245.866	145.5
246.099	150.5
246.333	153.5
246.566	145.5
246.8	161.5
247.033	149.5
247.266	156.5
247.5	160.5
247.733	171.5
247.966	169.5
248.2	160.5
248.433	168.5
248.666	173.5
248.899	184.5
249.133	172.5
249.366	188.5
249.599	188.5
249.832	164.5
250.066	188.5
250.299	189.5
250.532	167.5
250.765	204.5
250.998	221.5
251.231	209.5
251.465	208.5
251.698	192.5
251.931	189.5
252.164	194.5
252.397	192.5
252.63	188.5
252.863	197.5
253.096	201.5
253.329	233.5
253.562	229.5
253.795	199.5
254.028	217.5
254.261	195.5
254.494	213.5
254.727	252.5
254.96	262.5
255.193	274.5
255.426	209.5
255.659	201.5
255.892	217.5
256.124	232.5
256.357	210.5
256.59	224.5
256.823	192.5
257.056	191.5
257.289	193.5
257.521	203.5
257.754	205.5
257.987	199.5
258.22	203.5
258.452	204.5
258.685	207.5
258.918	215.5
259.151	220.5
259.383	226.5
259.616	189.5
259.849	212.5
260.081	219.5
260.314	250.5
260.547	229.5
260.779	220.5
261.012	217.5
261.244	211.5
261.477	210.5
261.71	224.5
261.942	210.5
262.175	221.5
262.407	198.5
262.64	219.5
262.872	206.5
263.105	215.5
263.337	219.5
263.57	217.5
263.802	202.5
264.035	212.5
264.267	209.5
264.499	216.5
264.732	214.5
264.964	224.5
265.197	197.5
265.429	211.5
265.661	210.5
265.894	221.5
266.126	208.5
266.358	222.5
266.591	204.5
266.823	209.5
267.055	209.5
267.287	229.5
267.52	233.5
267.752	218.5
267.984	223.5
268.216	210.5
268.448	220.5
268.681	233.5
268.913	250.5
269.145	257.5
269.377	263.5
269.609	253.5
269.841	240.5
270.073	253.5
270.306	288.5
270.538	299.5
270.77	293.5
271.002	278.5
271.234	291.5
271.466	293.5
271.698	294.5
271.93	296.5
272.162	303.5
272.394	277.5
272.626	267.5
272.858	272.5
273.09	284.5
273.322	259.5
273.553	255.5
273.785	261.5
274.017	255.5
274.249	260.5
274.481	258.5
274.713	267.5
274.945	258.5
275.176	254.5
275.408	251.5
275.64	247.5
275.872	260.5
276.104	266.5
276.335	240.5
276.567	259.5
276.799	269.5
277.031	290.5
277.262	298.5
277.494	299.5
277.726	275.5
277.957	270.5
278.189	282.5
278.421	269.5
278.652	281.5
278.884	271.5
279.115	273.5
279.347	270.5
279.579	268.5
279.81	255.5
280.042	265.5
280.273	265.5
280.505	257.5
280.736	259.5
280.968	249.5
281.199	260.5
281.431	267.5
281.662	263.5
281.894	265.5
282.125	268.5
282.356	280.5
282.588	292.5
282.819	296.5
283.051	271.5
283.282	267.5
283.513	277.5
283.745	260.5
283.976	282.5
284.207	260.5
284.439	275.5
284.67	275.5
284.901	276.5
285.132	277.5
285.364	261.5
285.595	279.5
285.826	282.5
286.057	278.5
286.288	281.5
286.52	269.5
286.751	284.5
286.982	258.5
287.213	281.5
287.444	271.5
287.675	287.5
287.906	290.5
288.138	295.5
288.369	313.5
288.6	301.5
288.831	293.5
289.062	269.5
289.293	287.5
289.524	282.5
289.755	300.5
289.986	284.5
290.217	279.5
290.448	274.5
290.679	290.5
290.91	279.5
291.141	291.5
291.371	289.5
291.602	281.5
291.833	297.5
292.064	297.5
292.295	293.5
292.526	276.5
292.757	296.5
292.987	281.5
293.218	305.5
293.449	299.5
293.68	299.5
293.91	314.5
294.141	294.5
294.372	283.5
294.603	294.5
294.833	283.5
295.064	283.5
295.295	299.5
295.525	280.5
295.756	292.5
295.987	319.5
296.217	318.5
296.448	320.5
296.679	323.5
296.909	290.5
297.14	307.5
297.37	303.5
297.601	293.5
297.831	313.5
298.062	305.5
298.292	301.5
298.523	309.5
298.753	305.5
298.984	325.5
299.214	324.5
299.445	305.5
299.675	309.5
299.905	332.5
300.136	306.5
300.366	309.5
300.597	324.5
300.827	292.5
301.057	322.5
301.288	356.5
301.518	353.5
301.748	324.5
301.979	340.5
302.209	333.5
302.439	337.5
302.669	338.5
302.9	319.5
303.13	325.5
303.36	321.5
303.59	329.5
303.82	339.5
304.051	365.5
304.281	321.5
304.511	313.5
304.741	341.5
304.971	316.5
305.201	322.5
305.431	318.5
305.661	349.5
305.891	328.5
306.121	341.5
306.352	325.5
306.582	343.5
306.812	331.5
307.042	306.5
307.272	323.5
307.502	324.5
307.731	338.5
307.961	323.5
308.191	332.5
308.421	323.5
308.651	338.5
308.881	336.5
309.111	361.5
309.341	345.5
309.571	364.5
309.8	356.5
310.03	365.5
310.26	365.5
310.49	359.5
310.72	363.5
310.949	392.5
311.179	386.5
311.409	385.5
311.639	382.5
311.868	358.5
312.098	361.5
312.328	379.5
312.557	396.5
312.787	405.5
313.017	391.5
313.246	377.5
313.476	375.5
313.706	387.5
313.935	377.5
314.165	377.5
314.394	393.5
314.624	396.5
314.853	388.5
315.083	373.5
315.312	388.5
315.542	374.5
315.771	398.5
316.001	361.5
316.23	354.5
316.46	368.5
316.689	367.5
316.919	384.5
317.148	391.5
317.377	393.5
317.607	376.5
317.836	384.5
318.065	376.5
318.295	393.5
318.524	361.5
318.753	372.5
318.983	383.5
319.212	395.5
319.441	390.5
319.67	387.5
319.9	388.5
320.129	385.5
320.358	386.5
320.587	381.5
320.816	397.5
321.046	400.5
321.275	393.5
321.504	379.5
321.733	394.5
321.962	406.5
322.191	418.5
322.42	426.5
322.649	425.5
322.878	424.5
323.108	457.5
323.337	460.5
323.566	475.5
323.795	514.5
324.024	540.5
324.253	664.5
324.482	949.5
324.71	1452.5
324.939	2217.5
325.168	1886.5
325.397	913.5
325.626	613.5
325.855	539.5
326.084	475.5
326.313	460.5
326.542	485.5
326.77	515.5
326.999	617.5
327.228	860.5
327.457	1296.5
327.686	1682.5
327.914	1043.5
328.143	678.5
328.372	601.5
328.6	561.5
328.829	563.5
329.058	545.5
329.287	580.5
329.515	547.5
329.744	509.5
329.972	511.5
330.201	519.5
330.43	552.5
330.658	580.5
330.887	583.5
331.115	591.5
331.344	501.5
331.572	492.5
331.801	484.5
332.03	484.5
332.258	481.5
332.486	464.5
332.715	482.5
332.943	472.5
333.172	464.5
333.4	483.5
333.629	478.5
333.857	486.5
334.085	500.5
334.314	504.5
334.542	537.5
334.771	536.5
334.999	521.5
335.227	478.5
335.455	456.5
335.684	477.5
335.912	465.5
336.14	451.5
336.369	463.5
336.597	468.5
336.825	474.5
337.053	463.5
337.281	444.5
337.51	439.5
337.738	470.5
337.966	459.5
338.194	454.5
338.422	466.5
338.65	453.5
338.878	453.5
339.106	452.5
339.334	466.5
339.562	429.5
339.79	450.5
340.018	447.5
340.246	461.5
340.474	451.5
340.702	443.5
340.93	425.5
341.158	456.5
341.386	420.5
341.614	438.5
341.842	432.5
342.07	425.5
342.298	425.5
342.526	435.5
342.754	433.5
342.981	421.5
343.209	430.5
343.437	431.5
343.665	420.5
343.893	456.5
344.12	454.5
344.348	445.5
344.576	437.5
344.804	455.5
345.031	465.5
345.259	465.5
345.487	458.5
345.714	434.5
345.942	435.5
346.17	434.5
346.397	426.5
346.625	421.5
346.853	432.5
347.08	439.5
347.308	437.5
347.535	434.5
347.763	421.5
347.99	432.5
348.218	441.5
348.445	447.5
348.673	445.5
348.9	422.5
349.128	436.5
349.355	408.5
349.583	389.5
349.81	397.5
350.037	392.5
350.265	425.5
350.492	411.5
350.72	405.5
350.947	416.5
351.174	429.5
351.402	435.5
351.629	436.5
351.856	416.5
352.083	421.5
352.311	442.5
352.538	440.5
352.765	455.5
352.992	427.5
353.22	411.5
353.447	444.5
353.674	415.5
353.901	417.5
354.128	428.5
354.355	393.5
354.583	404.5
354.81	414.5
355.037	391.5
355.264	410.5
355.491	393.5
355.718	379.5
355.945	409.5
356.172	391.5
356.399	383.5
356.626	415.5
356.853	384.5
357.08	383.5
357.307	405.5
357.534	403.5
357.761	406.5
357.988	394.5
358.215	424.5
358.441	385.5
358.668	400.5
358.895	407.5
359.122	417.5
359.349	393.5
359.576	425.5
359.802	450.5
360.029	471.5
360.256	478.5
360.483	473.5
360.709	439.5
360.936	428.5
361.163	411.5
361.39	440.5
361.616	461.5
361.843	415.5
362.07	436.5
362.296	416.5
362.523	428.5
362.749	424.5
362.976	436.5
363.203	429.5
363.429	405.5
363.656	418.5
363.882	391.5
364.109	416.5
364.335	427.5
364.562	415.5
364.788	409.5
365.015	395.5
365.241	417.5
365.468	403.5
365.694	403.5
365.92	447.5
366.147	424.5
366.373	403.5
366.599	409.5
366.826	418.5
367.052	423.5
367.278	399.5
367.505	415.5
367.731	420.5
367.957	408.5
368.184	415.5
368.41	426.5
368.636	438.5
368.862	438.5
369.089	432.5
369.315	403.5
369.541	417.5
369.767	428.5
369.993	428.5
370.219	418.5
370.445	410.5
370.672	413.5
370.898	385.5
371.124	422.5
371.35	439.5
371.576	442.5
371.802	415.5
372.028	419.5
372.254	425.5
372.48	416.5
372.706	439.5
372.932	417.5
373.158	417.5
373.384	411.5
373.61	439.5
373.835	428.5
374.061	417.5
374.287	432.5
374.513	423.5
374.739	416.5
374.965	421.5
375.191	427.5
375.416	435.5
375.642	416.5
375.868	437.5
376.094	416.5
376.319	420.5
376.545	419.5
376.771	404.5
376.997	432.5
377.222	419.5
377.448	415.5
377.674	420.5
377.899	423.5
378.125	441.5
378.35	429.5
378.576	415.5
378.802	411.5
379.027	428.5
379.253	436.5
379.478	433.5
379.704	425.5
379.929	439.5
380.155	441.5
380.38	424.5
380.606	429.5
380.831	424.5
381.057	411.5
381.282	420.5
381.507	454.5
381.733	427.5
381.958	404.5
382.184	425.5
382.409	438.5
382.634	449.5
382.86	441.5
383.085	427.5
383.31	431.5
383.535	451.5
383.761	435.5
383.986	448.5
384.211	432.5
384.436	448.5
384.662	459.5
384.887	461.5
385.112	462.5
385.337	473.5
385.562	441.5
385.787	464.5
386.013	476.5
386.238	474.5
386.463	502.5
386.688	482.5
386.913	467.5
387.138	480.5
387.363	470.5
387.588	475.5
387.813	488.5
388.038	471.5
388.263	469.5
388.488	492.5
388.713	476.5
388.938	486.5
389.163	486.5
389.387	472.5
389.612	461.5
389.837	470.5
390.062	483.5
390.287	482.5
390.512	482.5
390.736	451.5
390.961	481.5
391.186	499.5
391.411	456.5
391.636	466.5
391.86	474.5
392.085	512.5
392.31	518.5
392.534	499.5
392.759	481.5
392.984	502.5
393.208	487.5
393.433	493.5
393.658	488.5
393.882	481.5
394.107	471.5
394.331	473.5
394.556	489.5
394.78	491.5
395.005	467.5
395.229	489.5
395.454	508.5
395.678	514.5
395.903	498.5
396.127	519.5
396.352	530.5
396.576	511.5
396.801	517.5
397.025	515.5
397.249	497.5
397.474	514.5
397.698	530.5
397.922	555.5
398.147	561.5
398.371	550.5
398.595	543.5
398.82	551.5
399.044	574.5
399.268	588.5
399.492	629.5
399.717	663.5
399.941	702.5
400.165	703.5
400.389	700.5
400.613	641.5
400.837	611.5
401.062	590.5
401.286	555.5
401.51	567.5
401.734	556.5
401.958	567.5
402.182	561.5
402.406	580.5
402.63	584.5
402.854	594.5
403.078	565.5
403.302	607.5
403.526	609.5
403.75	594.5
403.974	586.5
404.198	579.5
404.422	613.5
404.645	613.5
404.869	603.5
405.093	624.5
405.317	674.5
405.541	706.5
405.765	648.5
405.988	610.5
406.212	645.5
406.436	653.5
406.66	664.5
406.883	627.5
407.107	679.5
407.331	705.5
407.555	775.5
407.778	773.5
408.002	739.5
408.226	665.5
408.449	673.5
408.673	651.5
408.896	679.5
409.12	716.5
409.344	682.5
409.567	623.5
409.791	592.5
410.014	595.5
410.238	616.5
410.461	608.5
410.685	610.5
410.908	627.5
411.132	639.5
411.355	676.5
411.578	636.5
411.802	609.5
412.025	587.5
412.249	614.5
412.472	652.5
412.695	658.5
412.919	656.5
413.142	620.5
413.365	612.5
413.589	573.5
413.812	583.5
414.035	564.5
414.258	567.5
414.482	563.5
414.705	585.5
414.928	592.5
415.151	587.5
415.374	566.5
415.597	567.5
415.821	567.5
416.044	543.5
416.267	579.5
416.49	551.5
416.713	530.5
416.936	545.5
417.159	548.5
417.382	562.5
417.605	569.5
417.828	580.5
418.051	594.5
418.274	586.5
418.497	549.5
418.72	557.5
418.943	560.5
419.166	582.5
419.389	625.5
419.611	605.5
419.834	607.5
420.057	617.5
420.28	589.5
420.503	613.5
420.726	585.5
420.948	619.5
421.171	647.5
421.394	677.5
421.617	611.5
421.839	611.5
422.062	585.5
422.285	586.5
422.507	628.5
422.73	745.5
422.953	687.5
423.175	621.5
423.398	617.5
423.621	602.5
423.843	626.5
424.066	615.5
424.288	623.5
424.511	630.5
424.733	713.5
424.956	779.5
425.178	735.5
425.401	722.5
425.623	741.5
425.846	676.5
426.068	635.5
426.291	617.5
426.513	616.5
426.735	627.5
426.958	655.5
427.18	721.5
427.402	871.5
427.625	969.5
427.847	857.5
428.069	735.5
428.292	659.5
428.514	609.5
428.736	600.5
428.958	600.5
429.181	590.5
429.403	552.5
429.625	583.5
429.847	599.5
430.069	691.5
430.292	680.5
430.514	594.5
430.736	578.5
430.958	561.5
431.18	543.5
431.402	526.5
431.624	534.5
431.846	551.5
432.068	524.5
432.29	566.5
432.512	541.5
432.734	561.5
432.956	539.5
433.178	574.5
433.4	546.5
433.622	570.5
433.844	535.5
434.066	546.5
434.287	549.5
434.509	543.5
434.731	575.5
434.953	565.5
435.175	597.5
435.397	616.5
435.618	635.5
435.84	668.5
436.062	762.5
436.284	833.5
436.505	696.5
436.727	637.5
436.949	586.5
437.17	578.5
437.392	576.5
437.614	590.5
437.835	631.5
438.057	696.5
438.278	819.5
438.5	783.5
438.721	888.5
438.943	858.5
439.165	662.5
439.386	613.5
439.608	613.5
439.829	624.5
440.05	645.5
440.272	692.5
440.493	639.5
440.715	612.5
440.936	603.5
441.158	598.5
441.379	610.5
441.6	573.5
441.822	620.5
442.043	661.5
442.264	753.5
442.486	785.5
442.707	695.5
442.928	650.5
443.149	656.5
443.371	675.5
443.592	714.5
443.813	795.5
444.034	840.5
444.255	719.5
444.476	655.5
444.698	640.5
444.919	649.5
445.14	756.5
445.361	693.5
445.582	665.5
445.803	713.5
446.024	802.5
446.245	857.5
446.466	791.5
446.687	637.5
446.908	631.5
447.129	590.5
447.35	564.5
447.571	571.5
447.792	584.5
448.013	581.5
448.234	595.5
448.455	621.5
448.675	734.5
448.896	851.5
449.117	755.5
449.338	688.5
449.559	805.5
449.779	906.5
450	740.5
450.221	612.5
450.442	571.5
450.662	539.5
450.883	537.5
451.104	596.5
451.324	550.5
451.545	538.5
451.766	526.5
451.986	509.5
452.207	512.5
452.428	509.5
452.648	495.5
452.869	507.5
453.089	509.5
453.31	536.5
453.53	500.5
453.751	507.5
453.971	491.5
454.192	552.5
454.412	519.5
454.633	508.5
454.853	488.5
455.073	500.5
455.294	529.5
455.514	600.5
455.734	582.5
455.955	499.5
456.175	498.5
456.395	518.5
456.616	483.5
456.836	482.5
457.056	469.5
457.276	466.5
457.497	493.5
457.717	499.5
457.937	490.5
458.157	487.5
458.377	520.5
458.598	513.5
458.818	596.5
459.038	679.5
459.258	660.5
459.478	584.5
459.698	568.5
459.918	561.5
460.138	563.5
460.358	571.5
460.578	576.5
460.798	576.5
461.018	561.5
461.238	588.5
461.458	570.5
461.678	567.5
461.898	576.5
462.118	581.5
462.338	599.5
462.558	586.5
462.777	604.5
462.997	625.5
463.217	625.5
463.437	633.5
463.657	641.5
463.876	629.5
464.096	611.5
464.316	604.5
464.536	633.5
464.755	617.5
464.975	591.5
465.195	628.5
465.414	717.5
465.634	616.5
465.854	576.5
466.073	593.5
466.293	548.5
466.512	566.5
466.732	539.5
466.951	554.5
467.171	542.5
467.391	552.5
467.61	554.5
467.829	540.5
468.049	526.5
468.268	533.5
468.488	537.5
468.707	510.5
468.927	525.5
469.146	501.5
469.365	501.5
469.585	508.5
469.804	519.5
470.023	538.5
470.243	536.5
470.462	550.5
470.681	561.5
470.901	561.5
471.12	545.5
471.339	535.5
471.558	547.5
471.777	521.5
471.997	529.5
472.216	524.5
472.435	575.5
472.654	552.5
472.873	539.5
473.092	544.5
473.311	531.5
473.53	531.5
473.749	546.5
473.968	571.5
474.187	677.5
474.406	716.5
474.625	595.5
474.844	549.5
475.063	557.5
475.282	543.5
475.501	549.5
475.72	551.5
475.939	544.5
476.158	555.5
476.377	583.5
476.596	575.5
476.814	557.5
477.033	580.5
477.252	570.5
477.471	553.5
477.69	563.5
477.908	587.5
478.127	605.5
478.346	606.5
478.564	607.5
478.783	600.5
479.002	601.5
479.22	609.5
479.439	648.5
479.658	663.5
479.876	657.5
480.095	652.5
480.313	703.5
480.532	667.5
480.751	652.5
480.969	653.5
481.188	721.5
481.406	779.5
481.624	683.5
481.843	647.5
482.061	662.5
482.28	635.5
482.498	628.5
482.717	624.5
482.935	651.5
483.153	611.5
483.372	645.5
483.59	608.5
483.808	603.5
484.027	631.5
484.245	630.5
484.463	640.5
484.681	645.5
484.9	633.5
485.118	612.5
485.336	632.5
485.554	653.5
485.772	640.5
485.99	653.5
486.209	635.5
486.427	670.5
486.645	672.5
486.863	688.5
487.081	676.5
487.299	660.5
487.517	672.5
487.735	683.5
487.953	678.5
488.171	663.5
488.389	667.5
488.607	665.5
488.825	689.5
489.043	666.5
489.261	663.5
489.479	690.5
489.696	676.5
489.914	705.5
490.132	684.5
490.35	690.5
490.568	679.5
490.786	730.5
491.003	721.5
491.221	693.5
491.439	724.5
491.657	758.5
491.874	769.5
492.092	765.5
492.31	760.5
492.527	745.5
492.745	790.5
492.963	736.5
493.18	789.5
493.398	792.5
493.615	795.5
493.833	789.5
494.05	779.5
494.268	817.5
494.485	789.5
494.703	785.5
494.92	774.5
495.138	789.5
495.355	820.5
495.573	797.5
495.79	786.5
496.008	809.5
496.225	763.5
496.442	799.5
496.66	811.5
496.877	803.5
497.094	786.5
497.312	839.5
497.529	831.5
497.746	836.5
497.963	820.5
498.181	844.5
498.398	904.5
498.615	936.5
498.832	943.5
499.049	958.5
499.267	994.5
499.484	1025.5
499.701	1084.5
499.918	1100.5
500.135	1189.5
500.352	1249.5
500.569	1273.5
500.786	1268.5
501.003	1227.5
501.22	1180.5
501.437	1162.5
501.654	1100.5
501.871	1095.5
502.088	1012.5
502.305	953.5
502.522	949.5
502.739	907.5
502.956	882.5
503.172	881.5
503.389	837.5
503.606	843.5
503.823	850.5
504.04	835.5
504.256	849.5
504.473	846.5
504.69	800.5
504.907	808.5
505.123	814.5
505.34	771.5
505.557	779.5
505.773	757.5
505.99	783.5
506.207	773.5
506.423	762.5
506.64	741.5
506.856	740.5
507.073	771.5
507.289	739.5
507.506	741.5
507.722	744.5
507.939	743.5
508.155	724.5
508.372	732.5
508.588	685.5
508.805	691.5
509.021	706.5
509.238	712.5
509.454	699.5
509.67	715.5
509.887	698.5
510.103	698.5
510.319	728.5
510.536	793.5
510.752	1295.5
510.968	1044.5
511.184	720.5
511.401	697.5
511.617	675.5
511.833	687.5
512.049	693.5
512.265	665.5
512.481	676.5
512.698	668.5
512.914	668.5
513.13	660.5
513.346	667.5
513.562	658.5
513.778	671.5
513.994	693.5
514.21	688.5
514.426	712.5
514.642	731.5
514.858	776.5
515.074	813.5
515.29	932.5
515.506	1355.5
515.721	1130.5
515.937	808.5
516.153	748.5
516.369	722.5
516.585	712.5
516.801	691.5
517.016	713.5
517.232	692.5
517.448	728.5
517.664	735.5
517.879	706.5
518.095	730.5
518.311	732.5
518.527	696.5
518.742	731.5
518.958	715.5
519.173	695.5
519.389	689.5
519.605	677.5
