Data from 1979.PennyLincolnUp.Lamp.En5.5.200Scan.071719.P1_HRD10591_16-18-13-864.txt Node
Date: Thu Jul 18 16:18:13 EDT 2019
User: cochatt
Spectrometer: HR+D1059
Trigger mode: 1
Integration Time (sec): 1.000000E-1
Scans to average: 1
Electric dark correction enabled: true
Nonlinearity correction enabled: false
Boxcar width: 0
XAxis mode: Wavelengths
Number of Pixels in Spectrum: 2048
>>>>>Begin Spectral Data<<<<<
223.165	-12.44
223.4	-12.44
223.635	-12.44
223.869	-24.44
224.104	-19.44
224.338	-13.44
224.573	-3.44
224.808	-11.44
225.042	-1.44
225.277	-18.44
225.511	-1.44
225.746	-3.44
225.98	8.56
226.215	4.56
226.449	22.56
226.683	27.56
226.918	24.56
227.152	21.56
227.387	45.56
227.621	54.56
227.856	47.56
228.09	46.56
228.324	52.56
228.559	71.56
228.793	57.56
229.027	83.56
229.262	106.56
229.496	120.56
229.73	125.56
229.964	133.56
230.199	107.56
230.433	106.56
230.667	103.56
230.901	116.56
231.136	98.56
231.37	104.56
231.604	104.56
231.838	100.56
232.072	108.56
232.306	104.56
232.541	109.56
232.775	119.56
233.009	118.56
233.243	107.56
233.477	110.56
233.711	112.56
233.945	117.56
234.179	96.56
234.413	120.56
234.647	118.56
234.881	100.56
235.115	117.56
235.349	118.56
235.583	106.56
235.817	106.56
236.051	105.56
236.285	114.56
236.519	114.56
236.753	120.56
236.987	127.56
237.221	177.56
237.455	206.56
237.689	165.56
237.922	134.56
238.156	139.56
238.39	131.56
238.624	138.56
238.858	124.56
239.091	119.56
239.325	130.56
239.559	124.56
239.793	109.56
240.027	117.56
240.26	132.56
240.494	133.56
240.728	124.56
240.961	132.56
241.195	138.56
241.429	130.56
241.662	124.56
241.896	130.56
242.13	133.56
242.363	112.56
242.597	126.56
242.83	140.56
243.064	130.56
243.298	151.56
243.531	130.56
243.765	120.56
243.998	131.56
244.232	121.56
244.465	128.56
244.699	150.56
244.932	148.56
245.166	143.56
245.399	130.56
245.633	140.56
245.866	139.56
246.099	132.56
246.333	151.56
246.566	142.56
246.8	142.56
247.033	135.56
247.266	154.56
247.5	154.56
247.733	153.56
247.966	155.56
248.2	148.56
248.433	151.56
248.666	170.56
248.899	169.56
249.133	165.56
249.366	183.56
249.599	174.56
249.832	183.56
250.066	173.56
250.299	166.56
250.532	172.56
250.765	180.56
250.998	179.56
251.231	175.56
251.465	184.56
251.698	178.56
251.931	183.56
252.164	170.56
252.397	173.56
252.63	190.56
252.863	186.56
253.096	192.56
253.329	194.56
253.562	190.56
253.795	182.56
254.028	169.56
254.261	188.56
254.494	194.56
254.727	212.56
254.96	214.56
255.193	208.56
255.426	217.56
255.659	200.56
255.892	191.56
256.124	195.56
256.357	197.56
256.59	191.56
256.823	186.56
257.056	194.56
257.289	188.56
257.521	192.56
257.754	194.56
257.987	194.56
258.22	195.56
258.452	177.56
258.685	186.56
258.918	168.56
259.151	188.56
259.383	202.56
259.616	204.56
259.849	212.56
260.081	202.56
260.314	206.56
260.547	220.56
260.779	219.56
261.012	201.56
261.244	209.56
261.477	205.56
261.71	207.56
261.942	211.56
262.175	219.56
262.407	201.56
262.64	180.56
262.872	191.56
263.105	199.56
263.337	215.56
263.57	198.56
263.802	192.56
264.035	196.56
264.267	186.56
264.499	185.56
264.732	190.56
264.964	183.56
265.197	201.56
265.429	185.56
265.661	191.56
265.894	202.56
266.126	201.56
266.358	195.56
266.591	203.56
266.823	214.56
267.055	208.56
267.287	212.56
267.52	208.56
267.752	189.56
267.984	206.56
268.216	208.56
268.448	227.56
268.681	233.56
268.913	210.56
269.145	218.56
269.377	242.56
269.609	231.56
269.841	226.56
270.073	248.56
270.306	245.56
270.538	271.56
270.77	249.56
271.002	250.56
271.234	253.56
271.466	246.56
271.698	266.56
271.93	267.56
272.162	262.56
272.394	271.56
272.626	254.56
272.858	260.56
273.09	251.56
273.322	228.56
273.553	242.56
273.785	231.56
274.017	234.56
274.249	244.56
274.481	204.56
274.713	227.56
274.945	250.56
275.176	236.56
275.408	226.56
275.64	242.56
275.872	237.56
276.104	235.56
276.335	224.56
276.567	228.56
276.799	261.56
277.031	270.56
277.262	268.56
277.494	284.56
277.726	253.56
277.957	258.56
278.189	247.56
278.421	245.56
278.652	257.56
278.884	239.56
279.115	236.56
279.347	254.56
279.579	237.56
279.81	248.56
280.042	256.56
280.273	259.56
280.505	251.56
280.736	246.56
280.968	256.56
281.199	241.56
281.431	245.56
281.662	256.56
281.894	236.56
282.125	251.56
282.356	252.56
282.588	267.56
282.819	263.56
283.051	268.56
283.282	250.56
283.513	258.56
283.745	251.56
283.976	262.56
284.207	242.56
284.439	273.56
284.67	249.56
284.901	258.56
285.132	237.56
285.364	274.56
285.595	262.56
285.826	255.56
286.057	261.56
286.288	251.56
286.52	262.56
286.751	250.56
286.982	269.56
287.213	250.56
287.444	271.56
287.675	280.56
287.906	278.56
288.138	279.56
288.369	253.56
288.6	245.56
288.831	272.56
289.062	277.56
289.293	275.56
289.524	267.56
289.755	260.56
289.986	280.56
290.217	268.56
290.448	259.56
290.679	260.56
290.91	286.56
291.141	263.56
291.371	278.56
291.602	281.56
291.833	292.56
292.064	276.56
292.295	270.56
292.526	263.56
292.757	270.56
292.987	273.56
293.218	265.56
293.449	266.56
293.68	267.56
293.91	266.56
294.141	275.56
294.372	282.56
294.603	266.56
294.833	263.56
295.064	276.56
295.295	272.56
295.525	280.56
295.756	267.56
295.987	293.56
296.217	302.56
296.448	304.56
296.679	266.56
296.909	278.56
297.14	298.56
297.37	292.56
297.601	296.56
297.831	285.56
298.062	277.56
298.292	286.56
298.523	301.56
298.753	287.56
298.984	288.56
299.214	288.56
299.445	295.56
299.675	273.56
299.905	282.56
300.136	295.56
300.366	295.56
300.597	292.56
300.827	306.56
301.057	307.56
301.288	318.56
301.518	308.56
301.748	310.56
301.979	315.56
302.209	309.56
302.439	304.56
302.669	299.56
302.9	301.56
303.13	310.56
303.36	310.56
303.59	318.56
303.82	313.56
304.051	312.56
304.281	302.56
304.511	319.56
304.741	309.56
304.971	286.56
305.201	293.56
305.431	301.56
305.661	314.56
305.891	298.56
306.121	308.56
306.352	295.56
306.582	312.56
306.812	300.56
307.042	322.56
307.272	309.56
307.502	303.56
307.731	300.56
307.961	302.56
308.191	323.56
308.421	300.56
308.651	307.56
308.881	306.56
309.111	313.56
309.341	308.56
309.571	340.56
309.8	322.56
310.03	339.56
310.26	341.56
310.49	328.56
310.72	326.56
310.949	351.56
311.179	365.56
311.409	340.56
311.639	338.56
311.868	339.56
312.098	348.56
312.328	352.56
312.557	352.56
312.787	350.56
313.017	371.56
313.246	366.56
313.476	344.56
313.706	350.56
313.935	334.56
314.165	355.56
314.394	374.56
314.624	378.56
314.853	355.56
315.083	359.56
315.312	331.56
315.542	335.56
315.771	341.56
316.001	321.56
316.23	349.56
316.46	344.56
316.689	350.56
316.919	334.56
317.148	358.56
317.377	355.56
317.607	347.56
317.836	359.56
318.065	349.56
318.295	379.56
318.524	351.56
318.753	350.56
318.983	357.56
319.212	359.56
319.441	345.56
319.67	370.56
319.9	340.56
320.129	348.56
320.358	342.56
320.587	352.56
320.816	366.56
321.046	374.56
321.275	353.56
321.504	357.56
321.733	362.56
321.962	363.56
322.191	386.56
322.42	382.56
322.649	388.56
322.878	408.56
323.108	404.56
323.337	440.56
323.566	449.56
323.795	468.56
324.024	488.56
324.253	552.56
324.482	776.56
324.71	1157.56
324.939	1743.56
325.168	1514.56
325.397	770.56
325.626	544.56
325.855	474.56
326.084	440.56
326.313	443.56
326.542	450.56
326.77	458.56
326.999	531.56
327.228	714.56
327.457	1103.56
327.686	1372.56
327.914	866.56
328.143	584.56
328.372	539.56
328.6	506.56
328.829	491.56
329.058	495.56
329.287	503.56
329.515	471.56
329.744	445.56
329.972	450.56
330.201	464.56
330.43	471.56
330.658	501.56
330.887	499.56
331.115	517.56
331.344	460.56
331.572	447.56
331.801	448.56
332.03	447.56
332.258	442.56
332.486	443.56
332.715	424.56
332.943	423.56
333.172	428.56
333.4	462.56
333.629	454.56
333.857	441.56
334.085	463.56
334.314	467.56
334.542	473.56
334.771	498.56
334.999	460.56
335.227	440.56
335.455	425.56
335.684	413.56
335.912	439.56
336.14	430.56
336.369	427.56
336.597	420.56
336.825	444.56
337.053	426.56
337.281	420.56
337.51	432.56
337.738	402.56
337.966	420.56
338.194	425.56
338.422	428.56
338.65	418.56
338.878	411.56
339.106	404.56
339.334	393.56
339.562	394.56
339.79	408.56
340.018	421.56
340.246	405.56
340.474	406.56
340.702	396.56
340.93	400.56
341.158	400.56
341.386	407.56
341.614	388.56
341.842	405.56
342.07	404.56
342.298	382.56
342.526	399.56
342.754	397.56
342.981	392.56
343.209	384.56
343.437	397.56
343.665	425.56
343.893	429.56
344.12	429.56
344.348	423.56
344.576	426.56
344.804	415.56
345.031	426.56
345.259	436.56
345.487	416.56
345.714	426.56
345.942	412.56
346.17	394.56
346.397	394.56
346.625	374.56
346.853	403.56
347.08	385.56
347.308	407.56
347.535	397.56
347.763	395.56
347.99	391.56
348.218	424.56
348.445	399.56
348.673	382.56
348.9	396.56
349.128	379.56
349.355	373.56
349.583	382.56
349.81	381.56
350.037	372.56
350.265	397.56
350.492	379.56
350.72	374.56
350.947	370.56
351.174	400.56
351.402	408.56
351.629	404.56
351.856	400.56
352.083	365.56
352.311	400.56
352.538	393.56
352.765	412.56
352.992	398.56
353.22	380.56
353.447	378.56
353.674	396.56
353.901	378.56
354.128	366.56
354.355	378.56
354.583	364.56
354.81	374.56
355.037	366.56
355.264	375.56
355.491	358.56
355.718	376.56
355.945	374.56
356.172	354.56
356.399	372.56
356.626	380.56
356.853	372.56
357.08	385.56
357.307	365.56
357.534	373.56
357.761	366.56
357.988	374.56
358.215	385.56
358.441	370.56
358.668	389.56
358.895	382.56
359.122	394.56
359.349	392.56
359.576	404.56
359.802	378.56
360.029	432.56
360.256	440.56
360.483	412.56
360.709	392.56
360.936	404.56
361.163	391.56
361.39	394.56
361.616	399.56
361.843	394.56
362.07	383.56
362.296	383.56
362.523	385.56
362.749	405.56
362.976	390.56
363.203	401.56
363.429	388.56
363.656	375.56
363.882	401.56
364.109	384.56
364.335	386.56
364.562	374.56
364.788	380.56
365.015	390.56
365.241	396.56
365.468	383.56
365.694	400.56
365.92	386.56
366.147	382.56
366.373	374.56
366.599	396.56
366.826	386.56
367.052	384.56
367.278	375.56
367.505	386.56
367.731	386.56
367.957	396.56
368.184	390.56
368.41	419.56
368.636	409.56
368.862	403.56
369.089	405.56
369.315	390.56
369.541	399.56
369.767	391.56
369.993	394.56
370.219	379.56
370.445	384.56
370.672	397.56
370.898	385.56
371.124	382.56
371.35	387.56
371.576	386.56
371.802	398.56
372.028	390.56
372.254	392.56
372.48	401.56
372.706	414.56
372.932	399.56
373.158	394.56
373.384	415.56
373.61	404.56
373.835	405.56
374.061	385.56
374.287	393.56
374.513	403.56
374.739	418.56
374.965	410.56
375.191	400.56
375.416	411.56
375.642	416.56
375.868	398.56
376.094	398.56
376.319	411.56
376.545	393.56
376.771	396.56
376.997	410.56
377.222	390.56
377.448	406.56
377.674	397.56
377.899	410.56
378.125	395.56
378.35	416.56
378.576	387.56
378.802	387.56
379.027	409.56
379.253	418.56
379.478	382.56
379.704	383.56
379.929	408.56
380.155	394.56
380.38	419.56
380.606	425.56
380.831	422.56
381.057	414.56
381.282	393.56
381.507	406.56
381.733	417.56
381.958	388.56
382.184	406.56
382.409	416.56
382.634	421.56
382.86	411.56
383.085	399.56
383.31	415.56
383.535	426.56
383.761	420.56
383.986	427.56
384.211	445.56
384.436	426.56
384.662	428.56
384.887	423.56
385.112	430.56
385.337	431.56
385.562	431.56
385.787	456.56
386.013	442.56
386.238	459.56
386.463	448.56
386.688	451.56
386.913	416.56
387.138	444.56
387.363	434.56
387.588	460.56
387.813	422.56
388.038	431.56
388.263	448.56
388.488	449.56
388.713	462.56
388.938	449.56
389.163	467.56
389.387	443.56
389.612	445.56
389.837	447.56
390.062	435.56
390.287	427.56
390.512	462.56
390.736	447.56
390.961	447.56
391.186	451.56
391.411	463.56
391.636	462.56
391.86	492.56
392.085	464.56
392.31	472.56
392.534	443.56
392.759	482.56
392.984	485.56
393.208	454.56
393.433	477.56
393.658	472.56
393.882	478.56
394.107	487.56
394.331	480.56
394.556	475.56
394.78	454.56
395.005	458.56
395.229	453.56
395.454	490.56
395.678	488.56
395.903	487.56
396.127	472.56
396.352	489.56
396.576	494.56
396.801	482.56
397.025	476.56
397.249	503.56
397.474	475.56
397.698	478.56
397.922	510.56
398.147	507.56
398.371	526.56
398.595	522.56
398.82	512.56
399.044	529.56
399.268	556.56
399.492	603.56
399.717	642.56
399.941	636.56
400.165	631.56
400.389	658.56
400.613	630.56
400.837	597.56
401.062	565.56
401.286	531.56
401.51	527.56
401.734	520.56
401.958	534.56
402.182	548.56
402.406	529.56
402.63	558.56
402.854	537.56
403.078	542.56
403.302	535.56
403.526	564.56
403.75	565.56
403.974	538.56
404.198	532.56
404.422	559.56
404.645	534.56
404.869	590.56
405.093	568.56
405.317	616.56
405.541	642.56
405.765	618.56
405.988	584.56
406.212	605.56
406.436	572.56
406.66	620.56
406.883	583.56
407.107	614.56
407.331	636.56
407.555	720.56
407.778	713.56
408.002	664.56
408.226	626.56
408.449	597.56
408.673	628.56
408.896	615.56
409.12	626.56
409.344	639.56
409.567	580.56
409.791	574.56
410.014	571.56
410.238	552.56
410.461	555.56
410.685	560.56
410.908	550.56
411.132	578.56
411.355	640.56
411.578	602.56
411.802	562.56
412.025	538.56
412.249	558.56
412.472	557.56
412.695	620.56
412.919	605.56
413.142	548.56
413.365	538.56
413.589	547.56
413.812	549.56
414.035	532.56
414.258	536.56
414.482	522.56
414.705	551.56
414.928	531.56
415.151	538.56
415.374	520.56
415.597	541.56
415.821	520.56
416.044	516.56
416.267	514.56
416.49	524.56
416.713	488.56
416.936	514.56
417.159	501.56
417.382	524.56
417.605	532.56
417.828	526.56
418.051	548.56
418.274	540.56
418.497	538.56
418.72	543.56
418.943	523.56
419.166	551.56
419.389	582.56
419.611	581.56
419.834	572.56
420.057	566.56
420.28	547.56
420.503	525.56
420.726	544.56
420.948	532.56
421.171	575.56
421.394	601.56
421.617	566.56
421.839	554.56
422.062	546.56
422.285	559.56
422.507	596.56
422.73	667.56
422.953	643.56
423.175	582.56
423.398	572.56
423.621	564.56
423.843	572.56
424.066	596.56
424.288	562.56
424.511	574.56
424.733	616.56
424.956	704.56
425.178	665.56
425.401	696.56
425.623	676.56
425.846	600.56
426.068	573.56
426.291	562.56
426.513	556.56
426.735	571.56
426.958	577.56
427.18	674.56
427.402	796.56
427.625	863.56
427.847	729.56
428.069	645.56
428.292	582.56
428.514	564.56
428.736	557.56
428.958	549.56
429.181	549.56
429.403	534.56
429.625	534.56
429.847	560.56
430.069	630.56
430.292	613.56
430.514	549.56
430.736	548.56
430.958	502.56
431.18	515.56
431.402	504.56
431.624	502.56
431.846	491.56
432.068	510.56
432.29	520.56
432.512	519.56
432.734	508.56
432.956	504.56
433.178	516.56
433.4	535.56
433.622	535.56
433.844	520.56
434.066	519.56
434.287	516.56
434.509	518.56
434.731	552.56
434.953	530.56
435.175	541.56
435.397	562.56
435.618	556.56
435.84	596.56
436.062	664.56
436.284	734.56
436.505	619.56
436.727	564.56
436.949	533.56
437.17	528.56
437.392	517.56
437.614	543.56
437.835	574.56
438.057	629.56
438.278	739.56
438.5	728.56
438.721	777.56
438.943	786.56
439.165	639.56
439.386	566.56
439.608	547.56
439.829	578.56
440.05	594.56
440.272	629.56
440.493	588.56
440.715	566.56
440.936	516.56
441.158	545.56
441.379	542.56
441.6	559.56
441.822	574.56
442.043	588.56
442.264	678.56
442.486	720.56
442.707	628.56
442.928	574.56
443.149	576.56
443.371	595.56
443.592	633.56
443.813	717.56
444.034	761.56
444.255	620.56
444.476	606.56
444.698	594.56
444.919	591.56
445.14	716.56
445.361	668.56
445.582	610.56
445.803	653.56
446.024	725.56
446.245	730.56
446.466	698.56
446.687	601.56
446.908	555.56
447.129	555.56
447.35	548.56
447.571	526.56
447.792	505.56
448.013	527.56
448.234	522.56
448.455	562.56
448.675	669.56
448.896	783.56
449.117	647.56
449.338	644.56
449.559	721.56
449.779	815.56
450	661.56
450.221	578.56
450.442	509.56
450.662	517.56
450.883	510.56
451.104	504.56
451.324	502.56
451.545	495.56
451.766	487.56
451.986	475.56
452.207	478.56
452.428	459.56
452.648	459.56
452.869	459.56
453.089	501.56
453.31	505.56
453.53	475.56
453.751	496.56
453.971	472.56
454.192	481.56
454.412	458.56
454.633	498.56
454.853	490.56
455.073	483.56
455.294	468.56
455.514	534.56
455.734	524.56
455.955	468.56
456.175	464.56
456.395	445.56
456.616	427.56
456.836	429.56
457.056	450.56
457.276	455.56
457.497	434.56
457.717	451.56
457.937	457.56
458.157	456.56
458.377	463.56
458.598	495.56
458.818	534.56
459.038	592.56
459.258	623.56
459.478	516.56
459.698	534.56
459.918	535.56
460.138	507.56
460.358	523.56
460.578	518.56
460.798	554.56
461.018	550.56
461.238	540.56
461.458	520.56
461.678	545.56
461.898	562.56
462.118	547.56
462.338	566.56
462.558	540.56
462.777	577.56
462.997	581.56
463.217	614.56
463.437	614.56
463.657	592.56
463.876	608.56
464.096	571.56
464.316	572.56
464.536	596.56
464.755	579.56
464.975	581.56
465.195	600.56
465.414	617.56
465.634	580.56
465.854	552.56
466.073	523.56
466.293	503.56
466.512	505.56
466.732	498.56
466.951	480.56
467.171	492.56
467.391	501.56
467.61	522.56
467.829	505.56
468.049	503.56
468.268	500.56
468.488	484.56
468.707	482.56
468.927	489.56
469.146	478.56
469.365	486.56
469.585	471.56
469.804	502.56
470.023	523.56
470.243	519.56
470.462	509.56
470.681	524.56
470.901	541.56
471.12	504.56
471.339	514.56
471.558	476.56
471.777	500.56
471.997	497.56
472.216	498.56
472.435	520.56
472.654	490.56
472.873	481.56
473.092	501.56
473.311	503.56
473.53	502.56
473.749	506.56
473.968	523.56
474.187	628.56
474.406	612.56
474.625	539.56
474.844	536.56
475.063	511.56
475.282	499.56
475.501	493.56
475.72	495.56
475.939	512.56
476.158	494.56
476.377	499.56
476.596	532.56
476.814	534.56
477.033	534.56
477.252	511.56
477.471	522.56
477.69	543.56
477.908	563.56
478.127	551.56
478.346	571.56
478.564	563.56
478.783	556.56
479.002	592.56
479.22	590.56
479.439	572.56
479.658	616.56
479.876	613.56
480.095	600.56
480.313	602.56
480.532	639.56
480.751	603.56
480.969	618.56
481.188	666.56
481.406	684.56
481.624	630.56
481.843	598.56
482.061	602.56
482.28	555.56
482.498	582.56
482.717	574.56
482.935	588.56
483.153	582.56
483.372	575.56
483.59	570.56
483.808	587.56
484.027	581.56
484.245	593.56
484.463	591.56
484.681	618.56
484.9	588.56
485.118	582.56
485.336	569.56
485.554	608.56
485.772	595.56
485.99	604.56
486.209	599.56
486.427	610.56
486.645	627.56
486.863	642.56
487.081	623.56
487.299	621.56
487.517	608.56
487.735	627.56
487.953	615.56
488.171	620.56
488.389	627.56
488.607	601.56
488.825	632.56
489.043	604.56
489.261	597.56
489.479	634.56
489.696	638.56
489.914	631.56
490.132	610.56
490.35	623.56
490.568	634.56
490.786	648.56
491.003	675.56
491.221	658.56
491.439	683.56
491.657	684.56
491.874	691.56
492.092	682.56
492.31	726.56
492.527	698.56
492.745	702.56
492.963	699.56
493.18	726.56
493.398	719.56
493.615	709.56
493.833	715.56
494.05	697.56
494.268	720.56
494.485	717.56
494.703	725.56
494.92	703.56
495.138	701.56
495.355	713.56
495.573	704.56
495.79	707.56
496.008	740.56
496.225	712.56
496.442	720.56
496.66	763.56
496.877	750.56
497.094	758.56
497.312	751.56
497.529	778.56
497.746	779.56
497.963	744.56
498.181	802.56
498.398	843.56
498.615	870.56
498.832	863.56
499.049	890.56
499.267	930.56
499.484	932.56
499.701	999.56
499.918	1041.56
500.135	1076.56
500.352	1140.56
500.569	1167.56
500.786	1194.56
501.003	1156.56
501.22	1112.56
501.437	1038.56
501.654	1010.56
501.871	983.56
