Data from 1979.PennyLincolnUp.Lamp.En5.5.200Scan.071719.P1_HRD10591_16-19-49-863.txt Node
Date: Thu Jul 18 16:19:49 EDT 2019
User: cochatt
Spectrometer: HR+D1059
Trigger mode: 1
Integration Time (sec): 1.000000E-1
Scans to average: 1
Electric dark correction enabled: true
Nonlinearity correction enabled: false
Boxcar width: 0
XAxis mode: Wavelengths
Number of Pixels in Spectrum: 2048
>>>>>Begin Spectral Data<<<<<
223.165	-8.56
223.4	-8.56
223.635	-8.56
223.869	-14.56
224.104	-16.56
224.338	-2.56
224.573	-12.56
224.808	-10.56
225.042	2.44
225.277	-6.56
225.511	-17.56
225.746	6.44
225.98	1.44
226.215	10.44
226.449	9.44
226.683	9.44
226.918	27.44
227.152	22.44
227.387	27.44
227.621	52.44
227.856	46.44
228.09	45.44
228.324	55.44
228.559	44.44
228.793	76.44
229.027	103.44
229.262	112.44
229.496	109.44
229.73	129.44
229.964	138.44
230.199	127.44
230.433	107.44
230.667	106.44
230.901	113.44
231.136	122.44
231.37	128.44
231.604	128.44
231.838	107.44
232.072	113.44
232.306	112.44
232.541	96.44
232.775	112.44
233.009	127.44
233.243	124.44
233.477	132.44
233.711	132.44
233.945	106.44
234.179	118.44
234.413	116.44
234.647	111.44
234.881	122.44
235.115	120.44
235.349	127.44
235.583	115.44
235.817	115.44
236.051	120.44
236.285	131.44
236.519	124.44
236.753	137.44
236.987	130.44
237.221	168.44
237.455	202.44
237.689	187.44
237.922	139.44
238.156	156.44
238.39	126.44
238.624	134.44
238.858	107.44
239.091	124.44
239.325	124.44
239.559	135.44
239.793	143.44
240.027	142.44
240.26	132.44
240.494	139.44
240.728	143.44
240.961	162.44
241.195	147.44
241.429	155.44
241.662	146.44
241.896	139.44
242.13	135.44
242.363	125.44
242.597	136.44
242.83	147.44
243.064	123.44
243.298	148.44
243.531	158.44
243.765	153.44
243.998	144.44
244.232	145.44
244.465	145.44
244.699	147.44
244.932	158.44
245.166	141.44
245.399	153.44
245.633	145.44
245.866	153.44
246.099	147.44
246.333	152.44
246.566	150.44
246.8	143.44
247.033	144.44
247.266	163.44
247.5	158.44
247.733	174.44
247.966	162.44
248.2	171.44
248.433	177.44
248.666	173.44
248.899	180.44
249.133	184.44
249.366	201.44
249.599	199.44
249.832	174.44
250.066	175.44
250.299	173.44
250.532	196.44
250.765	200.44
250.998	202.44
251.231	208.44
251.465	195.44
251.698	193.44
251.931	197.44
252.164	184.44
252.397	207.44
252.63	194.44
252.863	208.44
253.096	210.44
253.329	231.44
253.562	205.44
253.795	209.44
254.028	200.44
254.261	208.44
254.494	220.44
254.727	221.44
254.96	250.44
255.193	239.44
255.426	227.44
255.659	240.44
255.892	211.44
256.124	215.44
256.357	206.44
256.59	213.44
256.823	194.44
257.056	208.44
257.289	192.44
257.521	193.44
257.754	202.44
257.987	178.44
258.22	201.44
258.452	195.44
258.685	219.44
258.918	207.44
259.151	212.44
259.383	219.44
259.616	226.44
259.849	230.44
260.081	224.44
260.314	247.44
260.547	242.44
260.779	227.44
261.012	235.44
261.244	236.44
261.477	211.44
261.71	210.44
261.942	199.44
262.175	224.44
262.407	224.44
262.64	209.44
262.872	190.44
263.105	203.44
263.337	209.44
263.57	217.44
263.802	215.44
264.035	208.44
264.267	196.44
264.499	220.44
264.732	208.44
264.964	212.44
265.197	206.44
265.429	218.44
265.661	212.44
265.894	214.44
266.126	210.44
266.358	210.44
266.591	216.44
266.823	220.44
267.055	218.44
267.287	226.44
267.52	219.44
267.752	226.44
267.984	233.44
268.216	230.44
268.448	222.44
268.681	221.44
268.913	239.44
269.145	231.44
269.377	254.44
269.609	252.44
269.841	241.44
270.073	262.44
270.306	278.44
270.538	282.44
270.77	282.44
271.002	295.44
271.234	275.44
271.466	283.44
271.698	286.44
271.93	286.44
272.162	281.44
272.394	287.44
272.626	283.44
272.858	276.44
273.09	255.44
273.322	254.44
273.553	256.44
273.785	255.44
274.017	261.44
274.249	257.44
274.481	263.44
274.713	270.44
274.945	259.44
275.176	272.44
275.408	285.44
275.64	250.44
275.872	261.44
276.104	282.44
276.335	266.44
276.567	264.44
276.799	294.44
277.031	279.44
277.262	308.44
277.494	306.44
277.726	291.44
277.957	280.44
278.189	282.44
278.421	272.44
278.652	258.44
278.884	264.44
279.115	262.44
279.347	266.44
279.579	255.44
279.81	275.44
280.042	263.44
280.273	252.44
280.505	262.44
280.736	277.44
280.968	259.44
281.199	249.44
281.431	271.44
281.662	242.44
281.894	291.44
282.125	271.44
282.356	279.44
282.588	306.44
282.819	302.44
283.051	267.44
283.282	274.44
283.513	274.44
283.745	258.44
283.976	249.44
284.207	285.44
284.439	277.44
284.67	270.44
284.901	288.44
285.132	272.44
285.364	260.44
285.595	271.44
285.826	276.44
286.057	277.44
286.288	282.44
286.52	294.44
286.751	281.44
286.982	284.44
287.213	267.44
287.444	281.44
287.675	265.44
287.906	304.44
288.138	290.44
288.369	280.44
288.6	292.44
288.831	310.44
289.062	288.44
289.293	310.44
289.524	292.44
289.755	298.44
289.986	288.44
290.217	282.44
290.448	294.44
290.679	293.44
290.91	284.44
291.141	274.44
291.371	290.44
291.602	291.44
291.833	271.44
292.064	282.44
292.295	295.44
292.526	304.44
292.757	283.44
292.987	302.44
293.218	264.44
293.449	287.44
293.68	296.44
293.91	282.44
294.141	288.44
294.372	278.44
294.603	310.44
294.833	307.44
295.064	304.44
295.295	287.44
295.525	275.44
295.756	296.44
295.987	305.44
296.217	326.44
296.448	344.44
296.679	316.44
296.909	310.44
297.14	308.44
297.37	328.44
297.601	296.44
297.831	286.44
298.062	311.44
298.292	309.44
298.523	312.44
298.753	314.44
298.984	298.44
299.214	314.44
299.445	318.44
299.675	320.44
299.905	315.44
300.136	314.44
300.366	334.44
300.597	314.44
300.827	303.44
301.057	308.44
301.288	345.44
301.518	334.44
301.748	335.44
301.979	352.44
302.209	327.44
302.439	335.44
302.669	336.44
302.9	335.44
303.13	330.44
303.36	334.44
303.59	332.44
303.82	357.44
304.051	332.44
304.281	331.44
304.511	319.44
304.741	327.44
304.971	338.44
305.201	308.44
305.431	309.44
305.661	332.44
305.891	328.44
306.121	332.44
306.352	329.44
306.582	344.44
306.812	328.44
307.042	339.44
307.272	317.44
307.502	346.44
307.731	352.44
307.961	337.44
308.191	330.44
308.421	315.44
308.651	343.44
308.881	336.44
309.111	341.44
309.341	326.44
309.571	336.44
309.8	375.44
310.03	369.44
310.26	374.44
310.49	370.44
310.72	382.44
310.949	374.44
311.179	396.44
311.409	390.44
311.639	365.44
311.868	361.44
312.098	359.44
312.328	368.44
312.557	394.44
312.787	402.44
313.017	406.44
313.246	366.44
313.476	352.44
313.706	380.44
313.935	376.44
314.165	383.44
314.394	404.44
314.624	380.44
314.853	386.44
315.083	382.44
315.312	378.44
315.542	369.44
315.771	367.44
316.001	374.44
316.23	380.44
316.46	352.44
316.689	371.44
316.919	383.44
317.148	392.44
317.377	394.44
317.607	381.44
317.836	376.44
318.065	368.44
318.295	378.44
318.524	374.44
318.753	360.44
318.983	370.44
319.212	392.44
319.441	378.44
319.67	373.44
319.9	383.44
320.129	390.44
320.358	374.44
320.587	380.44
320.816	403.44
321.046	379.44
321.275	387.44
321.504	382.44
321.733	394.44
321.962	419.44
322.191	384.44
322.42	410.44
322.649	415.44
322.878	429.44
323.108	464.44
323.337	464.44
323.566	482.44
323.795	503.44
324.024	559.44
324.253	643.44
324.482	941.44
324.71	1404.44
324.939	2145.44
325.168	1830.44
325.397	912.44
325.626	624.44
325.855	518.44
326.084	491.44
326.313	472.44
326.542	483.44
326.77	538.44
326.999	606.44
327.228	816.44
327.457	1299.44
327.686	1615.44
327.914	1028.44
328.143	687.44
328.372	591.44
328.6	574.44
328.829	534.44
329.058	551.44
329.287	567.44
329.515	544.44
329.744	466.44
329.972	482.44
330.201	512.44
330.43	532.44
330.658	583.44
330.887	581.44
331.115	580.44
331.344	500.44
331.572	486.44
331.801	480.44
332.03	484.44
332.258	479.44
332.486	481.44
332.715	445.44
332.943	478.44
333.172	447.44
333.4	466.44
333.629	474.44
333.857	504.44
334.085	481.44
334.314	494.44
334.542	546.44
334.771	570.44
334.999	524.44
335.227	484.44
335.455	464.44
335.684	459.44
335.912	472.44
336.14	446.44
336.369	445.44
336.597	470.44
336.825	466.44
337.053	466.44
337.281	447.44
337.51	435.44
337.738	466.44
337.966	441.44
338.194	444.44
338.422	445.44
338.65	434.44
338.878	439.44
339.106	442.44
339.334	448.44
339.562	412.44
339.79	442.44
340.018	435.44
340.246	434.44
340.474	453.44
340.702	437.44
340.93	424.44
341.158	432.44
341.386	436.44
341.614	429.44
341.842	434.44
342.07	447.44
342.298	431.44
342.526	428.44
342.754	428.44
342.981	433.44
343.209	448.44
343.437	430.44
343.665	457.44
343.893	442.44
344.12	455.44
344.348	455.44
344.576	438.44
344.804	454.44
345.031	461.44
345.259	468.44
345.487	456.44
345.714	445.44
345.942	419.44
346.17	420.44
346.397	414.44
346.625	426.44
346.853	426.44
347.08	435.44
347.308	417.44
347.535	439.44
347.763	418.44
347.99	432.44
348.218	442.44
348.445	456.44
348.673	412.44
348.9	418.44
349.128	407.44
349.355	397.44
349.583	411.44
349.81	420.44
350.037	411.44
350.265	405.44
350.492	411.44
350.72	422.44
350.947	414.44
351.174	429.44
351.402	438.44
351.629	431.44
351.856	452.44
352.083	433.44
352.311	429.44
352.538	440.44
352.765	432.44
352.992	416.44
353.22	417.44
353.447	433.44
353.674	413.44
353.901	413.44
354.128	392.44
354.355	410.44
354.583	398.44
354.81	400.44
355.037	407.44
355.264	374.44
355.491	397.44
355.718	399.44
355.945	394.44
356.172	395.44
356.399	408.44
356.626	380.44
356.853	394.44
357.08	383.44
357.307	418.44
357.534	410.44
357.761	394.44
357.988	415.44
358.215	414.44
358.441	416.44
358.668	404.44
358.895	403.44
359.122	414.44
359.349	396.44
359.576	414.44
359.802	438.44
360.029	459.44
360.256	476.44
360.483	445.44
360.709	416.44
360.936	434.44
361.163	420.44
361.39	447.44
361.616	456.44
361.843	419.44
362.07	407.44
362.296	416.44
362.523	418.44
362.749	414.44
362.976	419.44
363.203	430.44
363.429	431.44
363.656	426.44
363.882	400.44
364.109	417.44
364.335	419.44
364.562	427.44
364.788	421.44
365.015	402.44
365.241	397.44
365.468	414.44
365.694	431.44
365.92	419.44
366.147	410.44
366.373	397.44
366.599	417.44
366.826	399.44
367.052	420.44
367.278	409.44
367.505	417.44
367.731	421.44
367.957	413.44
368.184	421.44
368.41	398.44
368.636	425.44
368.862	425.44
369.089	411.44
369.315	434.44
369.541	423.44
369.767	405.44
369.993	415.44
370.219	400.44
370.445	419.44
370.672	415.44
370.898	409.44
371.124	422.44
371.35	424.44
371.576	417.44
371.802	422.44
372.028	405.44
372.254	395.44
372.48	424.44
372.706	415.44
372.932	428.44
373.158	434.44
373.384	422.44
373.61	425.44
373.835	430.44
374.061	420.44
374.287	424.44
374.513	429.44
374.739	433.44
374.965	457.44
375.191	439.44
375.416	438.44
375.642	449.44
375.868	436.44
376.094	434.44
376.319	436.44
376.545	422.44
376.771	404.44
376.997	426.44
377.222	399.44
377.448	416.44
377.674	416.44
377.899	414.44
378.125	415.44
378.35	405.44
378.576	404.44
378.802	412.44
379.027	427.44
379.253	416.44
379.478	415.44
379.704	412.44
379.929	399.44
380.155	419.44
380.38	420.44
380.606	435.44
380.831	415.44
381.057	438.44
381.282	410.44
381.507	425.44
381.733	408.44
381.958	459.44
382.184	425.44
382.409	439.44
382.634	442.44
382.86	437.44
383.085	428.44
383.31	442.44
383.535	466.44
383.761	437.44
383.986	435.44
384.211	465.44
384.436	431.44
384.662	456.44
384.887	464.44
385.112	455.44
385.337	466.44
385.562	455.44
385.787	482.44
386.013	478.44
386.238	480.44
386.463	474.44
386.688	464.44
386.913	462.44
387.138	469.44
387.363	464.44
387.588	469.44
387.813	468.44
388.038	449.44
388.263	481.44
388.488	470.44
388.713	470.44
388.938	483.44
389.163	460.44
389.387	467.44
389.612	472.44
389.837	478.44
390.062	474.44
390.287	467.44
390.512	482.44
390.736	494.44
390.961	454.44
391.186	473.44
391.411	464.44
391.636	482.44
391.86	463.44
392.085	499.44
392.31	481.44
392.534	499.44
392.759	507.44
392.984	497.44
393.208	461.44
393.433	490.44
393.658	497.44
393.882	477.44
394.107	484.44
394.331	489.44
394.556	492.44
394.78	482.44
395.005	497.44
395.229	495.44
395.454	487.44
395.678	514.44
395.903	530.44
396.127	521.44
396.352	507.44
396.576	503.44
396.801	500.44
397.025	514.44
397.249	526.44
397.474	503.44
397.698	516.44
397.922	540.44
398.147	523.44
398.371	536.44
398.595	505.44
398.82	557.44
399.044	559.44
399.268	579.44
399.492	628.44
399.717	654.44
399.941	678.44
400.165	694.44
400.389	674.44
400.613	620.44
400.837	592.44
401.062	571.44
401.286	577.44
401.51	554.44
401.734	577.44
401.958	575.44
402.182	550.44
402.406	582.44
402.63	597.44
402.854	573.44
403.078	578.44
403.302	588.44
403.526	594.44
403.75	585.44
403.974	546.44
404.198	596.44
404.422	596.44
404.645	600.44
404.869	598.44
405.093	635.44
405.317	653.44
405.541	699.44
405.765	632.44
405.988	609.44
406.212	624.44
406.436	633.44
406.66	670.44
406.883	640.44
407.107	645.44
407.331	706.44
407.555	772.44
407.778	761.44
408.002	673.44
408.226	669.44
408.449	662.44
408.673	630.44
408.896	695.44
409.12	712.44
409.344	635.44
409.567	621.44
409.791	599.44
410.014	606.44
410.238	610.44
410.461	587.44
410.685	618.44
410.908	595.44
411.132	642.44
411.355	666.44
411.578	655.44
411.802	606.44
412.025	587.44
412.249	593.44
412.472	607.44
412.695	626.44
412.919	643.44
413.142	566.44
413.365	560.44
413.589	596.44
413.812	560.44
414.035	569.44
414.258	555.44
414.482	558.44
414.705	568.44
414.928	568.44
415.151	552.44
415.374	556.44
415.597	546.44
415.821	546.44
416.044	548.44
416.267	583.44
416.49	550.44
416.713	544.44
416.936	554.44
417.159	528.44
417.382	561.44
417.605	563.44
417.828	579.44
418.051	590.44
418.274	568.44
418.497	569.44
418.72	559.44
418.943	564.44
419.166	574.44
419.389	607.44
419.611	606.44
419.834	606.44
420.057	571.44
420.28	584.44
420.503	584.44
420.726	579.44
420.948	587.44
421.171	620.44
421.394	668.44
421.617	615.44
421.839	590.44
422.062	563.44
422.285	572.44
422.507	641.44
422.73	727.44
422.953	706.44
423.175	603.44
423.398	614.44
423.621	612.44
423.843	622.44
424.066	623.44
424.288	614.44
424.511	625.44
424.733	664.44
424.956	754.44
425.178	725.44
425.401	732.44
425.623	733.44
425.846	657.44
426.068	608.44
426.291	626.44
426.513	600.44
426.735	617.44
426.958	649.44
427.18	729.44
427.402	874.44
427.625	963.44
427.847	830.44
428.069	710.44
428.292	660.44
428.514	588.44
428.736	562.44
428.958	550.44
429.181	569.44
429.403	568.44
429.625	582.44
429.847	621.44
430.069	669.44
430.292	668.44
430.514	591.44
430.736	571.44
430.958	562.44
431.18	528.44
431.402	536.44
431.624	558.44
431.846	546.44
432.068	553.44
432.29	532.44
432.512	559.44
432.734	550.44
432.956	545.44
433.178	561.44
433.4	551.44
433.622	543.44
433.844	548.44
434.066	526.44
434.287	551.44
434.509	571.44
434.731	568.44
434.953	567.44
435.175	555.44
435.397	615.44
435.618	600.44
435.84	685.44
436.062	739.44
436.284	787.44
436.505	682.44
436.727	620.44
436.949	594.44
437.17	554.44
437.392	560.44
437.614	572.44
437.835	640.44
438.057	704.44
438.278	791.44
438.5	797.44
438.721	847.44
438.943	835.44
439.165	663.44
439.386	602.44
439.608	630.44
439.829	610.44
440.05	648.44
440.272	693.44
440.493	664.44
440.715	599.44
440.936	579.44
441.158	575.44
441.379	603.44
441.6	607.44
441.822	617.44
442.043	630.44
442.264	728.44
442.486	773.44
442.707	668.44
442.928	614.44
443.149	636.44
443.371	648.44
443.592	681.44
443.813	778.44
444.034	838.44
444.255	682.44
444.476	649.44
444.698	627.44
444.919	625.44
445.14	713.44
445.361	707.44
445.582	657.44
445.803	728.44
446.024	804.44
446.245	813.44
446.466	720.44
446.687	654.44
446.908	594.44
447.129	561.44
447.35	576.44
447.571	562.44
447.792	565.44
448.013	543.44
448.234	588.44
448.455	608.44
448.675	747.44
448.896	844.44
449.117	725.44
449.338	690.44
449.559	795.44
449.779	901.44
450	706.44
450.221	595.44
450.442	545.44
450.662	564.44
450.883	561.44
451.104	572.44
451.324	555.44
451.545	537.44
451.766	516.44
451.986	527.44
452.207	513.44
452.428	519.44
452.648	530.44
452.869	488.44
453.089	505.44
453.31	524.44
453.53	523.44
453.751	541.44
453.971	502.44
454.192	532.44
454.412	510.44
454.633	498.44
454.853	499.44
455.073	500.44
455.294	537.44
455.514	560.44
455.734	558.44
455.955	511.44
456.175	498.44
456.395	473.44
456.616	462.44
456.836	481.44
457.056	481.44
457.276	488.44
457.497	508.44
457.717	492.44
457.937	495.44
458.157	510.44
458.377	520.44
458.598	526.44
458.818	591.44
459.038	642.44
459.258	666.44
459.478	584.44
459.698	539.44
459.918	548.44
460.138	540.44
460.358	570.44
460.578	563.44
460.798	574.44
461.018	546.44
461.238	556.44
461.458	594.44
461.678	547.44
461.898	568.44
462.118	553.44
462.338	568.44
462.558	592.44
462.777	595.44
462.997	620.44
463.217	640.44
463.437	639.44
463.657	617.44
463.876	597.44
464.096	599.44
464.316	620.44
464.536	616.44
464.755	604.44
464.975	608.44
465.195	644.44
465.414	711.44
465.634	621.44
465.854	611.44
466.073	571.44
466.293	530.44
466.512	517.44
466.732	518.44
466.951	537.44
467.171	511.44
467.391	518.44
467.61	522.44
467.829	532.44
468.049	573.44
468.268	563.44
468.488	492.44
468.707	526.44
468.927	528.44
469.146	502.44
469.365	522.44
469.585	522.44
469.804	538.44
470.023	546.44
470.243	517.44
470.462	528.44
470.681	547.44
470.901	535.44
471.12	525.44
471.339	524.44
471.558	551.44
471.777	537.44
471.997	537.44
472.216	527.44
472.435	554.44
472.654	546.44
472.873	512.44
473.092	522.44
473.311	521.44
473.53	527.44
473.749	547.44
473.968	572.44
474.187	650.44
474.406	681.44
474.625	577.44
474.844	519.44
475.063	530.44
475.282	526.44
475.501	540.44
475.72	536.44
475.939	547.44
476.158	528.44
476.377	538.44
476.596	557.44
476.814	561.44
477.033	536.44
477.252	572.44
477.471	579.44
477.69	568.44
477.908	589.44
478.127	576.44
478.346	592.44
478.564	608.44
478.783	584.44
479.002	600.44
479.22	611.44
479.439	634.44
479.658	640.44
479.876	611.44
480.095	641.44
480.313	678.44
480.532	676.44
480.751	684.44
480.969	646.44
481.188	698.44
481.406	724.44
481.624	660.44
481.843	636.44
482.061	637.44
482.28	615.44
482.498	640.44
482.717	627.44
482.935	604.44
483.153	618.44
483.372	605.44
483.59	611.44
483.808	611.44
484.027	604.44
484.245	611.44
484.463	627.44
484.681	640.44
484.9	630.44
485.118	650.44
485.336	626.44
485.554	647.44
485.772	630.44
485.99	659.44
486.209	637.44
486.427	664.44
486.645	648.44
486.863	678.44
487.081	660.44
487.299	682.44
487.517	663.44
487.735	656.44
487.953	659.44
488.171	672.44
488.389	681.44
488.607	671.44
488.825	652.44
489.043	651.44
489.261	671.44
489.479	680.44
489.696	655.44
489.914	671.44
490.132	665.44
490.35	700.44
490.568	720.44
490.786	702.44
491.003	708.44
491.221	719.44
491.439	756.44
491.657	750.44
491.874	716.44
492.092	739.44
492.31	766.44
492.527	756.44
492.745	746.44
492.963	748.44
493.18	751.44
493.398	772.44
493.615	761.44
493.833	785.44
494.05	763.44
494.268	760.44
494.485	738.44
494.703	747.44
494.92	778.44
495.138	779.44
495.355	760.44
495.573	774.44
495.79	781.44
496.008	788.44
496.225	769.44
496.442	776.44
496.66	784.44
496.877	781.44
497.094	812.44
497.312	817.44
497.529	815.44
497.746	808.44
497.963	854.44
498.181	879.44
498.398	877.44
498.615	896.44
498.832	952.44
499.049	942.44
499.267	955.44
499.484	1000.44
499.701	1050.44
499.918	1092.44
500.135	1148.44
500.352	1227.44
500.569	1260.44
500.786	1231.44
501.003	1207.44
501.22	1168.44
501.437	1124.44
501.654	1070.44
501.871	1066.44
