Data from 1979.PennyLincolnUp.Lamp.En5.5.200Scan.071719.P1_HRD10591_16-19-50-863.txt Node
Date: Thu Jul 18 16:19:50 EDT 2019
User: cochatt
Spectrometer: HR+D1059
Trigger mode: 1
Integration Time (sec): 1.000000E-1
Scans to average: 1
Electric dark correction enabled: true
Nonlinearity correction enabled: false
Boxcar width: 0
XAxis mode: Wavelengths
Number of Pixels in Spectrum: 2048
>>>>>Begin Spectral Data<<<<<
223.165	-14.38
223.4	-14.38
223.635	-14.38
223.869	-11.38
224.104	-15.38
224.338	-13.38
224.573	-10.38
224.808	-17.38
225.042	-12.38
225.277	-15.38
225.511	-8.38
225.746	1.62
225.98	6.62
226.215	3.62
226.449	11.62
226.683	31.62
226.918	34.62
227.152	28.62
227.387	25.62
227.621	24.62
227.856	34.62
228.09	45.62
228.324	53.62
228.559	57.62
228.793	65.62
229.027	83.62
229.262	98.62
229.496	111.62
229.73	152.62
229.964	142.62
230.199	119.62
230.433	104.62
230.667	113.62
230.901	103.62
231.136	114.62
231.37	92.62
231.604	107.62
231.838	88.62
232.072	117.62
232.306	96.62
232.541	107.62
232.775	110.62
233.009	104.62
233.243	122.62
233.477	120.62
233.711	103.62
233.945	124.62
234.179	100.62
234.413	103.62
234.647	106.62
234.881	115.62
235.115	114.62
235.349	104.62
235.583	114.62
235.817	127.62
236.051	113.62
236.285	133.62
236.519	131.62
236.753	117.62
236.987	149.62
237.221	169.62
237.455	212.62
237.689	177.62
237.922	140.62
238.156	131.62
238.39	121.62
238.624	130.62
238.858	127.62
239.091	127.62
239.325	126.62
239.559	125.62
239.793	116.62
240.027	115.62
240.26	132.62
240.494	152.62
240.728	142.62
240.961	133.62
241.195	144.62
241.429	139.62
241.662	124.62
241.896	119.62
242.13	136.62
242.363	128.62
242.597	130.62
242.83	129.62
243.064	132.62
243.298	133.62
243.531	122.62
243.765	141.62
243.998	139.62
244.232	135.62
244.465	132.62
244.699	132.62
244.932	149.62
245.166	146.62
245.399	146.62
245.633	124.62
245.866	148.62
246.099	139.62
246.333	137.62
246.566	147.62
246.8	143.62
247.033	144.62
247.266	161.62
247.5	147.62
247.733	154.62
247.966	160.62
248.2	157.62
248.433	168.62
248.666	166.62
248.899	165.62
249.133	167.62
249.366	183.62
249.599	184.62
249.832	184.62
250.066	167.62
250.299	176.62
250.532	174.62
250.765	179.62
250.998	183.62
251.231	200.62
251.465	218.62
251.698	203.62
251.931	182.62
252.164	186.62
252.397	185.62
252.63	209.62
252.863	186.62
253.096	202.62
253.329	201.62
253.562	200.62
253.795	198.62
254.028	209.62
254.261	215.62
254.494	208.62
254.727	238.62
254.96	241.62
255.193	229.62
255.426	231.62
255.659	196.62
255.892	210.62
256.124	197.62
256.357	224.62
256.59	225.62
256.823	204.62
257.056	199.62
257.289	197.62
257.521	186.62
257.754	183.62
257.987	195.62
258.22	205.62
258.452	198.62
258.685	204.62
258.918	195.62
259.151	219.62
259.383	206.62
259.616	206.62
259.849	218.62
260.081	220.62
260.314	219.62
260.547	235.62
260.779	233.62
261.012	224.62
261.244	200.62
261.477	218.62
261.71	203.62
261.942	198.62
262.175	208.62
262.407	211.62
262.64	192.62
262.872	191.62
263.105	216.62
263.337	190.62
263.57	206.62
263.802	194.62
264.035	200.62
264.267	206.62
264.499	220.62
264.732	219.62
264.964	202.62
265.197	211.62
265.429	212.62
265.661	211.62
265.894	207.62
266.126	210.62
266.358	206.62
266.591	206.62
266.823	218.62
267.055	205.62
267.287	214.62
267.52	219.62
267.752	199.62
267.984	217.62
268.216	209.62
268.448	215.62
268.681	216.62
268.913	235.62
269.145	258.62
269.377	249.62
269.609	266.62
269.841	252.62
270.073	252.62
270.306	277.62
270.538	288.62
270.77	262.62
271.002	264.62
271.234	260.62
271.466	267.62
271.698	262.62
271.93	292.62
272.162	251.62
272.394	276.62
272.626	272.62
272.858	248.62
273.09	266.62
273.322	258.62
273.553	242.62
273.785	243.62
274.017	238.62
274.249	263.62
274.481	267.62
274.713	242.62
274.945	259.62
275.176	268.62
275.408	257.62
275.64	243.62
275.872	244.62
276.104	253.62
276.335	240.62
276.567	271.62
276.799	275.62
277.031	297.62
277.262	298.62
277.494	291.62
277.726	288.62
277.957	279.62
278.189	264.62
278.421	271.62
278.652	255.62
278.884	255.62
279.115	263.62
279.347	247.62
279.579	264.62
279.81	270.62
280.042	257.62
280.273	273.62
280.505	264.62
280.736	259.62
280.968	270.62
281.199	254.62
281.431	254.62
281.662	239.62
281.894	267.62
282.125	277.62
282.356	297.62
282.588	287.62
282.819	299.62
283.051	279.62
283.282	250.62
283.513	249.62
283.745	250.62
283.976	280.62
284.207	267.62
284.439	262.62
284.67	270.62
284.901	272.62
285.132	265.62
285.364	264.62
285.595	267.62
285.826	280.62
286.057	274.62
286.288	279.62
286.52	267.62
286.751	284.62
286.982	267.62
287.213	281.62
287.444	263.62
287.675	286.62
287.906	284.62
288.138	278.62
288.369	266.62
288.6	284.62
288.831	284.62
289.062	293.62
289.293	297.62
289.524	286.62
289.755	260.62
289.986	267.62
290.217	253.62
290.448	299.62
290.679	292.62
290.91	295.62
291.141	275.62
291.371	302.62
291.602	274.62
291.833	266.62
292.064	282.62
292.295	284.62
292.526	283.62
292.757	279.62
292.987	277.62
293.218	297.62
293.449	303.62
293.68	290.62
293.91	277.62
294.141	268.62
294.372	288.62
294.603	298.62
294.833	283.62
295.064	291.62
295.295	300.62
295.525	298.62
295.756	305.62
295.987	295.62
296.217	309.62
296.448	310.62
296.679	318.62
296.909	267.62
297.14	301.62
297.37	297.62
297.601	291.62
297.831	297.62
298.062	275.62
298.292	305.62
298.523	310.62
298.753	319.62
298.984	310.62
299.214	294.62
299.445	316.62
299.675	314.62
299.905	307.62
300.136	290.62
300.366	323.62
300.597	310.62
300.827	309.62
301.057	311.62
301.288	319.62
301.518	313.62
301.748	316.62
301.979	326.62
302.209	326.62
302.439	337.62
302.669	334.62
302.9	322.62
303.13	316.62
303.36	326.62
303.59	322.62
303.82	347.62
304.051	328.62
304.281	320.62
304.511	318.62
304.741	327.62
304.971	317.62
305.201	310.62
305.431	334.62
305.661	295.62
305.891	310.62
306.121	315.62
306.352	334.62
306.582	349.62
306.812	327.62
307.042	324.62
307.272	334.62
307.502	330.62
307.731	314.62
307.961	348.62
308.191	351.62
308.421	321.62
308.651	327.62
308.881	331.62
309.111	337.62
309.341	338.62
309.571	329.62
309.8	349.62
310.03	358.62
310.26	363.62
310.49	363.62
310.72	344.62
310.949	377.62
311.179	382.62
311.409	362.62
311.639	351.62
311.868	350.62
312.098	386.62
312.328	375.62
312.557	395.62
312.787	371.62
313.017	382.62
313.246	380.62
313.476	356.62
313.706	353.62
313.935	375.62
314.165	372.62
314.394	382.62
314.624	379.62
314.853	360.62
315.083	382.62
315.312	361.62
315.542	366.62
315.771	360.62
316.001	343.62
316.23	359.62
316.46	350.62
316.689	389.62
316.919	358.62
317.148	368.62
317.377	378.62
317.607	378.62
317.836	371.62
318.065	352.62
318.295	370.62
318.524	382.62
318.753	362.62
318.983	371.62
319.212	358.62
319.441	376.62
319.67	375.62
319.9	373.62
320.129	374.62
320.358	376.62
320.587	367.62
320.816	382.62
321.046	387.62
321.275	399.62
321.504	402.62
321.733	396.62
321.962	378.62
322.191	392.62
322.42	412.62
322.649	403.62
322.878	418.62
323.108	442.62
323.337	471.62
323.566	484.62
323.795	484.62
324.024	551.62
324.253	616.62
324.482	894.62
324.71	1427.62
324.939	2098.62
325.168	1796.62
325.397	894.62
325.626	616.62
325.855	503.62
326.084	498.62
326.313	478.62
326.542	464.62
326.77	516.62
326.999	600.62
327.228	821.62
327.457	1294.62
327.686	1579.62
327.914	1031.62
328.143	678.62
328.372	598.62
328.6	537.62
328.829	519.62
329.058	537.62
329.287	532.62
329.515	527.62
329.744	500.62
329.972	495.62
330.201	500.62
330.43	549.62
330.658	563.62
330.887	552.62
331.115	562.62
331.344	491.62
331.572	495.62
331.801	490.62
332.03	491.62
332.258	472.62
332.486	473.62
332.715	442.62
332.943	455.62
333.172	481.62
333.4	471.62
333.629	462.62
333.857	499.62
334.085	485.62
334.314	514.62
334.542	505.62
334.771	551.62
334.999	526.62
335.227	448.62
335.455	452.62
335.684	452.62
335.912	454.62
336.14	474.62
336.369	467.62
336.597	467.62
336.825	464.62
337.053	449.62
337.281	460.62
337.51	435.62
337.738	429.62
337.966	427.62
338.194	451.62
338.422	448.62
338.65	466.62
338.878	440.62
339.106	422.62
339.334	443.62
339.562	439.62
339.79	443.62
340.018	439.62
340.246	417.62
340.474	434.62
340.702	455.62
340.93	444.62
341.158	438.62
341.386	427.62
341.614	425.62
341.842	420.62
342.07	414.62
342.298	425.62
342.526	420.62
342.754	407.62
342.981	430.62
343.209	434.62
343.437	428.62
343.665	434.62
343.893	446.62
344.12	452.62
344.348	448.62
344.576	438.62
344.804	448.62
345.031	440.62
345.259	459.62
345.487	428.62
345.714	422.62
345.942	415.62
346.17	403.62
346.397	424.62
346.625	408.62
346.853	411.62
347.08	430.62
347.308	421.62
347.535	430.62
347.763	440.62
347.99	414.62
348.218	423.62
348.445	459.62
348.673	433.62
348.9	415.62
349.128	419.62
349.355	402.62
349.583	427.62
349.81	392.62
350.037	391.62
350.265	393.62
350.492	421.62
350.72	410.62
350.947	408.62
351.174	416.62
351.402	414.62
351.629	430.62
351.856	426.62
352.083	417.62
352.311	425.62
352.538	432.62
352.765	440.62
352.992	407.62
353.22	418.62
353.447	416.62
353.674	408.62
353.901	389.62
354.128	396.62
354.355	397.62
354.583	422.62
354.81	385.62
355.037	407.62
355.264	396.62
355.491	376.62
355.718	396.62
355.945	395.62
356.172	399.62
356.399	386.62
356.626	391.62
356.853	380.62
357.08	371.62
357.307	393.62
357.534	408.62
357.761	405.62
357.988	391.62
358.215	410.62
358.441	412.62
358.668	410.62
358.895	402.62
359.122	401.62
359.349	404.62
359.576	399.62
359.802	423.62
360.029	453.62
360.256	466.62
360.483	440.62
360.709	443.62
360.936	415.62
361.163	424.62
361.39	404.62
361.616	422.62
361.843	409.62
362.07	407.62
362.296	415.62
362.523	403.62
362.749	420.62
362.976	414.62
363.203	410.62
363.429	405.62
363.656	414.62
363.882	406.62
364.109	404.62
364.335	395.62
364.562	396.62
364.788	416.62
365.015	391.62
365.241	387.62
365.468	426.62
365.694	407.62
365.92	427.62
366.147	396.62
366.373	406.62
366.599	418.62
366.826	415.62
367.052	386.62
367.278	390.62
367.505	407.62
367.731	418.62
367.957	440.62
368.184	414.62
368.41	416.62
368.636	441.62
368.862	418.62
369.089	414.62
369.315	431.62
369.541	423.62
369.767	404.62
369.993	406.62
370.219	407.62
370.445	414.62
370.672	410.62
370.898	404.62
371.124	418.62
371.35	409.62
371.576	408.62
371.802	402.62
372.028	411.62
372.254	392.62
372.48	398.62
372.706	412.62
372.932	416.62
373.158	410.62
373.384	417.62
373.61	436.62
373.835	425.62
374.061	434.62
374.287	412.62
374.513	416.62
374.739	417.62
374.965	432.62
375.191	434.62
375.416	446.62
375.642	417.62
375.868	445.62
376.094	424.62
376.319	419.62
376.545	416.62
376.771	434.62
376.997	433.62
377.222	426.62
377.448	403.62
377.674	388.62
377.899	409.62
378.125	415.62
378.35	408.62
378.576	396.62
378.802	406.62
379.027	410.62
379.253	430.62
379.478	408.62
379.704	398.62
379.929	396.62
380.155	427.62
380.38	434.62
380.606	414.62
380.831	418.62
381.057	418.62
381.282	407.62
381.507	423.62
381.733	418.62
381.958	415.62
382.184	414.62
382.409	418.62
382.634	449.62
382.86	435.62
383.085	453.62
383.31	440.62
383.535	456.62
383.761	437.62
383.986	440.62
384.211	465.62
384.436	458.62
384.662	447.62
384.887	470.62
385.112	460.62
385.337	448.62
385.562	454.62
385.787	447.62
386.013	474.62
386.238	473.62
386.463	454.62
386.688	446.62
386.913	466.62
387.138	473.62
387.363	463.62
387.588	458.62
387.813	473.62
388.038	463.62
388.263	478.62
388.488	475.62
388.713	467.62
388.938	479.62
389.163	451.62
389.387	468.62
389.612	449.62
389.837	466.62
390.062	456.62
390.287	488.62
390.512	449.62
390.736	471.62
390.961	462.62
391.186	486.62
391.411	497.62
391.636	510.62
391.86	501.62
392.085	494.62
392.31	478.62
392.534	482.62
392.759	473.62
392.984	471.62
393.208	488.62
393.433	477.62
393.658	482.62
393.882	489.62
394.107	474.62
394.331	484.62
394.556	494.62
394.78	487.62
395.005	504.62
395.229	473.62
395.454	520.62
395.678	495.62
395.903	508.62
396.127	522.62
396.352	528.62
396.576	517.62
396.801	525.62
397.025	504.62
397.249	501.62
397.474	523.62
397.698	494.62
397.922	531.62
398.147	538.62
398.371	554.62
398.595	521.62
398.82	522.62
399.044	542.62
399.268	587.62
399.492	635.62
399.717	645.62
399.941	674.62
400.165	692.62
400.389	710.62
400.613	639.62
400.837	569.62
401.062	551.62
401.286	564.62
401.51	564.62
401.734	565.62
401.958	568.62
402.182	571.62
402.406	606.62
402.63	578.62
402.854	560.62
403.078	567.62
403.302	553.62
403.526	592.62
403.75	589.62
403.974	562.62
404.198	594.62
404.422	567.62
404.645	591.62
404.869	612.62
405.093	624.62
405.317	648.62
405.541	695.62
405.765	638.62
405.988	616.62
406.212	617.62
406.436	619.62
406.66	639.62
406.883	626.62
407.107	644.62
407.331	695.62
407.555	736.62
407.778	740.62
408.002	696.62
408.226	630.62
408.449	636.62
408.673	649.62
408.896	651.62
409.12	720.62
409.344	682.62
409.567	619.62
409.791	615.62
410.014	564.62
410.238	579.62
410.461	571.62
410.685	591.62
410.908	604.62
411.132	647.62
411.355	666.62
411.578	634.62
411.802	615.62
412.025	580.62
412.249	597.62
412.472	626.62
412.695	654.62
412.919	634.62
413.142	583.62
413.365	562.62
413.589	550.62
413.812	568.62
414.035	536.62
414.258	560.62
414.482	552.62
414.705	572.62
414.928	525.62
415.151	538.62
415.374	570.62
415.597	532.62
415.821	552.62
416.044	566.62
416.267	558.62
416.49	553.62
416.713	534.62
416.936	536.62
417.159	541.62
417.382	560.62
417.605	560.62
417.828	555.62
418.051	564.62
418.274	564.62
418.497	553.62
418.72	543.62
418.943	546.62
419.166	568.62
419.389	587.62
419.611	605.62
419.834	582.62
420.057	571.62
420.28	586.62
420.503	577.62
420.726	590.62
420.948	592.62
421.171	627.62
421.394	651.62
421.617	590.62
421.839	572.62
422.062	582.62
422.285	585.62
422.507	650.62
422.73	718.62
422.953	692.62
423.175	613.62
423.398	613.62
423.621	596.62
423.843	602.62
424.066	630.62
424.288	600.62
424.511	614.62
424.733	687.62
424.956	762.62
425.178	707.62
425.401	750.62
425.623	730.62
425.846	664.62
426.068	601.62
426.291	611.62
426.513	602.62
426.735	606.62
426.958	611.62
427.18	699.62
427.402	868.62
427.625	934.62
427.847	844.62
428.069	698.62
428.292	628.62
428.514	598.62
428.736	567.62
428.958	573.62
429.181	532.62
429.403	562.62
429.625	550.62
429.847	585.62
430.069	662.62
430.292	663.62
430.514	593.62
430.736	558.62
430.958	552.62
431.18	533.62
431.402	526.62
431.624	527.62
431.846	513.62
432.068	547.62
432.29	532.62
432.512	542.62
432.734	532.62
432.956	542.62
433.178	555.62
433.4	550.62
433.622	528.62
433.844	524.62
434.066	562.62
434.287	536.62
434.509	547.62
434.731	562.62
434.953	571.62
435.175	596.62
435.397	614.62
435.618	603.62
435.84	639.62
436.062	741.62
436.284	778.62
436.505	674.62
436.727	632.62
436.949	584.62
437.17	564.62
437.392	560.62
437.614	580.62
437.835	597.62
438.057	700.62
438.278	801.62
438.5	786.62
438.721	846.62
438.943	831.62
439.165	681.62
439.386	640.62
439.608	590.62
439.829	624.62
440.05	617.62
440.272	692.62
440.493	646.62
440.715	584.62
440.936	572.62
441.158	560.62
441.379	557.62
441.6	591.62
441.822	624.62
442.043	648.62
442.264	708.62
442.486	758.62
442.707	662.62
442.928	621.62
443.149	630.62
443.371	644.62
443.592	697.62
443.813	799.62
444.034	836.62
444.255	723.62
444.476	647.62
444.698	620.62
444.919	629.62
445.14	710.62
445.361	671.62
445.582	664.62
445.803	710.62
446.024	800.62
446.245	848.62
446.466	767.62
446.687	643.62
446.908	593.62
447.129	563.62
447.35	548.62
447.571	568.62
447.792	544.62
448.013	556.62
448.234	576.62
448.455	624.62
448.675	755.62
448.896	857.62
449.117	716.62
449.338	694.62
449.559	780.62
449.779	862.62
450	706.62
450.221	596.62
450.442	567.62
450.662	555.62
450.883	557.62
451.104	557.62
451.324	539.62
451.545	524.62
451.766	523.62
451.986	505.62
452.207	522.62
452.428	477.62
452.648	515.62
452.869	509.62
453.089	500.62
453.31	519.62
453.53	514.62
453.751	497.62
453.971	489.62
454.192	523.62
454.412	480.62
454.633	487.62
454.853	465.62
455.073	496.62
455.294	518.62
455.514	579.62
455.734	564.62
455.955	507.62
456.175	485.62
456.395	472.62
456.616	472.62
456.836	504.62
457.056	488.62
457.276	464.62
457.497	472.62
457.717	472.62
457.937	476.62
458.157	481.62
458.377	504.62
458.598	510.62
458.818	564.62
459.038	638.62
459.258	657.62
459.478	574.62
459.698	556.62
459.918	539.62
460.138	545.62
460.358	562.62
460.578	552.62
460.798	550.62
461.018	576.62
461.238	544.62
461.458	546.62
461.678	552.62
461.898	566.62
462.118	587.62
462.338	561.62
462.558	617.62
462.777	606.62
462.997	625.62
463.217	617.62
463.437	650.62
463.657	598.62
463.876	614.62
464.096	613.62
464.316	576.62
464.536	604.62
464.755	618.62
464.975	603.62
465.195	640.62
465.414	678.62
465.634	614.62
465.854	580.62
466.073	544.62
466.293	546.62
466.512	524.62
466.732	532.62
466.951	531.62
467.171	501.62
467.391	571.62
467.61	514.62
467.829	560.62
468.049	535.62
468.268	545.62
468.488	530.62
468.707	490.62
468.927	508.62
469.146	518.62
469.365	520.62
469.585	502.62
469.804	508.62
470.023	522.62
470.243	531.62
470.462	540.62
470.681	548.62
470.901	553.62
471.12	531.62
471.339	544.62
471.558	533.62
471.777	518.62
471.997	540.62
472.216	545.62
472.435	564.62
472.654	560.62
472.873	543.62
473.092	528.62
473.311	496.62
473.53	532.62
473.749	521.62
473.968	582.62
474.187	636.62
474.406	696.62
474.625	584.62
474.844	551.62
475.063	521.62
475.282	542.62
475.501	522.62
475.72	548.62
475.939	553.62
476.158	529.62
476.377	545.62
476.596	537.62
476.814	543.62
477.033	550.62
477.252	564.62
477.471	554.62
477.69	550.62
477.908	595.62
478.127	587.62
478.346	574.62
478.564	598.62
478.783	615.62
479.002	612.62
479.22	616.62
479.439	637.62
479.658	622.62
479.876	640.62
480.095	643.62
480.313	663.62
480.532	660.62
480.751	652.62
480.969	670.62
481.188	709.62
481.406	702.62
481.624	662.62
481.843	632.62
482.061	645.62
482.28	639.62
482.498	596.62
482.717	609.62
482.935	607.62
483.153	624.62
483.372	612.62
483.59	613.62
483.808	602.62
484.027	592.62
484.245	594.62
484.463	626.62
484.681	636.62
484.9	607.62
485.118	619.62
485.336	630.62
485.554	628.62
485.772	628.62
485.99	659.62
486.209	645.62
486.427	638.62
486.645	655.62
486.863	697.62
487.081	680.62
487.299	671.62
487.517	662.62
487.735	654.62
487.953	615.62
488.171	626.62
488.389	663.62
488.607	684.62
488.825	681.62
489.043	656.62
489.261	677.62
489.479	714.62
489.696	669.62
489.914	664.62
490.132	692.62
490.35	702.62
490.568	699.62
490.786	687.62
491.003	696.62
491.221	719.62
491.439	730.62
491.657	735.62
491.874	736.62
492.092	750.62
492.31	752.62
492.527	754.62
492.745	737.62
492.963	745.62
493.18	766.62
493.398	768.62
493.615	736.62
493.833	753.62
494.05	759.62
494.268	774.62
494.485	767.62
494.703	754.62
494.92	772.62
495.138	777.62
495.355	777.62
495.573	770.62
495.79	769.62
496.008	795.62
496.225	807.62
496.442	787.62
496.66	793.62
496.877	761.62
497.094	798.62
497.312	791.62
497.529	815.62
497.746	808.62
497.963	853.62
498.181	839.62
498.398	863.62
498.615	882.62
498.832	905.62
499.049	930.62
499.267	964.62
499.484	993.62
499.701	1063.62
499.918	1085.62
500.135	1156.62
500.352	1198.62
500.569	1212.62
500.786	1243.62
501.003	1203.62
501.22	1141.62
501.437	1102.62
501.654	1054.62
501.871	1046.62
