Data from 1979.PennyLincolnUp.Lamp.En5.5.200Scan.071719.P1_HRD10591_16-18-08-864.txt Node
Date: Thu Jul 18 16:18:08 EDT 2019
User: cochatt
Spectrometer: HR+D1059
Trigger mode: 1
Integration Time (sec): 1.000000E-1
Scans to average: 1
Electric dark correction enabled: true
Nonlinearity correction enabled: false
Boxcar width: 0
XAxis mode: Wavelengths
Number of Pixels in Spectrum: 2048
>>>>>Begin Spectral Data<<<<<
223.165	9.62
223.4	9.62
223.635	9.62
223.869	-28.38
224.104	-22.38
224.338	-20.38
224.573	-11.38
224.808	-0.38
225.042	4.62
225.277	-7.38
225.511	-6.38
225.746	-2.38
225.98	11.62
226.215	20.62
226.449	4.62
226.683	-1.38
226.918	18.62
227.152	30.62
227.387	37.62
227.621	36.62
227.856	44.62
228.09	31.62
228.324	38.62
228.559	37.62
228.793	62.62
229.027	95.62
229.262	105.62
229.496	89.62
229.73	121.62
229.964	140.62
230.199	131.62
230.433	106.62
230.667	113.62
230.901	99.62
231.136	109.62
231.37	110.62
231.604	118.62
231.838	118.62
232.072	117.62
232.306	103.62
232.541	108.62
232.775	114.62
233.009	126.62
233.243	113.62
233.477	113.62
233.711	109.62
233.945	116.62
234.179	101.62
234.413	125.62
234.647	111.62
234.881	118.62
235.115	123.62
235.349	111.62
235.583	116.62
235.817	118.62
236.051	124.62
236.285	128.62
236.519	106.62
236.753	124.62
236.987	138.62
237.221	155.62
237.455	195.62
237.689	153.62
237.922	140.62
238.156	127.62
238.39	127.62
238.624	121.62
238.858	120.62
239.091	130.62
239.325	133.62
239.559	129.62
239.793	131.62
240.027	127.62
240.26	132.62
240.494	140.62
240.728	139.62
240.961	142.62
241.195	141.62
241.429	133.62
241.662	125.62
241.896	110.62
242.13	126.62
242.363	127.62
242.597	132.62
242.83	127.62
243.064	136.62
243.298	139.62
243.531	137.62
243.765	137.62
243.998	151.62
244.232	142.62
244.465	133.62
244.699	147.62
244.932	150.62
245.166	142.62
245.399	133.62
245.633	148.62
245.866	138.62
246.099	138.62
246.333	138.62
246.566	131.62
246.8	146.62
247.033	162.62
247.266	141.62
247.5	141.62
247.733	135.62
247.966	148.62
248.2	138.62
248.433	159.62
248.666	169.62
248.899	179.62
249.133	177.62
249.366	177.62
249.599	167.62
249.832	177.62
250.066	174.62
250.299	173.62
250.532	179.62
250.765	174.62
250.998	188.62
251.231	195.62
251.465	182.62
251.698	198.62
251.931	163.62
252.164	173.62
252.397	191.62
252.63	162.62
252.863	202.62
253.096	187.62
253.329	203.62
253.562	181.62
253.795	197.62
254.028	198.62
254.261	200.62
254.494	195.62
254.727	201.62
254.96	222.62
255.193	224.62
255.426	222.62
255.659	189.62
255.892	204.62
256.124	216.62
256.357	192.62
256.59	203.62
256.823	205.62
257.056	202.62
257.289	198.62
257.521	175.62
257.754	178.62
257.987	202.62
258.22	195.62
258.452	189.62
258.685	173.62
258.918	181.62
259.151	195.62
259.383	196.62
259.616	193.62
259.849	195.62
260.081	205.62
260.314	224.62
260.547	234.62
260.779	224.62
261.012	203.62
261.244	203.62
261.477	198.62
261.71	194.62
261.942	210.62
262.175	201.62
262.407	207.62
262.64	194.62
262.872	196.62
263.105	195.62
263.337	205.62
263.57	191.62
263.802	187.62
264.035	190.62
264.267	201.62
264.499	207.62
264.732	207.62
264.964	204.62
265.197	185.62
265.429	221.62
265.661	206.62
265.894	201.62
266.126	200.62
266.358	182.62
266.591	207.62
266.823	197.62
267.055	209.62
267.287	206.62
267.52	213.62
267.752	201.62
267.984	205.62
268.216	206.62
268.448	231.62
268.681	203.62
268.913	208.62
269.145	222.62
269.377	241.62
269.609	247.62
269.841	231.62
270.073	224.62
270.306	243.62
270.538	261.62
270.77	259.62
271.002	251.62
271.234	250.62
271.466	259.62
271.698	291.62
271.93	278.62
272.162	269.62
272.394	279.62
272.626	266.62
272.858	251.62
273.09	234.62
273.322	248.62
273.553	244.62
273.785	250.62
274.017	235.62
274.249	245.62
274.481	241.62
274.713	249.62
274.945	240.62
275.176	247.62
275.408	227.62
275.64	252.62
275.872	230.62
276.104	253.62
276.335	237.62
276.567	254.62
276.799	258.62
277.031	269.62
277.262	277.62
277.494	272.62
277.726	263.62
277.957	257.62
278.189	279.62
278.421	264.62
278.652	241.62
278.884	264.62
279.115	246.62
279.347	249.62
279.579	245.62
279.81	261.62
280.042	235.62
280.273	241.62
280.505	244.62
280.736	249.62
280.968	242.62
281.199	243.62
281.431	251.62
281.662	235.62
281.894	235.62
282.125	257.62
282.356	280.62
282.588	284.62
282.819	281.62
283.051	250.62
283.282	261.62
283.513	238.62
283.745	268.62
283.976	253.62
284.207	256.62
284.439	259.62
284.67	265.62
284.901	243.62
285.132	265.62
285.364	260.62
285.595	261.62
285.826	279.62
286.057	250.62
286.288	249.62
286.52	261.62
286.751	226.62
286.982	264.62
287.213	257.62
287.444	270.62
287.675	263.62
287.906	277.62
288.138	260.62
288.369	267.62
288.6	281.62
288.831	270.62
289.062	286.62
289.293	267.62
289.524	261.62
289.755	273.62
289.986	274.62
290.217	285.62
290.448	263.62
290.679	267.62
290.91	269.62
291.141	256.62
291.371	278.62
291.602	247.62
291.833	281.62
292.064	271.62
292.295	278.62
292.526	270.62
292.757	273.62
292.987	281.62
293.218	263.62
293.449	284.62
293.68	292.62
293.91	259.62
294.141	264.62
294.372	269.62
294.603	274.62
294.833	279.62
295.064	276.62
295.295	284.62
295.525	281.62
295.756	291.62
295.987	279.62
296.217	297.62
296.448	315.62
296.679	290.62
296.909	284.62
297.14	290.62
297.37	278.62
297.601	267.62
297.831	285.62
298.062	272.62
298.292	291.62
298.523	308.62
298.753	298.62
298.984	277.62
299.214	295.62
299.445	281.62
299.675	285.62
299.905	295.62
300.136	286.62
300.366	292.62
300.597	307.62
300.827	285.62
301.057	305.62
301.288	332.62
301.518	332.62
301.748	327.62
301.979	285.62
302.209	302.62
302.439	317.62
302.669	293.62
302.9	317.62
303.13	310.62
303.36	322.62
303.59	315.62
303.82	297.62
304.051	328.62
304.281	324.62
304.511	300.62
304.741	294.62
304.971	317.62
305.201	311.62
305.431	305.62
305.661	298.62
305.891	307.62
306.121	333.62
306.352	308.62
306.582	309.62
306.812	311.62
307.042	310.62
307.272	317.62
307.502	308.62
307.731	305.62
307.961	301.62
308.191	324.62
308.421	332.62
308.651	311.62
308.881	344.62
309.111	319.62
309.341	328.62
309.571	320.62
309.8	325.62
310.03	352.62
310.26	354.62
310.49	330.62
310.72	342.62
310.949	339.62
311.179	359.62
311.409	357.62
311.639	363.62
311.868	350.62
312.098	345.62
312.328	362.62
312.557	350.62
312.787	378.62
313.017	371.62
313.246	356.62
313.476	366.62
313.706	350.62
313.935	356.62
314.165	370.62
314.394	350.62
314.624	345.62
314.853	349.62
315.083	371.62
315.312	357.62
315.542	329.62
315.771	318.62
316.001	346.62
316.23	341.62
316.46	343.62
316.689	363.62
316.919	356.62
317.148	361.62
317.377	358.62
317.607	360.62
317.836	364.62
318.065	355.62
318.295	339.62
318.524	364.62
318.753	344.62
318.983	349.62
319.212	369.62
319.441	358.62
319.67	367.62
319.9	338.62
320.129	365.62
320.358	350.62
320.587	356.62
320.816	364.62
321.046	362.62
321.275	360.62
321.504	346.62
321.733	389.62
321.962	387.62
322.191	392.62
322.42	394.62
322.649	390.62
322.878	419.62
323.108	424.62
323.337	429.62
323.566	434.62
323.795	457.62
324.024	494.62
324.253	587.62
324.482	821.62
324.71	1243.62
324.939	1886.62
325.168	1579.62
325.397	797.62
325.626	573.62
325.855	485.62
326.084	454.62
326.313	454.62
326.542	454.62
326.77	484.62
326.999	550.62
327.228	744.62
327.457	1166.62
327.686	1413.62
327.914	891.62
328.143	617.62
328.372	551.62
328.6	513.62
328.829	497.62
329.058	489.62
329.287	501.62
329.515	474.62
329.744	449.62
329.972	444.62
330.201	449.62
330.43	489.62
330.658	524.62
330.887	531.62
331.115	527.62
331.344	464.62
331.572	446.62
331.801	439.62
332.03	466.62
332.258	444.62
332.486	440.62
332.715	438.62
332.943	409.62
333.172	428.62
333.4	447.62
333.629	458.62
333.857	462.62
334.085	461.62
334.314	481.62
334.542	498.62
334.771	516.62
334.999	493.62
335.227	436.62
335.455	441.62
335.684	423.62
335.912	442.62
336.14	415.62
336.369	425.62
336.597	434.62
336.825	439.62
337.053	422.62
337.281	444.62
337.51	424.62
337.738	417.62
337.966	420.62
338.194	420.62
338.422	437.62
338.65	412.62
338.878	415.62
339.106	434.62
339.334	411.62
339.562	411.62
339.79	406.62
340.018	413.62
340.246	410.62
340.474	412.62
340.702	414.62
340.93	425.62
341.158	394.62
341.386	406.62
341.614	400.62
341.842	403.62
342.07	427.62
342.298	411.62
342.526	415.62
342.754	411.62
342.981	403.62
343.209	409.62
343.437	408.62
343.665	423.62
343.893	445.62
344.12	425.62
344.348	423.62
344.576	420.62
344.804	423.62
345.031	425.62
345.259	435.62
345.487	425.62
345.714	399.62
345.942	398.62
346.17	405.62
346.397	396.62
346.625	418.62
346.853	396.62
347.08	394.62
347.308	402.62
347.535	402.62
347.763	400.62
347.99	398.62
348.218	400.62
348.445	405.62
348.673	417.62
348.9	418.62
349.128	401.62
349.355	388.62
349.583	386.62
349.81	378.62
350.037	404.62
350.265	399.62
350.492	363.62
350.72	389.62
350.947	379.62
351.174	408.62
351.402	414.62
351.629	404.62
351.856	403.62
352.083	403.62
352.311	420.62
352.538	398.62
352.765	412.62
352.992	399.62
353.22	413.62
353.447	399.62
353.674	389.62
353.901	385.62
354.128	378.62
354.355	375.62
354.583	378.62
354.81	388.62
355.037	381.62
355.264	373.62
355.491	379.62
355.718	384.62
355.945	385.62
356.172	383.62
356.399	378.62
356.626	385.62
356.853	369.62
357.08	375.62
357.307	391.62
357.534	383.62
357.761	374.62
357.988	389.62
358.215	388.62
358.441	375.62
358.668	381.62
358.895	380.62
359.122	392.62
359.349	390.62
359.576	411.62
359.802	429.62
360.029	419.62
360.256	438.62
360.483	426.62
360.709	403.62
360.936	406.62
361.163	388.62
361.39	397.62
361.616	408.62
361.843	405.62
362.07	397.62
362.296	409.62
362.523	405.62
362.749	393.62
362.976	407.62
363.203	396.62
363.429	386.62
363.656	388.62
363.882	383.62
364.109	395.62
364.335	391.62
364.562	389.62
364.788	384.62
365.015	406.62
365.241	385.62
365.468	392.62
365.694	412.62
365.92	386.62
366.147	391.62
366.373	388.62
366.599	380.62
366.826	382.62
367.052	378.62
367.278	396.62
367.505	395.62
367.731	387.62
367.957	406.62
368.184	377.62
368.41	400.62
368.636	402.62
368.862	411.62
369.089	381.62
369.315	393.62
369.541	399.62
369.767	384.62
369.993	394.62
370.219	395.62
370.445	390.62
370.672	397.62
370.898	386.62
371.124	409.62
371.35	398.62
371.576	399.62
371.802	408.62
372.028	410.62
372.254	407.62
372.48	394.62
372.706	400.62
372.932	420.62
373.158	386.62
373.384	395.62
373.61	394.62
373.835	405.62
374.061	405.62
374.287	409.62
374.513	407.62
374.739	419.62
374.965	437.62
375.191	409.62
375.416	421.62
375.642	413.62
375.868	400.62
376.094	404.62
376.319	424.62
376.545	400.62
376.771	411.62
376.997	387.62
377.222	407.62
377.448	399.62
377.674	391.62
377.899	394.62
378.125	406.62
378.35	411.62
378.576	406.62
378.802	393.62
379.027	399.62
379.253	388.62
379.478	387.62
379.704	396.62
379.929	393.62
380.155	396.62
380.38	405.62
380.606	391.62
380.831	391.62
381.057	418.62
381.282	423.62
381.507	399.62
381.733	414.62
381.958	395.62
382.184	410.62
382.409	400.62
382.634	415.62
382.86	407.62
383.085	427.62
383.31	433.62
383.535	412.62
383.761	427.62
383.986	437.62
384.211	424.62
384.436	432.62
384.662	404.62
384.887	428.62
385.112	445.62
385.337	444.62
385.562	440.62
385.787	439.62
386.013	460.62
386.238	446.62
386.463	443.62
386.688	437.62
386.913	424.62
387.138	433.62
387.363	461.62
387.588	440.62
387.813	455.62
388.038	456.62
388.263	459.62
388.488	450.62
388.713	444.62
388.938	461.62
389.163	457.62
389.387	456.62
389.612	471.62
389.837	447.62
390.062	438.62
390.287	474.62
390.512	435.62
390.736	448.62
390.961	459.62
391.186	459.62
391.411	459.62
391.636	460.62
391.86	459.62
392.085	475.62
392.31	483.62
392.534	477.62
392.759	476.62
392.984	453.62
393.208	466.62
393.433	447.62
393.658	480.62
393.882	463.62
394.107	451.62
394.331	455.62
394.556	473.62
394.78	478.62
395.005	469.62
395.229	454.62
395.454	501.62
395.678	489.62
395.903	490.62
396.127	499.62
396.352	500.62
396.576	491.62
396.801	478.62
397.025	479.62
397.249	504.62
397.474	506.62
397.698	492.62
397.922	509.62
398.147	526.62
398.371	517.62
398.595	521.62
398.82	524.62
399.044	541.62
399.268	571.62
399.492	602.62
399.717	640.62
399.941	684.62
400.165	685.62
400.389	646.62
400.613	611.62
400.837	583.62
401.062	540.62
401.286	541.62
401.51	547.62
401.734	538.62
401.958	549.62
402.182	546.62
402.406	554.62
402.63	552.62
402.854	561.62
403.078	526.62
403.302	541.62
403.526	549.62
403.75	575.62
403.974	582.62
404.198	548.62
404.422	570.62
404.645	556.62
404.869	574.62
405.093	602.62
405.317	636.62
405.541	689.62
405.765	637.62
405.988	586.62
406.212	587.62
406.436	610.62
406.66	605.62
406.883	623.62
407.107	652.62
407.331	679.62
407.555	722.62
407.778	731.62
408.002	667.62
408.226	633.62
408.449	619.62
408.673	619.62
408.896	649.62
409.12	680.62
409.344	653.62
409.567	609.62
409.791	608.62
410.014	581.62
410.238	565.62
410.461	552.62
410.685	573.62
410.908	584.62
411.132	619.62
411.355	623.62
411.578	570.62
411.802	571.62
412.025	553.62
412.249	581.62
412.472	573.62
412.695	609.62
412.919	614.62
413.142	574.62
413.365	550.62
413.589	553.62
413.812	550.62
414.035	538.62
414.258	537.62
414.482	537.62
414.705	534.62
414.928	535.62
415.151	525.62
415.374	532.62
415.597	542.62
415.821	550.62
416.044	522.62
416.267	538.62
416.49	551.62
416.713	515.62
416.936	539.62
417.159	530.62
417.382	537.62
417.605	520.62
417.828	547.62
418.051	546.62
418.274	562.62
418.497	523.62
418.72	534.62
418.943	531.62
419.166	574.62
419.389	597.62
419.611	578.62
419.834	557.62
420.057	579.62
420.28	555.62
420.503	537.62
420.726	570.62
420.948	539.62
421.171	596.62
421.394	613.62
421.617	579.62
421.839	537.62
422.062	578.62
422.285	574.62
422.507	629.62
422.73	707.62
422.953	667.62
423.175	600.62
423.398	570.62
423.621	564.62
423.843	582.62
424.066	593.62
424.288	602.62
424.511	598.62
424.733	631.62
424.956	712.62
425.178	717.62
425.401	689.62
425.623	706.62
425.846	615.62
426.068	576.62
426.291	595.62
426.513	572.62
426.735	603.62
426.958	626.62
427.18	679.62
427.402	762.62
427.625	885.62
427.847	769.62
428.069	685.62
428.292	613.62
428.514	550.62
428.736	539.62
428.958	540.62
429.181	540.62
429.403	534.62
429.625	555.62
429.847	570.62
430.069	606.62
430.292	615.62
430.514	552.62
430.736	539.62
430.958	521.62
431.18	545.62
431.402	531.62
431.624	521.62
431.846	533.62
432.068	518.62
432.29	523.62
432.512	526.62
432.734	539.62
432.956	519.62
433.178	537.62
433.4	542.62
433.622	538.62
433.844	529.62
434.066	517.62
434.287	519.62
434.509	522.62
434.731	548.62
434.953	536.62
435.175	535.62
435.397	587.62
435.618	583.62
435.84	615.62
436.062	699.62
436.284	753.62
436.505	639.62
436.727	592.62
436.949	561.62
437.17	530.62
437.392	539.62
437.614	555.62
437.835	569.62
438.057	665.62
438.278	742.62
438.5	759.62
438.721	814.62
438.943	778.62
439.165	621.62
439.386	596.62
439.608	585.62
439.829	579.62
440.05	589.62
440.272	644.62
440.493	606.62
440.715	567.62
440.936	543.62
441.158	549.62
441.379	543.62
441.6	567.62
441.822	563.62
442.043	612.62
442.264	692.62
442.486	702.62
442.707	626.62
442.928	595.62
443.149	581.62
443.371	618.62
443.592	636.62
443.813	723.62
444.034	797.62
444.255	681.62
444.476	623.62
444.698	634.62
444.919	617.62
445.14	708.62
445.361	658.62
445.582	631.62
445.803	686.62
446.024	747.62
446.245	771.62
446.466	715.62
446.687	610.62
446.908	565.62
447.129	545.62
447.35	541.62
447.571	499.62
447.792	544.62
448.013	541.62
448.234	524.62
448.455	590.62
448.675	693.62
448.896	782.62
449.117	670.62
449.338	631.62
449.559	722.62
449.779	846.62
450	649.62
450.221	569.62
450.442	505.62
450.662	515.62
450.883	507.62
451.104	537.62
451.324	535.62
451.545	517.62
451.766	481.62
451.986	472.62
452.207	479.62
452.428	443.62
452.648	491.62
452.869	481.62
453.089	484.62
453.31	521.62
453.53	491.62
453.751	448.62
453.971	474.62
454.192	475.62
454.412	482.62
454.633	474.62
454.853	490.62
455.073	472.62
455.294	497.62
455.514	547.62
455.734	535.62
455.955	480.62
456.175	451.62
456.395	441.62
456.616	454.62
456.836	458.62
457.056	474.62
457.276	461.62
457.497	460.62
457.717	459.62
457.937	490.62
458.157	475.62
458.377	488.62
458.598	491.62
458.818	528.62
459.038	608.62
459.258	636.62
459.478	574.62
459.698	541.62
459.918	517.62
460.138	524.62
460.358	526.62
460.578	546.62
460.798	557.62
461.018	535.62
461.238	561.62
461.458	543.62
461.678	545.62
461.898	531.62
462.118	570.62
462.338	545.62
462.558	579.62
462.777	565.62
462.997	592.62
463.217	583.62
463.437	618.62
463.657	604.62
463.876	584.62
464.096	590.62
464.316	574.62
464.536	598.62
464.755	583.62
464.975	605.62
465.195	609.62
465.414	637.62
465.634	594.62
465.854	549.62
466.073	533.62
466.293	521.62
466.512	512.62
466.732	500.62
466.951	511.62
467.171	533.62
467.391	499.62
467.61	531.62
467.829	515.62
468.049	491.62
468.268	517.62
468.488	490.62
468.707	500.62
468.927	522.62
469.146	493.62
469.365	487.62
469.585	503.62
469.804	506.62
470.023	510.62
470.243	513.62
470.462	517.62
470.681	534.62
470.901	543.62
471.12	507.62
471.339	498.62
471.558	512.62
471.777	503.62
471.997	500.62
472.216	493.62
472.435	525.62
472.654	518.62
472.873	495.62
473.092	494.62
473.311	482.62
473.53	512.62
473.749	509.62
473.968	533.62
474.187	610.62
474.406	668.62
474.625	545.62
474.844	512.62
475.063	500.62
475.282	539.62
475.501	504.62
475.72	511.62
475.939	511.62
476.158	502.62
476.377	517.62
476.596	517.62
476.814	517.62
477.033	542.62
477.252	533.62
477.471	556.62
477.69	533.62
477.908	555.62
478.127	569.62
478.346	566.62
478.564	554.62
478.783	581.62
479.002	589.62
479.22	605.62
479.439	588.62
479.658	601.62
479.876	622.62
480.095	608.62
480.313	642.62
480.532	639.62
480.751	634.62
480.969	636.62
481.188	660.62
481.406	691.62
481.624	638.62
481.843	620.62
482.061	584.62
482.28	579.62
482.498	591.62
482.717	582.62
482.935	586.62
483.153	581.62
483.372	608.62
483.59	583.62
483.808	581.62
484.027	583.62
484.245	599.62
484.463	601.62
484.681	615.62
484.9	608.62
485.118	610.62
485.336	602.62
485.554	618.62
485.772	616.62
485.99	635.62
486.209	608.62
486.427	610.62
486.645	649.62
486.863	629.62
487.081	623.62
487.299	623.62
487.517	632.62
487.735	635.62
487.953	624.62
488.171	634.62
488.389	621.62
488.607	635.62
488.825	649.62
489.043	639.62
489.261	646.62
489.479	613.62
489.696	633.62
489.914	661.62
490.132	674.62
490.35	649.62
490.568	641.62
490.786	650.62
491.003	661.62
491.221	689.62
491.439	711.62
491.657	678.62
491.874	703.62
492.092	702.62
492.31	697.62
492.527	721.62
492.745	716.62
492.963	726.62
493.18	704.62
493.398	729.62
493.615	725.62
493.833	740.62
494.05	723.62
494.268	736.62
494.485	713.62
494.703	716.62
494.92	739.62
495.138	725.62
495.355	733.62
495.573	718.62
495.79	742.62
496.008	742.62
496.225	738.62
496.442	726.62
496.66	748.62
496.877	757.62
497.094	741.62
497.312	774.62
497.529	755.62
497.746	787.62
497.963	798.62
498.181	818.62
498.398	825.62
498.615	849.62
498.832	870.62
499.049	910.62
499.267	945.62
499.484	974.62
499.701	996.62
499.918	1058.62
500.135	1094.62
500.352	1182.62
500.569	1177.62
500.786	1217.62
501.003	1129.62
501.22	1115.62
501.437	1045.62
501.654	980.62
501.871	981.62
