Data from 1979.PennyLincolnUp.Lamp.En5.5.200Scan.071719.P1_HRD10591_16-18-31-863.txt Node
Date: Thu Jul 18 16:18:31 EDT 2019
User: cochatt
Spectrometer: HR+D1059
Trigger mode: 1
Integration Time (sec): 1.000000E-1
Scans to average: 1
Electric dark correction enabled: true
Nonlinearity correction enabled: false
Boxcar width: 0
XAxis mode: Wavelengths
Number of Pixels in Spectrum: 2048
>>>>>Begin Spectral Data<<<<<
223.165	-10.75
223.4	-10.75
223.635	-10.75
223.869	-13.75
224.104	-6.75
224.338	-5.75
224.573	-26.75
224.808	-10.75
225.042	-11.75
225.277	-6.75
225.511	5.25
225.746	5.25
225.98	-5.75
226.215	10.25
226.449	3.25
226.683	23.25
226.918	32.25
227.152	19.25
227.387	39.25
227.621	37.25
227.856	42.25
228.09	57.25
228.324	38.25
228.559	63.25
228.793	67.25
229.027	95.25
229.262	94.25
229.496	106.25
229.73	129.25
229.964	135.25
230.199	125.25
230.433	97.25
230.667	107.25
230.901	119.25
231.136	121.25
231.37	103.25
231.604	88.25
231.838	111.25
232.072	109.25
232.306	122.25
232.541	116.25
232.775	118.25
233.009	126.25
233.243	110.25
233.477	127.25
233.711	110.25
233.945	124.25
234.179	105.25
234.413	101.25
234.647	101.25
234.881	122.25
235.115	116.25
235.349	121.25
235.583	133.25
235.817	124.25
236.051	115.25
236.285	121.25
236.519	116.25
236.753	126.25
236.987	150.25
237.221	180.25
237.455	206.25
237.689	181.25
237.922	123.25
238.156	124.25
238.39	123.25
238.624	129.25
238.858	114.25
239.091	129.25
239.325	117.25
239.559	126.25
239.793	124.25
240.027	114.25
240.26	127.25
240.494	157.25
240.728	123.25
240.961	130.25
241.195	126.25
241.429	134.25
241.662	126.25
241.896	133.25
242.13	122.25
242.363	137.25
242.597	125.25
242.83	121.25
243.064	127.25
243.298	139.25
243.531	149.25
243.765	135.25
243.998	134.25
244.232	139.25
244.465	149.25
244.699	146.25
244.932	148.25
245.166	129.25
245.399	153.25
245.633	139.25
245.866	151.25
246.099	142.25
246.333	141.25
246.566	148.25
246.8	157.25
247.033	151.25
247.266	154.25
247.5	158.25
247.733	160.25
247.966	158.25
248.2	169.25
248.433	179.25
248.666	173.25
248.899	161.25
249.133	166.25
249.366	191.25
249.599	169.25
249.832	166.25
250.066	153.25
250.299	153.25
250.532	168.25
250.765	194.25
250.998	203.25
251.231	205.25
251.465	186.25
251.698	184.25
251.931	181.25
252.164	172.25
252.397	186.25
252.63	178.25
252.863	187.25
253.096	206.25
253.329	192.25
253.562	183.25
253.795	189.25
254.028	201.25
254.261	187.25
254.494	219.25
254.727	219.25
254.96	231.25
255.193	237.25
255.426	213.25
255.659	219.25
255.892	213.25
256.124	201.25
256.357	211.25
256.59	212.25
256.823	193.25
257.056	200.25
257.289	192.25
257.521	212.25
257.754	206.25
257.987	191.25
258.22	187.25
258.452	183.25
258.685	199.25
258.918	185.25
259.151	199.25
259.383	191.25
259.616	193.25
259.849	217.25
260.081	196.25
260.314	245.25
260.547	240.25
260.779	221.25
261.012	225.25
261.244	211.25
261.477	213.25
261.71	197.25
261.942	216.25
262.175	225.25
262.407	222.25
262.64	201.25
262.872	215.25
263.105	191.25
263.337	213.25
263.57	212.25
263.802	198.25
264.035	180.25
264.267	191.25
264.499	195.25
264.732	201.25
264.964	206.25
265.197	200.25
265.429	212.25
265.661	205.25
265.894	221.25
266.126	193.25
266.358	193.25
266.591	199.25
266.823	212.25
267.055	216.25
267.287	206.25
267.52	211.25
267.752	208.25
267.984	228.25
268.216	206.25
268.448	225.25
268.681	222.25
268.913	231.25
269.145	228.25
269.377	237.25
269.609	249.25
269.841	243.25
270.073	246.25
270.306	276.25
270.538	272.25
270.77	246.25
271.002	276.25
271.234	262.25
271.466	279.25
271.698	278.25
271.93	296.25
272.162	277.25
272.394	269.25
272.626	286.25
272.858	276.25
273.09	241.25
273.322	242.25
273.553	260.25
273.785	251.25
274.017	237.25
274.249	241.25
274.481	245.25
274.713	257.25
274.945	241.25
275.176	255.25
275.408	243.25
275.64	242.25
275.872	238.25
276.104	242.25
276.335	243.25
276.567	246.25
276.799	262.25
277.031	278.25
277.262	278.25
277.494	283.25
277.726	292.25
277.957	280.25
278.189	260.25
278.421	275.25
278.652	251.25
278.884	271.25
279.115	249.25
279.347	249.25
279.579	256.25
279.81	238.25
280.042	234.25
280.273	263.25
280.505	273.25
280.736	257.25
280.968	258.25
281.199	232.25
281.431	250.25
281.662	243.25
281.894	238.25
282.125	241.25
282.356	281.25
282.588	282.25
282.819	311.25
283.051	253.25
283.282	249.25
283.513	265.25
283.745	254.25
283.976	259.25
284.207	276.25
284.439	264.25
284.67	269.25
284.901	268.25
285.132	247.25
285.364	261.25
285.595	274.25
285.826	267.25
286.057	282.25
286.288	273.25
286.52	276.25
286.751	274.25
286.982	272.25
287.213	256.25
287.444	268.25
287.675	269.25
287.906	305.25
288.138	270.25
288.369	294.25
288.6	278.25
288.831	268.25
289.062	283.25
289.293	273.25
289.524	269.25
289.755	281.25
289.986	292.25
290.217	270.25
290.448	269.25
290.679	275.25
290.91	283.25
291.141	272.25
291.371	268.25
291.602	277.25
291.833	271.25
292.064	280.25
292.295	280.25
292.526	292.25
292.757	266.25
292.987	307.25
293.218	268.25
293.449	279.25
293.68	283.25
293.91	282.25
294.141	304.25
294.372	270.25
294.603	284.25
294.833	295.25
295.064	271.25
295.295	278.25
295.525	288.25
295.756	277.25
295.987	289.25
296.217	325.25
296.448	323.25
296.679	286.25
296.909	298.25
297.14	313.25
297.37	288.25
297.601	294.25
297.831	275.25
298.062	286.25
298.292	304.25
298.523	309.25
298.753	329.25
298.984	305.25
299.214	303.25
299.445	292.25
299.675	294.25
299.905	307.25
300.136	293.25
300.366	291.25
300.597	302.25
300.827	319.25
301.057	316.25
301.288	331.25
301.518	316.25
301.748	300.25
301.979	293.25
302.209	323.25
302.439	321.25
302.669	334.25
302.9	315.25
303.13	319.25
303.36	313.25
303.59	299.25
303.82	310.25
304.051	318.25
304.281	325.25
304.511	313.25
304.741	334.25
304.971	334.25
305.201	311.25
305.431	314.25
305.661	315.25
305.891	321.25
306.121	330.25
306.352	342.25
306.582	326.25
306.812	329.25
307.042	328.25
307.272	329.25
307.502	324.25
307.731	320.25
307.961	315.25
308.191	347.25
308.421	327.25
308.651	336.25
308.881	333.25
309.111	329.25
309.341	341.25
309.571	344.25
309.8	331.25
310.03	345.25
310.26	355.25
310.49	360.25
310.72	363.25
310.949	355.25
311.179	380.25
311.409	372.25
311.639	381.25
311.868	367.25
312.098	364.25
312.328	357.25
312.557	359.25
312.787	375.25
313.017	381.25
313.246	374.25
313.476	377.25
313.706	359.25
313.935	375.25
314.165	375.25
314.394	363.25
314.624	369.25
314.853	365.25
315.083	370.25
315.312	351.25
315.542	364.25
315.771	367.25
316.001	360.25
316.23	359.25
316.46	354.25
316.689	354.25
316.919	356.25
317.148	378.25
317.377	376.25
317.607	377.25
317.836	366.25
318.065	381.25
318.295	376.25
318.524	357.25
318.753	373.25
318.983	361.25
319.212	365.25
319.441	369.25
319.67	373.25
319.9	370.25
320.129	371.25
320.358	385.25
320.587	378.25
320.816	370.25
321.046	365.25
321.275	384.25
321.504	405.25
321.733	381.25
321.962	390.25
322.191	389.25
322.42	398.25
322.649	414.25
322.878	412.25
323.108	415.25
323.337	457.25
323.566	458.25
323.795	476.25
324.024	515.25
324.253	601.25
324.482	806.25
324.71	1305.25
324.939	1890.25
325.168	1622.25
325.397	835.25
325.626	580.25
325.855	491.25
326.084	469.25
326.313	483.25
326.542	457.25
326.77	511.25
326.999	583.25
327.228	780.25
327.457	1175.25
327.686	1447.25
327.914	958.25
328.143	637.25
328.372	558.25
328.6	524.25
328.829	482.25
329.058	497.25
329.287	529.25
329.515	493.25
329.744	463.25
329.972	472.25
330.201	470.25
330.43	516.25
330.658	556.25
330.887	538.25
331.115	543.25
331.344	474.25
331.572	454.25
331.801	480.25
332.03	480.25
332.258	439.25
332.486	445.25
332.715	438.25
332.943	430.25
333.172	456.25
333.4	454.25
333.629	458.25
333.857	494.25
334.085	469.25
334.314	475.25
334.542	483.25
334.771	509.25
334.999	469.25
335.227	469.25
335.455	475.25
335.684	457.25
335.912	447.25
336.14	439.25
336.369	438.25
336.597	431.25
336.825	455.25
337.053	443.25
337.281	434.25
337.51	420.25
337.738	443.25
337.966	428.25
338.194	444.25
338.422	430.25
338.65	422.25
338.878	410.25
339.106	433.25
339.334	442.25
339.562	421.25
339.79	433.25
340.018	403.25
340.246	435.25
340.474	429.25
340.702	419.25
340.93	423.25
341.158	417.25
341.386	410.25
341.614	421.25
341.842	418.25
342.07	434.25
342.298	416.25
342.526	434.25
342.754	414.25
342.981	423.25
343.209	414.25
343.437	413.25
343.665	441.25
343.893	422.25
344.12	435.25
344.348	435.25
344.576	441.25
344.804	430.25
345.031	422.25
345.259	459.25
345.487	443.25
345.714	419.25
345.942	409.25
346.17	398.25
346.397	408.25
346.625	426.25
346.853	411.25
347.08	411.25
347.308	411.25
347.535	405.25
347.763	415.25
347.99	413.25
348.218	405.25
348.445	398.25
348.673	389.25
348.9	408.25
349.128	397.25
349.355	402.25
349.583	399.25
349.81	412.25
350.037	390.25
350.265	393.25
350.492	384.25
350.72	404.25
350.947	405.25
351.174	399.25
351.402	404.25
351.629	412.25
351.856	411.25
352.083	416.25
352.311	425.25
352.538	441.25
352.765	437.25
352.992	421.25
353.22	391.25
353.447	405.25
353.674	391.25
353.901	411.25
354.128	398.25
354.355	397.25
354.583	415.25
354.81	383.25
355.037	411.25
355.264	388.25
355.491	395.25
355.718	413.25
355.945	396.25
356.172	399.25
356.399	393.25
356.626	374.25
356.853	377.25
357.08	358.25
357.307	387.25
357.534	399.25
357.761	390.25
357.988	387.25
358.215	390.25
358.441	418.25
358.668	405.25
358.895	383.25
359.122	396.25
359.349	391.25
359.576	400.25
359.802	426.25
360.029	433.25
360.256	445.25
360.483	431.25
360.709	421.25
360.936	406.25
361.163	403.25
361.39	393.25
361.616	403.25
361.843	417.25
362.07	400.25
362.296	407.25
362.523	415.25
362.749	407.25
362.976	402.25
363.203	389.25
363.429	402.25
363.656	404.25
363.882	402.25
364.109	413.25
364.335	409.25
364.562	408.25
364.788	407.25
365.015	389.25
365.241	381.25
365.468	395.25
365.694	396.25
365.92	383.25
366.147	384.25
366.373	398.25
366.599	403.25
366.826	395.25
367.052	395.25
367.278	395.25
367.505	393.25
367.731	425.25
367.957	425.25
368.184	398.25
368.41	409.25
368.636	391.25
368.862	394.25
369.089	395.25
369.315	391.25
369.541	413.25
369.767	430.25
369.993	403.25
370.219	405.25
370.445	411.25
370.672	406.25
370.898	405.25
371.124	420.25
371.35	407.25
371.576	409.25
371.802	389.25
372.028	407.25
372.254	417.25
372.48	408.25
372.706	399.25
372.932	399.25
373.158	414.25
373.384	420.25
373.61	407.25
373.835	442.25
374.061	418.25
374.287	385.25
374.513	408.25
374.739	410.25
374.965	409.25
375.191	433.25
375.416	441.25
375.642	405.25
375.868	405.25
376.094	387.25
376.319	402.25
376.545	415.25
376.771	404.25
376.997	411.25
377.222	396.25
377.448	393.25
377.674	407.25
377.899	406.25
378.125	423.25
378.35	387.25
378.576	412.25
378.802	394.25
379.027	394.25
379.253	412.25
379.478	403.25
379.704	405.25
379.929	413.25
380.155	415.25
380.38	416.25
380.606	411.25
380.831	422.25
381.057	421.25
381.282	458.25
381.507	424.25
381.733	423.25
381.958	441.25
382.184	431.25
382.409	435.25
382.634	431.25
382.86	417.25
383.085	416.25
383.31	405.25
383.535	423.25
383.761	412.25
383.986	437.25
384.211	413.25
384.436	452.25
384.662	446.25
384.887	446.25
385.112	449.25
385.337	450.25
385.562	437.25
385.787	460.25
386.013	467.25
386.238	467.25
386.463	474.25
386.688	457.25
386.913	446.25
387.138	447.25
387.363	454.25
387.588	466.25
387.813	458.25
388.038	456.25
388.263	446.25
388.488	462.25
388.713	459.25
388.938	456.25
389.163	480.25
389.387	477.25
389.612	475.25
389.837	446.25
390.062	454.25
390.287	478.25
390.512	475.25
390.736	483.25
390.961	470.25
391.186	463.25
391.411	452.25
391.636	460.25
391.86	466.25
392.085	470.25
392.31	478.25
392.534	486.25
392.759	463.25
392.984	472.25
393.208	503.25
393.433	477.25
393.658	502.25
393.882	464.25
394.107	473.25
394.331	464.25
394.556	469.25
394.78	473.25
395.005	482.25
395.229	474.25
395.454	482.25
395.678	480.25
395.903	511.25
396.127	539.25
396.352	501.25
396.576	489.25
396.801	506.25
397.025	492.25
397.249	494.25
397.474	520.25
397.698	503.25
397.922	511.25
398.147	534.25
398.371	537.25
398.595	539.25
398.82	553.25
399.044	552.25
399.268	573.25
399.492	607.25
399.717	634.25
399.941	652.25
400.165	678.25
400.389	680.25
400.613	587.25
400.837	585.25
401.062	551.25
401.286	562.25
401.51	541.25
401.734	535.25
401.958	574.25
402.182	541.25
402.406	575.25
402.63	557.25
402.854	545.25
403.078	556.25
403.302	551.25
403.526	580.25
403.75	562.25
403.974	572.25
404.198	565.25
404.422	581.25
404.645	581.25
404.869	591.25
405.093	607.25
405.317	633.25
405.541	662.25
405.765	619.25
405.988	597.25
406.212	628.25
406.436	617.25
406.66	623.25
406.883	619.25
407.107	642.25
407.331	673.25
407.555	743.25
407.778	733.25
408.002	687.25
408.226	646.25
408.449	655.25
408.673	632.25
408.896	648.25
409.12	673.25
409.344	644.25
409.567	609.25
409.791	579.25
410.014	588.25
410.238	589.25
410.461	607.25
410.685	576.25
410.908	577.25
411.132	606.25
411.355	636.25
411.578	613.25
411.802	580.25
412.025	582.25
412.249	589.25
412.472	612.25
412.695	629.25
412.919	606.25
413.142	598.25
413.365	579.25
413.589	557.25
413.812	557.25
414.035	534.25
414.258	561.25
414.482	561.25
414.705	563.25
414.928	550.25
415.151	531.25
415.374	567.25
415.597	548.25
415.821	554.25
416.044	548.25
416.267	545.25
416.49	544.25
416.713	535.25
416.936	543.25
417.159	526.25
417.382	537.25
417.605	551.25
417.828	555.25
418.051	563.25
418.274	544.25
418.497	551.25
418.72	565.25
418.943	548.25
419.166	557.25
419.389	582.25
419.611	594.25
419.834	564.25
420.057	568.25
420.28	574.25
420.503	558.25
420.726	570.25
420.948	584.25
421.171	604.25
421.394	642.25
421.617	573.25
421.839	577.25
422.062	597.25
422.285	585.25
422.507	634.25
422.73	713.25
422.953	638.25
423.175	595.25
423.398	579.25
423.621	589.25
423.843	598.25
424.066	627.25
424.288	581.25
424.511	608.25
424.733	661.25
424.956	747.25
425.178	692.25
425.401	703.25
425.623	720.25
425.846	631.25
426.068	597.25
426.291	581.25
426.513	590.25
426.735	586.25
426.958	619.25
427.18	717.25
427.402	842.25
427.625	935.25
427.847	803.25
428.069	686.25
428.292	638.25
428.514	591.25
428.736	570.25
428.958	553.25
429.181	548.25
429.403	553.25
429.625	553.25
429.847	574.25
430.069	627.25
430.292	629.25
430.514	552.25
430.736	537.25
430.958	541.25
431.18	546.25
431.402	525.25
431.624	532.25
431.846	515.25
432.068	517.25
432.29	541.25
432.512	527.25
432.734	529.25
432.956	513.25
433.178	522.25
433.4	529.25
433.622	532.25
433.844	541.25
434.066	536.25
434.287	538.25
434.509	526.25
434.731	561.25
434.953	575.25
435.175	570.25
435.397	614.25
435.618	594.25
435.84	612.25
436.062	715.25
436.284	793.25
436.505	646.25
436.727	588.25
436.949	581.25
437.17	549.25
437.392	526.25
437.614	563.25
437.835	585.25
438.057	667.25
438.278	746.25
438.5	745.25
438.721	819.25
438.943	800.25
439.165	617.25
439.386	610.25
439.608	622.25
439.829	611.25
440.05	592.25
440.272	660.25
440.493	626.25
440.715	591.25
440.936	569.25
441.158	550.25
441.379	569.25
441.6	554.25
441.822	600.25
442.043	624.25
442.264	697.25
442.486	753.25
442.707	631.25
442.928	603.25
443.149	627.25
443.371	622.25
443.592	651.25
443.813	766.25
444.034	837.25
444.255	690.25
444.476	635.25
444.698	619.25
444.919	628.25
445.14	728.25
445.361	675.25
445.582	645.25
445.803	669.25
446.024	805.25
446.245	801.25
446.466	717.25
446.687	612.25
446.908	579.25
447.129	549.25
447.35	567.25
447.571	537.25
447.792	546.25
448.013	536.25
448.234	552.25
448.455	599.25
448.675	695.25
448.896	807.25
449.117	681.25
449.338	672.25
449.559	769.25
449.779	855.25
450	681.25
450.221	590.25
450.442	545.25
450.662	508.25
450.883	548.25
451.104	545.25
451.324	512.25
451.545	541.25
451.766	499.25
451.986	478.25
452.207	499.25
452.428	497.25
452.648	478.25
452.869	486.25
453.089	497.25
453.31	505.25
453.53	500.25
453.751	471.25
453.971	516.25
454.192	502.25
454.412	488.25
454.633	491.25
454.853	490.25
455.073	493.25
455.294	517.25
455.514	535.25
455.734	558.25
455.955	491.25
456.175	490.25
456.395	467.25
456.616	469.25
456.836	475.25
457.056	466.25
457.276	466.25
457.497	501.25
457.717	470.25
457.937	482.25
458.157	467.25
458.377	476.25
458.598	531.25
458.818	554.25
459.038	599.25
459.258	618.25
459.478	573.25
459.698	531.25
459.918	540.25
460.138	557.25
460.358	555.25
460.578	553.25
460.798	548.25
461.018	555.25
461.238	534.25
461.458	545.25
461.678	542.25
461.898	580.25
462.118	577.25
462.338	589.25
462.558	577.25
462.777	575.25
462.997	627.25
463.217	637.25
463.437	648.25
463.657	607.25
463.876	607.25
464.096	620.25
464.316	601.25
464.536	620.25
464.755	606.25
464.975	598.25
465.195	644.25
465.414	678.25
465.634	590.25
465.854	556.25
466.073	534.25
466.293	549.25
466.512	502.25
466.732	532.25
466.951	524.25
467.171	518.25
467.391	498.25
467.61	519.25
467.829	489.25
468.049	531.25
468.268	505.25
468.488	498.25
468.707	500.25
468.927	511.25
469.146	513.25
469.365	507.25
469.585	476.25
469.804	509.25
470.023	548.25
470.243	517.25
470.462	538.25
470.681	542.25
470.901	541.25
471.12	513.25
471.339	539.25
471.558	518.25
471.777	537.25
471.997	523.25
472.216	533.25
472.435	553.25
472.654	527.25
472.873	513.25
473.092	503.25
473.311	536.25
473.53	526.25
473.749	509.25
473.968	554.25
474.187	622.25
474.406	636.25
474.625	563.25
474.844	508.25
475.063	523.25
475.282	506.25
475.501	492.25
475.72	527.25
475.939	517.25
476.158	534.25
476.377	526.25
476.596	530.25
476.814	538.25
477.033	537.25
477.252	531.25
477.471	559.25
477.69	558.25
477.908	574.25
478.127	598.25
478.346	590.25
478.564	571.25
478.783	581.25
479.002	587.25
479.22	605.25
479.439	587.25
479.658	622.25
479.876	606.25
480.095	628.25
480.313	669.25
480.532	647.25
480.751	651.25
480.969	633.25
481.188	700.25
481.406	735.25
481.624	654.25
481.843	626.25
482.061	637.25
482.28	605.25
482.498	597.25
482.717	613.25
482.935	601.25
483.153	601.25
483.372	600.25
483.59	610.25
483.808	589.25
484.027	591.25
484.245	602.25
484.463	617.25
484.681	620.25
484.9	628.25
485.118	629.25
485.336	659.25
485.554	641.25
485.772	653.25
485.99	623.25
486.209	641.25
486.427	630.25
486.645	660.25
486.863	680.25
487.081	629.25
487.299	656.25
487.517	636.25
487.735	645.25
487.953	651.25
488.171	665.25
488.389	661.25
488.607	633.25
488.825	670.25
489.043	656.25
489.261	645.25
489.479	667.25
489.696	653.25
489.914	673.25
490.132	672.25
490.35	665.25
490.568	665.25
490.786	671.25
491.003	686.25
491.221	683.25
491.439	708.25
491.657	711.25
491.874	725.25
492.092	731.25
492.31	707.25
492.527	718.25
492.745	734.25
492.963	739.25
493.18	735.25
493.398	754.25
493.615	735.25
493.833	738.25
494.05	758.25
494.268	734.25
494.485	747.25
494.703	728.25
494.92	754.25
495.138	744.25
495.355	733.25
495.573	748.25
495.79	727.25
496.008	755.25
496.225	742.25
496.442	750.25
496.66	761.25
496.877	763.25
497.094	748.25
497.312	753.25
497.529	791.25
497.746	818.25
497.963	821.25
498.181	810.25
498.398	854.25
498.615	884.25
498.832	881.25
499.049	920.25
499.267	973.25
499.484	982.25
499.701	1023.25
499.918	1048.25
500.135	1129.25
500.352	1199.25
500.569	1198.25
500.786	1199.25
501.003	1190.25
501.22	1138.25
501.437	1066.25
501.654	1033.25
501.871	1030.25
