Data from 1979.PennyLincolnUp.Lamp.En5.5.200Scan.071719.P1_HRD10591_16-20-24-864.txt Node
Date: Thu Jul 18 16:20:24 EDT 2019
User: cochatt
Spectrometer: HR+D1059
Trigger mode: 1
Integration Time (sec): 1.000000E-1
Scans to average: 1
Electric dark correction enabled: true
Nonlinearity correction enabled: false
Boxcar width: 0
XAxis mode: Wavelengths
Number of Pixels in Spectrum: 2048
>>>>>Begin Spectral Data<<<<<
223.165	-13.69
223.4	-13.69
223.635	-13.69
223.869	-10.69
224.104	-9.69
224.338	-13.69
224.573	-10.69
224.808	-25.69
225.042	-6.69
225.277	-3.69
225.511	1.31
225.746	5.31
225.98	-1.69
226.215	14.31
226.449	-1.69
226.683	20.31
226.918	29.31
227.152	27.31
227.387	36.31
227.621	48.31
227.856	39.31
228.09	49.31
228.324	54.31
228.559	45.31
228.793	62.31
229.027	100.31
229.262	99.31
229.496	105.31
229.73	117.31
229.964	156.31
230.199	130.31
230.433	124.31
230.667	107.31
230.901	110.31
231.136	114.31
231.37	115.31
231.604	106.31
231.838	112.31
232.072	102.31
232.306	106.31
232.541	112.31
232.775	121.31
233.009	105.31
233.243	109.31
233.477	102.31
233.711	117.31
233.945	109.31
234.179	103.31
234.413	114.31
234.647	132.31
234.881	120.31
235.115	112.31
235.349	116.31
235.583	126.31
235.817	113.31
236.051	126.31
236.285	125.31
236.519	117.31
236.753	118.31
236.987	149.31
237.221	167.31
237.455	216.31
237.689	192.31
237.922	142.31
238.156	128.31
238.39	128.31
238.624	143.31
238.858	121.31
239.091	124.31
239.325	114.31
239.559	136.31
239.793	138.31
240.027	119.31
240.26	149.31
240.494	154.31
240.728	124.31
240.961	138.31
241.195	144.31
241.429	129.31
241.662	126.31
241.896	136.31
242.13	136.31
242.363	136.31
242.597	134.31
242.83	133.31
243.064	141.31
243.298	130.31
243.531	137.31
243.765	136.31
243.998	138.31
244.232	154.31
244.465	133.31
244.699	165.31
244.932	156.31
245.166	146.31
245.399	145.31
245.633	142.31
245.866	158.31
246.099	140.31
246.333	156.31
246.566	151.31
246.8	148.31
247.033	162.31
247.266	148.31
247.5	157.31
247.733	156.31
247.966	163.31
248.2	166.31
248.433	178.31
248.666	164.31
248.899	174.31
249.133	194.31
249.366	199.31
249.599	188.31
249.832	182.31
250.066	184.31
250.299	176.31
250.532	176.31
250.765	195.31
250.998	209.31
251.231	244.31
251.465	205.31
251.698	194.31
251.931	193.31
252.164	177.31
252.397	192.31
252.63	195.31
252.863	203.31
253.096	217.31
253.329	232.31
253.562	225.31
253.795	217.31
254.028	197.31
254.261	204.31
254.494	231.31
254.727	244.31
254.96	259.31
255.193	245.31
255.426	219.31
255.659	237.31
255.892	231.31
256.124	219.31
256.357	225.31
256.59	221.31
256.823	205.31
257.056	198.31
257.289	212.31
257.521	206.31
257.754	183.31
257.987	201.31
258.22	195.31
258.452	180.31
258.685	209.31
258.918	205.31
259.151	192.31
259.383	206.31
259.616	213.31
259.849	219.31
260.081	203.31
260.314	243.31
260.547	256.31
260.779	245.31
261.012	237.31
261.244	216.31
261.477	210.31
261.71	220.31
261.942	236.31
262.175	230.31
262.407	220.31
262.64	221.31
262.872	217.31
263.105	216.31
263.337	219.31
263.57	214.31
263.802	212.31
264.035	214.31
264.267	198.31
264.499	212.31
264.732	215.31
264.964	233.31
265.197	213.31
265.429	204.31
265.661	206.31
265.894	218.31
266.126	229.31
266.358	222.31
266.591	221.31
266.823	211.31
267.055	209.31
267.287	214.31
267.52	219.31
267.752	212.31
267.984	212.31
268.216	229.31
268.448	233.31
268.681	241.31
268.913	244.31
269.145	265.31
269.377	268.31
269.609	249.31
269.841	281.31
270.073	264.31
270.306	270.31
270.538	286.31
270.77	314.31
271.002	272.31
271.234	280.31
271.466	274.31
271.698	306.31
271.93	297.31
272.162	296.31
272.394	278.31
272.626	292.31
272.858	268.31
273.09	256.31
273.322	271.31
273.553	249.31
273.785	266.31
274.017	268.31
274.249	255.31
274.481	263.31
274.713	267.31
274.945	260.31
275.176	248.31
275.408	257.31
275.64	257.31
275.872	267.31
276.104	251.31
276.335	251.31
276.567	275.31
276.799	278.31
277.031	282.31
277.262	307.31
277.494	299.31
277.726	276.31
277.957	272.31
278.189	285.31
278.421	275.31
278.652	277.31
278.884	272.31
279.115	263.31
279.347	264.31
279.579	264.31
279.81	273.31
280.042	269.31
280.273	260.31
280.505	274.31
280.736	262.31
280.968	290.31
281.199	280.31
281.431	288.31
281.662	266.31
281.894	279.31
282.125	284.31
282.356	289.31
282.588	312.31
282.819	286.31
283.051	294.31
283.282	273.31
283.513	274.31
283.745	269.31
283.976	298.31
284.207	297.31
284.439	282.31
284.67	271.31
284.901	292.31
285.132	278.31
285.364	270.31
285.595	257.31
285.826	282.31
286.057	262.31
286.288	273.31
286.52	279.31
286.751	287.31
286.982	285.31
287.213	290.31
287.444	289.31
287.675	296.31
287.906	296.31
288.138	300.31
288.369	300.31
288.6	317.31
288.831	297.31
289.062	314.31
289.293	309.31
289.524	300.31
289.755	283.31
289.986	288.31
290.217	280.31
290.448	280.31
290.679	289.31
290.91	292.31
291.141	277.31
291.371	292.31
291.602	296.31
291.833	296.31
292.064	296.31
292.295	294.31
292.526	297.31
292.757	309.31
292.987	314.31
293.218	288.31
293.449	304.31
293.68	293.31
293.91	324.31
294.141	284.31
294.372	279.31
294.603	282.31
294.833	290.31
295.064	300.31
295.295	293.31
295.525	299.31
295.756	314.31
295.987	311.31
296.217	333.31
296.448	327.31
296.679	297.31
296.909	294.31
297.14	314.31
297.37	314.31
297.601	325.31
297.831	311.31
298.062	310.31
298.292	297.31
298.523	324.31
298.753	328.31
298.984	297.31
299.214	314.31
299.445	321.31
299.675	318.31
299.905	324.31
300.136	301.31
300.366	325.31
300.597	299.31
300.827	316.31
301.057	333.31
301.288	343.31
301.518	338.31
301.748	332.31
301.979	332.31
302.209	346.31
302.439	360.31
302.669	340.31
302.9	329.31
303.13	337.31
303.36	339.31
303.59	346.31
303.82	374.31
304.051	349.31
304.281	331.31
304.511	314.31
304.741	332.31
304.971	349.31
305.201	324.31
305.431	336.31
305.661	336.31
305.891	325.31
306.121	339.31
306.352	342.31
306.582	362.31
306.812	345.31
307.042	337.31
307.272	337.31
307.502	350.31
307.731	346.31
307.961	355.31
308.191	340.31
308.421	327.31
308.651	338.31
308.881	353.31
309.111	346.31
309.341	362.31
309.571	357.31
309.8	348.31
310.03	357.31
310.26	363.31
310.49	364.31
310.72	376.31
310.949	394.31
311.179	402.31
311.409	380.31
311.639	374.31
311.868	373.31
312.098	368.31
312.328	371.31
312.557	388.31
312.787	401.31
313.017	390.31
313.246	392.31
313.476	369.31
313.706	373.31
313.935	383.31
314.165	390.31
314.394	391.31
314.624	380.31
314.853	403.31
315.083	388.31
315.312	386.31
315.542	372.31
315.771	372.31
316.001	371.31
316.23	364.31
316.46	384.31
316.689	380.31
316.919	397.31
317.148	407.31
317.377	387.31
317.607	404.31
317.836	401.31
318.065	385.31
318.295	368.31
318.524	386.31
318.753	371.31
318.983	384.31
319.212	375.31
319.441	373.31
319.67	404.31
319.9	391.31
320.129	384.31
320.358	384.31
320.587	402.31
320.816	413.31
321.046	404.31
321.275	423.31
321.504	400.31
321.733	389.31
321.962	397.31
322.191	427.31
322.42	444.31
322.649	445.31
322.878	454.31
323.108	449.31
323.337	471.31
323.566	485.31
323.795	515.31
324.024	568.31
324.253	666.31
324.482	942.31
324.71	1434.31
324.939	2181.31
325.168	1856.31
325.397	915.31
325.626	614.31
325.855	538.31
326.084	489.31
326.313	499.31
326.542	488.31
326.77	554.31
326.999	604.31
327.228	888.31
327.457	1338.31
327.686	1633.31
327.914	1072.31
328.143	683.31
328.372	591.31
328.6	566.31
328.829	542.31
329.058	547.31
329.287	571.31
329.515	568.31
329.744	508.31
329.972	496.31
330.201	509.31
330.43	556.31
330.658	566.31
330.887	589.31
331.115	585.31
331.344	515.31
331.572	483.31
331.801	500.31
332.03	506.31
332.258	460.31
332.486	439.31
332.715	455.31
332.943	459.31
333.172	482.31
333.4	481.31
333.629	485.31
333.857	516.31
334.085	510.31
334.314	532.31
334.542	552.31
334.771	553.31
334.999	525.31
335.227	493.31
335.455	508.31
335.684	491.31
335.912	484.31
336.14	465.31
336.369	462.31
336.597	474.31
336.825	472.31
337.053	441.31
337.281	460.31
337.51	455.31
337.738	459.31
337.966	458.31
338.194	449.31
338.422	463.31
338.65	451.31
338.878	447.31
339.106	449.31
339.334	464.31
339.562	456.31
339.79	455.31
340.018	451.31
340.246	447.31
340.474	436.31
340.702	446.31
340.93	434.31
341.158	433.31
341.386	444.31
341.614	460.31
341.842	443.31
342.07	421.31
342.298	417.31
342.526	442.31
342.754	442.31
342.981	435.31
343.209	443.31
343.437	470.31
343.665	429.31
343.893	432.31
344.12	460.31
344.348	471.31
344.576	436.31
344.804	446.31
345.031	456.31
345.259	444.31
345.487	433.31
345.714	449.31
345.942	444.31
346.17	435.31
346.397	455.31
346.625	435.31
346.853	456.31
347.08	434.31
347.308	428.31
347.535	449.31
347.763	444.31
347.99	442.31
348.218	444.31
348.445	454.31
348.673	440.31
348.9	434.31
349.128	445.31
349.355	413.31
349.583	412.31
349.81	412.31
350.037	414.31
350.265	421.31
350.492	423.31
350.72	435.31
350.947	426.31
351.174	421.31
351.402	447.31
351.629	437.31
351.856	428.31
352.083	434.31
352.311	450.31
352.538	429.31
352.765	453.31
352.992	436.31
353.22	436.31
353.447	423.31
353.674	430.31
353.901	415.31
354.128	392.31
354.355	439.31
354.583	413.31
354.81	408.31
355.037	397.31
355.264	388.31
355.491	404.31
355.718	396.31
355.945	410.31
356.172	410.31
356.399	416.31
356.626	413.31
356.853	422.31
357.08	405.31
357.307	420.31
357.534	403.31
357.761	407.31
357.988	419.31
358.215	400.31
358.441	404.31
358.668	403.31
358.895	408.31
359.122	420.31
359.349	410.31
359.576	408.31
359.802	462.31
360.029	497.31
360.256	496.31
360.483	454.31
360.709	435.31
360.936	430.31
361.163	434.31
361.39	434.31
361.616	455.31
361.843	434.31
362.07	434.31
362.296	446.31
362.523	449.31
362.749	442.31
362.976	406.31
363.203	424.31
363.429	429.31
363.656	416.31
363.882	417.31
364.109	413.31
364.335	417.31
364.562	422.31
364.788	403.31
365.015	411.31
365.241	451.31
365.468	426.31
365.694	414.31
365.92	458.31
366.147	415.31
366.373	411.31
366.599	402.31
366.826	411.31
367.052	420.31
367.278	442.31
367.505	416.31
367.731	412.31
367.957	414.31
368.184	432.31
368.41	429.31
368.636	422.31
368.862	432.31
369.089	453.31
369.315	421.31
369.541	422.31
369.767	423.31
369.993	427.31
370.219	422.31
370.445	423.31
370.672	426.31
370.898	398.31
371.124	426.31
371.35	411.31
371.576	432.31
371.802	434.31
372.028	427.31
372.254	428.31
372.48	418.31
372.706	430.31
372.932	424.31
373.158	426.31
373.384	440.31
373.61	426.31
373.835	420.31
374.061	435.31
374.287	460.31
374.513	419.31
374.739	456.31
374.965	418.31
375.191	443.31
375.416	448.31
375.642	447.31
375.868	441.31
376.094	420.31
376.319	448.31
376.545	433.31
376.771	431.31
376.997	415.31
377.222	421.31
377.448	416.31
377.674	413.31
377.899	414.31
378.125	413.31
378.35	447.31
378.576	425.31
378.802	425.31
379.027	420.31
379.253	436.31
379.478	437.31
379.704	442.31
379.929	412.31
380.155	434.31
380.38	441.31
380.606	416.31
380.831	439.31
381.057	440.31
381.282	422.31
381.507	444.31
381.733	435.31
381.958	432.31
382.184	437.31
382.409	436.31
382.634	424.31
382.86	447.31
383.085	444.31
383.31	450.31
383.535	461.31
383.761	465.31
383.986	462.31
384.211	459.31
384.436	460.31
384.662	486.31
384.887	469.31
385.112	477.31
385.337	470.31
385.562	473.31
385.787	477.31
386.013	483.31
386.238	483.31
386.463	473.31
386.688	482.31
386.913	464.31
387.138	480.31
387.363	478.31
387.588	482.31
387.813	486.31
388.038	467.31
388.263	492.31
388.488	453.31
388.713	500.31
388.938	463.31
389.163	469.31
389.387	481.31
389.612	483.31
389.837	493.31
390.062	496.31
390.287	496.31
390.512	481.31
390.736	480.31
390.961	459.31
391.186	470.31
391.411	484.31
391.636	506.31
391.86	516.31
392.085	498.31
392.31	514.31
392.534	517.31
392.759	520.31
392.984	496.31
393.208	499.31
393.433	495.31
393.658	489.31
393.882	485.31
394.107	510.31
394.331	514.31
394.556	502.31
394.78	473.31
395.005	502.31
395.229	510.31
395.454	504.31
395.678	518.31
395.903	539.31
396.127	544.31
396.352	544.31
396.576	487.31
396.801	499.31
397.025	518.31
397.249	523.31
397.474	532.31
397.698	531.31
397.922	535.31
398.147	583.31
398.371	555.31
398.595	560.31
398.82	562.31
399.044	589.31
399.268	601.31
399.492	627.31
399.717	661.31
399.941	710.31
400.165	713.31
400.389	709.31
400.613	618.31
400.837	605.31
401.062	586.31
401.286	588.31
401.51	576.31
401.734	588.31
401.958	595.31
402.182	579.31
402.406	573.31
402.63	600.31
402.854	583.31
403.078	590.31
403.302	577.31
403.526	605.31
403.75	590.31
403.974	602.31
404.198	587.31
404.422	596.31
404.645	616.31
404.869	611.31
405.093	652.31
405.317	678.31
405.541	717.31
405.765	688.31
405.988	616.31
406.212	638.31
406.436	669.31
406.66	701.31
406.883	642.31
407.107	670.31
407.331	721.31
407.555	756.31
407.778	778.31
408.002	733.31
408.226	681.31
408.449	689.31
408.673	667.31
408.896	653.31
409.12	732.31
409.344	700.31
409.567	621.31
409.791	628.31
410.014	626.31
410.238	605.31
410.461	630.31
410.685	601.31
410.908	626.31
411.132	662.31
411.355	678.31
411.578	656.31
411.802	612.31
412.025	603.31
412.249	615.31
412.472	638.31
412.695	696.31
412.919	661.31
413.142	611.31
413.365	586.31
413.589	580.31
413.812	572.31
414.035	570.31
414.258	595.31
414.482	588.31
414.705	569.31
414.928	548.31
415.151	568.31
415.374	578.31
415.597	577.31
415.821	562.31
416.044	570.31
416.267	574.31
416.49	599.31
416.713	561.31
416.936	566.31
417.159	585.31
417.382	555.31
417.605	574.31
417.828	587.31
418.051	601.31
418.274	579.31
418.497	582.31
418.72	562.31
418.943	567.31
419.166	591.31
419.389	628.31
419.611	626.31
419.834	587.31
420.057	623.31
420.28	588.31
420.503	588.31
420.726	603.31
420.948	608.31
421.171	644.31
421.394	651.31
421.617	615.31
421.839	599.31
422.062	579.31
422.285	587.31
422.507	660.31
422.73	733.31
422.953	732.31
423.175	636.31
423.398	621.31
423.621	622.31
423.843	633.31
424.066	626.31
424.288	639.31
424.511	659.31
424.733	712.31
424.956	782.31
425.178	763.31
425.401	731.31
425.623	781.31
425.846	670.31
426.068	660.31
426.291	619.31
426.513	629.31
426.735	618.31
426.958	663.31
427.18	758.31
427.402	890.31
427.625	975.31
427.847	862.31
428.069	741.31
428.292	647.31
428.514	608.31
428.736	576.31
428.958	582.31
429.181	585.31
429.403	578.31
429.625	579.31
429.847	630.31
430.069	691.31
430.292	710.31
430.514	616.31
430.736	578.31
430.958	552.31
431.18	544.31
431.402	550.31
431.624	550.31
431.846	565.31
432.068	542.31
432.29	544.31
432.512	555.31
432.734	538.31
432.956	550.31
433.178	571.31
433.4	581.31
433.622	559.31
433.844	540.31
434.066	551.31
434.287	561.31
434.509	556.31
434.731	586.31
434.953	589.31
435.175	573.31
435.397	625.31
435.618	602.31
435.84	642.31
436.062	764.31
436.284	826.31
436.505	683.31
436.727	632.31
436.949	612.31
437.17	573.31
437.392	551.31
437.614	589.31
437.835	624.31
438.057	718.31
438.278	798.31
438.5	796.31
438.721	894.31
438.943	869.31
439.165	703.31
439.386	624.31
439.608	612.31
439.829	642.31
440.05	644.31
440.272	700.31
440.493	650.31
440.715	628.31
440.936	584.31
441.158	592.31
441.379	590.31
441.6	597.31
441.822	598.31
442.043	678.31
442.264	748.31
442.486	800.31
442.707	678.31
442.928	651.31
443.149	659.31
443.371	649.31
443.592	702.31
443.813	795.31
444.034	883.31
444.255	733.31
444.476	660.31
444.698	654.31
444.919	644.31
445.14	713.31
445.361	682.31
445.582	665.31
445.803	723.31
446.024	803.31
446.245	852.31
446.466	766.31
446.687	674.31
446.908	650.31
447.129	608.31
447.35	591.31
447.571	586.31
447.792	562.31
448.013	556.31
448.234	613.31
448.455	640.31
448.675	737.31
448.896	877.31
449.117	762.31
449.338	716.31
449.559	820.31
449.779	900.31
450	725.31
450.221	612.31
450.442	531.31
450.662	545.31
450.883	562.31
451.104	589.31
451.324	564.31
451.545	574.31
451.766	542.31
451.986	527.31
452.207	528.31
452.428	525.31
452.648	506.31
452.869	532.31
453.089	519.31
453.31	520.31
453.53	518.31
453.751	521.31
453.971	510.31
454.192	521.31
454.412	543.31
454.633	516.31
454.853	511.31
455.073	524.31
455.294	528.31
455.514	573.31
455.734	598.31
455.955	523.31
456.175	510.31
456.395	492.31
456.616	498.31
456.836	481.31
457.056	487.31
457.276	482.31
457.497	493.31
457.717	491.31
457.937	476.31
458.157	522.31
458.377	491.31
458.598	548.31
458.818	592.31
459.038	646.31
459.258	672.31
459.478	605.31
459.698	575.31
459.918	572.31
460.138	573.31
460.358	569.31
460.578	562.31
460.798	575.31
461.018	572.31
461.238	558.31
461.458	572.31
461.678	577.31
461.898	571.31
462.118	580.31
462.338	616.31
462.558	615.31
462.777	626.31
462.997	643.31
463.217	653.31
463.437	644.31
463.657	636.31
463.876	617.31
464.096	630.31
464.316	615.31
464.536	644.31
464.755	626.31
464.975	640.31
465.195	638.31
465.414	716.31
465.634	635.31
465.854	603.31
466.073	564.31
466.293	545.31
466.512	544.31
466.732	543.31
466.951	524.31
467.171	549.31
467.391	546.31
467.61	568.31
467.829	586.31
468.049	544.31
468.268	545.31
468.488	552.31
468.707	525.31
468.927	500.31
469.146	529.31
469.365	522.31
469.585	522.31
469.804	549.31
470.023	544.31
470.243	547.31
470.462	542.31
470.681	565.31
470.901	557.31
471.12	551.31
471.339	554.31
471.558	541.31
471.777	531.31
471.997	521.31
472.216	542.31
472.435	558.31
472.654	558.31
472.873	539.31
473.092	536.31
473.311	529.31
473.53	518.31
473.749	535.31
473.968	580.31
474.187	698.31
474.406	685.31
474.625	590.31
474.844	530.31
475.063	540.31
475.282	546.31
475.501	522.31
475.72	522.31
475.939	551.31
476.158	564.31
476.377	537.31
476.596	582.31
476.814	566.31
477.033	567.31
477.252	582.31
477.471	588.31
477.69	582.31
477.908	586.31
478.127	598.31
478.346	594.31
478.564	590.31
478.783	591.31
479.002	636.31
479.22	627.31
479.439	644.31
479.658	663.31
479.876	669.31
480.095	666.31
480.313	717.31
480.532	658.31
480.751	660.31
480.969	663.31
481.188	738.31
481.406	780.31
481.624	693.31
481.843	658.31
482.061	592.31
482.28	651.31
482.498	638.31
482.717	622.31
482.935	633.31
483.153	642.31
483.372	620.31
483.59	615.31
483.808	634.31
484.027	626.31
484.245	609.31
484.463	627.31
484.681	657.31
484.9	666.31
485.118	650.31
485.336	680.31
485.554	640.31
485.772	652.31
485.99	640.31
486.209	676.31
486.427	668.31
486.645	655.31
486.863	682.31
487.081	685.31
487.299	680.31
487.517	676.31
487.735	665.31
487.953	662.31
488.171	660.31
488.389	667.31
488.607	693.31
488.825	676.31
489.043	679.31
489.261	686.31
489.479	685.31
489.696	683.31
489.914	675.31
490.132	689.31
490.35	697.31
490.568	694.31
490.786	706.31
491.003	712.31
491.221	740.31
491.439	754.31
491.657	762.31
491.874	757.31
492.092	766.31
492.31	760.31
492.527	765.31
492.745	778.31
492.963	768.31
493.18	799.31
493.398	803.31
493.615	804.31
493.833	809.31
494.05	792.31
494.268	772.31
494.485	781.31
494.703	793.31
494.92	795.31
495.138	828.31
495.355	804.31
495.573	801.31
495.79	793.31
496.008	798.31
496.225	806.31
496.442	826.31
496.66	798.31
496.877	801.31
497.094	820.31
497.312	836.31
497.529	845.31
497.746	847.31
497.963	864.31
498.181	876.31
498.398	906.31
498.615	891.31
498.832	933.31
499.049	980.31
499.267	982.31
499.484	1015.31
499.701	1048.31
499.918	1125.31
500.135	1170.31
500.352	1240.31
500.569	1245.31
500.786	1275.31
501.003	1240.31
501.22	1187.31
501.437	1162.31
501.654	1085.31
501.871	1083.31
