Data from 1979.PennyLincolnUp.Lamp.En5.5.200Scan.071719.P1_HRD10591_16-19-57-863.txt Node
Date: Thu Jul 18 16:19:57 EDT 2019
User: cochatt
Spectrometer: HR+D1059
Trigger mode: 1
Integration Time (sec): 1.000000E-1
Scans to average: 1
Electric dark correction enabled: true
Nonlinearity correction enabled: false
Boxcar width: 0
XAxis mode: Wavelengths
Number of Pixels in Spectrum: 2048
>>>>>Begin Spectral Data<<<<<
223.165	-15.56
223.4	-15.56
223.635	-15.56
223.869	-9.56
224.104	-14.56
224.338	-14.56
224.573	-13.56
224.808	-15.56
225.042	1.44
225.277	1.44
225.511	-15.56
225.746	-15.56
225.98	16.44
226.215	9.44
226.449	25.44
226.683	14.44
226.918	21.44
227.152	24.44
227.387	17.44
227.621	48.44
227.856	46.44
228.09	56.44
228.324	66.44
228.559	66.44
228.793	66.44
229.027	78.44
229.262	110.44
229.496	100.44
229.73	125.44
229.964	140.44
230.199	121.44
230.433	116.44
230.667	110.44
230.901	96.44
231.136	101.44
231.37	120.44
231.604	110.44
231.838	120.44
232.072	112.44
232.306	119.44
232.541	121.44
232.775	112.44
233.009	118.44
233.243	93.44
233.477	104.44
233.711	117.44
233.945	127.44
234.179	121.44
234.413	128.44
234.647	123.44
234.881	132.44
235.115	121.44
235.349	112.44
235.583	116.44
235.817	127.44
236.051	135.44
236.285	127.44
236.519	137.44
236.753	133.44
236.987	132.44
237.221	178.44
237.455	235.44
237.689	165.44
237.922	155.44
238.156	132.44
238.39	125.44
238.624	106.44
238.858	136.44
239.091	129.44
239.325	127.44
239.559	124.44
239.793	119.44
240.027	118.44
240.26	140.44
240.494	152.44
240.728	157.44
240.961	144.44
241.195	148.44
241.429	133.44
241.662	132.44
241.896	132.44
242.13	127.44
242.363	120.44
242.597	128.44
242.83	123.44
243.064	138.44
243.298	132.44
243.531	129.44
243.765	125.44
243.998	135.44
244.232	143.44
244.465	129.44
244.699	146.44
244.932	137.44
245.166	133.44
245.399	133.44
245.633	142.44
245.866	146.44
246.099	141.44
246.333	154.44
246.566	149.44
246.8	158.44
247.033	155.44
247.266	153.44
247.5	171.44
247.733	155.44
247.966	171.44
248.2	168.44
248.433	173.44
248.666	167.44
248.899	177.44
249.133	181.44
249.366	198.44
249.599	184.44
249.832	172.44
250.066	167.44
250.299	177.44
250.532	188.44
250.765	183.44
250.998	206.44
251.231	214.44
251.465	203.44
251.698	201.44
251.931	192.44
252.164	195.44
252.397	179.44
252.63	204.44
252.863	201.44
253.096	203.44
253.329	217.44
253.562	201.44
253.795	197.44
254.028	215.44
254.261	195.44
254.494	206.44
254.727	246.44
254.96	265.44
255.193	258.44
255.426	230.44
255.659	200.44
255.892	217.44
256.124	206.44
256.357	215.44
256.59	224.44
256.823	184.44
257.056	218.44
257.289	196.44
257.521	197.44
257.754	191.44
257.987	203.44
258.22	190.44
258.452	194.44
258.685	198.44
258.918	195.44
259.151	187.44
259.383	205.44
259.616	221.44
259.849	227.44
260.081	212.44
260.314	242.44
260.547	230.44
260.779	231.44
261.012	210.44
261.244	223.44
261.477	208.44
261.71	205.44
261.942	213.44
262.175	216.44
262.407	234.44
262.64	212.44
262.872	202.44
263.105	202.44
263.337	195.44
263.57	197.44
263.802	213.44
264.035	222.44
264.267	203.44
264.499	210.44
264.732	208.44
264.964	193.44
265.197	194.44
265.429	201.44
265.661	211.44
265.894	205.44
266.126	210.44
266.358	205.44
266.591	222.44
266.823	234.44
267.055	222.44
267.287	217.44
267.52	221.44
267.752	210.44
267.984	200.44
268.216	217.44
268.448	233.44
268.681	233.44
268.913	252.44
269.145	242.44
269.377	269.44
269.609	247.44
269.841	221.44
270.073	245.44
270.306	256.44
270.538	290.44
270.77	291.44
271.002	276.44
271.234	287.44
271.466	278.44
271.698	278.44
271.93	288.44
272.162	281.44
272.394	322.44
272.626	281.44
272.858	269.44
273.09	264.44
273.322	266.44
273.553	264.44
273.785	247.44
274.017	259.44
274.249	264.44
274.481	241.44
274.713	276.44
274.945	268.44
275.176	236.44
275.408	264.44
275.64	235.44
275.872	244.44
276.104	262.44
276.335	264.44
276.567	267.44
276.799	276.44
277.031	314.44
277.262	308.44
277.494	294.44
277.726	297.44
277.957	261.44
278.189	260.44
278.421	267.44
278.652	250.44
278.884	272.44
279.115	262.44
279.347	266.44
279.579	258.44
279.81	265.44
280.042	251.44
280.273	257.44
280.505	253.44
280.736	265.44
280.968	257.44
281.199	260.44
281.431	261.44
281.662	253.44
281.894	252.44
282.125	282.44
282.356	271.44
282.588	289.44
282.819	300.44
283.051	269.44
283.282	275.44
283.513	277.44
283.745	276.44
283.976	285.44
284.207	260.44
284.439	274.44
284.67	268.44
284.901	259.44
285.132	294.44
285.364	282.44
285.595	265.44
285.826	281.44
286.057	288.44
286.288	268.44
286.52	286.44
286.751	262.44
286.982	270.44
287.213	258.44
287.444	253.44
287.675	285.44
287.906	306.44
288.138	298.44
288.369	291.44
288.6	298.44
288.831	279.44
289.062	302.44
289.293	294.44
289.524	290.44
289.755	280.44
289.986	277.44
290.217	280.44
290.448	287.44
290.679	280.44
290.91	308.44
291.141	298.44
291.371	288.44
291.602	282.44
291.833	276.44
292.064	295.44
292.295	274.44
292.526	307.44
292.757	278.44
292.987	289.44
293.218	290.44
293.449	289.44
293.68	275.44
293.91	283.44
294.141	282.44
294.372	281.44
294.603	291.44
294.833	277.44
295.064	294.44
295.295	297.44
295.525	301.44
295.756	309.44
295.987	286.44
296.217	325.44
296.448	337.44
296.679	288.44
296.909	282.44
297.14	289.44
297.37	295.44
297.601	309.44
297.831	307.44
298.062	286.44
298.292	289.44
298.523	323.44
298.753	301.44
298.984	297.44
299.214	314.44
299.445	310.44
299.675	312.44
299.905	314.44
300.136	296.44
300.366	301.44
300.597	308.44
300.827	333.44
301.057	341.44
301.288	320.44
301.518	332.44
301.748	315.44
301.979	325.44
302.209	329.44
302.439	344.44
302.669	327.44
302.9	310.44
303.13	312.44
303.36	331.44
303.59	337.44
303.82	348.44
304.051	334.44
304.281	331.44
304.511	326.44
304.741	324.44
304.971	320.44
305.201	340.44
305.431	324.44
305.661	346.44
305.891	333.44
306.121	330.44
306.352	324.44
306.582	334.44
306.812	333.44
307.042	325.44
307.272	333.44
307.502	347.44
307.731	333.44
307.961	325.44
308.191	321.44
308.421	336.44
308.651	345.44
308.881	323.44
309.111	333.44
309.341	347.44
309.571	330.44
309.8	339.44
310.03	376.44
310.26	364.44
310.49	380.44
310.72	370.44
310.949	370.44
311.179	393.44
311.409	372.44
311.639	364.44
311.868	370.44
312.098	370.44
312.328	377.44
312.557	384.44
312.787	392.44
313.017	405.44
313.246	393.44
313.476	379.44
313.706	379.44
313.935	370.44
314.165	372.44
314.394	405.44
314.624	403.44
314.853	373.44
315.083	389.44
315.312	388.44
315.542	383.44
315.771	372.44
316.001	371.44
316.23	376.44
316.46	342.44
316.689	379.44
316.919	372.44
317.148	381.44
317.377	376.44
317.607	382.44
317.836	389.44
318.065	364.44
318.295	364.44
318.524	349.44
318.753	347.44
318.983	374.44
319.212	376.44
319.441	377.44
319.67	373.44
319.9	374.44
320.129	380.44
320.358	380.44
320.587	366.44
320.816	390.44
321.046	383.44
321.275	388.44
321.504	385.44
321.733	384.44
321.962	387.44
322.191	410.44
322.42	419.44
322.649	424.44
322.878	434.44
323.108	444.44
323.337	458.44
323.566	498.44
323.795	510.44
324.024	536.44
324.253	656.44
324.482	900.44
324.71	1414.44
324.939	2086.44
325.168	1852.44
325.397	876.44
325.626	613.44
325.855	534.44
326.084	492.44
326.313	459.44
326.542	491.44
326.77	544.44
326.999	628.44
327.228	848.44
327.457	1294.44
327.686	1579.44
327.914	1036.44
328.143	666.44
328.372	598.44
328.6	546.44
328.829	537.44
329.058	551.44
329.287	554.44
329.515	534.44
329.744	498.44
329.972	489.44
330.201	500.44
330.43	541.44
330.658	563.44
330.887	566.44
331.115	577.44
331.344	509.44
331.572	470.44
331.801	478.44
332.03	477.44
332.258	456.44
332.486	468.44
332.715	461.44
332.943	454.44
333.172	456.44
333.4	460.44
333.629	480.44
333.857	478.44
334.085	497.44
334.314	525.44
334.542	524.44
334.771	549.44
334.999	512.44
335.227	501.44
335.455	475.44
335.684	461.44
335.912	458.44
336.14	454.44
336.369	461.44
336.597	442.44
336.825	462.44
337.053	432.44
337.281	452.44
337.51	447.44
337.738	442.44
337.966	425.44
338.194	463.44
338.422	460.44
338.65	435.44
338.878	437.44
339.106	433.44
339.334	444.44
339.562	428.44
339.79	423.44
340.018	440.44
340.246	436.44
340.474	446.44
340.702	434.44
340.93	434.44
341.158	417.44
341.386	428.44
341.614	429.44
341.842	441.44
342.07	422.44
342.298	425.44
342.526	415.44
342.754	428.44
342.981	416.44
343.209	417.44
343.437	440.44
343.665	440.44
343.893	445.44
344.12	477.44
344.348	466.44
344.576	456.44
344.804	462.44
345.031	448.44
345.259	456.44
345.487	444.44
345.714	425.44
345.942	412.44
346.17	428.44
346.397	405.44
346.625	446.44
346.853	415.44
347.08	395.44
347.308	437.44
347.535	413.44
347.763	437.44
347.99	434.44
348.218	432.44
348.445	426.44
348.673	436.44
348.9	414.44
349.128	419.44
349.355	402.44
349.583	397.44
349.81	408.44
350.037	412.44
350.265	412.44
350.492	418.44
350.72	407.44
350.947	399.44
351.174	428.44
351.402	446.44
351.629	416.44
351.856	434.44
352.083	440.44
352.311	416.44
352.538	420.44
352.765	423.44
352.992	440.44
353.22	423.44
353.447	429.44
353.674	417.44
353.901	404.44
354.128	412.44
354.355	400.44
354.583	408.44
354.81	410.44
355.037	399.44
355.264	389.44
355.491	394.44
355.718	399.44
355.945	388.44
356.172	392.44
356.399	390.44
356.626	405.44
356.853	390.44
357.08	403.44
357.307	414.44
357.534	412.44
357.761	385.44
357.988	412.44
358.215	395.44
358.441	418.44
358.668	392.44
358.895	388.44
359.122	394.44
359.349	433.44
359.576	430.44
359.802	446.44
360.029	471.44
360.256	477.44
360.483	453.44
360.709	441.44
360.936	434.44
361.163	413.44
361.39	404.44
361.616	426.44
361.843	410.44
362.07	428.44
362.296	412.44
362.523	409.44
362.749	425.44
362.976	406.44
363.203	425.44
363.429	406.44
363.656	403.44
363.882	410.44
364.109	410.44
364.335	413.44
364.562	414.44
364.788	429.44
365.015	402.44
365.241	412.44
365.468	403.44
365.694	411.44
365.92	406.44
366.147	419.44
366.373	385.44
366.599	415.44
366.826	380.44
367.052	403.44
367.278	418.44
367.505	416.44
367.731	423.44
367.957	397.44
368.184	425.44
368.41	412.44
368.636	423.44
368.862	408.44
369.089	419.44
369.315	418.44
369.541	406.44
369.767	432.44
369.993	419.44
370.219	392.44
370.445	418.44
370.672	394.44
370.898	403.44
371.124	421.44
371.35	414.44
371.576	408.44
371.802	402.44
372.028	432.44
372.254	403.44
372.48	411.44
372.706	436.44
372.932	406.44
373.158	428.44
373.384	429.44
373.61	430.44
373.835	434.44
374.061	429.44
374.287	416.44
374.513	422.44
374.739	434.44
374.965	423.44
375.191	416.44
375.416	402.44
375.642	419.44
375.868	438.44
376.094	452.44
376.319	418.44
376.545	407.44
376.771	420.44
376.997	413.44
377.222	404.44
377.448	410.44
377.674	401.44
377.899	416.44
378.125	423.44
378.35	411.44
378.576	412.44
378.802	413.44
379.027	424.44
379.253	417.44
379.478	420.44
379.704	414.44
379.929	445.44
380.155	419.44
380.38	418.44
380.606	420.44
380.831	402.44
381.057	422.44
381.282	409.44
381.507	414.44
381.733	416.44
381.958	400.44
382.184	437.44
382.409	450.44
382.634	443.44
382.86	438.44
383.085	430.44
383.31	452.44
383.535	444.44
383.761	433.44
383.986	438.44
384.211	456.44
384.436	429.44
384.662	447.44
384.887	445.44
385.112	458.44
385.337	457.44
385.562	451.44
385.787	477.44
386.013	466.44
386.238	471.44
386.463	468.44
386.688	468.44
386.913	461.44
387.138	471.44
387.363	475.44
387.588	472.44
387.813	457.44
388.038	468.44
388.263	482.44
388.488	476.44
388.713	476.44
388.938	457.44
389.163	452.44
389.387	480.44
389.612	473.44
389.837	467.44
390.062	473.44
390.287	467.44
390.512	457.44
390.736	474.44
390.961	493.44
391.186	475.44
391.411	487.44
391.636	470.44
391.86	496.44
392.085	524.44
392.31	499.44
392.534	516.44
392.759	478.44
392.984	485.44
393.208	464.44
393.433	478.44
393.658	493.44
393.882	476.44
394.107	468.44
394.331	468.44
394.556	497.44
394.78	503.44
395.005	491.44
395.229	491.44
395.454	488.44
395.678	508.44
395.903	504.44
396.127	529.44
396.352	524.44
396.576	510.44
396.801	501.44
397.025	501.44
397.249	493.44
397.474	502.44
397.698	517.44
397.922	518.44
398.147	541.44
398.371	526.44
398.595	534.44
398.82	543.44
399.044	564.44
399.268	580.44
399.492	616.44
399.717	657.44
399.941	709.44
400.165	698.44
400.389	688.44
400.613	645.44
400.837	588.44
401.062	594.44
401.286	550.44
401.51	574.44
401.734	561.44
401.958	561.44
402.182	579.44
402.406	550.44
402.63	580.44
402.854	568.44
403.078	567.44
403.302	614.44
403.526	613.44
403.75	604.44
403.974	601.44
404.198	576.44
404.422	581.44
404.645	587.44
404.869	606.44
405.093	632.44
405.317	660.44
405.541	712.44
405.765	665.44
405.988	627.44
406.212	614.44
406.436	646.44
406.66	646.44
406.883	658.44
407.107	666.44
407.331	705.44
407.555	779.44
407.778	749.44
408.002	710.44
408.226	666.44
408.449	619.44
408.673	662.44
408.896	674.44
409.12	682.44
409.344	664.44
409.567	617.44
409.791	597.44
410.014	608.44
410.238	591.44
410.461	605.44
410.685	590.44
410.908	605.44
411.132	631.44
411.355	681.44
411.578	650.44
411.802	605.44
412.025	579.44
412.249	593.44
412.472	616.44
412.695	669.44
412.919	662.44
413.142	593.44
413.365	595.44
413.589	566.44
413.812	581.44
414.035	569.44
414.258	553.44
414.482	570.44
414.705	558.44
414.928	560.44
415.151	571.44
415.374	545.44
415.597	584.44
415.821	547.44
416.044	556.44
416.267	558.44
416.49	570.44
416.713	556.44
416.936	542.44
417.159	533.44
417.382	566.44
417.605	566.44
417.828	577.44
418.051	579.44
418.274	565.44
418.497	561.44
418.72	540.44
418.943	556.44
419.166	590.44
419.389	609.44
419.611	594.44
419.834	611.44
420.057	572.44
420.28	562.44
420.503	584.44
420.726	592.44
420.948	598.44
421.171	637.44
421.394	667.44
421.617	599.44
421.839	573.44
422.062	555.44
422.285	599.44
422.507	654.44
422.73	728.44
422.953	702.44
423.175	632.44
423.398	613.44
423.621	610.44
423.843	609.44
424.066	612.44
424.288	619.44
424.511	597.44
424.733	705.44
424.956	766.44
425.178	718.44
425.401	736.44
425.623	764.44
425.846	674.44
426.068	619.44
426.291	601.44
426.513	626.44
426.735	619.44
426.958	646.44
427.18	739.44
427.402	871.44
427.625	957.44
427.847	830.44
428.069	733.44
428.292	649.44
428.514	608.44
428.736	601.44
428.958	570.44
429.181	564.44
429.403	532.44
429.625	597.44
429.847	605.44
430.069	657.44
430.292	664.44
430.514	583.44
430.736	562.44
430.958	558.44
431.18	554.44
431.402	540.44
431.624	533.44
431.846	536.44
432.068	531.44
432.29	524.44
432.512	537.44
432.734	559.44
432.956	560.44
433.178	561.44
433.4	550.44
433.622	520.44
433.844	545.44
434.066	526.44
434.287	528.44
434.509	535.44
434.731	539.44
434.953	566.44
435.175	573.44
435.397	592.44
435.618	602.44
435.84	665.44
436.062	718.44
436.284	839.44
436.505	669.44
436.727	608.44
436.949	578.44
437.17	582.44
437.392	589.44
437.614	566.44
437.835	614.44
438.057	715.44
438.278	781.44
438.5	789.44
438.721	906.44
438.943	838.44
439.165	651.44
439.386	621.44
439.608	608.44
439.829	621.44
440.05	641.44
440.272	700.44
440.493	633.44
440.715	612.44
440.936	590.44
441.158	590.44
441.379	563.44
441.6	598.44
441.822	627.44
442.043	630.44
442.264	723.44
442.486	797.44
442.707	677.44
442.928	649.44
443.149	647.44
443.371	643.44
443.592	696.44
443.813	803.44
444.034	872.44
444.255	696.44
444.476	636.44
444.698	631.44
444.919	636.44
445.14	740.44
445.361	678.44
445.582	670.44
445.803	718.44
446.024	825.44
446.245	832.44
446.466	740.44
446.687	656.44
446.908	572.44
447.129	560.44
447.35	579.44
447.571	558.44
447.792	521.44
448.013	564.44
448.234	570.44
448.455	609.44
448.675	714.44
448.896	858.44
449.117	727.44
449.338	699.44
449.559	792.44
449.779	878.44
450	708.44
450.221	621.44
450.442	566.44
450.662	554.44
450.883	549.44
451.104	573.44
451.324	562.44
451.545	530.44
451.766	509.44
451.986	527.44
452.207	487.44
452.428	500.44
452.648	511.44
452.869	512.44
453.089	502.44
453.31	534.44
453.53	499.44
453.751	512.44
453.971	517.44
454.192	523.44
454.412	525.44
454.633	500.44
454.853	505.44
455.073	487.44
455.294	514.44
455.514	596.44
455.734	570.44
455.955	498.44
456.175	479.44
456.395	474.44
456.616	460.44
456.836	482.44
457.056	495.44
457.276	466.44
457.497	478.44
457.717	502.44
457.937	453.44
458.157	481.44
458.377	509.44
458.598	534.44
458.818	567.44
459.038	641.44
459.258	673.44
459.478	589.44
459.698	551.44
459.918	538.44
460.138	539.44
460.358	564.44
460.578	572.44
460.798	595.44
461.018	564.44
461.238	563.44
461.458	573.44
461.678	569.44
461.898	578.44
462.118	582.44
462.338	573.44
462.558	601.44
462.777	596.44
462.997	599.44
463.217	627.44
463.437	663.44
463.657	595.44
463.876	617.44
464.096	639.44
464.316	628.44
464.536	609.44
464.755	600.44
464.975	620.44
465.195	644.44
465.414	702.44
465.634	633.44
465.854	586.44
466.073	555.44
466.293	543.44
466.512	538.44
466.732	535.44
466.951	532.44
467.171	532.44
467.391	527.44
467.61	530.44
467.829	546.44
468.049	535.44
468.268	516.44
468.488	531.44
468.707	480.44
468.927	508.44
469.146	512.44
469.365	524.44
469.585	511.44
469.804	506.44
470.023	541.44
470.243	532.44
470.462	553.44
470.681	564.44
470.901	534.44
471.12	556.44
471.339	550.44
471.558	532.44
471.777	525.44
471.997	512.44
472.216	518.44
472.435	568.44
472.654	557.44
472.873	541.44
473.092	551.44
473.311	534.44
473.53	522.44
473.749	535.44
473.968	587.44
474.187	676.44
474.406	667.44
474.625	587.44
474.844	536.44
475.063	550.44
475.282	518.44
475.501	536.44
475.72	532.44
475.939	553.44
476.158	550.44
476.377	552.44
476.596	550.44
476.814	576.44
477.033	549.44
477.252	576.44
477.471	581.44
477.69	576.44
477.908	576.44
478.127	588.44
478.346	599.44
478.564	606.44
478.783	614.44
479.002	628.44
479.22	624.44
479.439	626.44
479.658	648.44
479.876	636.44
480.095	650.44
480.313	681.44
480.532	682.44
480.751	643.44
480.969	664.44
481.188	719.44
481.406	734.44
481.624	693.44
481.843	656.44
482.061	644.44
482.28	611.44
482.498	609.44
482.717	616.44
482.935	609.44
483.153	599.44
483.372	619.44
483.59	635.44
483.808	616.44
484.027	604.44
484.245	597.44
484.463	619.44
484.681	638.44
484.9	626.44
485.118	635.44
485.336	644.44
485.554	646.44
485.772	661.44
485.99	655.44
486.209	658.44
486.427	633.44
486.645	682.44
486.863	678.44
487.081	681.44
487.299	665.44
487.517	671.44
487.735	650.44
487.953	673.44
488.171	666.44
488.389	640.44
488.607	660.44
488.825	664.44
489.043	666.44
489.261	665.44
489.479	670.44
489.696	675.44
489.914	692.44
490.132	680.44
490.35	684.44
490.568	690.44
490.786	703.44
491.003	716.44
491.221	723.44
491.439	730.44
491.657	753.44
491.874	736.44
492.092	768.44
492.31	750.44
492.527	766.44
492.745	771.44
492.963	773.44
493.18	779.44
493.398	761.44
493.615	775.44
493.833	776.44
494.05	773.44
494.268	774.44
494.485	726.44
494.703	782.44
494.92	792.44
495.138	768.44
495.355	798.44
495.573	794.44
495.79	785.44
496.008	818.44
496.225	800.44
496.442	759.44
496.66	777.44
496.877	800.44
497.094	805.44
497.312	825.44
497.529	809.44
497.746	838.44
497.963	850.44
498.181	873.44
498.398	882.44
498.615	916.44
498.832	910.44
499.049	947.44
499.267	980.44
499.484	1008.44
499.701	1050.44
499.918	1089.44
500.135	1141.44
500.352	1226.44
500.569	1271.44
500.786	1238.44
501.003	1203.44
501.22	1174.44
501.437	1124.44
501.654	1076.44
501.871	1068.44
