Data from 1979.PennyLincolnUp.Lamp.En5.5.200Scan.071719.P1_HRD10591_16-19-45-863.txt Node
Date: Thu Jul 18 16:19:45 EDT 2019
User: cochatt
Spectrometer: HR+D1059
Trigger mode: 1
Integration Time (sec): 1.000000E-1
Scans to average: 1
Electric dark correction enabled: true
Nonlinearity correction enabled: false
Boxcar width: 0
XAxis mode: Wavelengths
Number of Pixels in Spectrum: 2048
>>>>>Begin Spectral Data<<<<<
223.165	-7.44
223.4	-7.44
223.635	-7.44
223.869	-7.44
224.104	-25.44
224.338	-9.44
224.573	-2.44
224.808	-11.44
225.042	0.56
225.277	-17.44
225.511	-2.44
225.746	3.56
225.98	11.56
226.215	4.56
226.449	11.56
226.683	12.56
226.918	18.56
227.152	20.56
227.387	39.56
227.621	42.56
227.856	49.56
228.09	45.56
228.324	44.56
228.559	58.56
228.793	66.56
229.027	98.56
229.262	96.56
229.496	104.56
229.73	121.56
229.964	142.56
230.199	123.56
230.433	101.56
230.667	101.56
230.901	120.56
231.136	102.56
231.37	104.56
231.604	112.56
231.838	93.56
232.072	117.56
232.306	104.56
232.541	112.56
232.775	108.56
233.009	103.56
233.243	105.56
233.477	116.56
233.711	106.56
233.945	112.56
234.179	121.56
234.413	109.56
234.647	112.56
234.881	120.56
235.115	102.56
235.349	117.56
235.583	112.56
235.817	127.56
236.051	129.56
236.285	109.56
236.519	108.56
236.753	120.56
236.987	140.56
237.221	181.56
237.455	214.56
237.689	164.56
237.922	128.56
238.156	122.56
238.39	124.56
238.624	109.56
238.858	138.56
239.091	120.56
239.325	118.56
239.559	129.56
239.793	144.56
240.027	133.56
240.26	134.56
240.494	152.56
240.728	134.56
240.961	143.56
241.195	135.56
241.429	139.56
241.662	132.56
241.896	131.56
242.13	136.56
242.363	135.56
242.597	126.56
242.83	134.56
243.064	147.56
243.298	148.56
243.531	133.56
243.765	125.56
243.998	127.56
244.232	133.56
244.465	138.56
244.699	145.56
244.932	141.56
245.166	158.56
245.399	140.56
245.633	133.56
245.866	146.56
246.099	155.56
246.333	147.56
246.566	146.56
246.8	168.56
247.033	154.56
247.266	150.56
247.5	147.56
247.733	164.56
247.966	165.56
248.2	178.56
248.433	174.56
248.666	176.56
248.899	174.56
249.133	177.56
249.366	182.56
249.599	184.56
249.832	182.56
250.066	194.56
250.299	189.56
250.532	170.56
250.765	201.56
250.998	204.56
251.231	205.56
251.465	206.56
251.698	190.56
251.931	167.56
252.164	187.56
252.397	183.56
252.63	199.56
252.863	187.56
253.096	212.56
253.329	213.56
253.562	200.56
253.795	189.56
254.028	188.56
254.261	193.56
254.494	208.56
254.727	228.56
254.96	262.56
255.193	261.56
255.426	250.56
255.659	221.56
255.892	210.56
256.124	214.56
256.357	208.56
256.59	211.56
256.823	210.56
257.056	203.56
257.289	206.56
257.521	196.56
257.754	221.56
257.987	184.56
258.22	201.56
258.452	208.56
258.685	201.56
258.918	206.56
259.151	204.56
259.383	209.56
259.616	211.56
259.849	202.56
260.081	217.56
260.314	231.56
260.547	239.56
260.779	230.56
261.012	223.56
261.244	215.56
261.477	209.56
261.71	206.56
261.942	203.56
262.175	219.56
262.407	226.56
262.64	214.56
262.872	216.56
263.105	224.56
263.337	202.56
263.57	203.56
263.802	187.56
264.035	198.56
264.267	193.56
264.499	211.56
264.732	221.56
264.964	205.56
265.197	231.56
265.429	195.56
265.661	204.56
265.894	212.56
266.126	203.56
266.358	201.56
266.591	192.56
266.823	222.56
267.055	207.56
267.287	213.56
267.52	219.56
267.752	217.56
267.984	212.56
268.216	214.56
268.448	206.56
268.681	225.56
268.913	226.56
269.145	261.56
269.377	243.56
269.609	237.56
269.841	256.56
270.073	248.56
270.306	264.56
270.538	272.56
270.77	278.56
271.002	285.56
271.234	270.56
271.466	258.56
271.698	283.56
271.93	296.56
272.162	286.56
272.394	291.56
272.626	264.56
272.858	280.56
273.09	259.56
273.322	262.56
273.553	245.56
273.785	271.56
274.017	255.56
274.249	258.56
274.481	255.56
274.713	260.56
274.945	250.56
275.176	268.56
275.408	237.56
275.64	268.56
275.872	248.56
276.104	249.56
276.335	252.56
276.567	258.56
276.799	278.56
277.031	280.56
277.262	300.56
277.494	291.56
277.726	298.56
277.957	288.56
278.189	285.56
278.421	272.56
278.652	251.56
278.884	267.56
279.115	265.56
279.347	258.56
279.579	250.56
279.81	259.56
280.042	260.56
280.273	258.56
280.505	269.56
280.736	258.56
280.968	253.56
281.199	248.56
281.431	275.56
281.662	265.56
281.894	263.56
282.125	282.56
282.356	288.56
282.588	291.56
282.819	290.56
283.051	278.56
283.282	261.56
283.513	266.56
283.745	279.56
283.976	271.56
284.207	261.56
284.439	268.56
284.67	266.56
284.901	269.56
285.132	284.56
285.364	269.56
285.595	240.56
285.826	264.56
286.057	279.56
286.288	287.56
286.52	276.56
286.751	272.56
286.982	291.56
287.213	276.56
287.444	275.56
287.675	288.56
287.906	295.56
288.138	270.56
288.369	283.56
288.6	284.56
288.831	307.56
289.062	293.56
289.293	284.56
289.524	291.56
289.755	290.56
289.986	282.56
290.217	269.56
290.448	249.56
290.679	277.56
290.91	273.56
291.141	288.56
291.371	282.56
291.602	294.56
291.833	269.56
292.064	284.56
292.295	290.56
292.526	293.56
292.757	286.56
292.987	259.56
293.218	282.56
293.449	282.56
293.68	308.56
293.91	289.56
294.141	272.56
294.372	286.56
294.603	291.56
294.833	290.56
295.064	289.56
295.295	282.56
295.525	280.56
295.756	293.56
295.987	297.56
296.217	324.56
296.448	327.56
296.679	304.56
296.909	297.56
297.14	310.56
297.37	300.56
297.601	300.56
297.831	320.56
298.062	306.56
298.292	295.56
298.523	304.56
298.753	307.56
298.984	306.56
299.214	311.56
299.445	307.56
299.675	297.56
299.905	311.56
300.136	313.56
300.366	324.56
300.597	294.56
300.827	312.56
301.057	317.56
301.288	336.56
301.518	323.56
301.748	300.56
301.979	328.56
302.209	318.56
302.439	310.56
302.669	324.56
302.9	328.56
303.13	330.56
303.36	324.56
303.59	335.56
303.82	337.56
304.051	331.56
304.281	318.56
304.511	332.56
304.741	334.56
304.971	333.56
305.201	323.56
305.431	318.56
305.661	324.56
305.891	316.56
306.121	317.56
306.352	319.56
306.582	330.56
306.812	324.56
307.042	322.56
307.272	328.56
307.502	332.56
307.731	333.56
307.961	334.56
308.191	332.56
308.421	327.56
308.651	321.56
308.881	327.56
309.111	330.56
309.341	341.56
309.571	340.56
309.8	343.56
310.03	372.56
310.26	379.56
310.49	347.56
310.72	391.56
310.949	395.56
311.179	362.56
311.409	358.56
311.639	357.56
311.868	361.56
312.098	386.56
312.328	392.56
312.557	387.56
312.787	406.56
313.017	404.56
313.246	384.56
313.476	356.56
313.706	378.56
313.935	360.56
314.165	376.56
314.394	394.56
314.624	390.56
314.853	367.56
315.083	376.56
315.312	369.56
315.542	361.56
315.771	380.56
316.001	374.56
316.23	381.56
316.46	348.56
316.689	365.56
316.919	380.56
317.148	388.56
317.377	381.56
317.607	365.56
317.836	370.56
318.065	388.56
318.295	393.56
318.524	354.56
318.753	375.56
318.983	381.56
319.212	386.56
319.441	378.56
319.67	393.56
319.9	387.56
320.129	393.56
320.358	362.56
320.587	382.56
320.816	384.56
321.046	396.56
321.275	404.56
321.504	386.56
321.733	386.56
321.962	418.56
322.191	420.56
322.42	402.56
322.649	437.56
322.878	421.56
323.108	426.56
323.337	470.56
323.566	468.56
323.795	519.56
324.024	546.56
324.253	644.56
324.482	896.56
324.71	1429.56
324.939	2118.56
325.168	1832.56
325.397	914.56
325.626	626.56
325.855	530.56
326.084	516.56
326.313	491.56
326.542	503.56
326.77	542.56
326.999	617.56
327.228	825.56
327.457	1306.56
327.686	1616.56
327.914	1048.56
328.143	698.56
328.372	593.56
328.6	553.56
328.829	528.56
329.058	555.56
329.287	562.56
329.515	510.56
329.744	493.56
329.972	482.56
330.201	529.56
330.43	548.56
330.658	549.56
330.887	588.56
331.115	574.56
331.344	509.56
331.572	477.56
331.801	491.56
332.03	483.56
332.258	465.56
332.486	469.56
332.715	463.56
332.943	442.56
333.172	461.56
333.4	461.56
333.629	482.56
333.857	493.56
334.085	477.56
334.314	497.56
334.542	541.56
334.771	554.56
334.999	505.56
335.227	489.56
335.455	475.56
335.684	493.56
335.912	477.56
336.14	445.56
336.369	457.56
336.597	469.56
336.825	455.56
337.053	432.56
337.281	449.56
337.51	437.56
337.738	424.56
337.966	464.56
338.194	461.56
338.422	452.56
338.65	423.56
338.878	436.56
339.106	429.56
339.334	439.56
339.562	422.56
339.79	435.56
340.018	430.56
340.246	434.56
340.474	445.56
340.702	436.56
340.93	444.56
341.158	428.56
341.386	427.56
341.614	452.56
341.842	426.56
342.07	435.56
342.298	415.56
342.526	440.56
342.754	419.56
342.981	411.56
343.209	425.56
343.437	423.56
343.665	427.56
343.893	425.56
344.12	465.56
344.348	450.56
344.576	444.56
344.804	438.56
345.031	441.56
345.259	449.56
345.487	446.56
345.714	436.56
345.942	425.56
346.17	420.56
346.397	413.56
346.625	417.56
346.853	404.56
347.08	428.56
347.308	411.56
347.535	421.56
347.763	434.56
347.99	438.56
348.218	416.56
348.445	418.56
348.673	424.56
348.9	422.56
349.128	421.56
349.355	411.56
349.583	408.56
349.81	394.56
350.037	405.56
350.265	401.56
350.492	400.56
350.72	414.56
350.947	415.56
351.174	418.56
351.402	428.56
351.629	414.56
351.856	436.56
352.083	417.56
352.311	440.56
352.538	476.56
352.765	463.56
352.992	434.56
353.22	432.56
353.447	435.56
353.674	420.56
353.901	420.56
354.128	376.56
354.355	402.56
354.583	414.56
354.81	394.56
355.037	389.56
355.264	383.56
355.491	404.56
355.718	395.56
355.945	420.56
356.172	412.56
356.399	409.56
356.626	397.56
356.853	402.56
357.08	400.56
357.307	398.56
357.534	398.56
357.761	401.56
357.988	398.56
358.215	399.56
358.441	416.56
358.668	395.56
358.895	405.56
359.122	407.56
359.349	404.56
359.576	416.56
359.802	425.56
360.029	459.56
360.256	476.56
360.483	459.56
360.709	450.56
360.936	415.56
361.163	413.56
361.39	433.56
361.616	432.56
361.843	422.56
362.07	424.56
362.296	410.56
362.523	423.56
362.749	420.56
362.976	404.56
363.203	410.56
363.429	392.56
363.656	418.56
363.882	401.56
364.109	408.56
364.335	396.56
364.562	419.56
364.788	410.56
365.015	411.56
365.241	409.56
365.468	418.56
365.694	416.56
365.92	404.56
366.147	407.56
366.373	426.56
366.599	413.56
366.826	411.56
367.052	419.56
367.278	415.56
367.505	414.56
367.731	397.56
367.957	407.56
368.184	425.56
368.41	428.56
368.636	436.56
368.862	443.56
369.089	423.56
369.315	417.56
369.541	385.56
369.767	415.56
369.993	392.56
370.219	430.56
370.445	413.56
370.672	419.56
370.898	404.56
371.124	437.56
371.35	421.56
371.576	418.56
371.802	421.56
372.028	407.56
372.254	432.56
372.48	413.56
372.706	426.56
372.932	418.56
373.158	416.56
373.384	434.56
373.61	422.56
373.835	449.56
374.061	418.56
374.287	434.56
374.513	409.56
374.739	429.56
374.965	468.56
375.191	424.56
375.416	390.56
375.642	420.56
375.868	436.56
376.094	405.56
376.319	403.56
376.545	414.56
376.771	421.56
376.997	411.56
377.222	407.56
377.448	420.56
377.674	406.56
377.899	403.56
378.125	406.56
378.35	415.56
378.576	412.56
378.802	418.56
379.027	415.56
379.253	417.56
379.478	428.56
379.704	409.56
379.929	422.56
380.155	407.56
380.38	418.56
380.606	435.56
380.831	427.56
381.057	434.56
381.282	412.56
381.507	431.56
381.733	428.56
381.958	429.56
382.184	423.56
382.409	445.56
382.634	436.56
382.86	426.56
383.085	428.56
383.31	429.56
383.535	432.56
383.761	440.56
383.986	450.56
384.211	448.56
384.436	449.56
384.662	442.56
384.887	468.56
385.112	466.56
385.337	458.56
385.562	471.56
385.787	462.56
386.013	500.56
386.238	466.56
386.463	482.56
386.688	475.56
386.913	466.56
387.138	437.56
387.363	473.56
387.588	460.56
387.813	461.56
388.038	447.56
388.263	463.56
388.488	452.56
388.713	468.56
388.938	480.56
389.163	487.56
389.387	466.56
389.612	468.56
389.837	452.56
390.062	482.56
390.287	478.56
390.512	466.56
390.736	474.56
390.961	472.56
391.186	467.56
391.411	506.56
391.636	484.56
391.86	488.56
392.085	471.56
392.31	498.56
392.534	485.56
392.759	474.56
392.984	482.56
393.208	476.56
393.433	480.56
393.658	472.56
393.882	482.56
394.107	496.56
394.331	483.56
394.556	479.56
394.78	488.56
395.005	479.56
395.229	489.56
395.454	493.56
395.678	487.56
395.903	498.56
396.127	536.56
396.352	520.56
396.576	484.56
396.801	486.56
397.025	494.56
397.249	506.56
397.474	491.56
397.698	529.56
397.922	505.56
398.147	529.56
398.371	532.56
398.595	525.56
398.82	540.56
399.044	551.56
399.268	582.56
399.492	632.56
399.717	673.56
399.941	688.56
400.165	690.56
400.389	690.56
400.613	636.56
400.837	595.56
401.062	566.56
401.286	586.56
401.51	543.56
401.734	546.56
401.958	564.56
402.182	565.56
402.406	573.56
402.63	586.56
402.854	595.56
403.078	580.56
403.302	595.56
403.526	581.56
403.75	573.56
403.974	594.56
404.198	587.56
404.422	594.56
404.645	572.56
404.869	602.56
405.093	634.56
405.317	677.56
405.541	690.56
405.765	631.56
405.988	632.56
406.212	606.56
406.436	626.56
406.66	656.56
406.883	644.56
407.107	676.56
407.331	692.56
407.555	777.56
407.778	788.56
408.002	692.56
408.226	659.56
408.449	635.56
408.673	634.56
408.896	676.56
409.12	708.56
409.344	676.56
409.567	620.56
409.791	597.56
410.014	590.56
410.238	581.56
410.461	578.56
410.685	578.56
410.908	627.56
411.132	640.56
411.355	665.56
411.578	644.56
411.802	591.56
412.025	589.56
412.249	580.56
412.472	602.56
412.695	617.56
412.919	638.56
413.142	589.56
413.365	581.56
413.589	556.56
413.812	554.56
414.035	567.56
414.258	555.56
414.482	558.56
414.705	566.56
414.928	557.56
415.151	567.56
415.374	561.56
415.597	567.56
415.821	554.56
416.044	544.56
416.267	533.56
416.49	536.56
416.713	556.56
416.936	552.56
417.159	558.56
417.382	561.56
417.605	561.56
417.828	595.56
418.051	600.56
418.274	548.56
418.497	566.56
418.72	573.56
418.943	561.56
419.166	570.56
419.389	611.56
419.611	606.56
419.834	580.56
420.057	597.56
420.28	582.56
420.503	605.56
420.726	579.56
420.948	612.56
421.171	626.56
421.394	623.56
421.617	615.56
421.839	596.56
422.062	592.56
422.285	596.56
422.507	665.56
422.73	727.56
422.953	679.56
423.175	622.56
423.398	613.56
423.621	581.56
423.843	639.56
424.066	639.56
424.288	630.56
424.511	626.56
424.733	685.56
424.956	778.56
425.178	730.56
425.401	728.56
425.623	742.56
425.846	660.56
426.068	609.56
426.291	614.56
426.513	619.56
426.735	626.56
426.958	660.56
427.18	720.56
427.402	855.56
427.625	946.56
427.847	835.56
428.069	718.56
428.292	663.56
428.514	618.56
428.736	598.56
428.958	592.56
429.181	549.56
429.403	558.56
429.625	583.56
429.847	609.56
430.069	672.56
430.292	655.56
430.514	569.56
430.736	561.56
430.958	543.56
431.18	563.56
431.402	540.56
431.624	519.56
431.846	522.56
432.068	529.56
432.29	548.56
432.512	545.56
432.734	536.56
432.956	539.56
433.178	563.56
433.4	578.56
433.622	555.56
433.844	549.56
434.066	547.56
434.287	531.56
434.509	557.56
434.731	574.56
434.953	579.56
435.175	596.56
435.397	602.56
435.618	610.56
435.84	625.56
436.062	752.56
436.284	812.56
436.505	674.56
436.727	626.56
436.949	576.56
437.17	588.56
437.392	576.56
437.614	570.56
437.835	616.56
438.057	693.56
438.278	796.56
438.5	792.56
438.721	865.56
438.943	840.56
439.165	640.56
439.386	617.56
439.608	613.56
439.829	616.56
440.05	634.56
440.272	696.56
440.493	635.56
440.715	602.56
440.936	582.56
441.158	566.56
441.379	562.56
441.6	576.56
441.822	615.56
442.043	650.56
442.264	735.56
442.486	758.56
442.707	670.56
442.928	635.56
443.149	638.56
443.371	619.56
443.592	698.56
443.813	801.56
444.034	833.56
444.255	717.56
444.476	643.56
444.698	643.56
444.919	616.56
445.14	722.56
445.361	672.56
445.582	667.56
445.803	712.56
446.024	789.56
446.245	806.56
446.466	749.56
446.687	629.56
446.908	619.56
447.129	582.56
447.35	587.56
447.571	565.56
447.792	557.56
448.013	557.56
448.234	567.56
448.455	618.56
448.675	723.56
448.896	850.56
449.117	721.56
449.338	680.56
449.559	768.56
449.779	916.56
450	713.56
450.221	573.56
450.442	553.56
450.662	542.56
450.883	560.56
451.104	574.56
451.324	567.56
451.545	545.56
451.766	526.56
451.986	486.56
452.207	509.56
452.428	500.56
452.648	516.56
452.869	516.56
453.089	511.56
453.31	534.56
453.53	535.56
453.751	493.56
453.971	509.56
454.192	532.56
454.412	523.56
454.633	513.56
454.853	503.56
455.073	491.56
455.294	506.56
455.514	576.56
455.734	575.56
455.955	512.56
456.175	492.56
456.395	474.56
456.616	488.56
456.836	486.56
457.056	480.56
457.276	469.56
457.497	476.56
457.717	480.56
457.937	482.56
458.157	503.56
458.377	502.56
458.598	513.56
458.818	574.56
459.038	636.56
459.258	675.56
459.478	613.56
459.698	541.56
459.918	559.56
460.138	550.56
460.358	558.56
460.578	581.56
460.798	551.56
461.018	562.56
461.238	570.56
461.458	568.56
461.678	584.56
461.898	582.56
462.118	555.56
462.338	569.56
462.558	600.56
462.777	606.56
462.997	628.56
463.217	626.56
463.437	655.56
463.657	625.56
463.876	601.56
464.096	619.56
464.316	612.56
464.536	606.56
464.755	619.56
464.975	609.56
465.195	643.56
465.414	723.56
465.634	646.56
465.854	588.56
466.073	564.56
466.293	537.56
466.512	531.56
466.732	503.56
466.951	526.56
467.171	511.56
467.391	536.56
467.61	533.56
467.829	542.56
468.049	535.56
468.268	529.56
468.488	516.56
468.707	532.56
468.927	533.56
469.146	517.56
469.365	520.56
469.585	501.56
469.804	526.56
470.023	538.56
470.243	544.56
470.462	544.56
470.681	538.56
470.901	566.56
471.12	552.56
471.339	516.56
471.558	554.56
471.777	532.56
471.997	526.56
472.216	526.56
472.435	574.56
472.654	547.56
472.873	534.56
473.092	516.56
473.311	512.56
473.53	507.56
473.749	530.56
473.968	583.56
474.187	642.56
474.406	692.56
474.625	589.56
474.844	568.56
475.063	550.56
475.282	527.56
475.501	539.56
475.72	539.56
475.939	556.56
476.158	564.56
476.377	547.56
476.596	546.56
476.814	550.56
477.033	572.56
477.252	574.56
477.471	575.56
477.69	574.56
477.908	571.56
478.127	575.56
478.346	554.56
478.564	586.56
478.783	601.56
479.002	604.56
479.22	611.56
479.439	605.56
479.658	631.56
479.876	637.56
480.095	648.56
480.313	686.56
480.532	679.56
480.751	657.56
480.969	659.56
481.188	732.56
481.406	758.56
481.624	670.56
481.843	638.56
482.061	634.56
482.28	640.56
482.498	602.56
482.717	606.56
482.935	622.56
483.153	608.56
483.372	613.56
483.59	602.56
483.808	612.56
484.027	627.56
484.245	632.56
484.463	615.56
484.681	629.56
484.9	616.56
485.118	631.56
485.336	603.56
485.554	621.56
485.772	637.56
485.99	632.56
486.209	646.56
486.427	658.56
486.645	644.56
486.863	664.56
487.081	676.56
487.299	689.56
487.517	693.56
487.735	642.56
487.953	660.56
488.171	640.56
488.389	654.56
488.607	691.56
488.825	686.56
489.043	658.56
489.261	672.56
489.479	653.56
489.696	675.56
489.914	657.56
490.132	696.56
490.35	690.56
490.568	709.56
490.786	693.56
491.003	704.56
491.221	706.56
491.439	746.56
491.657	734.56
491.874	757.56
492.092	748.56
492.31	749.56
492.527	741.56
492.745	755.56
492.963	766.56
493.18	768.56
493.398	733.56
493.615	749.56
493.833	774.56
494.05	764.56
494.268	770.56
494.485	773.56
494.703	753.56
494.92	777.56
495.138	773.56
495.355	779.56
495.573	788.56
495.79	784.56
496.008	820.56
496.225	778.56
496.442	801.56
496.66	801.56
496.877	789.56
497.094	778.56
497.312	796.56
497.529	818.56
497.746	818.56
497.963	851.56
498.181	856.56
498.398	908.56
498.615	890.56
498.832	915.56
499.049	929.56
499.267	961.56
499.484	985.56
499.701	1050.56
499.918	1113.56
500.135	1163.56
500.352	1204.56
500.569	1216.56
500.786	1233.56
501.003	1222.56
501.22	1195.56
501.437	1131.56
501.654	1068.56
501.871	1048.56
