Data from 1979.PennyLincolnUp.Lamp.En5.5.200Scan.071719.P1_HRD10591_16-17-32-863.txt Node
Date: Thu Jul 18 16:17:32 EDT 2019
User: cochatt
Spectrometer: HR+D1059
Trigger mode: 1
Integration Time (sec): 1.000000E-1
Scans to average: 1
Electric dark correction enabled: true
Nonlinearity correction enabled: false
Boxcar width: 0
XAxis mode: Wavelengths
Number of Pixels in Spectrum: 2048
>>>>>Begin Spectral Data<<<<<
223.165	-14.5
223.4	-14.5
223.635	-14.5
223.869	-19.5
224.104	-27.5
224.338	-21.5
224.573	-4.5
224.808	-8.5
225.042	-4.5
225.277	-18.5
225.511	-7.5
225.746	-2.5
225.98	4.5
226.215	13.5
226.449	14.5
226.683	27.5
226.918	37.5
227.152	31.5
227.387	27.5
227.621	35.5
227.856	46.5
228.09	39.5
228.324	35.5
228.559	46.5
228.793	63.5
229.027	91.5
229.262	79.5
229.496	90.5
229.73	89.5
229.964	110.5
230.199	98.5
230.433	93.5
230.667	110.5
230.901	98.5
231.136	106.5
231.37	102.5
231.604	106.5
231.838	111.5
232.072	114.5
232.306	103.5
232.541	121.5
232.775	108.5
233.009	121.5
233.243	116.5
233.477	101.5
233.711	97.5
233.945	102.5
234.179	114.5
234.413	111.5
234.647	113.5
234.881	101.5
235.115	109.5
235.349	112.5
235.583	99.5
235.817	113.5
236.051	101.5
236.285	112.5
236.519	113.5
236.753	131.5
236.987	127.5
237.221	128.5
237.455	167.5
237.689	133.5
237.922	126.5
238.156	123.5
238.39	103.5
238.624	103.5
238.858	114.5
239.091	122.5
239.325	106.5
239.559	110.5
239.793	104.5
240.027	123.5
240.26	124.5
240.494	118.5
240.728	133.5
240.961	141.5
241.195	127.5
241.429	108.5
241.662	139.5
241.896	124.5
242.13	121.5
242.363	118.5
242.597	110.5
242.83	105.5
243.064	125.5
243.298	110.5
243.531	124.5
243.765	129.5
243.998	125.5
244.232	123.5
244.465	134.5
244.699	125.5
244.932	129.5
245.166	144.5
245.399	132.5
245.633	128.5
245.866	134.5
246.099	144.5
246.333	122.5
246.566	115.5
246.8	132.5
247.033	135.5
247.266	143.5
247.5	151.5
247.733	151.5
247.966	147.5
248.2	152.5
248.433	139.5
248.666	153.5
248.899	155.5
249.133	151.5
249.366	170.5
249.599	147.5
249.832	156.5
250.066	167.5
250.299	157.5
250.532	162.5
250.765	170.5
250.998	172.5
251.231	181.5
251.465	165.5
251.698	167.5
251.931	186.5
252.164	172.5
252.397	158.5
252.63	173.5
252.863	156.5
253.096	176.5
253.329	180.5
253.562	159.5
253.795	175.5
254.028	187.5
254.261	173.5
254.494	193.5
254.727	187.5
254.96	213.5
255.193	215.5
255.426	195.5
255.659	174.5
255.892	175.5
256.124	178.5
256.357	181.5
256.59	187.5
256.823	163.5
257.056	178.5
257.289	191.5
257.521	167.5
257.754	160.5
257.987	161.5
258.22	183.5
258.452	172.5
258.685	173.5
258.918	186.5
259.151	182.5
259.383	189.5
259.616	178.5
259.849	168.5
260.081	182.5
260.314	199.5
260.547	202.5
260.779	195.5
261.012	187.5
261.244	190.5
261.477	193.5
261.71	179.5
261.942	190.5
262.175	191.5
262.407	186.5
262.64	170.5
262.872	165.5
263.105	193.5
263.337	163.5
263.57	165.5
263.802	189.5
264.035	172.5
264.267	178.5
264.499	183.5
264.732	179.5
264.964	182.5
265.197	191.5
265.429	180.5
265.661	177.5
265.894	176.5
266.126	166.5
266.358	175.5
266.591	185.5
266.823	189.5
267.055	194.5
267.287	195.5
267.52	172.5
267.752	198.5
267.984	195.5
268.216	191.5
268.448	194.5
268.681	202.5
268.913	204.5
269.145	201.5
269.377	226.5
269.609	210.5
269.841	209.5
270.073	201.5
270.306	225.5
270.538	235.5
270.77	233.5
271.002	211.5
271.234	221.5
271.466	234.5
271.698	219.5
271.93	229.5
272.162	234.5
272.394	246.5
272.626	218.5
272.858	216.5
273.09	225.5
273.322	228.5
273.553	211.5
273.785	228.5
274.017	206.5
274.249	202.5
274.481	206.5
274.713	213.5
274.945	225.5
275.176	213.5
275.408	214.5
275.64	206.5
275.872	211.5
276.104	217.5
276.335	206.5
276.567	219.5
276.799	211.5
277.031	246.5
277.262	230.5
277.494	232.5
277.726	229.5
277.957	222.5
278.189	213.5
278.421	229.5
278.652	238.5
278.884	227.5
279.115	213.5
279.347	222.5
279.579	225.5
279.81	245.5
280.042	220.5
280.273	231.5
280.505	212.5
280.736	228.5
280.968	241.5
281.199	233.5
281.431	222.5
281.662	232.5
281.894	223.5
282.125	213.5
282.356	248.5
282.588	261.5
282.819	258.5
283.051	230.5
283.282	217.5
283.513	236.5
283.745	233.5
283.976	221.5
284.207	246.5
284.439	229.5
284.67	245.5
284.901	242.5
285.132	236.5
285.364	234.5
285.595	218.5
285.826	232.5
286.057	236.5
286.288	247.5
286.52	231.5
286.751	227.5
286.982	240.5
287.213	256.5
287.444	239.5
287.675	249.5
287.906	253.5
288.138	252.5
288.369	249.5
288.6	259.5
288.831	242.5
289.062	258.5
289.293	251.5
289.524	228.5
289.755	234.5
289.986	252.5
290.217	237.5
290.448	243.5
290.679	259.5
290.91	265.5
291.141	261.5
291.371	250.5
291.602	249.5
291.833	261.5
292.064	246.5
292.295	237.5
292.526	238.5
292.757	241.5
292.987	244.5
293.218	266.5
293.449	251.5
293.68	262.5
293.91	269.5
294.141	261.5
294.372	252.5
294.603	239.5
294.833	256.5
295.064	265.5
295.295	244.5
295.525	270.5
295.756	259.5
295.987	236.5
296.217	249.5
296.448	262.5
296.679	263.5
296.909	262.5
297.14	241.5
297.37	239.5
297.601	273.5
297.831	252.5
298.062	257.5
298.292	256.5
298.523	269.5
298.753	279.5
298.984	301.5
299.214	266.5
299.445	270.5
299.675	277.5
299.905	264.5
300.136	263.5
300.366	281.5
300.597	286.5
300.827	274.5
301.057	267.5
301.288	281.5
301.518	277.5
301.748	274.5
301.979	267.5
302.209	277.5
302.439	270.5
302.669	282.5
302.9	285.5
303.13	287.5
303.36	286.5
303.59	290.5
303.82	274.5
304.051	280.5
304.281	297.5
304.511	277.5
304.741	279.5
304.971	277.5
305.201	274.5
305.431	288.5
305.661	301.5
305.891	286.5
306.121	283.5
306.352	296.5
306.582	278.5
306.812	268.5
307.042	277.5
307.272	261.5
307.502	283.5
307.731	285.5
307.961	292.5
308.191	286.5
308.421	293.5
308.651	266.5
308.881	293.5
309.111	293.5
309.341	292.5
309.571	293.5
309.8	283.5
310.03	298.5
310.26	308.5
310.49	313.5
310.72	308.5
310.949	313.5
311.179	314.5
311.409	316.5
311.639	287.5
311.868	318.5
312.098	305.5
312.328	316.5
312.557	329.5
312.787	325.5
313.017	323.5
313.246	302.5
313.476	303.5
313.706	324.5
313.935	317.5
314.165	321.5
314.394	317.5
314.624	332.5
314.853	335.5
315.083	309.5
315.312	307.5
315.542	313.5
315.771	313.5
316.001	309.5
316.23	314.5
316.46	311.5
316.689	293.5
316.919	334.5
317.148	317.5
317.377	326.5
317.607	316.5
317.836	317.5
318.065	331.5
318.295	334.5
318.524	320.5
318.753	298.5
318.983	329.5
319.212	329.5
319.441	330.5
319.67	318.5
319.9	311.5
320.129	329.5
320.358	325.5
320.587	320.5
320.816	348.5
321.046	332.5
321.275	334.5
321.504	343.5
321.733	335.5
321.962	321.5
322.191	322.5
322.42	331.5
322.649	357.5
322.878	334.5
323.108	347.5
323.337	354.5
323.566	360.5
323.795	391.5
324.024	393.5
324.253	451.5
324.482	597.5
324.71	873.5
324.939	1315.5
325.168	1103.5
325.397	572.5
325.626	421.5
325.855	383.5
326.084	397.5
326.313	381.5
326.542	368.5
326.77	369.5
326.999	452.5
327.228	582.5
327.457	830.5
327.686	1003.5
327.914	661.5
328.143	441.5
328.372	418.5
328.6	394.5
328.829	390.5
329.058	408.5
329.287	405.5
329.515	393.5
329.744	387.5
329.972	378.5
330.201	388.5
330.43	387.5
330.658	411.5
330.887	425.5
331.115	407.5
331.344	390.5
331.572	385.5
331.801	379.5
332.03	385.5
332.258	376.5
332.486	373.5
332.715	390.5
332.943	386.5
333.172	403.5
333.4	406.5
333.629	404.5
333.857	407.5
334.085	419.5
334.314	417.5
334.542	426.5
334.771	416.5
334.999	418.5
335.227	404.5
335.455	377.5
335.684	386.5
335.912	395.5
336.14	383.5
336.369	433.5
336.597	385.5
336.825	377.5
337.053	376.5
337.281	380.5
337.51	374.5
337.738	365.5
337.966	386.5
338.194	375.5
338.422	376.5
338.65	393.5
338.878	353.5
339.106	360.5
339.334	371.5
339.562	371.5
339.79	373.5
340.018	348.5
340.246	357.5
340.474	374.5
340.702	363.5
340.93	364.5
341.158	363.5
341.386	362.5
341.614	375.5
341.842	370.5
342.07	382.5
342.298	346.5
342.526	345.5
342.754	347.5
342.981	376.5
343.209	366.5
343.437	363.5
343.665	363.5
343.893	372.5
344.12	393.5
344.348	369.5
344.576	381.5
344.804	390.5
345.031	378.5
345.259	371.5
345.487	373.5
345.714	374.5
345.942	357.5
346.17	358.5
346.397	349.5
346.625	363.5
346.853	352.5
347.08	337.5
347.308	351.5
347.535	358.5
347.763	369.5
347.99	356.5
348.218	369.5
348.445	366.5
348.673	354.5
348.9	343.5
349.128	347.5
349.355	369.5
349.583	357.5
349.81	336.5
350.037	370.5
350.265	366.5
350.492	336.5
350.72	339.5
350.947	362.5
351.174	369.5
351.402	347.5
351.629	338.5
351.856	333.5
352.083	353.5
352.311	360.5
352.538	346.5
352.765	373.5
352.992	334.5
353.22	337.5
353.447	341.5
353.674	339.5
353.901	359.5
354.128	347.5
354.355	339.5
354.583	353.5
354.81	333.5
355.037	355.5
355.264	345.5
355.491	339.5
355.718	347.5
355.945	329.5
356.172	352.5
356.399	335.5
356.626	345.5
356.853	338.5
357.08	336.5
357.307	326.5
357.534	343.5
357.761	328.5
357.988	340.5
358.215	361.5
358.441	341.5
358.668	317.5
358.895	347.5
359.122	359.5
359.349	345.5
359.576	379.5
359.802	359.5
360.029	369.5
360.256	366.5
360.483	370.5
360.709	381.5
360.936	359.5
361.163	362.5
361.39	346.5
361.616	376.5
361.843	346.5
362.07	361.5
362.296	351.5
362.523	369.5
362.749	365.5
362.976	319.5
363.203	354.5
363.429	358.5
363.656	355.5
363.882	355.5
364.109	367.5
364.335	342.5
364.562	346.5
364.788	341.5
365.015	349.5
365.241	370.5
365.468	346.5
365.694	349.5
365.92	340.5
366.147	352.5
366.373	350.5
366.599	377.5
366.826	373.5
367.052	335.5
367.278	357.5
367.505	353.5
367.731	362.5
367.957	357.5
368.184	349.5
368.41	363.5
368.636	354.5
368.862	382.5
369.089	356.5
369.315	351.5
369.541	377.5
369.767	355.5
369.993	363.5
370.219	373.5
370.445	346.5
370.672	371.5
370.898	355.5
371.124	357.5
371.35	373.5
371.576	351.5
371.802	356.5
372.028	350.5
372.254	377.5
372.48	372.5
372.706	373.5
372.932	375.5
373.158	373.5
373.384	370.5
373.61	367.5
373.835	389.5
374.061	367.5
374.287	382.5
374.513	369.5
374.739	379.5
374.965	374.5
375.191	387.5
375.416	413.5
375.642	357.5
375.868	365.5
376.094	379.5
376.319	369.5
376.545	358.5
376.771	371.5
376.997	356.5
377.222	375.5
377.448	351.5
377.674	369.5
377.899	373.5
378.125	361.5
378.35	363.5
378.576	381.5
378.802	381.5
379.027	367.5
379.253	377.5
379.478	365.5
379.704	387.5
379.929	398.5
380.155	385.5
380.38	383.5
380.606	389.5
380.831	386.5
381.057	374.5
381.282	380.5
381.507	376.5
381.733	409.5
381.958	367.5
382.184	383.5
382.409	395.5
382.634	391.5
382.86	385.5
383.085	379.5
383.31	394.5
383.535	379.5
383.761	385.5
383.986	403.5
384.211	378.5
384.436	414.5
384.662	400.5
384.887	403.5
385.112	401.5
385.337	420.5
385.562	417.5
385.787	420.5
386.013	426.5
386.238	414.5
386.463	425.5
386.688	411.5
386.913	407.5
387.138	410.5
387.363	413.5
387.588	397.5
387.813	402.5
388.038	421.5
388.263	416.5
388.488	416.5
388.713	419.5
388.938	415.5
389.163	406.5
389.387	419.5
389.612	407.5
389.837	413.5
390.062	405.5
390.287	415.5
390.512	417.5
390.736	414.5
390.961	420.5
391.186	415.5
391.411	437.5
391.636	434.5
391.86	432.5
392.085	443.5
392.31	417.5
392.534	435.5
392.759	436.5
392.984	453.5
393.208	457.5
393.433	464.5
393.658	461.5
393.882	453.5
394.107	429.5
394.331	437.5
394.556	434.5
394.78	423.5
395.005	428.5
395.229	427.5
395.454	443.5
395.678	440.5
395.903	462.5
396.127	480.5
396.352	465.5
396.576	436.5
396.801	469.5
397.025	467.5
397.249	474.5
397.474	485.5
397.698	475.5
397.922	458.5
398.147	470.5
398.371	498.5
398.595	491.5
398.82	470.5
399.044	482.5
399.268	515.5
399.492	561.5
399.717	578.5
399.941	599.5
400.165	588.5
400.389	602.5
400.613	533.5
400.837	512.5
401.062	504.5
401.286	501.5
401.51	513.5
401.734	490.5
401.958	501.5
402.182	489.5
402.406	502.5
402.63	501.5
402.854	475.5
403.078	505.5
403.302	514.5
403.526	513.5
403.75	513.5
403.974	518.5
404.198	508.5
404.422	532.5
404.645	499.5
404.869	535.5
405.093	533.5
405.317	548.5
405.541	572.5
405.765	561.5
405.988	525.5
406.212	535.5
406.436	546.5
406.66	549.5
406.883	531.5
407.107	566.5
407.331	591.5
407.555	639.5
407.778	629.5
408.002	599.5
408.226	574.5
408.449	554.5
408.673	546.5
408.896	573.5
409.12	615.5
409.344	614.5
409.567	557.5
409.791	541.5
410.014	530.5
410.238	527.5
410.461	521.5
410.685	517.5
410.908	532.5
411.132	549.5
411.355	588.5
411.578	563.5
411.802	539.5
412.025	508.5
412.249	525.5
412.472	545.5
412.695	548.5
412.919	519.5
413.142	535.5
413.365	509.5
413.589	498.5
413.812	515.5
414.035	479.5
414.258	514.5
414.482	485.5
414.705	477.5
414.928	495.5
415.151	511.5
415.374	504.5
415.597	497.5
415.821	491.5
416.044	490.5
416.267	500.5
416.49	517.5
416.713	483.5
416.936	479.5
417.159	472.5
417.382	505.5
417.605	495.5
417.828	498.5
418.051	499.5
418.274	464.5
418.497	473.5
418.72	480.5
418.943	484.5
419.166	500.5
419.389	546.5
419.611	514.5
419.834	492.5
420.057	515.5
420.28	503.5
420.503	477.5
420.726	505.5
420.948	490.5
421.171	527.5
421.394	571.5
421.617	496.5
421.839	495.5
422.062	506.5
422.285	483.5
422.507	548.5
422.73	599.5
422.953	599.5
423.175	545.5
423.398	534.5
423.621	527.5
423.843	529.5
424.066	521.5
424.288	520.5
424.511	537.5
424.733	580.5
424.956	607.5
425.178	601.5
425.401	596.5
425.623	615.5
425.846	557.5
426.068	536.5
426.291	527.5
426.513	497.5
426.735	539.5
426.958	544.5
427.18	588.5
427.402	678.5
427.625	765.5
427.847	651.5
428.069	570.5
428.292	545.5
428.514	514.5
428.736	490.5
428.958	509.5
429.181	487.5
429.403	497.5
429.625	486.5
429.847	511.5
430.069	543.5
430.292	566.5
430.514	502.5
430.736	491.5
430.958	465.5
431.18	458.5
431.402	466.5
431.624	450.5
431.846	466.5
432.068	479.5
432.29	463.5
432.512	461.5
432.734	467.5
432.956	472.5
433.178	471.5
433.4	470.5
433.622	460.5
433.844	463.5
434.066	485.5
434.287	481.5
434.509	469.5
434.731	502.5
434.953	509.5
435.175	498.5
435.397	515.5
435.618	516.5
435.84	542.5
436.062	622.5
436.284	664.5
436.505	567.5
436.727	519.5
436.949	479.5
437.17	472.5
437.392	491.5
437.614	492.5
437.835	502.5
438.057	558.5
438.278	625.5
438.5	639.5
438.721	701.5
438.943	659.5
439.165	553.5
439.386	515.5
439.608	527.5
439.829	526.5
440.05	514.5
440.272	572.5
440.493	523.5
440.715	521.5
440.936	511.5
441.158	497.5
441.379	489.5
441.6	522.5
441.822	502.5
442.043	547.5
442.264	594.5
442.486	629.5
442.707	543.5
442.928	505.5
443.149	530.5
443.371	549.5
443.592	558.5
443.813	635.5
444.034	693.5
444.255	594.5
444.476	561.5
444.698	540.5
444.919	573.5
445.14	634.5
445.361	593.5
445.582	562.5
445.803	582.5
446.024	647.5
446.245	667.5
446.466	610.5
446.687	516.5
446.908	505.5
447.129	470.5
447.35	484.5
447.571	484.5
447.792	466.5
448.013	467.5
448.234	479.5
448.455	532.5
448.675	594.5
448.896	660.5
449.117	569.5
449.338	554.5
449.559	632.5
449.779	717.5
450	558.5
450.221	488.5
450.442	455.5
450.662	468.5
450.883	477.5
451.104	461.5
451.324	454.5
451.545	454.5
451.766	444.5
451.986	428.5
452.207	426.5
452.428	418.5
452.648	438.5
452.869	424.5
453.089	422.5
453.31	426.5
453.53	443.5
453.751	437.5
453.971	402.5
454.192	446.5
454.412	417.5
454.633	421.5
454.853	421.5
455.073	438.5
455.294	425.5
455.514	505.5
455.734	474.5
455.955	437.5
456.175	409.5
456.395	417.5
456.616	404.5
456.836	414.5
457.056	425.5
457.276	402.5
457.497	409.5
457.717	405.5
457.937	415.5
458.157	418.5
458.377	429.5
458.598	433.5
458.818	459.5
459.038	530.5
459.258	525.5
459.478	498.5
459.698	470.5
459.918	471.5
460.138	457.5
460.358	468.5
460.578	482.5
460.798	502.5
461.018	488.5
461.238	485.5
461.458	491.5
461.678	499.5
461.898	503.5
462.118	494.5
462.338	523.5
462.558	513.5
462.777	527.5
462.997	561.5
463.217	589.5
463.437	589.5
463.657	557.5
463.876	556.5
464.096	569.5
464.316	541.5
464.536	546.5
464.755	551.5
464.975	543.5
465.195	548.5
465.414	572.5
465.634	531.5
465.854	479.5
466.073	470.5
466.293	479.5
466.512	470.5
466.732	462.5
466.951	458.5
467.171	463.5
467.391	468.5
467.61	458.5
467.829	463.5
468.049	459.5
468.268	456.5
468.488	465.5
468.707	454.5
468.927	445.5
469.146	418.5
469.365	459.5
469.585	445.5
469.804	475.5
470.023	458.5
470.243	465.5
470.462	463.5
470.681	476.5
470.901	478.5
471.12	482.5
471.339	457.5
471.558	437.5
471.777	446.5
471.997	459.5
472.216	468.5
472.435	462.5
472.654	461.5
472.873	466.5
473.092	471.5
473.311	451.5
473.53	476.5
473.749	456.5
473.968	485.5
474.187	530.5
474.406	542.5
474.625	506.5
474.844	484.5
475.063	456.5
475.282	459.5
475.501	476.5
475.72	487.5
475.939	476.5
476.158	491.5
476.377	469.5
476.596	473.5
476.814	497.5
477.033	480.5
477.252	504.5
477.471	504.5
477.69	521.5
477.908	504.5
478.127	514.5
478.346	501.5
478.564	519.5
478.783	534.5
479.002	531.5
479.22	529.5
479.439	543.5
479.658	527.5
479.876	539.5
480.095	564.5
480.313	585.5
480.532	572.5
480.751	585.5
480.969	586.5
481.188	562.5
481.406	622.5
481.624	565.5
481.843	559.5
482.061	550.5
482.28	537.5
482.498	549.5
482.717	533.5
482.935	549.5
483.153	533.5
483.372	532.5
483.59	542.5
483.808	571.5
484.027	543.5
484.245	565.5
484.463	545.5
484.681	571.5
484.9	571.5
485.118	574.5
485.336	554.5
485.554	567.5
485.772	563.5
485.99	557.5
486.209	581.5
486.427	561.5
486.645	565.5
486.863	561.5
487.081	597.5
487.299	562.5
487.517	594.5
487.735	576.5
487.953	584.5
488.171	575.5
488.389	590.5
488.607	565.5
488.825	569.5
489.043	563.5
489.261	562.5
489.479	580.5
489.696	576.5
489.914	573.5
490.132	591.5
490.35	580.5
490.568	596.5
490.786	601.5
491.003	619.5
491.221	609.5
491.439	626.5
491.657	652.5
491.874	637.5
492.092	637.5
492.31	609.5
492.527	645.5
492.745	623.5
492.963	620.5
493.18	662.5
493.398	659.5
493.615	653.5
493.833	655.5
494.05	637.5
494.268	663.5
494.485	659.5
494.703	670.5
494.92	655.5
495.138	663.5
495.355	655.5
495.573	649.5
495.79	663.5
496.008	647.5
496.225	650.5
496.442	691.5
496.66	682.5
496.877	663.5
497.094	675.5
497.312	704.5
497.529	697.5
497.746	686.5
497.963	712.5
498.181	726.5
498.398	748.5
498.615	802.5
498.832	812.5
499.049	809.5
499.267	877.5
499.484	866.5
499.701	925.5
499.918	985.5
500.135	1011.5
500.352	1071.5
500.569	1095.5
500.786	1093.5
501.003	1083.5
501.22	1026.5
501.437	987.5
501.654	931.5
501.871	902.5
502.088	876.5
502.305	839.5
502.522	824.5
502.739	794.5
502.956	779.5
503.172	734.5
503.389	718.5
503.606	716.5
503.823	729.5
504.04	720.5
504.256	709.5
504.473	705.5
504.69	725.5
504.907	691.5
505.123	674.5
505.34	650.5
505.557	661.5
505.773	666.5
505.99	666.5
506.207	630.5
506.423	625.5
506.64	627.5
506.856	617.5
507.073	636.5
507.289	609.5
507.506	607.5
507.722	590.5
507.939	632.5
508.155	616.5
508.372	613.5
508.588	582.5
508.805	586.5
509.021	568.5
509.238	611.5
509.454	594.5
509.67	554.5
509.887	580.5
510.103	594.5
510.319	587.5
510.536	616.5
510.752	832.5
510.968	766.5
511.184	611.5
511.401	561.5
511.617	551.5
511.833	549.5
512.049	554.5
512.265	545.5
512.481	558.5
512.698	554.5
512.914	563.5
513.13	581.5
513.346	537.5
513.562	556.5
513.778	572.5
513.994	545.5
514.21	550.5
514.426	561.5
514.642	580.5
514.858	591.5
515.074	623.5
515.29	666.5
515.506	833.5
515.721	750.5
515.937	627.5
516.153	573.5
516.369	591.5
516.585	607.5
516.801	601.5
517.016	600.5
517.232	631.5
517.448	614.5
517.664	623.5
517.879	630.5
518.095	639.5
518.311	585.5
518.527	603.5
518.742	591.5
518.958	615.5
519.173	564.5
519.389	572.5
519.605	586.5
519.82	570.5
520.036	576.5
