Data from 1979.PennyLincolnUp.Lamp.En5.5.200Scan.071719.P1_HRD10591_16-17-41-863.txt Node
Date: Thu Jul 18 16:17:41 EDT 2019
User: cochatt
Spectrometer: HR+D1059
Trigger mode: 1
Integration Time (sec): 1.000000E-1
Scans to average: 1
Electric dark correction enabled: true
Nonlinearity correction enabled: false
Boxcar width: 0
XAxis mode: Wavelengths
Number of Pixels in Spectrum: 2048
>>>>>Begin Spectral Data<<<<<
223.165	-19.31
223.4	-19.31
223.635	-19.31
223.869	-26.31
224.104	-26.31
224.338	0.69
224.573	-13.31
224.808	-22.31
225.042	-11.31
225.277	8.69
225.511	0.69
225.746	8.69
225.98	22.69
226.215	10.69
226.449	14.69
226.683	11.69
226.918	12.69
227.152	27.69
227.387	25.69
227.621	48.69
227.856	36.69
228.09	52.69
228.324	51.69
228.559	57.69
228.793	64.69
229.027	84.69
229.262	91.69
229.496	91.69
229.73	106.69
229.964	143.69
230.199	116.69
230.433	110.69
230.667	97.69
230.901	95.69
231.136	95.69
231.37	101.69
231.604	110.69
231.838	117.69
232.072	113.69
232.306	122.69
232.541	102.69
232.775	108.69
233.009	106.69
233.243	111.69
233.477	118.69
233.711	106.69
233.945	105.69
234.179	114.69
234.413	96.69
234.647	108.69
234.881	113.69
235.115	104.69
235.349	119.69
235.583	116.69
235.817	112.69
236.051	114.69
236.285	100.69
236.519	102.69
236.753	118.69
236.987	112.69
237.221	141.69
237.455	182.69
237.689	150.69
237.922	142.69
238.156	128.69
238.39	117.69
238.624	94.69
238.858	108.69
239.091	120.69
239.325	117.69
239.559	118.69
239.793	128.69
240.027	125.69
240.26	123.69
240.494	123.69
240.728	129.69
240.961	141.69
241.195	126.69
241.429	124.69
241.662	126.69
241.896	122.69
242.13	127.69
242.363	136.69
242.597	128.69
242.83	120.69
243.064	119.69
243.298	127.69
243.531	127.69
243.765	121.69
243.998	134.69
244.232	139.69
244.465	126.69
244.699	138.69
244.932	134.69
245.166	146.69
245.399	127.69
245.633	121.69
245.866	137.69
246.099	142.69
246.333	139.69
246.566	128.69
246.8	138.69
247.033	131.69
247.266	140.69
247.5	150.69
247.733	154.69
247.966	160.69
248.2	147.69
248.433	148.69
248.666	145.69
248.899	164.69
249.133	179.69
249.366	177.69
249.599	171.69
249.832	149.69
250.066	156.69
250.299	171.69
250.532	187.69
250.765	185.69
250.998	186.69
251.231	185.69
251.465	176.69
251.698	166.69
251.931	170.69
252.164	162.69
252.397	161.69
252.63	172.69
252.863	165.69
253.096	179.69
253.329	180.69
253.562	187.69
253.795	172.69
254.028	176.69
254.261	184.69
254.494	174.69
254.727	196.69
254.96	205.69
255.193	212.69
255.426	209.69
255.659	183.69
255.892	190.69
256.124	194.69
256.357	205.69
256.59	182.69
256.823	181.69
257.056	188.69
257.289	180.69
257.521	177.69
257.754	168.69
257.987	176.69
258.22	178.69
258.452	189.69
258.685	177.69
258.918	186.69
259.151	180.69
259.383	197.69
259.616	192.69
259.849	184.69
260.081	206.69
260.314	211.69
260.547	218.69
260.779	180.69
261.012	206.69
261.244	206.69
261.477	212.69
261.71	188.69
261.942	173.69
262.175	186.69
262.407	201.69
262.64	189.69
262.872	196.69
263.105	182.69
263.337	193.69
263.57	188.69
263.802	180.69
264.035	192.69
264.267	182.69
264.499	185.69
264.732	188.69
264.964	182.69
265.197	178.69
265.429	176.69
265.661	191.69
265.894	198.69
266.126	207.69
266.358	200.69
266.591	195.69
266.823	212.69
267.055	200.69
267.287	204.69
267.52	193.69
267.752	205.69
267.984	206.69
268.216	183.69
268.448	214.69
268.681	206.69
268.913	201.69
269.145	202.69
269.377	209.69
269.609	218.69
269.841	219.69
270.073	224.69
270.306	225.69
270.538	232.69
270.77	232.69
271.002	222.69
271.234	235.69
271.466	234.69
271.698	233.69
271.93	233.69
272.162	254.69
272.394	259.69
272.626	231.69
272.858	227.69
273.09	210.69
273.322	221.69
273.553	234.69
273.785	237.69
274.017	217.69
274.249	229.69
274.481	209.69
274.713	214.69
274.945	244.69
275.176	217.69
275.408	219.69
275.64	214.69
275.872	225.69
276.104	229.69
276.335	236.69
276.567	218.69
276.799	241.69
277.031	252.69
277.262	266.69
277.494	250.69
277.726	240.69
277.957	236.69
278.189	215.69
278.421	228.69
278.652	224.69
278.884	233.69
279.115	228.69
279.347	221.69
279.579	219.69
279.81	225.69
280.042	215.69
280.273	217.69
280.505	216.69
280.736	211.69
280.968	222.69
281.199	223.69
281.431	224.69
281.662	250.69
281.894	223.69
282.125	220.69
282.356	244.69
282.588	254.69
282.819	261.69
283.051	237.69
283.282	227.69
283.513	242.69
283.745	245.69
283.976	253.69
284.207	250.69
284.439	249.69
284.67	239.69
284.901	232.69
285.132	252.69
285.364	233.69
285.595	237.69
285.826	243.69
286.057	252.69
286.288	247.69
286.52	235.69
286.751	245.69
286.982	242.69
287.213	241.69
287.444	245.69
287.675	255.69
287.906	267.69
288.138	258.69
288.369	254.69
288.6	272.69
288.831	241.69
289.062	256.69
289.293	257.69
289.524	261.69
289.755	242.69
289.986	249.69
290.217	263.69
290.448	266.69
290.679	261.69
290.91	257.69
291.141	228.69
291.371	266.69
291.602	260.69
291.833	243.69
292.064	256.69
292.295	258.69
292.526	260.69
292.757	260.69
292.987	263.69
293.218	256.69
293.449	247.69
293.68	275.69
293.91	260.69
294.141	247.69
294.372	264.69
294.603	270.69
294.833	260.69
295.064	260.69
295.295	263.69
295.525	250.69
295.756	256.69
295.987	275.69
296.217	273.69
296.448	269.69
296.679	273.69
296.909	261.69
297.14	250.69
297.37	282.69
297.601	265.69
297.831	251.69
298.062	272.69
298.292	268.69
298.523	272.69
298.753	255.69
298.984	264.69
299.214	264.69
299.445	270.69
299.675	284.69
299.905	293.69
300.136	275.69
300.366	261.69
300.597	281.69
300.827	258.69
301.057	277.69
301.288	288.69
301.518	290.69
301.748	290.69
301.979	293.69
302.209	317.69
302.439	285.69
302.669	279.69
302.9	289.69
303.13	289.69
303.36	300.69
303.59	284.69
303.82	282.69
304.051	303.69
304.281	285.69
304.511	286.69
304.741	292.69
304.971	300.69
305.201	291.69
305.431	293.69
305.661	300.69
305.891	282.69
306.121	299.69
306.352	294.69
306.582	299.69
306.812	289.69
307.042	305.69
307.272	298.69
307.502	301.69
307.731	279.69
307.961	286.69
308.191	297.69
308.421	295.69
308.651	309.69
308.881	299.69
309.111	297.69
309.341	297.69
309.571	307.69
309.8	306.69
310.03	307.69
310.26	308.69
310.49	316.69
310.72	326.69
310.949	334.69
311.179	329.69
311.409	318.69
311.639	304.69
311.868	316.69
312.098	325.69
312.328	319.69
312.557	324.69
312.787	343.69
313.017	350.69
313.246	330.69
313.476	319.69
313.706	327.69
313.935	338.69
314.165	338.69
314.394	334.69
314.624	349.69
314.853	332.69
315.083	337.69
315.312	327.69
315.542	339.69
315.771	346.69
316.001	323.69
316.23	338.69
316.46	313.69
316.689	330.69
316.919	345.69
317.148	337.69
317.377	339.69
317.607	341.69
317.836	326.69
318.065	347.69
318.295	318.69
318.524	315.69
318.753	321.69
318.983	312.69
319.212	328.69
319.441	338.69
319.67	343.69
319.9	322.69
320.129	340.69
320.358	340.69
320.587	346.69
320.816	337.69
321.046	325.69
321.275	341.69
321.504	320.69
321.733	336.69
321.962	341.69
322.191	348.69
322.42	357.69
322.649	355.69
322.878	375.69
323.108	352.69
323.337	396.69
323.566	380.69
323.795	403.69
324.024	430.69
324.253	488.69
324.482	667.69
324.71	1002.69
324.939	1493.69
325.168	1312.69
325.397	648.69
325.626	464.69
325.855	418.69
326.084	406.69
326.313	405.69
326.542	428.69
326.77	420.69
326.999	496.69
327.228	613.69
327.457	934.69
327.686	1141.69
327.914	731.69
328.143	500.69
328.372	452.69
328.6	450.69
328.829	430.69
329.058	432.69
329.287	453.69
329.515	416.69
329.744	403.69
329.972	411.69
330.201	422.69
330.43	451.69
330.658	440.69
330.887	477.69
331.115	453.69
331.344	406.69
331.572	402.69
331.801	408.69
332.03	404.69
332.258	406.69
332.486	399.69
332.715	381.69
332.943	397.69
333.172	401.69
333.4	418.69
333.629	411.69
333.857	417.69
334.085	432.69
334.314	442.69
334.542	432.69
334.771	459.69
334.999	420.69
335.227	430.69
335.455	413.69
335.684	408.69
335.912	393.69
336.14	398.69
336.369	411.69
336.597	401.69
336.825	391.69
337.053	406.69
337.281	384.69
337.51	420.69
337.738	406.69
337.966	386.69
338.194	392.69
338.422	391.69
338.65	413.69
338.878	400.69
339.106	368.69
339.334	393.69
339.562	383.69
339.79	384.69
340.018	381.69
340.246	401.69
340.474	379.69
340.702	377.69
340.93	377.69
341.158	371.69
341.386	384.69
341.614	389.69
341.842	374.69
342.07	375.69
342.298	367.69
342.526	388.69
342.754	354.69
342.981	370.69
343.209	375.69
343.437	387.69
343.665	383.69
343.893	385.69
344.12	407.69
344.348	394.69
344.576	414.69
344.804	373.69
345.031	406.69
345.259	396.69
345.487	402.69
345.714	407.69
345.942	369.69
346.17	380.69
346.397	386.69
346.625	378.69
346.853	382.69
347.08	352.69
347.308	387.69
347.535	372.69
347.763	383.69
347.99	381.69
348.218	379.69
348.445	365.69
348.673	356.69
348.9	354.69
349.128	384.69
349.355	368.69
349.583	364.69
349.81	363.69
350.037	369.69
350.265	351.69
350.492	365.69
350.72	365.69
350.947	391.69
351.174	363.69
351.402	366.69
351.629	360.69
351.856	361.69
352.083	384.69
352.311	387.69
352.538	388.69
352.765	372.69
352.992	377.69
353.22	347.69
353.447	354.69
353.674	378.69
353.901	372.69
354.128	345.69
354.355	363.69
354.583	350.69
354.81	360.69
355.037	373.69
355.264	348.69
355.491	365.69
355.718	355.69
355.945	353.69
356.172	360.69
356.399	343.69
356.626	364.69
356.853	347.69
357.08	346.69
357.307	350.69
357.534	371.69
357.761	343.69
357.988	357.69
358.215	372.69
358.441	350.69
358.668	361.69
358.895	374.69
359.122	382.69
359.349	381.69
359.576	379.69
359.802	360.69
360.029	378.69
360.256	378.69
360.483	390.69
360.709	369.69
360.936	376.69
361.163	378.69
361.39	390.69
361.616	396.69
361.843	349.69
362.07	382.69
362.296	384.69
362.523	380.69
362.749	382.69
362.976	371.69
363.203	366.69
363.429	368.69
363.656	360.69
363.882	386.69
364.109	362.69
364.335	365.69
364.562	377.69
364.788	366.69
365.015	355.69
365.241	369.69
365.468	355.69
365.694	365.69
365.92	360.69
366.147	369.69
366.373	375.69
366.599	364.69
366.826	368.69
367.052	381.69
367.278	357.69
367.505	379.69
367.731	358.69
367.957	374.69
368.184	381.69
368.41	372.69
368.636	363.69
368.862	375.69
369.089	380.69
369.315	375.69
369.541	359.69
369.767	367.69
369.993	362.69
370.219	371.69
370.445	386.69
370.672	368.69
370.898	363.69
371.124	384.69
371.35	363.69
371.576	372.69
371.802	373.69
372.028	386.69
372.254	389.69
372.48	372.69
372.706	382.69
372.932	381.69
373.158	381.69
373.384	397.69
373.61	372.69
373.835	384.69
374.061	374.69
374.287	388.69
374.513	402.69
374.739	393.69
374.965	394.69
375.191	405.69
375.416	376.69
375.642	371.69
375.868	398.69
376.094	396.69
376.319	398.69
376.545	389.69
376.771	386.69
376.997	385.69
377.222	381.69
377.448	371.69
377.674	373.69
377.899	390.69
378.125	378.69
378.35	393.69
378.576	365.69
378.802	371.69
379.027	388.69
379.253	396.69
379.478	369.69
379.704	348.69
379.929	376.69
380.155	373.69
380.38	379.69
380.606	351.69
380.831	376.69
381.057	395.69
381.282	394.69
381.507	394.69
381.733	384.69
381.958	400.69
382.184	381.69
382.409	404.69
382.634	415.69
382.86	387.69
383.085	395.69
383.31	388.69
383.535	398.69
383.761	396.69
383.986	404.69
384.211	408.69
384.436	412.69
384.662	410.69
384.887	408.69
385.112	427.69
385.337	434.69
385.562	410.69
385.787	436.69
386.013	443.69
386.238	424.69
386.463	436.69
386.688	421.69
386.913	419.69
387.138	420.69
387.363	435.69
387.588	440.69
387.813	428.69
388.038	414.69
388.263	440.69
388.488	435.69
388.713	436.69
388.938	423.69
389.163	429.69
389.387	441.69
389.612	429.69
389.837	426.69
390.062	404.69
390.287	422.69
390.512	429.69
390.736	434.69
390.961	426.69
391.186	427.69
391.411	445.69
391.636	443.69
391.86	460.69
392.085	457.69
392.31	457.69
392.534	467.69
392.759	461.69
392.984	454.69
393.208	432.69
393.433	451.69
393.658	448.69
393.882	446.69
394.107	449.69
394.331	446.69
394.556	436.69
394.78	449.69
395.005	445.69
395.229	427.69
395.454	450.69
395.678	453.69
395.903	471.69
396.127	481.69
396.352	469.69
396.576	460.69
396.801	460.69
397.025	457.69
397.249	462.69
397.474	461.69
397.698	462.69
397.922	492.69
398.147	500.69
398.371	490.69
398.595	482.69
398.82	491.69
399.044	507.69
399.268	560.69
399.492	585.69
399.717	608.69
399.941	621.69
400.165	628.69
400.389	628.69
400.613	566.69
400.837	536.69
401.062	534.69
401.286	517.69
401.51	520.69
401.734	491.69
401.958	520.69
402.182	508.69
402.406	517.69
402.63	530.69
402.854	521.69
403.078	525.69
403.302	548.69
403.526	544.69
403.75	540.69
403.974	522.69
404.198	522.69
404.422	512.69
404.645	530.69
404.869	544.69
405.093	554.69
405.317	590.69
405.541	586.69
405.765	577.69
405.988	549.69
406.212	572.69
406.436	568.69
406.66	569.69
406.883	586.69
407.107	611.69
407.331	633.69
407.555	696.69
407.778	678.69
408.002	637.69
408.226	602.69
408.449	595.69
408.673	587.69
408.896	602.69
409.12	636.69
409.344	602.69
409.567	577.69
409.791	551.69
410.014	532.69
410.238	537.69
410.461	545.69
410.685	537.69
410.908	554.69
411.132	573.69
411.355	587.69
411.578	567.69
411.802	541.69
412.025	525.69
412.249	521.69
412.472	558.69
412.695	585.69
412.919	547.69
413.142	528.69
413.365	505.69
413.589	526.69
413.812	526.69
414.035	497.69
414.258	517.69
414.482	518.69
414.705	503.69
414.928	512.69
415.151	517.69
415.374	535.69
415.597	501.69
415.821	499.69
416.044	498.69
416.267	515.69
416.49	526.69
416.713	498.69
416.936	516.69
417.159	490.69
417.382	498.69
417.605	496.69
417.828	478.69
418.051	516.69
418.274	524.69
418.497	504.69
418.72	482.69
418.943	509.69
419.166	520.69
419.389	549.69
419.611	538.69
419.834	530.69
420.057	538.69
420.28	509.69
420.503	519.69
420.726	515.69
420.948	548.69
421.171	546.69
421.394	585.69
421.617	542.69
421.839	517.69
422.062	522.69
422.285	531.69
422.507	567.69
422.73	640.69
422.953	618.69
423.175	552.69
423.398	530.69
423.621	512.69
423.843	557.69
424.066	557.69
424.288	535.69
424.511	545.69
424.733	596.69
424.956	675.69
425.178	631.69
425.401	617.69
425.623	644.69
425.846	571.69
426.068	534.69
426.291	532.69
426.513	517.69
426.735	521.69
426.958	565.69
427.18	635.69
427.402	717.69
427.625	822.69
427.847	708.69
428.069	602.69
428.292	564.69
428.514	530.69
428.736	513.69
428.958	504.69
429.181	508.69
429.403	489.69
429.625	502.69
429.847	544.69
430.069	590.69
430.292	597.69
430.514	516.69
430.736	507.69
430.958	497.69
431.18	476.69
431.402	477.69
431.624	473.69
431.846	470.69
432.068	476.69
432.29	477.69
432.512	484.69
432.734	498.69
432.956	506.69
433.178	511.69
433.4	501.69
433.622	501.69
433.844	497.69
434.066	501.69
434.287	501.69
434.509	504.69
434.731	514.69
434.953	512.69
435.175	521.69
435.397	543.69
435.618	512.69
435.84	565.69
436.062	658.69
436.284	708.69
436.505	603.69
436.727	564.69
436.949	516.69
437.17	509.69
437.392	515.69
437.614	517.69
437.835	540.69
438.057	597.69
438.278	694.69
438.5	671.69
438.721	728.69
438.943	732.69
439.165	585.69
439.386	537.69
439.608	558.69
439.829	531.69
440.05	555.69
440.272	578.69
440.493	572.69
440.715	532.69
440.936	513.69
441.158	489.69
441.379	513.69
441.6	513.69
441.822	525.69
442.043	567.69
442.264	632.69
442.486	664.69
442.707	591.69
442.928	560.69
443.149	557.69
443.371	566.69
443.592	616.69
443.813	660.69
444.034	696.69
444.255	617.69
444.476	572.69
444.698	569.69
444.919	586.69
445.14	683.69
445.361	612.69
445.582	591.69
445.803	609.69
446.024	689.69
446.245	694.69
446.466	642.69
446.687	570.69
446.908	540.69
447.129	535.69
447.35	508.69
447.571	527.69
447.792	488.69
448.013	488.69
448.234	507.69
448.455	552.69
448.675	622.69
448.896	713.69
449.117	592.69
449.338	568.69
449.559	663.69
449.779	756.69
450	614.69
450.221	527.69
450.442	508.69
450.662	461.69
450.883	476.69
451.104	472.69
451.324	498.69
451.545	484.69
451.766	465.69
451.986	429.69
452.207	467.69
452.428	461.69
452.648	427.69
452.869	452.69
453.089	444.69
453.31	466.69
453.53	450.69
453.751	454.69
453.971	455.69
454.192	474.69
454.412	466.69
454.633	453.69
454.853	437.69
455.073	440.69
455.294	450.69
455.514	519.69
455.734	473.69
455.955	436.69
456.175	449.69
456.395	427.69
456.616	445.69
456.836	446.69
457.056	457.69
457.276	442.69
457.497	444.69
457.717	430.69
457.937	456.69
458.157	442.69
458.377	456.69
458.598	437.69
458.818	482.69
459.038	546.69
459.258	580.69
459.478	520.69
459.698	486.69
459.918	494.69
460.138	510.69
460.358	512.69
460.578	498.69
460.798	522.69
461.018	530.69
461.238	525.69
461.458	515.69
461.678	518.69
461.898	525.69
462.118	519.69
462.338	538.69
462.558	528.69
462.777	555.69
462.997	578.69
463.217	596.69
463.437	589.69
463.657	582.69
463.876	562.69
464.096	558.69
464.316	570.69
464.536	556.69
464.755	568.69
464.975	550.69
465.195	576.69
465.414	611.69
465.634	538.69
465.854	508.69
466.073	499.69
466.293	488.69
466.512	475.69
466.732	487.69
466.951	475.69
467.171	455.69
467.391	498.69
467.61	481.69
467.829	508.69
468.049	492.69
468.268	475.69
468.488	467.69
468.707	460.69
468.927	465.69
469.146	460.69
469.365	471.69
469.585	477.69
469.804	474.69
470.023	502.69
470.243	476.69
470.462	477.69
470.681	488.69
470.901	500.69
471.12	480.69
471.339	474.69
471.558	477.69
471.777	478.69
471.997	473.69
472.216	485.69
472.435	489.69
472.654	488.69
472.873	457.69
473.092	486.69
473.311	469.69
473.53	467.69
473.749	483.69
473.968	502.69
474.187	550.69
474.406	581.69
474.625	528.69
474.844	494.69
475.063	478.69
475.282	492.69
475.501	470.69
475.72	507.69
475.939	487.69
476.158	494.69
476.377	491.69
476.596	482.69
476.814	506.69
477.033	508.69
477.252	508.69
477.471	502.69
477.69	512.69
477.908	541.69
478.127	528.69
478.346	541.69
478.564	532.69
478.783	550.69
479.002	536.69
479.22	553.69
479.439	564.69
479.658	579.69
479.876	586.69
480.095	559.69
480.313	610.69
480.532	605.69
480.751	599.69
480.969	594.69
481.188	619.69
481.406	614.69
481.624	569.69
481.843	568.69
482.061	570.69
482.28	564.69
482.498	565.69
482.717	556.69
482.935	560.69
483.153	563.69
483.372	569.69
483.59	560.69
483.808	543.69
484.027	544.69
484.245	571.69
484.463	598.69
484.681	589.69
484.9	584.69
485.118	572.69
485.336	582.69
485.554	579.69
485.772	594.69
485.99	582.69
486.209	580.69
486.427	574.69
486.645	602.69
486.863	593.69
487.081	603.69
487.299	611.69
487.517	601.69
487.735	576.69
487.953	580.69
488.171	584.69
488.389	576.69
488.607	604.69
488.825	597.69
489.043	596.69
489.261	617.69
489.479	606.69
489.696	612.69
489.914	607.69
490.132	598.69
490.35	617.69
490.568	633.69
490.786	635.69
491.003	619.69
491.221	649.69
491.439	642.69
491.657	651.69
491.874	671.69
492.092	656.69
492.31	675.69
492.527	652.69
492.745	674.69
492.963	661.69
493.18	669.69
493.398	692.69
493.615	690.69
493.833	711.69
494.05	676.69
494.268	681.69
494.485	695.69
494.703	694.69
494.92	682.69
495.138	664.69
495.355	667.69
495.573	694.69
495.79	677.69
496.008	701.69
496.225	674.69
496.442	691.69
496.66	699.69
496.877	709.69
497.094	708.69
497.312	732.69
497.529	747.69
497.746	758.69
497.963	773.69
498.181	768.69
498.398	798.69
498.615	808.69
498.832	865.69
499.049	861.69
499.267	870.69
499.484	899.69
499.701	993.69
499.918	1012.69
500.135	1053.69
500.352	1091.69
500.569	1140.69
500.786	1142.69
501.003	1116.69
501.22	1067.69
501.437	1017.69
501.654	977.69
501.871	957.69
