Data from 1979.PennyLincolnUp.Lamp.En5.5.200Scan.071719.P1_HRD10591_16-18-10-863.txt Node
Date: Thu Jul 18 16:18:10 EDT 2019
User: cochatt
Spectrometer: HR+D1059
Trigger mode: 1
Integration Time (sec): 1.000000E-1
Scans to average: 1
Electric dark correction enabled: true
Nonlinearity correction enabled: false
Boxcar width: 0
XAxis mode: Wavelengths
Number of Pixels in Spectrum: 2048
>>>>>Begin Spectral Data<<<<<
223.165	-23.94
223.4	-23.94
223.635	-23.94
223.869	-12.94
224.104	-5.94
224.338	-5.94
224.573	-13.94
224.808	-23.94
225.042	-21.94
225.277	-3.94
225.511	6.06
225.746	1.06
225.98	-5.94
226.215	1.06
226.449	13.06
226.683	24.06
226.918	31.06
227.152	42.06
227.387	47.06
227.621	35.06
227.856	18.06
228.09	50.06
228.324	51.06
228.559	48.06
228.793	57.06
229.027	71.06
229.262	96.06
229.496	91.06
229.73	125.06
229.964	127.06
230.199	117.06
230.433	98.06
230.667	101.06
230.901	106.06
231.136	104.06
231.37	98.06
231.604	100.06
231.838	111.06
232.072	117.06
232.306	103.06
232.541	97.06
232.775	99.06
233.009	106.06
233.243	113.06
233.477	108.06
233.711	107.06
233.945	122.06
234.179	105.06
234.413	113.06
234.647	113.06
234.881	117.06
235.115	106.06
235.349	104.06
235.583	117.06
235.817	117.06
236.051	120.06
236.285	108.06
236.519	112.06
236.753	113.06
236.987	124.06
237.221	150.06
237.455	189.06
237.689	159.06
237.922	128.06
238.156	132.06
238.39	127.06
238.624	117.06
238.858	109.06
239.091	127.06
239.325	116.06
239.559	111.06
239.793	126.06
240.027	129.06
240.26	139.06
240.494	139.06
240.728	133.06
240.961	131.06
241.195	144.06
241.429	138.06
241.662	120.06
241.896	129.06
242.13	131.06
242.363	119.06
242.597	137.06
242.83	127.06
243.064	119.06
243.298	122.06
243.531	133.06
243.765	115.06
243.998	155.06
244.232	129.06
244.465	139.06
244.699	124.06
244.932	143.06
245.166	153.06
245.399	135.06
245.633	134.06
245.866	155.06
246.099	135.06
246.333	140.06
246.566	159.06
246.8	139.06
247.033	159.06
247.266	152.06
247.5	142.06
247.733	160.06
247.966	156.06
248.2	167.06
248.433	161.06
248.666	161.06
248.899	154.06
249.133	178.06
249.366	177.06
249.599	178.06
249.832	170.06
250.066	163.06
250.299	167.06
250.532	172.06
250.765	173.06
250.998	195.06
251.231	203.06
251.465	197.06
251.698	181.06
251.931	178.06
252.164	178.06
252.397	173.06
252.63	196.06
252.863	169.06
253.096	187.06
253.329	189.06
253.562	192.06
253.795	211.06
254.028	191.06
254.261	183.06
254.494	203.06
254.727	211.06
254.96	239.06
255.193	224.06
255.426	215.06
255.659	182.06
255.892	204.06
256.124	210.06
256.357	203.06
256.59	205.06
256.823	192.06
257.056	198.06
257.289	190.06
257.521	187.06
257.754	186.06
257.987	198.06
258.22	187.06
258.452	182.06
258.685	185.06
258.918	205.06
259.151	207.06
259.383	199.06
259.616	196.06
259.849	196.06
260.081	203.06
260.314	226.06
260.547	218.06
260.779	212.06
261.012	198.06
261.244	210.06
261.477	202.06
261.71	195.06
261.942	220.06
262.175	196.06
262.407	204.06
262.64	186.06
262.872	180.06
263.105	183.06
263.337	194.06
263.57	194.06
263.802	193.06
264.035	194.06
264.267	188.06
264.499	204.06
264.732	188.06
264.964	185.06
265.197	201.06
265.429	208.06
265.661	186.06
265.894	195.06
266.126	194.06
266.358	203.06
266.591	200.06
266.823	215.06
267.055	196.06
267.287	212.06
267.52	200.06
267.752	189.06
267.984	200.06
268.216	210.06
268.448	236.06
268.681	209.06
268.913	222.06
269.145	217.06
269.377	235.06
269.609	224.06
269.841	239.06
270.073	256.06
270.306	252.06
270.538	277.06
270.77	268.06
271.002	275.06
271.234	239.06
271.466	252.06
271.698	262.06
271.93	283.06
272.162	268.06
272.394	272.06
272.626	276.06
272.858	248.06
273.09	257.06
273.322	247.06
273.553	224.06
273.785	236.06
274.017	221.06
274.249	227.06
274.481	244.06
274.713	247.06
274.945	253.06
275.176	251.06
275.408	244.06
275.64	246.06
275.872	235.06
276.104	255.06
276.335	249.06
276.567	254.06
276.799	257.06
277.031	263.06
277.262	275.06
277.494	284.06
277.726	259.06
277.957	263.06
278.189	223.06
278.421	243.06
278.652	255.06
278.884	243.06
279.115	250.06
279.347	234.06
279.579	243.06
279.81	244.06
280.042	256.06
280.273	248.06
280.505	248.06
280.736	242.06
280.968	255.06
281.199	244.06
281.431	255.06
281.662	233.06
281.894	258.06
282.125	250.06
282.356	255.06
282.588	275.06
282.819	284.06
283.051	267.06
283.282	243.06
283.513	252.06
283.745	233.06
283.976	253.06
284.207	277.06
284.439	266.06
284.67	253.06
284.901	249.06
285.132	259.06
285.364	273.06
285.595	267.06
285.826	279.06
286.057	281.06
286.288	259.06
286.52	263.06
286.751	244.06
286.982	259.06
287.213	271.06
287.444	271.06
287.675	270.06
287.906	284.06
288.138	266.06
288.369	275.06
288.6	287.06
288.831	267.06
289.062	267.06
289.293	279.06
289.524	280.06
289.755	301.06
289.986	276.06
290.217	279.06
290.448	257.06
290.679	266.06
290.91	271.06
291.141	287.06
291.371	268.06
291.602	273.06
291.833	276.06
292.064	273.06
292.295	275.06
292.526	283.06
292.757	273.06
292.987	293.06
293.218	265.06
293.449	296.06
293.68	274.06
293.91	280.06
294.141	279.06
294.372	275.06
294.603	288.06
294.833	283.06
295.064	266.06
295.295	281.06
295.525	299.06
295.756	289.06
295.987	283.06
296.217	311.06
296.448	295.06
296.679	287.06
296.909	279.06
297.14	293.06
297.37	289.06
297.601	306.06
297.831	261.06
298.062	282.06
298.292	298.06
298.523	295.06
298.753	307.06
298.984	297.06
299.214	287.06
299.445	290.06
299.675	287.06
299.905	298.06
300.136	298.06
300.366	327.06
300.597	307.06
300.827	296.06
301.057	311.06
301.288	298.06
301.518	323.06
301.748	322.06
301.979	316.06
302.209	303.06
302.439	307.06
302.669	315.06
302.9	306.06
303.13	309.06
303.36	295.06
303.59	313.06
303.82	314.06
304.051	343.06
304.281	332.06
304.511	299.06
304.741	311.06
304.971	312.06
305.201	319.06
305.431	296.06
305.661	313.06
305.891	319.06
306.121	300.06
306.352	317.06
306.582	330.06
306.812	319.06
307.042	316.06
307.272	311.06
307.502	316.06
307.731	318.06
307.961	301.06
308.191	315.06
308.421	296.06
308.651	312.06
308.881	306.06
309.111	307.06
309.341	324.06
309.571	316.06
309.8	339.06
310.03	338.06
310.26	352.06
310.49	342.06
310.72	359.06
310.949	368.06
311.179	359.06
311.409	329.06
311.639	350.06
311.868	343.06
312.098	350.06
312.328	352.06
312.557	355.06
312.787	359.06
313.017	379.06
313.246	371.06
313.476	347.06
313.706	353.06
313.935	341.06
314.165	367.06
314.394	389.06
314.624	379.06
314.853	369.06
315.083	348.06
315.312	361.06
315.542	341.06
315.771	359.06
316.001	350.06
316.23	339.06
316.46	353.06
316.689	355.06
316.919	337.06
317.148	353.06
317.377	345.06
317.607	364.06
317.836	354.06
318.065	336.06
318.295	360.06
318.524	356.06
318.753	320.06
318.983	374.06
319.212	351.06
319.441	357.06
319.67	379.06
319.9	353.06
320.129	340.06
320.358	383.06
320.587	350.06
320.816	389.06
321.046	351.06
321.275	372.06
321.504	362.06
321.733	375.06
321.962	394.06
322.191	367.06
322.42	398.06
322.649	392.06
322.878	416.06
323.108	421.06
323.337	412.06
323.566	457.06
323.795	450.06
324.024	485.06
324.253	564.06
324.482	805.06
324.71	1225.06
324.939	1871.06
325.168	1601.06
325.397	801.06
325.626	567.06
325.855	482.06
326.084	449.06
326.313	437.06
326.542	452.06
326.77	499.06
326.999	564.06
327.228	780.06
327.457	1153.06
327.686	1421.06
327.914	942.06
328.143	588.06
328.372	542.06
328.6	520.06
328.829	491.06
329.058	517.06
329.287	503.06
329.515	493.06
329.744	460.06
329.972	465.06
330.201	482.06
330.43	521.06
330.658	531.06
330.887	550.06
331.115	540.06
331.344	481.06
331.572	447.06
331.801	434.06
332.03	463.06
332.258	451.06
332.486	456.06
332.715	435.06
332.943	433.06
333.172	439.06
333.4	440.06
333.629	439.06
333.857	449.06
334.085	489.06
334.314	487.06
334.542	521.06
334.771	519.06
334.999	479.06
335.227	458.06
335.455	457.06
335.684	431.06
335.912	442.06
336.14	435.06
336.369	422.06
336.597	433.06
336.825	408.06
337.053	419.06
337.281	426.06
337.51	418.06
337.738	417.06
337.966	424.06
338.194	429.06
338.422	415.06
338.65	439.06
338.878	413.06
339.106	417.06
339.334	420.06
339.562	422.06
339.79	403.06
340.018	411.06
340.246	411.06
340.474	411.06
340.702	409.06
340.93	398.06
341.158	424.06
341.386	405.06
341.614	435.06
341.842	404.06
342.07	409.06
342.298	415.06
342.526	415.06
342.754	394.06
342.981	409.06
343.209	407.06
343.437	423.06
343.665	412.06
343.893	411.06
344.12	447.06
344.348	433.06
344.576	421.06
344.804	419.06
345.031	404.06
345.259	443.06
345.487	409.06
345.714	416.06
345.942	415.06
346.17	411.06
346.397	387.06
346.625	404.06
346.853	371.06
347.08	389.06
347.308	413.06
347.535	393.06
347.763	402.06
347.99	401.06
348.218	403.06
348.445	408.06
348.673	407.06
348.9	388.06
349.128	367.06
349.355	378.06
349.583	408.06
349.81	379.06
350.037	393.06
350.265	405.06
350.492	411.06
350.72	375.06
350.947	398.06
351.174	400.06
351.402	400.06
351.629	405.06
351.856	379.06
352.083	400.06
352.311	405.06
352.538	428.06
352.765	427.06
352.992	419.06
353.22	397.06
353.447	396.06
353.674	409.06
353.901	378.06
354.128	395.06
354.355	388.06
354.583	385.06
354.81	380.06
355.037	389.06
355.264	379.06
355.491	376.06
355.718	383.06
355.945	390.06
356.172	388.06
356.399	383.06
356.626	391.06
356.853	388.06
357.08	363.06
357.307	391.06
357.534	373.06
357.761	369.06
357.988	371.06
358.215	383.06
358.441	370.06
358.668	378.06
358.895	395.06
359.122	384.06
359.349	397.06
359.576	406.06
359.802	395.06
360.029	440.06
360.256	443.06
360.483	435.06
360.709	411.06
360.936	406.06
361.163	403.06
361.39	400.06
361.616	402.06
361.843	411.06
362.07	395.06
362.296	390.06
362.523	397.06
362.749	393.06
362.976	405.06
363.203	408.06
363.429	375.06
363.656	388.06
363.882	403.06
364.109	393.06
364.335	388.06
364.562	391.06
364.788	395.06
365.015	405.06
365.241	405.06
365.468	387.06
365.694	403.06
365.92	401.06
366.147	398.06
366.373	388.06
366.599	405.06
366.826	377.06
367.052	393.06
367.278	392.06
367.505	391.06
367.731	399.06
367.957	380.06
368.184	398.06
368.41	404.06
368.636	395.06
368.862	406.06
369.089	410.06
369.315	391.06
369.541	396.06
369.767	409.06
369.993	381.06
370.219	393.06
370.445	407.06
370.672	399.06
370.898	397.06
371.124	405.06
371.35	403.06
371.576	395.06
371.802	403.06
372.028	408.06
372.254	417.06
372.48	385.06
372.706	407.06
372.932	407.06
373.158	402.06
373.384	409.06
373.61	427.06
373.835	386.06
374.061	390.06
374.287	401.06
374.513	410.06
374.739	434.06
374.965	413.06
375.191	435.06
375.416	437.06
375.642	415.06
375.868	421.06
376.094	425.06
376.319	400.06
376.545	379.06
376.771	376.06
376.997	395.06
377.222	402.06
377.448	385.06
377.674	392.06
377.899	383.06
378.125	395.06
378.35	398.06
378.576	417.06
378.802	394.06
379.027	406.06
379.253	412.06
379.478	398.06
379.704	392.06
379.929	399.06
380.155	413.06
380.38	412.06
380.606	409.06
380.831	415.06
381.057	399.06
381.282	423.06
381.507	410.06
381.733	397.06
381.958	397.06
382.184	416.06
382.409	427.06
382.634	423.06
382.86	400.06
383.085	398.06
383.31	435.06
383.535	415.06
383.761	426.06
383.986	420.06
384.211	422.06
384.436	419.06
384.662	439.06
384.887	438.06
385.112	437.06
385.337	468.06
385.562	441.06
385.787	439.06
386.013	465.06
386.238	468.06
386.463	455.06
386.688	465.06
386.913	447.06
387.138	441.06
387.363	441.06
387.588	455.06
387.813	459.06
388.038	443.06
388.263	470.06
388.488	443.06
388.713	462.06
388.938	451.06
389.163	483.06
389.387	477.06
389.612	444.06
389.837	453.06
390.062	453.06
390.287	454.06
390.512	451.06
390.736	454.06
390.961	448.06
391.186	467.06
391.411	461.06
391.636	444.06
391.86	466.06
392.085	452.06
392.31	459.06
392.534	469.06
392.759	490.06
392.984	472.06
393.208	467.06
393.433	467.06
393.658	472.06
393.882	462.06
394.107	471.06
394.331	485.06
394.556	459.06
394.78	475.06
395.005	477.06
395.229	462.06
395.454	467.06
395.678	471.06
395.903	499.06
396.127	500.06
396.352	501.06
396.576	490.06
396.801	499.06
397.025	490.06
397.249	511.06
397.474	493.06
397.698	503.06
397.922	503.06
398.147	511.06
398.371	524.06
398.595	526.06
398.82	536.06
399.044	548.06
399.268	572.06
399.492	600.06
399.717	652.06
399.941	659.06
400.165	668.06
400.389	658.06
400.613	595.06
400.837	573.06
401.062	557.06
401.286	542.06
401.51	543.06
401.734	551.06
401.958	564.06
402.182	545.06
402.406	541.06
402.63	536.06
402.854	542.06
403.078	536.06
403.302	565.06
403.526	576.06
403.75	568.06
403.974	556.06
404.198	565.06
404.422	567.06
404.645	567.06
404.869	574.06
405.093	589.06
405.317	616.06
405.541	670.06
405.765	616.06
405.988	585.06
406.212	590.06
406.436	587.06
406.66	643.06
406.883	612.06
407.107	628.06
407.331	677.06
407.555	705.06
407.778	748.06
408.002	684.06
408.226	631.06
408.449	639.06
408.673	606.06
408.896	650.06
409.12	691.06
409.344	633.06
409.567	600.06
409.791	584.06
410.014	590.06
410.238	569.06
410.461	588.06
410.685	585.06
410.908	588.06
411.132	647.06
411.355	661.06
411.578	655.06
411.802	585.06
412.025	559.06
412.249	566.06
412.472	598.06
412.695	639.06
412.919	611.06
413.142	577.06
413.365	559.06
413.589	541.06
413.812	555.06
414.035	544.06
414.258	534.06
414.482	532.06
414.705	541.06
414.928	549.06
415.151	520.06
415.374	525.06
415.597	553.06
415.821	544.06
416.044	532.06
416.267	553.06
416.49	545.06
416.713	537.06
416.936	538.06
417.159	509.06
417.382	521.06
417.605	540.06
417.828	538.06
418.051	583.06
418.274	554.06
418.497	532.06
418.72	539.06
418.943	525.06
419.166	568.06
419.389	586.06
419.611	584.06
419.834	558.06
420.057	581.06
420.28	565.06
420.503	545.06
420.726	521.06
420.948	559.06
421.171	613.06
421.394	621.06
421.617	566.06
421.839	551.06
422.062	543.06
422.285	543.06
422.507	614.06
422.73	677.06
422.953	660.06
423.175	584.06
423.398	588.06
423.621	583.06
423.843	575.06
424.066	598.06
424.288	587.06
424.511	587.06
424.733	645.06
424.956	696.06
425.178	680.06
425.401	657.06
425.623	717.06
425.846	617.06
426.068	605.06
426.291	599.06
426.513	589.06
426.735	557.06
426.958	598.06
427.18	677.06
427.402	808.06
427.625	889.06
427.847	773.06
428.069	676.06
428.292	637.06
428.514	583.06
428.736	551.06
428.958	547.06
429.181	533.06
429.403	537.06
429.625	529.06
429.847	564.06
430.069	628.06
430.292	612.06
430.514	559.06
430.736	523.06
430.958	519.06
431.18	506.06
431.402	499.06
431.624	529.06
431.846	484.06
432.068	515.06
432.29	517.06
432.512	514.06
432.734	513.06
432.956	521.06
433.178	534.06
433.4	529.06
433.622	540.06
433.844	528.06
434.066	542.06
434.287	516.06
434.509	517.06
434.731	543.06
434.953	543.06
435.175	576.06
435.397	590.06
435.618	581.06
435.84	637.06
436.062	695.06
436.284	749.06
436.505	630.06
436.727	603.06
436.949	549.06
437.17	545.06
437.392	536.06
437.614	518.06
437.835	568.06
438.057	652.06
438.278	728.06
438.5	739.06
438.721	819.06
438.943	772.06
439.165	648.06
439.386	568.06
439.608	591.06
439.829	582.06
440.05	612.06
440.272	639.06
440.493	614.06
440.715	554.06
440.936	555.06
441.158	527.06
441.379	572.06
441.6	567.06
441.822	567.06
442.043	611.06
442.264	663.06
442.486	704.06
442.707	612.06
442.928	600.06
443.149	607.06
443.371	605.06
443.592	657.06
443.813	742.06
444.034	780.06
444.255	681.06
444.476	613.06
444.698	625.06
444.919	593.06
445.14	732.06
445.361	671.06
445.582	637.06
445.803	658.06
446.024	771.06
446.245	762.06
446.466	700.06
446.687	608.06
446.908	555.06
447.129	540.06
447.35	534.06
447.571	540.06
447.792	513.06
448.013	525.06
448.234	552.06
448.455	572.06
448.675	669.06
448.896	760.06
449.117	664.06
449.338	637.06
449.559	712.06
449.779	825.06
450	683.06
450.221	603.06
450.442	518.06
450.662	521.06
450.883	518.06
451.104	514.06
451.324	513.06
451.545	505.06
451.766	485.06
451.986	469.06
452.207	488.06
452.428	491.06
452.648	493.06
452.869	466.06
453.089	506.06
453.31	481.06
453.53	498.06
453.751	497.06
453.971	473.06
454.192	500.06
454.412	476.06
454.633	459.06
454.853	476.06
455.073	474.06
455.294	498.06
455.514	547.06
455.734	537.06
455.955	485.06
456.175	467.06
456.395	458.06
456.616	451.06
456.836	482.06
457.056	450.06
457.276	455.06
457.497	466.06
457.717	459.06
457.937	487.06
458.157	463.06
458.377	475.06
458.598	488.06
458.818	541.06
459.038	604.06
459.258	622.06
459.478	563.06
459.698	552.06
459.918	521.06
460.138	540.06
460.358	553.06
460.578	540.06
460.798	547.06
461.018	567.06
461.238	545.06
461.458	549.06
461.678	543.06
461.898	571.06
462.118	543.06
462.338	563.06
462.558	583.06
462.777	581.06
462.997	588.06
463.217	609.06
463.437	616.06
463.657	620.06
463.876	589.06
464.096	584.06
464.316	600.06
464.536	592.06
464.755	590.06
464.975	577.06
465.195	604.06
465.414	676.06
465.634	592.06
465.854	575.06
466.073	528.06
466.293	526.06
466.512	504.06
466.732	504.06
466.951	508.06
467.171	494.06
467.391	490.06
467.61	525.06
467.829	522.06
468.049	519.06
468.268	532.06
468.488	489.06
468.707	487.06
468.927	501.06
469.146	487.06
469.365	497.06
469.585	495.06
469.804	486.06
470.023	516.06
470.243	501.06
470.462	516.06
470.681	507.06
470.901	516.06
471.12	514.06
471.339	511.06
471.558	523.06
471.777	514.06
471.997	506.06
472.216	516.06
472.435	545.06
472.654	528.06
472.873	499.06
473.092	498.06
473.311	499.06
473.53	474.06
473.749	512.06
473.968	537.06
474.187	609.06
474.406	626.06
474.625	536.06
474.844	519.06
475.063	516.06
475.282	495.06
475.501	493.06
475.72	505.06
475.939	534.06
476.158	531.06
476.377	529.06
476.596	512.06
476.814	542.06
477.033	515.06
477.252	525.06
477.471	539.06
477.69	547.06
477.908	568.06
478.127	565.06
478.346	562.06
478.564	580.06
478.783	568.06
479.002	581.06
479.22	589.06
479.439	578.06
479.658	612.06
479.876	581.06
480.095	609.06
480.313	620.06
480.532	635.06
480.751	627.06
480.969	632.06
481.188	694.06
481.406	713.06
481.624	650.06
481.843	615.06
482.061	603.06
482.28	587.06
482.498	587.06
482.717	583.06
482.935	616.06
483.153	601.06
483.372	572.06
483.59	604.06
483.808	619.06
484.027	607.06
484.245	577.06
484.463	616.06
484.681	592.06
484.9	604.06
485.118	628.06
485.336	606.06
485.554	601.06
485.772	613.06
485.99	604.06
486.209	638.06
486.427	627.06
486.645	627.06
486.863	652.06
487.081	641.06
487.299	647.06
487.517	624.06
487.735	639.06
487.953	628.06
488.171	631.06
488.389	637.06
488.607	635.06
488.825	632.06
489.043	619.06
489.261	641.06
489.479	635.06
489.696	625.06
489.914	633.06
490.132	651.06
490.35	665.06
490.568	662.06
490.786	660.06
491.003	670.06
491.221	655.06
491.439	692.06
491.657	695.06
491.874	706.06
492.092	729.06
492.31	706.06
492.527	729.06
492.745	691.06
492.963	705.06
493.18	712.06
493.398	716.06
493.615	740.06
493.833	725.06
494.05	716.06
494.268	741.06
494.485	743.06
494.703	725.06
494.92	726.06
495.138	726.06
495.355	737.06
495.573	721.06
495.79	716.06
496.008	764.06
496.225	747.06
496.442	741.06
496.66	747.06
496.877	740.06
497.094	771.06
497.312	773.06
497.529	780.06
497.746	835.06
497.963	801.06
498.181	813.06
498.398	841.06
498.615	836.06
498.832	902.06
499.049	902.06
499.267	931.06
499.484	978.06
499.701	1033.06
499.918	1047.06
500.135	1138.06
500.352	1151.06
500.569	1195.06
500.786	1215.06
501.003	1191.06
501.22	1129.06
501.437	1053.06
501.654	1032.06
501.871	1039.06
