Data from 1979.PennyLincolnUp.Lamp.En5.5.200Scan.071719.P1_HRD10591_16-17-45-863.txt Node
Date: Thu Jul 18 16:17:45 EDT 2019
User: cochatt
Spectrometer: HR+D1059
Trigger mode: 1
Integration Time (sec): 1.000000E-1
Scans to average: 1
Electric dark correction enabled: true
Nonlinearity correction enabled: false
Boxcar width: 0
XAxis mode: Wavelengths
Number of Pixels in Spectrum: 2048
>>>>>Begin Spectral Data<<<<<
223.165	-19.62
223.4	-19.62
223.635	-19.62
223.869	-16.62
224.104	-24.62
224.338	-11.62
224.573	-16.62
224.808	-16.62
225.042	-7.62
225.277	-3.62
225.511	-11.62
225.746	0.38
225.98	16.38
226.215	1.38
226.449	12.38
226.683	21.38
226.918	37.38
227.152	39.38
227.387	28.38
227.621	52.38
227.856	39.38
228.09	37.38
228.324	32.38
228.559	43.38
228.793	63.38
229.027	79.38
229.262	100.38
229.496	90.38
229.73	122.38
229.964	133.38
230.199	109.38
230.433	110.38
230.667	98.38
230.901	91.38
231.136	97.38
231.37	103.38
231.604	104.38
231.838	99.38
232.072	116.38
232.306	108.38
232.541	94.38
232.775	114.38
233.009	105.38
233.243	105.38
233.477	116.38
233.711	114.38
233.945	117.38
234.179	103.38
234.413	97.38
234.647	118.38
234.881	114.38
235.115	115.38
235.349	111.38
235.583	107.38
235.817	116.38
236.051	103.38
236.285	128.38
236.519	113.38
236.753	118.38
236.987	121.38
237.221	153.38
237.455	197.38
237.689	159.38
237.922	126.38
238.156	116.38
238.39	107.38
238.624	116.38
238.858	109.38
239.091	128.38
239.325	109.38
239.559	118.38
239.793	126.38
240.027	132.38
240.26	117.38
240.494	141.38
240.728	140.38
240.961	127.38
241.195	135.38
241.429	125.38
241.662	126.38
241.896	115.38
242.13	140.38
242.363	114.38
242.597	125.38
242.83	135.38
243.064	128.38
243.298	114.38
243.531	121.38
243.765	125.38
243.998	130.38
244.232	137.38
244.465	138.38
244.699	134.38
244.932	118.38
245.166	117.38
245.399	145.38
245.633	144.38
245.866	138.38
246.099	136.38
246.333	139.38
246.566	142.38
246.8	142.38
247.033	134.38
247.266	147.38
247.5	151.38
247.733	148.38
247.966	146.38
248.2	156.38
248.433	159.38
248.666	167.38
248.899	173.38
249.133	160.38
249.366	175.38
249.599	164.38
249.832	158.38
250.066	162.38
250.299	172.38
250.532	179.38
250.765	178.38
250.998	196.38
251.231	199.38
251.465	171.38
251.698	174.38
251.931	162.38
252.164	174.38
252.397	164.38
252.63	185.38
252.863	183.38
253.096	174.38
253.329	181.38
253.562	200.38
253.795	196.38
254.028	190.38
254.261	182.38
254.494	204.38
254.727	198.38
254.96	225.38
255.193	214.38
255.426	183.38
255.659	190.38
255.892	165.38
256.124	180.38
256.357	198.38
256.59	182.38
256.823	192.38
257.056	182.38
257.289	175.38
257.521	192.38
257.754	186.38
257.987	178.38
258.22	201.38
258.452	189.38
258.685	194.38
258.918	187.38
259.151	183.38
259.383	189.38
259.616	178.38
259.849	194.38
260.081	220.38
260.314	206.38
260.547	213.38
260.779	217.38
261.012	192.38
261.244	184.38
261.477	194.38
261.71	184.38
261.942	199.38
262.175	201.38
262.407	184.38
262.64	173.38
262.872	194.38
263.105	186.38
263.337	188.38
263.57	188.38
263.802	183.38
264.035	196.38
264.267	183.38
264.499	191.38
264.732	189.38
264.964	199.38
265.197	204.38
265.429	175.38
265.661	172.38
265.894	191.38
266.126	194.38
266.358	188.38
266.591	202.38
266.823	182.38
267.055	191.38
267.287	203.38
267.52	195.38
267.752	185.38
267.984	199.38
268.216	192.38
268.448	221.38
268.681	197.38
268.913	213.38
269.145	228.38
269.377	220.38
269.609	221.38
269.841	213.38
270.073	227.38
270.306	230.38
270.538	245.38
270.77	256.38
271.002	244.38
271.234	217.38
271.466	232.38
271.698	245.38
271.93	262.38
272.162	250.38
272.394	266.38
272.626	263.38
272.858	236.38
273.09	233.38
273.322	229.38
273.553	223.38
273.785	232.38
274.017	218.38
274.249	226.38
274.481	221.38
274.713	226.38
274.945	236.38
275.176	243.38
275.408	219.38
275.64	229.38
275.872	215.38
276.104	231.38
276.335	223.38
276.567	244.38
276.799	236.38
277.031	251.38
277.262	250.38
277.494	256.38
277.726	261.38
277.957	242.38
278.189	224.38
278.421	240.38
278.652	232.38
278.884	234.38
279.115	223.38
279.347	234.38
279.579	226.38
279.81	214.38
280.042	246.38
280.273	232.38
280.505	223.38
280.736	235.38
280.968	244.38
281.199	226.38
281.431	238.38
281.662	249.38
281.894	250.38
282.125	240.38
282.356	242.38
282.588	269.38
282.819	258.38
283.051	242.38
283.282	233.38
283.513	245.38
283.745	260.38
283.976	244.38
284.207	259.38
284.439	254.38
284.67	239.38
284.901	248.38
285.132	238.38
285.364	239.38
285.595	248.38
285.826	256.38
286.057	254.38
286.288	227.38
286.52	248.38
286.751	237.38
286.982	248.38
287.213	266.38
287.444	249.38
287.675	269.38
287.906	256.38
288.138	263.38
288.369	254.38
288.6	268.38
288.831	247.38
289.062	255.38
289.293	261.38
289.524	260.38
289.755	259.38
289.986	285.38
290.217	258.38
290.448	250.38
290.679	255.38
290.91	270.38
291.141	258.38
291.371	261.38
291.602	249.38
291.833	252.38
292.064	263.38
292.295	265.38
292.526	263.38
292.757	249.38
292.987	247.38
293.218	271.38
293.449	255.38
293.68	262.38
293.91	255.38
294.141	267.38
294.372	264.38
294.603	255.38
294.833	281.38
295.064	268.38
295.295	264.38
295.525	255.38
295.756	290.38
295.987	263.38
296.217	278.38
296.448	288.38
296.679	283.38
296.909	279.38
297.14	275.38
297.37	259.38
297.601	301.38
297.831	286.38
298.062	263.38
298.292	266.38
298.523	274.38
298.753	290.38
298.984	282.38
299.214	269.38
299.445	313.38
299.675	287.38
299.905	282.38
300.136	268.38
300.366	283.38
300.597	290.38
300.827	298.38
301.057	281.38
301.288	276.38
301.518	289.38
301.748	293.38
301.979	293.38
302.209	284.38
302.439	290.38
302.669	293.38
302.9	291.38
303.13	282.38
303.36	314.38
303.59	283.38
303.82	299.38
304.051	284.38
304.281	281.38
304.511	300.38
304.741	276.38
304.971	294.38
305.201	302.38
305.431	309.38
305.661	301.38
305.891	302.38
306.121	302.38
306.352	299.38
306.582	287.38
306.812	281.38
307.042	282.38
307.272	304.38
307.502	280.38
307.731	316.38
307.961	291.38
308.191	284.38
308.421	309.38
308.651	298.38
308.881	299.38
309.111	314.38
309.341	295.38
309.571	316.38
309.8	324.38
310.03	313.38
310.26	325.38
310.49	322.38
310.72	323.38
310.949	311.38
311.179	349.38
311.409	315.38
311.639	329.38
311.868	341.38
312.098	327.38
312.328	341.38
312.557	340.38
312.787	356.38
313.017	361.38
313.246	336.38
313.476	332.38
313.706	321.38
313.935	321.38
314.165	339.38
314.394	358.38
314.624	347.38
314.853	340.38
315.083	323.38
315.312	330.38
315.542	325.38
315.771	324.38
316.001	313.38
316.23	319.38
316.46	314.38
316.689	327.38
316.919	332.38
317.148	335.38
317.377	352.38
317.607	347.38
317.836	341.38
318.065	334.38
318.295	324.38
318.524	355.38
318.753	344.38
318.983	325.38
319.212	327.38
319.441	342.38
319.67	348.38
319.9	335.38
320.129	341.38
320.358	344.38
320.587	327.38
320.816	343.38
321.046	359.38
321.275	336.38
321.504	360.38
321.733	355.38
321.962	350.38
322.191	369.38
322.42	382.38
322.649	382.38
322.878	359.38
323.108	384.38
323.337	408.38
323.566	401.38
323.795	406.38
324.024	456.38
324.253	524.38
324.482	696.38
324.71	1099.38
324.939	1596.38
325.168	1391.38
325.397	669.38
325.626	494.38
325.855	426.38
326.084	427.38
326.313	406.38
326.542	422.38
326.77	427.38
326.999	508.38
327.228	640.38
327.457	1024.38
327.686	1222.38
327.914	802.38
328.143	516.38
328.372	482.38
328.6	468.38
328.829	444.38
329.058	439.38
329.287	448.38
329.515	440.38
329.744	448.38
329.972	403.38
330.201	430.38
330.43	451.38
330.658	444.38
330.887	478.38
331.115	476.38
331.344	430.38
331.572	411.38
331.801	435.38
332.03	435.38
332.258	392.38
332.486	410.38
332.715	402.38
332.943	391.38
333.172	413.38
333.4	404.38
333.629	430.38
333.857	427.38
334.085	436.38
334.314	435.38
334.542	463.38
334.771	447.38
334.999	451.38
335.227	439.38
335.455	409.38
335.684	419.38
335.912	411.38
336.14	415.38
336.369	412.38
336.597	418.38
336.825	414.38
337.053	416.38
337.281	401.38
337.51	417.38
337.738	384.38
337.966	396.38
338.194	409.38
338.422	387.38
338.65	372.38
338.878	390.38
339.106	405.38
339.334	407.38
339.562	392.38
339.79	391.38
340.018	381.38
340.246	382.38
340.474	383.38
340.702	380.38
340.93	356.38
341.158	396.38
341.386	372.38
341.614	387.38
341.842	367.38
342.07	392.38
342.298	399.38
342.526	385.38
342.754	394.38
342.981	378.38
343.209	377.38
343.437	398.38
343.665	386.38
343.893	389.38
344.12	411.38
344.348	416.38
344.576	420.38
344.804	402.38
345.031	400.38
345.259	408.38
345.487	388.38
345.714	400.38
345.942	379.38
346.17	367.38
346.397	366.38
346.625	378.38
346.853	382.38
347.08	369.38
347.308	371.38
347.535	385.38
347.763	365.38
347.99	377.38
348.218	390.38
348.445	390.38
348.673	373.38
348.9	391.38
349.128	386.38
349.355	351.38
349.583	386.38
349.81	363.38
350.037	363.38
350.265	355.38
350.492	356.38
350.72	375.38
350.947	376.38
351.174	386.38
351.402	374.38
351.629	359.38
351.856	362.38
352.083	367.38
352.311	390.38
352.538	394.38
352.765	382.38
352.992	376.38
353.22	362.38
353.447	370.38
353.674	378.38
353.901	391.38
354.128	372.38
354.355	374.38
354.583	373.38
354.81	359.38
355.037	358.38
355.264	352.38
355.491	380.38
355.718	368.38
355.945	378.38
356.172	370.38
356.399	351.38
356.626	361.38
356.853	347.38
357.08	356.38
357.307	364.38
357.534	363.38
357.761	351.38
357.988	371.38
358.215	366.38
358.441	380.38
358.668	371.38
358.895	365.38
359.122	363.38
359.349	369.38
359.576	388.38
359.802	386.38
360.029	398.38
360.256	413.38
360.483	405.38
360.709	393.38
360.936	374.38
361.163	371.38
361.39	375.38
361.616	371.38
361.843	363.38
362.07	378.38
362.296	376.38
362.523	367.38
362.749	378.38
362.976	378.38
363.203	366.38
363.429	356.38
363.656	374.38
363.882	382.38
364.109	378.38
364.335	377.38
364.562	373.38
364.788	373.38
365.015	374.38
365.241	378.38
365.468	360.38
365.694	376.38
365.92	370.38
366.147	361.38
366.373	364.38
366.599	355.38
366.826	358.38
367.052	377.38
367.278	359.38
367.505	374.38
367.731	356.38
367.957	376.38
368.184	390.38
368.41	389.38
368.636	392.38
368.862	378.38
369.089	382.38
369.315	364.38
369.541	378.38
369.767	388.38
369.993	387.38
370.219	376.38
370.445	359.38
370.672	380.38
370.898	370.38
371.124	385.38
371.35	382.38
371.576	384.38
371.802	395.38
372.028	402.38
372.254	380.38
372.48	375.38
372.706	398.38
372.932	379.38
373.158	392.38
373.384	394.38
373.61	404.38
373.835	384.38
374.061	359.38
374.287	365.38
374.513	399.38
374.739	394.38
374.965	395.38
375.191	399.38
375.416	372.38
375.642	389.38
375.868	392.38
376.094	384.38
376.319	392.38
376.545	390.38
376.771	380.38
376.997	378.38
377.222	392.38
377.448	387.38
377.674	384.38
377.899	388.38
378.125	394.38
378.35	386.38
378.576	358.38
378.802	380.38
379.027	382.38
379.253	395.38
379.478	370.38
379.704	360.38
379.929	394.38
380.155	392.38
380.38	392.38
380.606	401.38
380.831	374.38
381.057	386.38
381.282	382.38
381.507	391.38
381.733	383.38
381.958	378.38
382.184	394.38
382.409	387.38
382.634	403.38
382.86	392.38
383.085	394.38
383.31	380.38
383.535	392.38
383.761	397.38
383.986	409.38
384.211	408.38
384.436	424.38
384.662	426.38
384.887	418.38
385.112	440.38
385.337	424.38
385.562	429.38
385.787	405.38
386.013	423.38
386.238	427.38
386.463	413.38
386.688	420.38
386.913	428.38
387.138	438.38
387.363	438.38
387.588	402.38
387.813	417.38
388.038	430.38
388.263	412.38
388.488	423.38
388.713	434.38
388.938	432.38
389.163	438.38
389.387	460.38
389.612	428.38
389.837	439.38
390.062	431.38
390.287	437.38
390.512	408.38
390.736	428.38
390.961	423.38
391.186	429.38
391.411	438.38
391.636	454.38
391.86	436.38
392.085	463.38
392.31	450.38
392.534	452.38
392.759	451.38
392.984	427.38
393.208	453.38
393.433	449.38
393.658	435.38
393.882	446.38
394.107	434.38
394.331	430.38
394.556	443.38
394.78	455.38
395.005	451.38
395.229	439.38
395.454	455.38
395.678	469.38
395.903	467.38
396.127	479.38
396.352	467.38
396.576	460.38
396.801	437.38
397.025	490.38
397.249	471.38
397.474	495.38
397.698	454.38
397.922	487.38
398.147	509.38
398.371	490.38
398.595	487.38
398.82	494.38
399.044	534.38
399.268	542.38
399.492	556.38
399.717	583.38
399.941	613.38
400.165	623.38
400.389	618.38
400.613	568.38
400.837	562.38
401.062	538.38
401.286	498.38
401.51	514.38
401.734	514.38
401.958	494.38
402.182	525.38
402.406	541.38
402.63	519.38
402.854	532.38
403.078	549.38
403.302	547.38
403.526	548.38
403.75	533.38
403.974	558.38
404.198	506.38
404.422	546.38
404.645	528.38
404.869	530.38
405.093	564.38
405.317	594.38
405.541	617.38
405.765	576.38
405.988	574.38
406.212	553.38
406.436	590.38
406.66	592.38
406.883	583.38
407.107	606.38
407.331	636.38
407.555	678.38
407.778	678.38
408.002	627.38
408.226	602.38
408.449	603.38
408.673	597.38
408.896	604.38
409.12	629.38
409.344	590.38
409.567	573.38
409.791	568.38
410.014	544.38
410.238	538.38
410.461	567.38
410.685	531.38
410.908	523.38
411.132	553.38
411.355	612.38
411.578	572.38
411.802	536.38
412.025	528.38
412.249	540.38
412.472	559.38
412.695	583.38
412.919	580.38
413.142	546.38
413.365	542.38
413.589	500.38
413.812	520.38
414.035	529.38
414.258	509.38
414.482	502.38
414.705	519.38
414.928	514.38
415.151	542.38
415.374	528.38
415.597	493.38
415.821	501.38
416.044	476.38
416.267	518.38
416.49	520.38
416.713	505.38
416.936	500.38
417.159	499.38
417.382	508.38
417.605	493.38
417.828	503.38
418.051	526.38
418.274	547.38
418.497	524.38
418.72	511.38
418.943	498.38
419.166	530.38
419.389	583.38
419.611	550.38
419.834	530.38
420.057	521.38
420.28	505.38
420.503	519.38
420.726	526.38
420.948	534.38
421.171	565.38
421.394	586.38
421.617	531.38
421.839	541.38
422.062	525.38
422.285	528.38
422.507	583.38
422.73	640.38
422.953	632.38
423.175	583.38
423.398	565.38
423.621	548.38
423.843	556.38
424.066	565.38
424.288	547.38
424.511	560.38
424.733	593.38
424.956	668.38
425.178	619.38
425.401	639.38
425.623	663.38
425.846	583.38
426.068	546.38
426.291	559.38
426.513	536.38
426.735	557.38
426.958	572.38
427.18	638.38
427.402	750.38
427.625	822.38
427.847	701.38
428.069	624.38
428.292	566.38
428.514	556.38
428.736	512.38
428.958	535.38
429.181	510.38
429.403	517.38
429.625	507.38
429.847	532.38
430.069	586.38
430.292	571.38
430.514	500.38
430.736	519.38
430.958	523.38
431.18	515.38
431.402	503.38
431.624	491.38
431.846	499.38
432.068	479.38
432.29	499.38
432.512	506.38
432.734	498.38
432.956	494.38
433.178	492.38
433.4	483.38
433.622	489.38
433.844	477.38
434.066	491.38
434.287	490.38
434.509	521.38
434.731	502.38
434.953	534.38
435.175	543.38
435.397	559.38
435.618	551.38
435.84	573.38
436.062	628.38
436.284	694.38
436.505	582.38
436.727	540.38
436.949	538.38
437.17	497.38
437.392	494.38
437.614	533.38
437.835	558.38
438.057	614.38
438.278	687.38
438.5	676.38
438.721	746.38
438.943	712.38
439.165	599.38
439.386	557.38
439.608	539.38
439.829	527.38
440.05	567.38
440.272	623.38
440.493	541.38
440.715	550.38
440.936	514.38
441.158	491.38
441.379	502.38
441.6	536.38
441.822	531.38
442.043	560.38
442.264	662.38
442.486	692.38
442.707	586.38
442.928	566.38
443.149	576.38
443.371	567.38
443.592	587.38
443.813	649.38
444.034	722.38
444.255	652.38
444.476	579.38
444.698	544.38
444.919	566.38
445.14	680.38
445.361	610.38
445.582	584.38
445.803	615.38
446.024	693.38
446.245	710.38
446.466	646.38
446.687	574.38
446.908	556.38
447.129	512.38
447.35	508.38
447.571	482.38
447.792	467.38
448.013	508.38
448.234	523.38
448.455	543.38
448.675	644.38
448.896	730.38
449.117	603.38
449.338	595.38
449.559	696.38
449.779	778.38
450	604.38
450.221	530.38
450.442	528.38
450.662	487.38
450.883	500.38
451.104	487.38
451.324	486.38
451.545	467.38
451.766	473.38
451.986	454.38
452.207	467.38
452.428	452.38
452.648	470.38
452.869	422.38
453.089	461.38
453.31	470.38
453.53	448.38
453.751	451.38
453.971	442.38
454.192	466.38
454.412	459.38
454.633	457.38
454.853	443.38
455.073	461.38
455.294	469.38
455.514	502.38
455.734	516.38
455.955	440.38
456.175	426.38
456.395	423.38
456.616	454.38
456.836	423.38
457.056	426.38
457.276	411.38
457.497	455.38
457.717	434.38
457.937	442.38
458.157	441.38
458.377	448.38
458.598	475.38
458.818	511.38
459.038	585.38
459.258	574.38
459.478	515.38
459.698	475.38
459.918	490.38
460.138	503.38
460.358	512.38
460.578	520.38
460.798	510.38
461.018	526.38
461.238	523.38
461.458	513.38
461.678	515.38
461.898	514.38
462.118	510.38
462.338	545.38
462.558	537.38
462.777	576.38
462.997	565.38
463.217	585.38
463.437	590.38
463.657	578.38
463.876	567.38
464.096	583.38
464.316	553.38
464.536	568.38
464.755	567.38
464.975	540.38
465.195	562.38
465.414	586.38
465.634	547.38
465.854	516.38
466.073	492.38
466.293	496.38
466.512	490.38
466.732	490.38
466.951	488.38
467.171	480.38
467.391	471.38
467.61	450.38
467.829	484.38
468.049	498.38
468.268	484.38
468.488	473.38
468.707	483.38
468.927	472.38
469.146	454.38
469.365	476.38
469.585	463.38
469.804	498.38
470.023	487.38
470.243	488.38
470.462	499.38
470.681	481.38
470.901	487.38
471.12	480.38
471.339	488.38
471.558	487.38
471.777	492.38
471.997	493.38
472.216	476.38
472.435	502.38
472.654	484.38
472.873	475.38
473.092	465.38
473.311	480.38
473.53	476.38
473.749	476.38
473.968	503.38
474.187	591.38
474.406	589.38
474.625	522.38
474.844	505.38
475.063	496.38
475.282	495.38
475.501	506.38
475.72	490.38
475.939	487.38
476.158	503.38
476.377	488.38
476.596	509.38
476.814	491.38
477.033	510.38
477.252	498.38
477.471	501.38
477.69	521.38
477.908	525.38
478.127	527.38
478.346	549.38
478.564	545.38
478.783	546.38
479.002	540.38
479.22	539.38
479.439	558.38
479.658	562.38
479.876	576.38
480.095	599.38
480.313	621.38
480.532	590.38
480.751	580.38
480.969	611.38
481.188	624.38
481.406	634.38
481.624	609.38
481.843	591.38
482.061	579.38
482.28	580.38
482.498	573.38
482.717	544.38
482.935	563.38
483.153	568.38
483.372	574.38
483.59	552.38
483.808	581.38
484.027	568.38
484.245	581.38
484.463	589.38
484.681	548.38
484.9	576.38
485.118	578.38
485.336	579.38
485.554	597.38
485.772	577.38
485.99	587.38
486.209	619.38
486.427	583.38
486.645	587.38
486.863	588.38
487.081	590.38
487.299	603.38
487.517	606.38
487.735	575.38
487.953	583.38
488.171	583.38
488.389	607.38
488.607	617.38
488.825	616.38
489.043	608.38
489.261	616.38
489.479	616.38
489.696	615.38
489.914	610.38
490.132	604.38
490.35	612.38
490.568	636.38
490.786	610.38
491.003	634.38
491.221	624.38
491.439	663.38
491.657	640.38
491.874	677.38
492.092	657.38
492.31	665.38
492.527	655.38
492.745	654.38
492.963	678.38
493.18	700.38
493.398	691.38
493.615	692.38
493.833	690.38
494.05	696.38
494.268	695.38
494.485	702.38
494.703	686.38
494.92	675.38
495.138	691.38
495.355	696.38
495.573	673.38
495.79	676.38
496.008	724.38
496.225	697.38
496.442	679.38
496.66	694.38
496.877	692.38
497.094	705.38
497.312	720.38
497.529	728.38
497.746	755.38
497.963	736.38
498.181	766.38
498.398	799.38
498.615	836.38
498.832	828.38
499.049	885.38
499.267	871.38
499.484	921.38
499.701	963.38
499.918	992.38
500.135	1068.38
500.352	1106.38
500.569	1145.38
500.786	1127.38
501.003	1112.38
501.22	1052.38
501.437	1038.38
501.654	984.38
501.871	940.38
