Data from 1979.PennyLincolnUp.Lamp.En5.5.200Scan.071719.P1_HRD10591_16-20-30-865.txt Node
Date: Thu Jul 18 16:20:30 EDT 2019
User: cochatt
Spectrometer: HR+D1059
Trigger mode: 1
Integration Time (sec): 1.000000E-1
Scans to average: 1
Electric dark correction enabled: true
Nonlinearity correction enabled: false
Boxcar width: 0
XAxis mode: Wavelengths
Number of Pixels in Spectrum: 2048
>>>>>Begin Spectral Data<<<<<
223.165	-6.06
223.4	-6.06
223.635	-6.06
223.869	-27.06
224.104	-18.06
224.338	-18.06
224.573	-15.06
224.808	-9.06
225.042	3.94
225.277	-6.06
225.511	5.94
225.746	1.94
225.98	-4.06
226.215	7.94
226.449	7.94
226.683	20.94
226.918	32.94
227.152	21.94
227.387	33.94
227.621	40.94
227.856	40.94
228.09	44.94
228.324	46.94
228.559	51.94
228.793	72.94
229.027	82.94
229.262	95.94
229.496	111.94
229.73	130.94
229.964	134.94
230.199	120.94
230.433	100.94
230.667	96.94
230.901	113.94
231.136	107.94
231.37	116.94
231.604	119.94
231.838	102.94
232.072	107.94
232.306	126.94
232.541	105.94
232.775	115.94
233.009	109.94
233.243	118.94
233.477	111.94
233.711	104.94
233.945	107.94
234.179	128.94
234.413	112.94
234.647	130.94
234.881	127.94
235.115	108.94
235.349	111.94
235.583	118.94
235.817	127.94
236.051	116.94
236.285	123.94
236.519	126.94
236.753	121.94
236.987	126.94
237.221	169.94
237.455	214.94
237.689	164.94
237.922	145.94
238.156	127.94
238.39	124.94
238.624	141.94
238.858	142.94
239.091	106.94
239.325	112.94
239.559	125.94
239.793	125.94
240.027	133.94
240.26	136.94
240.494	152.94
240.728	128.94
240.961	142.94
241.195	140.94
241.429	124.94
241.662	129.94
241.896	128.94
242.13	113.94
242.363	131.94
242.597	139.94
242.83	147.94
243.064	130.94
243.298	139.94
243.531	139.94
243.765	139.94
243.998	134.94
244.232	122.94
244.465	147.94
244.699	123.94
244.932	132.94
245.166	152.94
245.399	142.94
245.633	143.94
245.866	136.94
246.099	153.94
246.333	144.94
246.566	147.94
246.8	144.94
247.033	160.94
247.266	160.94
247.5	149.94
247.733	177.94
247.966	170.94
248.2	164.94
248.433	159.94
248.666	163.94
248.899	176.94
249.133	177.94
249.366	199.94
249.599	203.94
249.832	169.94
250.066	184.94
250.299	159.94
250.532	173.94
250.765	191.94
250.998	193.94
251.231	206.94
251.465	212.94
251.698	202.94
251.931	200.94
252.164	187.94
252.397	175.94
252.63	202.94
252.863	203.94
253.096	214.94
253.329	218.94
253.562	206.94
253.795	203.94
254.028	202.94
254.261	195.94
254.494	225.94
254.727	249.94
254.96	271.94
255.193	229.94
255.426	218.94
255.659	207.94
255.892	211.94
256.124	215.94
256.357	202.94
256.59	201.94
256.823	204.94
257.056	213.94
257.289	199.94
257.521	196.94
257.754	200.94
257.987	189.94
258.22	181.94
258.452	194.94
258.685	199.94
258.918	202.94
259.151	200.94
259.383	209.94
259.616	210.94
259.849	223.94
260.081	226.94
260.314	256.94
260.547	225.94
260.779	218.94
261.012	203.94
261.244	205.94
261.477	226.94
261.71	218.94
261.942	221.94
262.175	211.94
262.407	219.94
262.64	217.94
262.872	194.94
263.105	204.94
263.337	213.94
263.57	220.94
263.802	211.94
264.035	194.94
264.267	192.94
264.499	181.94
264.732	200.94
264.964	208.94
265.197	211.94
265.429	202.94
265.661	197.94
265.894	212.94
266.126	191.94
266.358	214.94
266.591	208.94
266.823	207.94
267.055	212.94
267.287	214.94
267.52	214.94
267.752	206.94
267.984	213.94
268.216	207.94
268.448	215.94
268.681	223.94
268.913	230.94
269.145	250.94
269.377	250.94
269.609	256.94
269.841	243.94
270.073	261.94
270.306	271.94
270.538	295.94
270.77	282.94
271.002	273.94
271.234	270.94
271.466	265.94
271.698	264.94
271.93	301.94
272.162	288.94
272.394	285.94
272.626	263.94
272.858	265.94
273.09	259.94
273.322	249.94
273.553	239.94
273.785	238.94
274.017	225.94
274.249	242.94
274.481	246.94
274.713	260.94
274.945	228.94
275.176	253.94
275.408	265.94
275.64	231.94
275.872	238.94
276.104	254.94
276.335	254.94
276.567	265.94
276.799	268.94
277.031	291.94
277.262	297.94
277.494	287.94
277.726	282.94
277.957	267.94
278.189	266.94
278.421	256.94
278.652	259.94
278.884	264.94
279.115	244.94
279.347	233.94
279.579	256.94
279.81	250.94
280.042	253.94
280.273	257.94
280.505	258.94
280.736	245.94
280.968	261.94
281.199	226.94
281.431	251.94
281.662	265.94
281.894	255.94
282.125	265.94
282.356	263.94
282.588	278.94
282.819	286.94
283.051	270.94
283.282	261.94
283.513	264.94
283.745	262.94
283.976	274.94
284.207	271.94
284.439	265.94
284.67	259.94
284.901	281.94
285.132	280.94
285.364	278.94
285.595	285.94
285.826	254.94
286.057	267.94
286.288	267.94
286.52	281.94
286.751	280.94
286.982	265.94
287.213	276.94
287.444	286.94
287.675	277.94
287.906	280.94
288.138	288.94
288.369	291.94
288.6	290.94
288.831	274.94
289.062	277.94
289.293	276.94
289.524	272.94
289.755	280.94
289.986	281.94
290.217	270.94
290.448	283.94
290.679	285.94
290.91	282.94
291.141	271.94
291.371	282.94
291.602	265.94
291.833	284.94
292.064	285.94
292.295	272.94
292.526	284.94
292.757	282.94
292.987	289.94
293.218	277.94
293.449	290.94
293.68	286.94
293.91	275.94
294.141	282.94
294.372	265.94
294.603	281.94
294.833	275.94
295.064	294.94
295.295	294.94
295.525	280.94
295.756	295.94
295.987	290.94
296.217	331.94
296.448	313.94
296.679	289.94
296.909	290.94
297.14	282.94
297.37	283.94
297.601	291.94
297.831	291.94
298.062	296.94
298.292	308.94
298.523	301.94
298.753	324.94
298.984	299.94
299.214	287.94
299.445	285.94
299.675	277.94
299.905	323.94
300.136	319.94
300.366	299.94
300.597	312.94
300.827	296.94
301.057	320.94
301.288	328.94
301.518	313.94
301.748	306.94
301.979	322.94
302.209	327.94
302.439	319.94
302.669	322.94
302.9	310.94
303.13	321.94
303.36	317.94
303.59	326.94
303.82	342.94
304.051	325.94
304.281	330.94
304.511	317.94
304.741	312.94
304.971	314.94
305.201	323.94
305.431	304.94
305.661	313.94
305.891	335.94
306.121	331.94
306.352	331.94
306.582	339.94
306.812	320.94
307.042	313.94
307.272	311.94
307.502	333.94
307.731	335.94
307.961	315.94
308.191	326.94
308.421	340.94
308.651	317.94
308.881	326.94
309.111	325.94
309.341	307.94
309.571	328.94
309.8	345.94
310.03	365.94
310.26	365.94
310.49	351.94
310.72	359.94
310.949	372.94
311.179	387.94
311.409	362.94
311.639	355.94
311.868	348.94
312.098	349.94
312.328	357.94
312.557	379.94
312.787	385.94
313.017	407.94
313.246	381.94
313.476	377.94
313.706	390.94
313.935	383.94
314.165	377.94
314.394	396.94
314.624	410.94
314.853	384.94
315.083	374.94
315.312	349.94
315.542	362.94
315.771	373.94
316.001	378.94
316.23	367.94
316.46	362.94
316.689	366.94
316.919	365.94
317.148	389.94
317.377	391.94
317.607	366.94
317.836	353.94
318.065	351.94
318.295	359.94
318.524	378.94
318.753	365.94
318.983	355.94
319.212	358.94
319.441	372.94
319.67	376.94
319.9	374.94
320.129	349.94
320.358	369.94
320.587	362.94
320.816	379.94
321.046	385.94
321.275	387.94
321.504	380.94
321.733	399.94
321.962	389.94
322.191	395.94
322.42	415.94
322.649	458.94
322.878	429.94
323.108	453.94
323.337	467.94
323.566	457.94
323.795	510.94
324.024	535.94
324.253	601.94
324.482	892.94
324.71	1421.94
324.939	2149.94
325.168	1837.94
325.397	889.94
325.626	620.94
325.855	538.94
326.084	495.94
326.313	476.94
326.542	475.94
326.77	521.94
326.999	624.94
327.228	827.94
327.457	1291.94
327.686	1623.94
327.914	1021.94
328.143	670.94
328.372	593.94
328.6	575.94
328.829	534.94
329.058	541.94
329.287	566.94
329.515	539.94
329.744	497.94
329.972	502.94
330.201	490.94
330.43	538.94
330.658	551.94
330.887	582.94
331.115	579.94
331.344	486.94
331.572	470.94
331.801	488.94
332.03	475.94
332.258	449.94
332.486	442.94
332.715	479.94
332.943	442.94
333.172	451.94
333.4	459.94
333.629	452.94
333.857	465.94
334.085	494.94
334.314	493.94
334.542	543.94
334.771	532.94
334.999	521.94
335.227	497.94
335.455	477.94
335.684	448.94
335.912	441.94
336.14	464.94
336.369	442.94
336.597	461.94
336.825	448.94
337.053	455.94
337.281	436.94
337.51	419.94
337.738	442.94
337.966	435.94
338.194	434.94
338.422	436.94
338.65	449.94
338.878	447.94
339.106	449.94
339.334	447.94
339.562	432.94
339.79	426.94
340.018	445.94
340.246	424.94
340.474	441.94
340.702	440.94
340.93	441.94
341.158	417.94
341.386	422.94
341.614	417.94
341.842	437.94
342.07	420.94
342.298	405.94
342.526	430.94
342.754	403.94
342.981	413.94
343.209	403.94
343.437	436.94
343.665	421.94
343.893	431.94
344.12	455.94
344.348	467.94
344.576	439.94
344.804	450.94
345.031	436.94
345.259	439.94
345.487	447.94
345.714	441.94
345.942	422.94
346.17	434.94
346.397	424.94
346.625	426.94
346.853	410.94
347.08	410.94
347.308	434.94
347.535	429.94
347.763	398.94
347.99	401.94
348.218	410.94
348.445	432.94
348.673	435.94
348.9	387.94
349.128	433.94
349.355	395.94
349.583	399.94
349.81	395.94
350.037	416.94
350.265	402.94
350.492	422.94
350.72	385.94
350.947	407.94
351.174	428.94
351.402	406.94
351.629	408.94
351.856	413.94
352.083	422.94
352.311	429.94
352.538	423.94
352.765	423.94
352.992	433.94
353.22	410.94
353.447	414.94
353.674	395.94
353.901	381.94
354.128	410.94
354.355	383.94
354.583	396.94
354.81	387.94
355.037	379.94
355.264	391.94
355.491	367.94
355.718	388.94
355.945	381.94
356.172	374.94
356.399	381.94
356.626	388.94
356.853	381.94
357.08	381.94
357.307	394.94
357.534	382.94
357.761	401.94
357.988	389.94
358.215	372.94
358.441	391.94
358.668	394.94
358.895	396.94
359.122	404.94
359.349	413.94
359.576	412.94
359.802	426.94
360.029	451.94
360.256	477.94
360.483	452.94
360.709	419.94
360.936	407.94
361.163	431.94
361.39	423.94
361.616	421.94
361.843	418.94
362.07	426.94
362.296	421.94
362.523	407.94
362.749	416.94
362.976	411.94
363.203	407.94
363.429	390.94
363.656	389.94
363.882	411.94
364.109	405.94
364.335	393.94
364.562	406.94
364.788	403.94
365.015	406.94
365.241	409.94
365.468	376.94
365.694	410.94
365.92	424.94
366.147	399.94
366.373	415.94
366.599	415.94
366.826	390.94
367.052	402.94
367.278	396.94
367.505	390.94
367.731	419.94
367.957	395.94
368.184	412.94
368.41	385.94
368.636	395.94
368.862	410.94
369.089	417.94
369.315	410.94
369.541	415.94
369.767	399.94
369.993	411.94
370.219	409.94
370.445	408.94
370.672	394.94
370.898	399.94
371.124	395.94
371.35	400.94
371.576	411.94
371.802	395.94
372.028	416.94
372.254	408.94
372.48	413.94
372.706	423.94
372.932	408.94
373.158	414.94
373.384	424.94
373.61	396.94
373.835	406.94
374.061	385.94
374.287	412.94
374.513	418.94
374.739	423.94
374.965	434.94
375.191	431.94
375.416	428.94
375.642	436.94
375.868	434.94
376.094	416.94
376.319	402.94
376.545	415.94
376.771	408.94
376.997	410.94
377.222	413.94
377.448	412.94
377.674	404.94
377.899	410.94
378.125	414.94
378.35	413.94
378.576	410.94
378.802	389.94
379.027	386.94
379.253	414.94
379.478	385.94
379.704	411.94
379.929	399.94
380.155	421.94
380.38	414.94
380.606	419.94
380.831	419.94
381.057	417.94
381.282	407.94
381.507	391.94
381.733	412.94
381.958	437.94
382.184	414.94
382.409	448.94
382.634	406.94
382.86	409.94
383.085	425.94
383.31	419.94
383.535	431.94
383.761	415.94
383.986	448.94
384.211	428.94
384.436	433.94
384.662	446.94
384.887	439.94
385.112	437.94
385.337	443.94
385.562	444.94
385.787	455.94
386.013	464.94
386.238	474.94
386.463	465.94
386.688	456.94
386.913	447.94
387.138	458.94
387.363	444.94
387.588	442.94
387.813	462.94
388.038	459.94
388.263	462.94
388.488	470.94
388.713	466.94
388.938	477.94
389.163	468.94
389.387	465.94
389.612	460.94
389.837	476.94
390.062	467.94
390.287	464.94
390.512	471.94
390.736	453.94
390.961	452.94
391.186	455.94
391.411	487.94
391.636	472.94
391.86	481.94
392.085	489.94
392.31	468.94
392.534	481.94
392.759	490.94
392.984	458.94
393.208	457.94
393.433	472.94
393.658	475.94
393.882	464.94
394.107	481.94
394.331	490.94
394.556	449.94
394.78	492.94
395.005	492.94
395.229	482.94
395.454	495.94
395.678	486.94
395.903	511.94
396.127	524.94
396.352	529.94
396.576	486.94
396.801	495.94
397.025	507.94
397.249	490.94
397.474	487.94
397.698	507.94
397.922	519.94
398.147	535.94
398.371	522.94
398.595	517.94
398.82	538.94
399.044	563.94
399.268	586.94
399.492	617.94
399.717	641.94
399.941	656.94
400.165	638.94
400.389	657.94
400.613	632.94
400.837	578.94
401.062	543.94
401.286	549.94
401.51	526.94
401.734	520.94
401.958	559.94
402.182	557.94
402.406	554.94
402.63	569.94
402.854	557.94
403.078	574.94
403.302	575.94
403.526	590.94
403.75	583.94
403.974	562.94
404.198	546.94
404.422	586.94
404.645	571.94
404.869	580.94
405.093	621.94
405.317	637.94
405.541	677.94
405.765	638.94
405.988	594.94
406.212	618.94
406.436	643.94
406.66	643.94
406.883	614.94
407.107	657.94
407.331	683.94
407.555	747.94
407.778	740.94
408.002	683.94
408.226	627.94
408.449	657.94
408.673	626.94
408.896	651.94
409.12	705.94
409.344	679.94
409.567	610.94
409.791	610.94
410.014	579.94
410.238	587.94
410.461	591.94
410.685	595.94
410.908	608.94
411.132	623.94
411.355	657.94
411.578	651.94
411.802	587.94
412.025	584.94
412.249	590.94
412.472	606.94
412.695	642.94
412.919	623.94
413.142	574.94
413.365	584.94
413.589	566.94
413.812	541.94
414.035	559.94
414.258	547.94
414.482	549.94
414.705	549.94
414.928	536.94
415.151	556.94
415.374	565.94
415.597	543.94
415.821	529.94
416.044	537.94
416.267	540.94
416.49	549.94
416.713	536.94
416.936	551.94
417.159	540.94
417.382	565.94
417.605	552.94
417.828	569.94
418.051	551.94
418.274	576.94
418.497	539.94
418.72	535.94
418.943	551.94
419.166	569.94
419.389	603.94
419.611	597.94
419.834	579.94
420.057	579.94
420.28	566.94
420.503	570.94
420.726	569.94
420.948	560.94
421.171	616.94
421.394	634.94
421.617	595.94
421.839	585.94
422.062	578.94
422.285	589.94
422.507	667.94
422.73	723.94
422.953	693.94
423.175	607.94
423.398	587.94
423.621	608.94
423.843	620.94
424.066	601.94
424.288	611.94
424.511	640.94
424.733	659.94
424.956	749.94
425.178	701.94
425.401	706.94
425.623	740.94
425.846	628.94
426.068	595.94
426.291	568.94
426.513	601.94
426.735	610.94
426.958	658.94
427.18	707.94
427.402	848.94
427.625	980.94
427.847	832.94
428.069	718.94
428.292	650.94
428.514	612.94
428.736	583.94
428.958	567.94
429.181	553.94
429.403	563.94
429.625	547.94
429.847	598.94
430.069	664.94
430.292	664.94
430.514	583.94
430.736	567.94
430.958	559.94
431.18	538.94
431.402	532.94
431.624	503.94
431.846	534.94
432.068	542.94
432.29	557.94
432.512	534.94
432.734	542.94
432.956	531.94
433.178	535.94
433.4	561.94
433.622	568.94
433.844	534.94
434.066	549.94
434.287	535.94
434.509	551.94
434.731	549.94
434.953	572.94
435.175	581.94
435.397	617.94
435.618	621.94
435.84	632.94
436.062	714.94
436.284	795.94
436.505	677.94
436.727	618.94
436.949	595.94
437.17	578.94
437.392	555.94
437.614	570.94
437.835	606.94
438.057	702.94
438.278	787.94
438.5	774.94
438.721	857.94
438.943	846.94
439.165	663.94
439.386	638.94
439.608	627.94
439.829	599.94
440.05	650.94
440.272	703.94
440.493	610.94
440.715	582.94
440.936	572.94
441.158	563.94
441.379	573.94
441.6	581.94
441.822	597.94
442.043	633.94
442.264	715.94
442.486	741.94
442.707	660.94
442.928	637.94
443.149	639.94
443.371	661.94
443.592	682.94
443.813	762.94
444.034	837.94
444.255	712.94
444.476	649.94
444.698	634.94
444.919	643.94
445.14	701.94
445.361	647.94
445.582	667.94
445.803	717.94
446.024	800.94
446.245	805.94
446.466	780.94
446.687	644.94
446.908	592.94
447.129	576.94
447.35	575.94
447.571	562.94
447.792	557.94
448.013	541.94
448.234	579.94
448.455	631.94
448.675	737.94
448.896	842.94
449.117	710.94
449.338	661.94
449.559	772.94
449.779	888.94
450	724.94
450.221	589.94
450.442	554.94
450.662	530.94
450.883	529.94
451.104	562.94
451.324	557.94
451.545	535.94
451.766	514.94
451.986	484.94
452.207	489.94
452.428	505.94
452.648	487.94
452.869	488.94
453.089	502.94
453.31	523.94
453.53	491.94
453.751	475.94
453.971	504.94
454.192	519.94
454.412	502.94
454.633	503.94
454.853	495.94
455.073	511.94
455.294	510.94
455.514	588.94
455.734	550.94
455.955	482.94
456.175	474.94
456.395	468.94
456.616	465.94
456.836	463.94
457.056	456.94
457.276	453.94
457.497	489.94
457.717	479.94
457.937	466.94
458.157	461.94
458.377	505.94
458.598	523.94
458.818	590.94
459.038	653.94
459.258	644.94
459.478	567.94
459.698	553.94
459.918	547.94
460.138	544.94
460.358	536.94
460.578	574.94
460.798	557.94
461.018	574.94
461.238	566.94
461.458	549.94
461.678	537.94
461.898	574.94
462.118	555.94
462.338	581.94
462.558	579.94
462.777	603.94
462.997	607.94
463.217	632.94
463.437	660.94
463.657	629.94
463.876	590.94
464.096	602.94
464.316	579.94
464.536	593.94
464.755	622.94
464.975	621.94
465.195	615.94
465.414	671.94
465.634	643.94
465.854	573.94
466.073	534.94
466.293	516.94
466.512	536.94
466.732	518.94
466.951	537.94
467.171	522.94
467.391	534.94
467.61	518.94
467.829	509.94
468.049	515.94
468.268	519.94
468.488	505.94
468.707	507.94
468.927	518.94
469.146	512.94
469.365	509.94
469.585	512.94
469.804	519.94
470.023	521.94
470.243	527.94
470.462	547.94
470.681	537.94
470.901	531.94
471.12	538.94
471.339	531.94
471.558	540.94
471.777	523.94
471.997	517.94
472.216	507.94
472.435	532.94
472.654	561.94
472.873	507.94
473.092	490.94
473.311	509.94
473.53	522.94
473.749	507.94
473.968	550.94
474.187	635.94
474.406	704.94
474.625	579.94
474.844	515.94
475.063	507.94
475.282	527.94
475.501	529.94
475.72	531.94
475.939	534.94
476.158	538.94
476.377	548.94
476.596	541.94
476.814	561.94
477.033	554.94
477.252	540.94
477.471	557.94
477.69	559.94
477.908	562.94
478.127	586.94
478.346	559.94
478.564	591.94
478.783	607.94
479.002	613.94
479.22	593.94
479.439	627.94
479.658	611.94
479.876	644.94
480.095	635.94
480.313	651.94
480.532	652.94
480.751	630.94
480.969	664.94
481.188	708.94
481.406	731.94
481.624	681.94
481.843	617.94
482.061	615.94
482.28	614.94
482.498	625.94
482.717	621.94
482.935	628.94
483.153	628.94
483.372	607.94
483.59	601.94
483.808	606.94
484.027	593.94
484.245	619.94
484.463	620.94
484.681	611.94
484.9	609.94
485.118	625.94
485.336	636.94
485.554	626.94
485.772	623.94
485.99	625.94
486.209	643.94
486.427	637.94
486.645	655.94
486.863	669.94
487.081	657.94
487.299	657.94
487.517	673.94
487.735	662.94
487.953	669.94
488.171	633.94
488.389	657.94
488.607	647.94
488.825	661.94
489.043	669.94
489.261	661.94
489.479	686.94
489.696	674.94
489.914	658.94
490.132	664.94
490.35	689.94
490.568	692.94
490.786	714.94
491.003	723.94
491.221	707.94
491.439	717.94
491.657	733.94
491.874	726.94
492.092	754.94
492.31	756.94
492.527	751.94
492.745	755.94
492.963	767.94
493.18	765.94
493.398	760.94
493.615	787.94
493.833	783.94
494.05	774.94
494.268	774.94
494.485	746.94
494.703	762.94
494.92	778.94
495.138	741.94
495.355	777.94
495.573	789.94
495.79	793.94
496.008	775.94
496.225	794.94
496.442	810.94
496.66	764.94
496.877	790.94
497.094	794.94
497.312	802.94
497.529	834.94
497.746	829.94
497.963	834.94
498.181	839.94
498.398	856.94
498.615	895.94
498.832	935.94
499.049	908.94
499.267	955.94
499.484	993.94
499.701	1005.94
499.918	1071.94
500.135	1122.94
500.352	1194.94
500.569	1200.94
500.786	1185.94
501.003	1197.94
501.22	1135.94
501.437	1088.94
501.654	1074.94
501.871	1035.94
