Data from 1979.PennyLincolnUp.Lamp.En5.5.200Scan.071719.P1_HRD10591_16-19-35-863.txt Node
Date: Thu Jul 18 16:19:35 EDT 2019
User: cochatt
Spectrometer: HR+D1059
Trigger mode: 1
Integration Time (sec): 1.000000E-1
Scans to average: 1
Electric dark correction enabled: true
Nonlinearity correction enabled: false
Boxcar width: 0
XAxis mode: Wavelengths
Number of Pixels in Spectrum: 2048
>>>>>Begin Spectral Data<<<<<
223.165	-19.81
223.4	-19.81
223.635	-19.81
223.869	-14.81
224.104	-12.81
224.338	-12.81
224.573	-16.81
224.808	-1.81
225.042	-6.81
225.277	-8.81
225.511	-1.81
225.746	-17.81
225.98	-2.81
226.215	13.19
226.449	19.19
226.683	30.19
226.918	20.19
227.152	34.19
227.387	41.19
227.621	42.19
227.856	46.19
228.09	49.19
228.324	51.19
228.559	55.19
228.793	75.19
229.027	83.19
229.262	92.19
229.496	101.19
229.73	127.19
229.964	148.19
230.199	117.19
230.433	105.19
230.667	106.19
230.901	100.19
231.136	99.19
231.37	103.19
231.604	90.19
231.838	124.19
232.072	118.19
232.306	118.19
232.541	114.19
232.775	79.19
233.009	119.19
233.243	109.19
233.477	115.19
233.711	121.19
233.945	127.19
234.179	122.19
234.413	106.19
234.647	115.19
234.881	113.19
235.115	106.19
235.349	110.19
235.583	109.19
235.817	116.19
236.051	134.19
236.285	121.19
236.519	111.19
236.753	116.19
236.987	137.19
237.221	174.19
237.455	226.19
237.689	167.19
237.922	139.19
238.156	132.19
238.39	116.19
238.624	119.19
238.858	133.19
239.091	125.19
239.325	118.19
239.559	124.19
239.793	138.19
240.027	118.19
240.26	133.19
240.494	162.19
240.728	140.19
240.961	140.19
241.195	134.19
241.429	124.19
241.662	136.19
241.896	136.19
242.13	118.19
242.363	124.19
242.597	126.19
242.83	133.19
243.064	156.19
243.298	139.19
243.531	135.19
243.765	142.19
243.998	122.19
244.232	137.19
244.465	148.19
244.699	148.19
244.932	162.19
245.166	159.19
245.399	149.19
245.633	133.19
245.866	154.19
246.099	137.19
246.333	149.19
246.566	164.19
246.8	149.19
247.033	158.19
247.266	144.19
247.5	155.19
247.733	163.19
247.966	159.19
248.2	172.19
248.433	159.19
248.666	159.19
248.899	181.19
249.133	181.19
249.366	198.19
249.599	185.19
249.832	171.19
250.066	180.19
250.299	177.19
250.532	185.19
250.765	185.19
250.998	212.19
251.231	211.19
251.465	205.19
251.698	192.19
251.931	191.19
252.164	187.19
252.397	182.19
252.63	197.19
252.863	203.19
253.096	211.19
253.329	217.19
253.562	213.19
253.795	198.19
254.028	191.19
254.261	201.19
254.494	207.19
254.727	232.19
254.96	237.19
255.193	253.19
255.426	215.19
255.659	207.19
255.892	226.19
256.124	213.19
256.357	210.19
256.59	213.19
256.823	202.19
257.056	207.19
257.289	199.19
257.521	196.19
257.754	206.19
257.987	193.19
258.22	192.19
258.452	200.19
258.685	199.19
258.918	195.19
259.151	213.19
259.383	207.19
259.616	208.19
259.849	221.19
260.081	220.19
260.314	229.19
260.547	237.19
260.779	226.19
261.012	214.19
261.244	216.19
261.477	199.19
261.71	207.19
261.942	199.19
262.175	219.19
262.407	221.19
262.64	210.19
262.872	211.19
263.105	217.19
263.337	208.19
263.57	196.19
263.802	198.19
264.035	207.19
264.267	205.19
264.499	215.19
264.732	218.19
264.964	213.19
265.197	182.19
265.429	196.19
265.661	207.19
265.894	200.19
266.126	207.19
266.358	206.19
266.591	217.19
266.823	208.19
267.055	213.19
267.287	226.19
267.52	205.19
267.752	233.19
267.984	218.19
268.216	215.19
268.448	227.19
268.681	213.19
268.913	226.19
269.145	228.19
269.377	257.19
269.609	254.19
269.841	242.19
270.073	265.19
270.306	274.19
270.538	294.19
270.77	281.19
271.002	263.19
271.234	270.19
271.466	289.19
271.698	282.19
271.93	277.19
272.162	279.19
272.394	306.19
272.626	284.19
272.858	252.19
273.09	246.19
273.322	246.19
273.553	247.19
273.785	257.19
274.017	246.19
274.249	242.19
274.481	227.19
274.713	235.19
274.945	281.19
275.176	256.19
275.408	254.19
275.64	239.19
275.872	241.19
276.104	259.19
276.335	267.19
276.567	252.19
276.799	271.19
277.031	290.19
277.262	290.19
277.494	300.19
277.726	263.19
277.957	247.19
278.189	261.19
278.421	249.19
278.652	268.19
278.884	245.19
279.115	238.19
279.347	250.19
279.579	247.19
279.81	245.19
280.042	270.19
280.273	259.19
280.505	235.19
280.736	246.19
280.968	243.19
281.199	253.19
281.431	257.19
281.662	255.19
281.894	274.19
282.125	269.19
282.356	285.19
282.588	289.19
282.819	294.19
283.051	270.19
283.282	266.19
283.513	263.19
283.745	269.19
283.976	266.19
284.207	261.19
284.439	279.19
284.67	271.19
284.901	271.19
285.132	277.19
285.364	273.19
285.595	271.19
285.826	272.19
286.057	258.19
286.288	261.19
286.52	268.19
286.751	246.19
286.982	269.19
287.213	270.19
287.444	274.19
287.675	281.19
287.906	284.19
288.138	280.19
288.369	289.19
288.6	293.19
288.831	271.19
289.062	269.19
289.293	302.19
289.524	280.19
289.755	294.19
289.986	269.19
290.217	268.19
290.448	286.19
290.679	274.19
290.91	279.19
291.141	278.19
291.371	283.19
291.602	265.19
291.833	283.19
292.064	277.19
292.295	271.19
292.526	278.19
292.757	274.19
292.987	282.19
293.218	294.19
293.449	290.19
293.68	298.19
293.91	287.19
294.141	286.19
294.372	285.19
294.603	290.19
294.833	279.19
295.064	294.19
295.295	293.19
295.525	306.19
295.756	291.19
295.987	286.19
296.217	292.19
296.448	307.19
296.679	305.19
296.909	294.19
297.14	305.19
297.37	290.19
297.601	290.19
297.831	299.19
298.062	289.19
298.292	298.19
298.523	313.19
298.753	317.19
298.984	294.19
299.214	297.19
299.445	295.19
299.675	277.19
299.905	302.19
300.136	293.19
300.366	310.19
300.597	309.19
300.827	312.19
301.057	313.19
301.288	331.19
301.518	326.19
301.748	333.19
301.979	323.19
302.209	322.19
302.439	310.19
302.669	313.19
302.9	321.19
303.13	320.19
303.36	314.19
303.59	335.19
303.82	341.19
304.051	324.19
304.281	330.19
304.511	314.19
304.741	324.19
304.971	315.19
305.201	340.19
305.431	322.19
305.661	310.19
305.891	310.19
306.121	320.19
306.352	312.19
306.582	317.19
306.812	309.19
307.042	338.19
307.272	327.19
307.502	321.19
307.731	324.19
307.961	330.19
308.191	312.19
308.421	325.19
308.651	294.19
308.881	309.19
309.111	339.19
309.341	345.19
309.571	353.19
309.8	345.19
310.03	343.19
310.26	355.19
310.49	359.19
310.72	365.19
310.949	360.19
311.179	383.19
311.409	343.19
311.639	349.19
311.868	363.19
312.098	355.19
312.328	375.19
312.557	366.19
312.787	358.19
313.017	393.19
313.246	364.19
313.476	379.19
313.706	353.19
313.935	345.19
314.165	390.19
314.394	389.19
314.624	393.19
314.853	364.19
315.083	348.19
315.312	373.19
315.542	358.19
315.771	364.19
316.001	362.19
316.23	358.19
316.46	367.19
316.689	371.19
316.919	379.19
317.148	390.19
317.377	374.19
317.607	378.19
317.836	358.19
318.065	363.19
318.295	369.19
318.524	351.19
318.753	367.19
318.983	376.19
319.212	369.19
319.441	371.19
319.67	374.19
319.9	379.19
320.129	387.19
320.358	375.19
320.587	382.19
320.816	385.19
321.046	379.19
321.275	384.19
321.504	382.19
321.733	388.19
321.962	412.19
322.191	387.19
322.42	423.19
322.649	433.19
322.878	421.19
323.108	432.19
323.337	444.19
323.566	460.19
323.795	478.19
324.024	521.19
324.253	614.19
324.482	874.19
324.71	1374.19
324.939	2033.19
325.168	1763.19
325.397	870.19
325.626	611.19
325.855	511.19
326.084	463.19
326.313	472.19
326.542	469.19
326.77	501.19
326.999	596.19
327.228	811.19
327.457	1232.19
327.686	1566.19
327.914	1003.19
328.143	676.19
328.372	588.19
328.6	523.19
328.829	511.19
329.058	520.19
329.287	526.19
329.515	519.19
329.744	490.19
329.972	502.19
330.201	480.19
330.43	540.19
330.658	565.19
330.887	557.19
331.115	563.19
331.344	491.19
331.572	474.19
331.801	471.19
332.03	470.19
332.258	448.19
332.486	459.19
332.715	452.19
332.943	443.19
333.172	454.19
333.4	466.19
333.629	447.19
333.857	472.19
334.085	494.19
334.314	467.19
334.542	510.19
334.771	538.19
334.999	507.19
335.227	464.19
335.455	457.19
335.684	460.19
335.912	440.19
336.14	439.19
336.369	450.19
336.597	439.19
336.825	451.19
337.053	447.19
337.281	443.19
337.51	447.19
337.738	440.19
337.966	439.19
338.194	427.19
338.422	428.19
338.65	448.19
338.878	432.19
339.106	430.19
339.334	420.19
339.562	419.19
339.79	419.19
340.018	426.19
340.246	435.19
340.474	407.19
340.702	419.19
340.93	431.19
341.158	411.19
341.386	429.19
341.614	435.19
341.842	421.19
342.07	420.19
342.298	420.19
342.526	419.19
342.754	400.19
342.981	390.19
343.209	407.19
343.437	414.19
343.665	435.19
343.893	433.19
344.12	460.19
344.348	429.19
344.576	439.19
344.804	437.19
345.031	434.19
345.259	450.19
345.487	429.19
345.714	423.19
345.942	411.19
346.17	408.19
346.397	425.19
346.625	426.19
346.853	410.19
347.08	407.19
347.308	397.19
347.535	426.19
347.763	416.19
347.99	407.19
348.218	414.19
348.445	420.19
348.673	434.19
348.9	423.19
349.128	409.19
349.355	387.19
349.583	394.19
349.81	377.19
350.037	400.19
350.265	394.19
350.492	398.19
350.72	407.19
350.947	409.19
351.174	415.19
351.402	423.19
351.629	424.19
351.856	393.19
352.083	405.19
352.311	409.19
352.538	420.19
352.765	425.19
352.992	409.19
353.22	400.19
353.447	404.19
353.674	435.19
353.901	388.19
354.128	385.19
354.355	399.19
354.583	381.19
354.81	387.19
355.037	391.19
355.264	387.19
355.491	387.19
355.718	371.19
355.945	388.19
356.172	385.19
356.399	391.19
356.626	406.19
356.853	363.19
357.08	395.19
357.307	379.19
357.534	384.19
357.761	374.19
357.988	397.19
358.215	408.19
358.441	363.19
358.668	389.19
358.895	378.19
359.122	391.19
359.349	388.19
359.576	410.19
359.802	439.19
360.029	454.19
360.256	446.19
360.483	439.19
360.709	420.19
360.936	421.19
361.163	424.19
361.39	422.19
361.616	409.19
361.843	431.19
362.07	407.19
362.296	415.19
362.523	420.19
362.749	393.19
362.976	414.19
363.203	415.19
363.429	415.19
363.656	405.19
363.882	395.19
364.109	413.19
364.335	399.19
364.562	411.19
364.788	411.19
365.015	417.19
365.241	412.19
365.468	413.19
365.694	404.19
365.92	406.19
366.147	406.19
366.373	416.19
366.599	400.19
366.826	387.19
367.052	386.19
367.278	408.19
367.505	387.19
367.731	398.19
367.957	407.19
368.184	401.19
368.41	417.19
368.636	417.19
368.862	414.19
369.089	404.19
369.315	435.19
369.541	393.19
369.767	414.19
369.993	425.19
370.219	396.19
370.445	401.19
370.672	409.19
370.898	412.19
371.124	433.19
371.35	403.19
371.576	394.19
371.802	417.19
372.028	404.19
372.254	399.19
372.48	403.19
372.706	411.19
372.932	418.19
373.158	418.19
373.384	426.19
373.61	425.19
373.835	404.19
374.061	408.19
374.287	407.19
374.513	414.19
374.739	415.19
374.965	415.19
375.191	421.19
375.416	445.19
375.642	416.19
375.868	436.19
376.094	422.19
376.319	418.19
376.545	401.19
376.771	410.19
376.997	429.19
377.222	397.19
377.448	399.19
377.674	389.19
377.899	392.19
378.125	398.19
378.35	404.19
378.576	402.19
378.802	405.19
379.027	420.19
379.253	410.19
379.478	406.19
379.704	427.19
379.929	422.19
380.155	419.19
380.38	417.19
380.606	425.19
380.831	421.19
381.057	422.19
381.282	408.19
381.507	418.19
381.733	399.19
381.958	401.19
382.184	422.19
382.409	409.19
382.634	435.19
382.86	437.19
383.085	419.19
383.31	425.19
383.535	430.19
383.761	437.19
383.986	445.19
384.211	450.19
384.436	425.19
384.662	431.19
384.887	449.19
385.112	461.19
385.337	454.19
385.562	449.19
385.787	457.19
386.013	477.19
386.238	471.19
386.463	486.19
386.688	465.19
386.913	473.19
387.138	453.19
387.363	469.19
387.588	439.19
387.813	465.19
388.038	475.19
388.263	446.19
388.488	442.19
388.713	466.19
388.938	465.19
389.163	458.19
389.387	465.19
389.612	456.19
389.837	461.19
390.062	447.19
390.287	442.19
390.512	450.19
390.736	466.19
390.961	462.19
391.186	461.19
391.411	451.19
391.636	446.19
391.86	489.19
392.085	458.19
392.31	486.19
392.534	512.19
392.759	482.19
392.984	467.19
393.208	476.19
393.433	481.19
393.658	471.19
393.882	445.19
394.107	475.19
394.331	482.19
394.556	462.19
394.78	470.19
395.005	481.19
395.229	475.19
395.454	475.19
395.678	478.19
395.903	498.19
396.127	510.19
396.352	522.19
396.576	489.19
396.801	486.19
397.025	495.19
397.249	515.19
397.474	507.19
397.698	501.19
397.922	522.19
398.147	531.19
398.371	507.19
398.595	536.19
398.82	528.19
399.044	561.19
399.268	574.19
399.492	612.19
399.717	643.19
399.941	671.19
400.165	653.19
400.389	672.19
400.613	616.19
400.837	577.19
401.062	560.19
401.286	553.19
401.51	538.19
401.734	556.19
401.958	570.19
402.182	556.19
402.406	555.19
402.63	561.19
402.854	559.19
403.078	565.19
403.302	576.19
403.526	589.19
403.75	594.19
403.974	568.19
404.198	581.19
404.422	574.19
404.645	596.19
404.869	580.19
405.093	591.19
405.317	646.19
405.541	684.19
405.765	629.19
405.988	608.19
406.212	590.19
406.436	627.19
406.66	613.19
406.883	603.19
407.107	638.19
407.331	683.19
407.555	756.19
407.778	761.19
408.002	686.19
408.226	659.19
408.449	651.19
408.673	627.19
408.896	649.19
409.12	701.19
409.344	668.19
409.567	635.19
409.791	597.19
410.014	587.19
410.238	572.19
410.461	590.19
410.685	590.19
410.908	587.19
411.132	627.19
411.355	652.19
411.578	627.19
411.802	607.19
412.025	592.19
412.249	585.19
412.472	618.19
412.695	638.19
412.919	625.19
413.142	606.19
413.365	574.19
413.589	559.19
413.812	554.19
414.035	534.19
414.258	526.19
414.482	540.19
414.705	538.19
414.928	548.19
415.151	546.19
415.374	555.19
415.597	561.19
415.821	535.19
416.044	555.19
416.267	540.19
416.49	547.19
416.713	526.19
416.936	533.19
417.159	528.19
417.382	536.19
417.605	542.19
417.828	542.19
418.051	554.19
418.274	542.19
418.497	572.19
418.72	545.19
418.943	561.19
419.166	592.19
419.389	581.19
419.611	572.19
419.834	572.19
420.057	593.19
420.28	567.19
420.503	563.19
420.726	546.19
420.948	563.19
421.171	620.19
421.394	645.19
421.617	555.19
421.839	569.19
422.062	554.19
422.285	559.19
422.507	638.19
422.73	709.19
422.953	655.19
423.175	598.19
423.398	589.19
423.621	598.19
423.843	615.19
424.066	612.19
424.288	586.19
424.511	616.19
424.733	658.19
424.956	730.19
425.178	698.19
425.401	718.19
425.623	736.19
425.846	649.19
426.068	605.19
426.291	608.19
426.513	584.19
426.735	609.19
426.958	646.19
427.18	712.19
427.402	830.19
427.625	914.19
427.847	801.19
428.069	720.19
428.292	625.19
428.514	585.19
428.736	563.19
428.958	581.19
429.181	561.19
429.403	555.19
429.625	559.19
429.847	583.19
430.069	632.19
430.292	637.19
430.514	571.19
430.736	548.19
430.958	553.19
431.18	530.19
431.402	550.19
431.624	504.19
431.846	533.19
432.068	538.19
432.29	524.19
432.512	523.19
432.734	538.19
432.956	521.19
433.178	548.19
433.4	549.19
433.622	536.19
433.844	539.19
434.066	569.19
434.287	525.19
434.509	515.19
434.731	559.19
434.953	557.19
435.175	573.19
435.397	591.19
435.618	578.19
435.84	625.19
436.062	727.19
436.284	782.19
436.505	641.19
436.727	597.19
436.949	559.19
437.17	553.19
437.392	571.19
437.614	565.19
437.835	572.19
438.057	689.19
438.278	759.19
438.5	762.19
438.721	845.19
438.943	797.19
439.165	653.19
439.386	611.19
439.608	603.19
439.829	604.19
440.05	632.19
440.272	665.19
440.493	639.19
440.715	597.19
440.936	565.19
441.158	551.19
441.379	573.19
441.6	559.19
441.822	579.19
442.043	635.19
442.264	713.19
442.486	751.19
442.707	653.19
442.928	617.19
443.149	631.19
443.371	641.19
443.592	668.19
443.813	766.19
444.034	839.19
444.255	689.19
444.476	633.19
444.698	626.19
444.919	601.19
445.14	709.19
445.361	683.19
445.582	662.19
445.803	675.19
446.024	785.19
446.245	796.19
446.466	729.19
446.687	647.19
446.908	609.19
447.129	561.19
447.35	540.19
447.571	561.19
447.792	557.19
448.013	557.19
448.234	542.19
448.455	574.19
448.675	693.19
448.896	822.19
449.117	710.19
449.338	684.19
449.559	772.19
449.779	845.19
450	685.19
450.221	566.19
450.442	562.19
450.662	542.19
450.883	526.19
451.104	561.19
451.324	550.19
451.545	521.19
451.766	521.19
451.986	481.19
452.207	477.19
452.428	505.19
452.648	495.19
452.869	495.19
453.089	494.19
453.31	527.19
453.53	512.19
453.751	514.19
453.971	487.19
454.192	508.19
454.412	517.19
454.633	480.19
454.853	488.19
455.073	491.19
455.294	513.19
455.514	591.19
455.734	569.19
455.955	498.19
456.175	462.19
456.395	473.19
456.616	471.19
456.836	486.19
457.056	471.19
457.276	454.19
457.497	487.19
457.717	498.19
457.937	452.19
458.157	472.19
458.377	479.19
458.598	516.19
458.818	563.19
459.038	625.19
459.258	643.19
459.478	592.19
459.698	541.19
459.918	545.19
460.138	525.19
460.358	531.19
460.578	539.19
460.798	550.19
461.018	572.19
461.238	541.19
461.458	556.19
461.678	544.19
461.898	542.19
462.118	546.19
462.338	585.19
462.558	591.19
462.777	592.19
462.997	614.19
463.217	632.19
463.437	625.19
463.657	617.19
463.876	635.19
464.096	594.19
464.316	602.19
464.536	606.19
464.755	609.19
464.975	612.19
465.195	665.19
465.414	685.19
465.634	621.19
465.854	582.19
466.073	551.19
466.293	541.19
466.512	525.19
466.732	526.19
466.951	522.19
467.171	489.19
467.391	537.19
467.61	519.19
467.829	531.19
468.049	550.19
468.268	527.19
468.488	513.19
468.707	511.19
468.927	505.19
469.146	500.19
469.365	494.19
469.585	505.19
469.804	505.19
470.023	527.19
470.243	507.19
470.462	525.19
470.681	550.19
470.901	545.19
471.12	516.19
471.339	521.19
471.558	544.19
471.777	516.19
471.997	511.19
472.216	502.19
472.435	553.19
472.654	531.19
472.873	520.19
473.092	501.19
473.311	493.19
473.53	505.19
473.749	518.19
473.968	553.19
474.187	654.19
474.406	667.19
474.625	573.19
474.844	542.19
475.063	532.19
475.282	512.19
475.501	524.19
475.72	507.19
475.939	540.19
476.158	543.19
476.377	539.19
476.596	531.19
476.814	536.19
477.033	568.19
477.252	556.19
477.471	546.19
477.69	541.19
477.908	561.19
478.127	550.19
478.346	547.19
478.564	592.19
478.783	590.19
479.002	618.19
479.22	586.19
479.439	607.19
479.658	632.19
479.876	627.19
480.095	635.19
480.313	649.19
480.532	647.19
480.751	674.19
480.969	651.19
481.188	684.19
481.406	740.19
481.624	647.19
481.843	638.19
482.061	608.19
482.28	606.19
482.498	611.19
482.717	625.19
482.935	595.19
483.153	626.19
483.372	612.19
483.59	590.19
483.808	615.19
484.027	603.19
484.245	632.19
484.463	649.19
484.681	591.19
484.9	613.19
485.118	619.19
485.336	631.19
485.554	649.19
485.772	629.19
485.99	625.19
486.209	623.19
486.427	621.19
486.645	637.19
486.863	651.19
487.081	664.19
487.299	657.19
487.517	662.19
487.735	664.19
487.953	676.19
488.171	663.19
488.389	644.19
488.607	668.19
488.825	635.19
489.043	648.19
489.261	683.19
489.479	686.19
489.696	652.19
489.914	684.19
490.132	689.19
490.35	681.19
490.568	651.19
490.786	686.19
491.003	678.19
491.221	720.19
491.439	711.19
491.657	708.19
491.874	721.19
492.092	746.19
492.31	717.19
492.527	747.19
492.745	764.19
492.963	734.19
493.18	737.19
493.398	753.19
493.615	771.19
493.833	762.19
494.05	769.19
494.268	747.19
494.485	763.19
494.703	744.19
494.92	739.19
495.138	749.19
495.355	793.19
495.573	773.19
495.79	756.19
496.008	782.19
496.225	763.19
496.442	764.19
496.66	762.19
496.877	781.19
497.094	771.19
497.312	799.19
497.529	756.19
497.746	798.19
497.963	824.19
498.181	846.19
498.398	858.19
498.615	897.19
498.832	910.19
499.049	895.19
499.267	933.19
499.484	988.19
499.701	999.19
499.918	1047.19
500.135	1109.19
500.352	1154.19
500.569	1197.19
500.786	1224.19
501.003	1194.19
501.22	1132.19
501.437	1099.19
501.654	1035.19
501.871	1024.19
