Data from 1979.PennyLincolnUp.Lamp.En5.5.200Scan.071719.P1_HRD10591_16-19-29-864.txt Node
Date: Thu Jul 18 16:19:29 EDT 2019
User: cochatt
Spectrometer: HR+D1059
Trigger mode: 1
Integration Time (sec): 1.000000E-1
Scans to average: 1
Electric dark correction enabled: true
Nonlinearity correction enabled: false
Boxcar width: 0
XAxis mode: Wavelengths
Number of Pixels in Spectrum: 2048
>>>>>Begin Spectral Data<<<<<
223.165	-13.88
223.4	-13.88
223.635	-13.88
223.869	-7.88
224.104	-29.88
224.338	-13.88
224.573	-13.88
224.808	-15.88
225.042	-15.88
225.277	0.12
225.511	-15.88
225.746	10.12
225.98	1.12
226.215	6.12
226.449	31.12
226.683	22.12
226.918	43.12
227.152	13.12
227.387	30.12
227.621	44.12
227.856	56.12
228.09	42.12
228.324	51.12
228.559	41.12
228.793	58.12
229.027	71.12
229.262	105.12
229.496	99.12
229.73	123.12
229.964	132.12
230.199	117.12
230.433	116.12
230.667	108.12
230.901	109.12
231.136	100.12
231.37	104.12
231.604	93.12
231.838	103.12
232.072	100.12
232.306	107.12
232.541	113.12
232.775	117.12
233.009	108.12
233.243	114.12
233.477	109.12
233.711	108.12
233.945	114.12
234.179	123.12
234.413	116.12
234.647	120.12
234.881	106.12
235.115	121.12
235.349	123.12
235.583	100.12
235.817	120.12
236.051	117.12
236.285	119.12
236.519	119.12
236.753	120.12
236.987	130.12
237.221	167.12
237.455	191.12
237.689	168.12
237.922	125.12
238.156	140.12
238.39	131.12
238.624	124.12
238.858	127.12
239.091	97.12
239.325	116.12
239.559	119.12
239.793	120.12
240.027	132.12
240.26	164.12
240.494	147.12
240.728	143.12
240.961	142.12
241.195	147.12
241.429	121.12
241.662	138.12
241.896	130.12
242.13	143.12
242.363	140.12
242.597	156.12
242.83	134.12
243.064	145.12
243.298	118.12
243.531	125.12
243.765	146.12
243.998	136.12
244.232	132.12
244.465	149.12
244.699	146.12
244.932	127.12
245.166	134.12
245.399	143.12
245.633	140.12
245.866	133.12
246.099	147.12
246.333	141.12
246.566	152.12
246.8	147.12
247.033	158.12
247.266	155.12
247.5	154.12
247.733	164.12
247.966	154.12
248.2	183.12
248.433	153.12
248.666	171.12
248.899	185.12
249.133	196.12
249.366	194.12
249.599	183.12
249.832	173.12
250.066	166.12
250.299	165.12
250.532	191.12
250.765	173.12
250.998	206.12
251.231	215.12
251.465	200.12
251.698	179.12
251.931	179.12
252.164	180.12
252.397	172.12
252.63	183.12
252.863	184.12
253.096	198.12
253.329	208.12
253.562	218.12
253.795	210.12
254.028	212.12
254.261	202.12
254.494	225.12
254.727	232.12
254.96	261.12
255.193	241.12
255.426	229.12
255.659	219.12
255.892	204.12
256.124	212.12
256.357	210.12
256.59	220.12
256.823	208.12
257.056	170.12
257.289	193.12
257.521	198.12
257.754	184.12
257.987	192.12
258.22	189.12
258.452	189.12
258.685	191.12
258.918	196.12
259.151	199.12
259.383	231.12
259.616	200.12
259.849	229.12
260.081	219.12
260.314	232.12
260.547	237.12
260.779	223.12
261.012	194.12
261.244	202.12
261.477	227.12
261.71	210.12
261.942	199.12
262.175	204.12
262.407	210.12
262.64	204.12
262.872	203.12
263.105	205.12
263.337	211.12
263.57	209.12
263.802	199.12
264.035	197.12
264.267	214.12
264.499	184.12
264.732	203.12
264.964	194.12
265.197	205.12
265.429	206.12
265.661	221.12
265.894	226.12
266.126	212.12
266.358	196.12
266.591	204.12
266.823	218.12
267.055	223.12
267.287	201.12
267.52	229.12
267.752	213.12
267.984	214.12
268.216	217.12
268.448	224.12
268.681	222.12
268.913	220.12
269.145	237.12
269.377	268.12
269.609	247.12
269.841	245.12
270.073	243.12
270.306	277.12
270.538	284.12
270.77	272.12
271.002	269.12
271.234	266.12
271.466	268.12
271.698	269.12
271.93	283.12
272.162	309.12
272.394	293.12
272.626	256.12
272.858	273.12
273.09	277.12
273.322	263.12
273.553	253.12
273.785	248.12
274.017	247.12
274.249	256.12
274.481	263.12
274.713	272.12
274.945	274.12
275.176	263.12
275.408	257.12
275.64	227.12
275.872	253.12
276.104	259.12
276.335	247.12
276.567	275.12
276.799	264.12
277.031	289.12
277.262	310.12
277.494	303.12
277.726	279.12
277.957	281.12
278.189	263.12
278.421	266.12
278.652	254.12
278.884	259.12
279.115	263.12
279.347	245.12
279.579	247.12
279.81	239.12
280.042	250.12
280.273	250.12
280.505	272.12
280.736	247.12
280.968	255.12
281.199	259.12
281.431	272.12
281.662	265.12
281.894	255.12
282.125	272.12
282.356	281.12
282.588	297.12
282.819	292.12
283.051	260.12
283.282	266.12
283.513	277.12
283.745	281.12
283.976	271.12
284.207	264.12
284.439	289.12
284.67	259.12
284.901	276.12
285.132	275.12
285.364	263.12
285.595	252.12
285.826	271.12
286.057	279.12
286.288	286.12
286.52	277.12
286.751	263.12
286.982	272.12
287.213	263.12
287.444	259.12
287.675	295.12
287.906	298.12
288.138	286.12
288.369	308.12
288.6	282.12
288.831	281.12
289.062	296.12
289.293	280.12
289.524	289.12
289.755	288.12
289.986	285.12
290.217	277.12
290.448	273.12
290.679	285.12
290.91	273.12
291.141	287.12
291.371	274.12
291.602	267.12
291.833	262.12
292.064	268.12
292.295	289.12
292.526	288.12
292.757	298.12
292.987	287.12
293.218	284.12
293.449	297.12
293.68	274.12
293.91	291.12
294.141	309.12
294.372	288.12
294.603	289.12
294.833	292.12
295.064	303.12
295.295	300.12
295.525	279.12
295.756	306.12
295.987	303.12
296.217	309.12
296.448	326.12
296.679	317.12
296.909	289.12
297.14	308.12
297.37	328.12
297.601	288.12
297.831	302.12
298.062	309.12
298.292	310.12
298.523	307.12
298.753	292.12
298.984	305.12
299.214	307.12
299.445	314.12
299.675	319.12
299.905	293.12
300.136	307.12
300.366	305.12
300.597	305.12
300.827	327.12
301.057	323.12
301.288	329.12
301.518	323.12
301.748	322.12
301.979	323.12
302.209	324.12
302.439	328.12
302.669	333.12
302.9	324.12
303.13	328.12
303.36	338.12
303.59	329.12
303.82	336.12
304.051	348.12
304.281	351.12
304.511	317.12
304.741	317.12
304.971	338.12
305.201	330.12
305.431	319.12
305.661	331.12
305.891	333.12
306.121	323.12
306.352	354.12
306.582	338.12
306.812	332.12
307.042	338.12
307.272	321.12
307.502	334.12
307.731	335.12
307.961	351.12
308.191	326.12
308.421	333.12
308.651	342.12
308.881	342.12
309.111	351.12
309.341	333.12
309.571	337.12
309.8	331.12
310.03	365.12
310.26	364.12
310.49	344.12
310.72	353.12
310.949	376.12
311.179	392.12
311.409	368.12
311.639	398.12
311.868	357.12
312.098	375.12
312.328	368.12
312.557	380.12
312.787	393.12
313.017	398.12
313.246	384.12
313.476	358.12
313.706	381.12
313.935	381.12
314.165	374.12
314.394	390.12
314.624	370.12
314.853	384.12
315.083	377.12
315.312	374.12
315.542	381.12
315.771	359.12
316.001	374.12
316.23	378.12
316.46	369.12
316.689	391.12
316.919	376.12
317.148	393.12
317.377	383.12
317.607	361.12
317.836	362.12
318.065	383.12
318.295	378.12
318.524	389.12
318.753	375.12
318.983	362.12
319.212	377.12
319.441	379.12
319.67	377.12
319.9	381.12
320.129	393.12
320.358	377.12
320.587	390.12
320.816	383.12
321.046	380.12
321.275	385.12
321.504	386.12
321.733	402.12
321.962	396.12
322.191	410.12
322.42	409.12
322.649	445.12
322.878	422.12
323.108	443.12
323.337	474.12
323.566	482.12
323.795	491.12
324.024	547.12
324.253	651.12
324.482	897.12
324.71	1400.12
324.939	2061.12
325.168	1780.12
325.397	889.12
325.626	618.12
325.855	525.12
326.084	489.12
326.313	481.12
326.542	479.12
326.77	518.12
326.999	612.12
327.228	806.12
327.457	1283.12
327.686	1595.12
327.914	1016.12
328.143	661.12
328.372	595.12
328.6	554.12
328.829	533.12
329.058	528.12
329.287	539.12
329.515	498.12
329.744	488.12
329.972	477.12
330.201	491.12
330.43	556.12
330.658	552.12
330.887	570.12
331.115	575.12
331.344	523.12
331.572	494.12
331.801	483.12
332.03	483.12
332.258	471.12
332.486	461.12
332.715	451.12
332.943	447.12
333.172	458.12
333.4	477.12
333.629	484.12
333.857	491.12
334.085	471.12
334.314	508.12
334.542	517.12
334.771	545.12
334.999	489.12
335.227	499.12
335.455	496.12
335.684	476.12
335.912	449.12
336.14	455.12
336.369	455.12
336.597	461.12
336.825	454.12
337.053	467.12
337.281	438.12
337.51	451.12
337.738	453.12
337.966	449.12
338.194	433.12
338.422	448.12
338.65	437.12
338.878	434.12
339.106	434.12
339.334	424.12
339.562	438.12
339.79	424.12
340.018	454.12
340.246	444.12
340.474	413.12
340.702	447.12
340.93	430.12
341.158	424.12
341.386	438.12
341.614	418.12
341.842	428.12
342.07	416.12
342.298	423.12
342.526	436.12
342.754	427.12
342.981	413.12
343.209	442.12
343.437	418.12
343.665	439.12
343.893	453.12
344.12	446.12
344.348	457.12
344.576	457.12
344.804	473.12
345.031	461.12
345.259	440.12
345.487	455.12
345.714	433.12
345.942	403.12
346.17	414.12
346.397	417.12
346.625	425.12
346.853	416.12
347.08	407.12
347.308	435.12
347.535	427.12
347.763	429.12
347.99	440.12
348.218	429.12
348.445	435.12
348.673	418.12
348.9	414.12
349.128	413.12
349.355	409.12
349.583	416.12
349.81	416.12
350.037	415.12
350.265	404.12
350.492	415.12
350.72	417.12
350.947	413.12
351.174	415.12
351.402	419.12
351.629	439.12
351.856	411.12
352.083	439.12
352.311	447.12
352.538	434.12
352.765	432.12
352.992	427.12
353.22	438.12
353.447	426.12
353.674	421.12
353.901	409.12
354.128	425.12
354.355	405.12
354.583	391.12
354.81	402.12
355.037	410.12
355.264	404.12
355.491	403.12
355.718	393.12
355.945	404.12
356.172	403.12
356.399	371.12
356.626	385.12
356.853	397.12
357.08	394.12
357.307	407.12
357.534	405.12
357.761	411.12
357.988	417.12
358.215	381.12
358.441	394.12
358.668	385.12
358.895	387.12
359.122	418.12
359.349	389.12
359.576	433.12
359.802	447.12
360.029	441.12
360.256	481.12
360.483	445.12
360.709	427.12
360.936	403.12
361.163	392.12
361.39	424.12
361.616	435.12
361.843	420.12
362.07	415.12
362.296	435.12
362.523	411.12
362.749	405.12
362.976	427.12
363.203	419.12
363.429	412.12
363.656	426.12
363.882	397.12
364.109	437.12
364.335	409.12
364.562	395.12
364.788	406.12
365.015	442.12
365.241	395.12
365.468	399.12
365.694	413.12
365.92	421.12
366.147	411.12
366.373	413.12
366.599	393.12
366.826	395.12
367.052	403.12
367.278	401.12
367.505	422.12
367.731	439.12
367.957	425.12
368.184	415.12
368.41	433.12
368.636	419.12
368.862	451.12
369.089	443.12
369.315	409.12
369.541	411.12
369.767	419.12
369.993	415.12
370.219	405.12
370.445	414.12
370.672	407.12
370.898	423.12
371.124	394.12
371.35	406.12
371.576	425.12
371.802	400.12
372.028	411.12
372.254	416.12
372.48	411.12
372.706	443.12
372.932	435.12
373.158	424.12
373.384	408.12
373.61	403.12
373.835	428.12
374.061	421.12
374.287	440.12
374.513	441.12
374.739	431.12
374.965	431.12
375.191	439.12
375.416	423.12
375.642	431.12
375.868	449.12
376.094	421.12
376.319	414.12
376.545	445.12
376.771	416.12
376.997	443.12
377.222	421.12
377.448	409.12
377.674	425.12
377.899	412.12
378.125	414.12
378.35	417.12
378.576	406.12
378.802	402.12
379.027	411.12
379.253	419.12
379.478	428.12
379.704	421.12
379.929	444.12
380.155	409.12
380.38	419.12
380.606	425.12
380.831	437.12
381.057	435.12
381.282	423.12
381.507	423.12
381.733	439.12
381.958	436.12
382.184	422.12
382.409	442.12
382.634	447.12
382.86	427.12
383.085	445.12
383.31	440.12
383.535	437.12
383.761	449.12
383.986	461.12
384.211	456.12
384.436	455.12
384.662	449.12
384.887	464.12
385.112	463.12
385.337	463.12
385.562	449.12
385.787	484.12
386.013	480.12
386.238	495.12
386.463	463.12
386.688	465.12
386.913	440.12
387.138	483.12
387.363	482.12
387.588	464.12
387.813	458.12
388.038	488.12
388.263	480.12
388.488	491.12
388.713	483.12
388.938	470.12
389.163	467.12
389.387	454.12
389.612	459.12
389.837	487.12
390.062	487.12
390.287	499.12
390.512	475.12
390.736	471.12
390.961	467.12
391.186	457.12
391.411	480.12
391.636	457.12
391.86	492.12
392.085	501.12
392.31	490.12
392.534	489.12
392.759	498.12
392.984	475.12
393.208	480.12
393.433	496.12
393.658	503.12
393.882	484.12
394.107	486.12
394.331	495.12
394.556	515.12
394.78	489.12
395.005	491.12
395.229	485.12
395.454	484.12
395.678	492.12
395.903	493.12
396.127	507.12
396.352	539.12
396.576	501.12
396.801	492.12
397.025	513.12
397.249	507.12
397.474	526.12
397.698	508.12
397.922	530.12
398.147	526.12
398.371	543.12
398.595	550.12
398.82	541.12
399.044	553.12
399.268	591.12
399.492	620.12
399.717	686.12
399.941	691.12
400.165	677.12
400.389	693.12
400.613	639.12
400.837	609.12
401.062	553.12
401.286	576.12
401.51	572.12
401.734	554.12
401.958	581.12
402.182	550.12
402.406	568.12
402.63	575.12
402.854	570.12
403.078	589.12
403.302	580.12
403.526	587.12
403.75	605.12
403.974	589.12
404.198	581.12
404.422	572.12
404.645	569.12
404.869	614.12
405.093	623.12
405.317	642.12
405.541	723.12
405.765	647.12
405.988	625.12
406.212	630.12
406.436	639.12
406.66	662.12
406.883	639.12
407.107	674.12
407.331	710.12
407.555	746.12
407.778	785.12
408.002	727.12
408.226	647.12
408.449	654.12
408.673	633.12
408.896	643.12
409.12	707.12
409.344	679.12
409.567	607.12
409.791	609.12
410.014	594.12
410.238	585.12
410.461	604.12
410.685	599.12
410.908	613.12
411.132	639.12
411.355	677.12
411.578	640.12
411.802	597.12
412.025	585.12
412.249	597.12
412.472	627.12
412.695	663.12
412.919	667.12
413.142	610.12
413.365	583.12
413.589	595.12
413.812	583.12
414.035	561.12
414.258	583.12
414.482	556.12
414.705	579.12
414.928	569.12
415.151	571.12
415.374	566.12
415.597	552.12
415.821	550.12
416.044	561.12
416.267	559.12
416.49	563.12
416.713	559.12
416.936	576.12
417.159	571.12
417.382	577.12
417.605	568.12
417.828	583.12
418.051	591.12
418.274	595.12
418.497	559.12
418.72	572.12
418.943	566.12
419.166	582.12
419.389	607.12
419.611	616.12
419.834	594.12
420.057	589.12
420.28	581.12
420.503	559.12
420.726	596.12
420.948	575.12
421.171	633.12
421.394	659.12
421.617	607.12
421.839	587.12
422.062	553.12
422.285	595.12
422.507	639.12
422.73	723.12
422.953	702.12
423.175	639.12
423.398	599.12
423.621	623.12
423.843	628.12
424.066	631.12
424.288	641.12
424.511	638.12
424.733	693.12
424.956	772.12
425.178	760.12
425.401	746.12
425.623	759.12
425.846	649.12
426.068	626.12
426.291	617.12
426.513	611.12
426.735	637.12
426.958	643.12
427.18	734.12
427.402	874.12
427.625	934.12
427.847	819.12
428.069	719.12
428.292	667.12
428.514	598.12
428.736	595.12
428.958	568.12
429.181	578.12
429.403	554.12
429.625	578.12
429.847	597.12
430.069	663.12
430.292	662.12
430.514	564.12
430.736	571.12
430.958	561.12
431.18	553.12
431.402	531.12
431.624	547.12
431.846	533.12
432.068	554.12
432.29	538.12
432.512	537.12
432.734	551.12
432.956	545.12
433.178	553.12
433.4	536.12
433.622	545.12
433.844	563.12
434.066	539.12
434.287	544.12
434.509	572.12
434.731	583.12
434.953	579.12
435.175	577.12
435.397	617.12
435.618	620.12
435.84	659.12
436.062	730.12
436.284	826.12
436.505	673.12
436.727	591.12
436.949	585.12
437.17	577.12
437.392	578.12
437.614	570.12
437.835	597.12
438.057	696.12
438.278	770.12
438.5	795.12
438.721	839.12
438.943	852.12
439.165	654.12
439.386	615.12
439.608	641.12
439.829	615.12
440.05	626.12
440.272	665.12
440.493	643.12
440.715	612.12
440.936	576.12
441.158	568.12
441.379	572.12
441.6	606.12
441.822	601.12
442.043	643.12
442.264	710.12
442.486	779.12
442.707	666.12
442.928	623.12
443.149	644.12
443.371	673.12
443.592	709.12
443.813	800.12
444.034	856.12
444.255	689.12
444.476	657.12
444.698	630.12
444.919	642.12
445.14	725.12
445.361	675.12
445.582	650.12
445.803	700.12
446.024	803.12
446.245	817.12
446.466	766.12
446.687	632.12
446.908	613.12
447.129	572.12
447.35	577.12
447.571	553.12
447.792	537.12
448.013	583.12
448.234	565.12
448.455	611.12
448.675	733.12
448.896	849.12
449.117	716.12
449.338	667.12
449.559	801.12
449.779	899.12
450	705.12
450.221	617.12
450.442	562.12
450.662	520.12
450.883	557.12
451.104	547.12
451.324	549.12
451.545	532.12
451.766	511.12
451.986	517.12
452.207	526.12
452.428	505.12
452.648	501.12
452.869	525.12
453.089	520.12
453.31	521.12
453.53	508.12
453.751	477.12
453.971	517.12
454.192	523.12
454.412	491.12
454.633	495.12
454.853	485.12
455.073	499.12
455.294	531.12
455.514	605.12
455.734	576.12
455.955	525.12
456.175	499.12
456.395	490.12
456.616	495.12
456.836	466.12
457.056	496.12
457.276	483.12
457.497	497.12
457.717	487.12
457.937	509.12
458.157	509.12
458.377	513.12
458.598	525.12
458.818	568.12
459.038	659.12
459.258	657.12
459.478	572.12
459.698	572.12
459.918	592.12
460.138	561.12
460.358	556.12
460.578	565.12
460.798	567.12
461.018	614.12
461.238	585.12
461.458	561.12
461.678	565.12
461.898	593.12
462.118	589.12
462.338	584.12
462.558	599.12
462.777	604.12
462.997	636.12
463.217	629.12
463.437	663.12
463.657	625.12
463.876	615.12
464.096	609.12
464.316	633.12
464.536	632.12
464.755	620.12
464.975	621.12
465.195	634.12
465.414	711.12
465.634	645.12
465.854	605.12
466.073	538.12
466.293	538.12
466.512	542.12
466.732	523.12
466.951	532.12
467.171	542.12
467.391	547.12
467.61	556.12
467.829	565.12
468.049	554.12
468.268	540.12
468.488	522.12
468.707	528.12
468.927	499.12
469.146	513.12
469.365	515.12
469.585	501.12
469.804	514.12
470.023	558.12
470.243	537.12
470.462	537.12
470.681	564.12
470.901	539.12
471.12	571.12
471.339	547.12
471.558	552.12
471.777	529.12
471.997	537.12
472.216	528.12
472.435	566.12
472.654	564.12
472.873	523.12
473.092	524.12
473.311	552.12
473.53	525.12
473.749	514.12
473.968	566.12
474.187	647.12
474.406	697.12
474.625	596.12
474.844	523.12
475.063	551.12
475.282	542.12
475.501	537.12
475.72	552.12
475.939	562.12
476.158	545.12
476.377	549.12
476.596	557.12
476.814	572.12
477.033	562.12
477.252	555.12
477.471	564.12
477.69	583.12
477.908	585.12
478.127	580.12
478.346	589.12
478.564	589.12
478.783	594.12
479.002	627.12
479.22	611.12
479.439	624.12
479.658	641.12
479.876	641.12
480.095	638.12
480.313	691.12
480.532	700.12
480.751	649.12
480.969	666.12
481.188	693.12
481.406	738.12
481.624	690.12
481.843	683.12
482.061	623.12
482.28	615.12
482.498	617.12
482.717	659.12
482.935	635.12
483.153	635.12
483.372	616.12
483.59	603.12
483.808	606.12
484.027	629.12
484.245	625.12
484.463	633.12
484.681	627.12
484.9	644.12
485.118	632.12
485.336	626.12
485.554	646.12
485.772	641.12
485.99	611.12
486.209	659.12
486.427	635.12
486.645	673.12
486.863	672.12
487.081	671.12
487.299	660.12
487.517	656.12
487.735	652.12
487.953	666.12
488.171	657.12
488.389	649.12
488.607	679.12
488.825	674.12
489.043	675.12
489.261	688.12
489.479	679.12
489.696	684.12
489.914	692.12
490.132	687.12
490.35	701.12
490.568	703.12
490.786	692.12
491.003	724.12
491.221	729.12
491.439	713.12
491.657	752.12
491.874	743.12
492.092	743.12
492.31	757.12
492.527	781.12
492.745	755.12
492.963	770.12
493.18	761.12
493.398	773.12
493.615	791.12
493.833	758.12
494.05	779.12
494.268	795.12
494.485	742.12
494.703	782.12
494.92	799.12
495.138	785.12
495.355	794.12
495.573	789.12
495.79	787.12
496.008	775.12
496.225	801.12
496.442	777.12
496.66	801.12
496.877	791.12
497.094	794.12
497.312	790.12
497.529	804.12
497.746	832.12
497.963	847.12
498.181	883.12
498.398	871.12
498.615	879.12
498.832	913.12
499.049	939.12
499.267	1003.12
499.484	998.12
499.701	1056.12
499.918	1075.12
500.135	1161.12
500.352	1229.12
500.569	1254.12
500.786	1219.12
501.003	1222.12
501.22	1153.12
501.437	1122.12
501.654	1073.12
501.871	1073.12
