Data from 1979.PennyLincolnUp.Lamp.En5.5.200Scan.071719.P1_HRD10591_16-19-41-863.txt Node
Date: Thu Jul 18 16:19:41 EDT 2019
User: cochatt
Spectrometer: HR+D1059
Trigger mode: 1
Integration Time (sec): 1.000000E-1
Scans to average: 1
Electric dark correction enabled: true
Nonlinearity correction enabled: false
Boxcar width: 0
XAxis mode: Wavelengths
Number of Pixels in Spectrum: 2048
>>>>>Begin Spectral Data<<<<<
223.165	-12.38
223.4	-12.38
223.635	-12.38
223.869	-6.38
224.104	-20.38
224.338	-4.38
224.573	-8.38
224.808	-13.38
225.042	7.62
225.277	-12.38
225.511	-18.38
225.746	7.62
225.98	8.62
226.215	2.62
226.449	14.62
226.683	17.62
226.918	23.62
227.152	13.62
227.387	32.62
227.621	22.62
227.856	45.62
228.09	45.62
228.324	61.62
228.559	49.62
228.793	64.62
229.027	100.62
229.262	88.62
229.496	104.62
229.73	137.62
229.964	144.62
230.199	121.62
230.433	106.62
230.667	92.62
230.901	102.62
231.136	114.62
231.37	91.62
231.604	116.62
231.838	111.62
232.072	96.62
232.306	116.62
232.541	122.62
232.775	99.62
233.009	101.62
233.243	107.62
233.477	119.62
233.711	121.62
233.945	115.62
234.179	125.62
234.413	132.62
234.647	115.62
234.881	104.62
235.115	118.62
235.349	117.62
235.583	131.62
235.817	113.62
236.051	105.62
236.285	114.62
236.519	125.62
236.753	121.62
236.987	140.62
237.221	160.62
237.455	215.62
237.689	187.62
237.922	139.62
238.156	121.62
238.39	135.62
238.624	118.62
238.858	131.62
239.091	126.62
239.325	124.62
239.559	123.62
239.793	129.62
240.027	143.62
240.26	131.62
240.494	141.62
240.728	155.62
240.961	142.62
241.195	145.62
241.429	138.62
241.662	124.62
241.896	133.62
242.13	133.62
242.363	125.62
242.597	135.62
242.83	132.62
243.064	135.62
243.298	126.62
243.531	144.62
243.765	156.62
243.998	144.62
244.232	132.62
244.465	157.62
244.699	137.62
244.932	145.62
245.166	137.62
245.399	149.62
245.633	147.62
245.866	160.62
246.099	137.62
246.333	145.62
246.566	157.62
246.8	136.62
247.033	151.62
247.266	152.62
247.5	157.62
247.733	183.62
247.966	163.62
248.2	166.62
248.433	165.62
248.666	166.62
248.899	178.62
249.133	187.62
249.366	180.62
249.599	178.62
249.832	164.62
250.066	177.62
250.299	165.62
250.532	181.62
250.765	212.62
250.998	194.62
251.231	219.62
251.465	205.62
251.698	194.62
251.931	208.62
252.164	182.62
252.397	199.62
252.63	175.62
252.863	181.62
253.096	192.62
253.329	201.62
253.562	211.62
253.795	204.62
254.028	210.62
254.261	203.62
254.494	214.62
254.727	227.62
254.96	256.62
255.193	227.62
255.426	230.62
255.659	223.62
255.892	216.62
256.124	213.62
256.357	220.62
256.59	193.62
256.823	204.62
257.056	196.62
257.289	195.62
257.521	192.62
257.754	205.62
257.987	197.62
258.22	202.62
258.452	203.62
258.685	197.62
258.918	200.62
259.151	209.62
259.383	212.62
259.616	221.62
259.849	212.62
260.081	222.62
260.314	230.62
260.547	222.62
260.779	220.62
261.012	212.62
261.244	209.62
261.477	211.62
261.71	208.62
261.942	209.62
262.175	232.62
262.407	229.62
262.64	197.62
262.872	198.62
263.105	203.62
263.337	202.62
263.57	216.62
263.802	209.62
264.035	190.62
264.267	200.62
264.499	201.62
264.732	215.62
264.964	209.62
265.197	217.62
265.429	200.62
265.661	204.62
265.894	211.62
266.126	212.62
266.358	200.62
266.591	216.62
266.823	222.62
267.055	214.62
267.287	220.62
267.52	202.62
267.752	228.62
267.984	211.62
268.216	209.62
268.448	211.62
268.681	222.62
268.913	220.62
269.145	249.62
269.377	259.62
269.609	249.62
269.841	234.62
270.073	248.62
270.306	269.62
270.538	278.62
270.77	299.62
271.002	271.62
271.234	266.62
271.466	264.62
271.698	303.62
271.93	293.62
272.162	289.62
272.394	280.62
272.626	290.62
272.858	251.62
273.09	247.62
273.322	257.62
273.553	247.62
273.785	265.62
274.017	255.62
274.249	240.62
274.481	259.62
274.713	235.62
274.945	262.62
275.176	245.62
275.408	257.62
275.64	253.62
275.872	256.62
276.104	260.62
276.335	251.62
276.567	269.62
276.799	281.62
277.031	279.62
277.262	296.62
277.494	279.62
277.726	263.62
277.957	246.62
278.189	264.62
278.421	248.62
278.652	248.62
278.884	243.62
279.115	249.62
279.347	247.62
279.579	244.62
279.81	274.62
280.042	271.62
280.273	268.62
280.505	257.62
280.736	259.62
280.968	269.62
281.199	258.62
281.431	258.62
281.662	259.62
281.894	254.62
282.125	255.62
282.356	273.62
282.588	282.62
282.819	306.62
283.051	264.62
283.282	265.62
283.513	264.62
283.745	282.62
283.976	276.62
284.207	256.62
284.439	271.62
284.67	278.62
284.901	283.62
285.132	263.62
285.364	277.62
285.595	286.62
285.826	282.62
286.057	255.62
286.288	253.62
286.52	260.62
286.751	284.62
286.982	277.62
287.213	269.62
287.444	247.62
287.675	290.62
287.906	286.62
288.138	280.62
288.369	287.62
288.6	288.62
288.831	269.62
289.062	281.62
289.293	280.62
289.524	294.62
289.755	302.62
289.986	298.62
290.217	268.62
290.448	282.62
290.679	271.62
290.91	275.62
291.141	282.62
291.371	278.62
291.602	272.62
291.833	275.62
292.064	285.62
292.295	295.62
292.526	282.62
292.757	288.62
292.987	283.62
293.218	271.62
293.449	272.62
293.68	297.62
293.91	283.62
294.141	282.62
294.372	277.62
294.603	291.62
294.833	292.62
295.064	293.62
295.295	306.62
295.525	289.62
295.756	312.62
295.987	324.62
296.217	316.62
296.448	336.62
296.679	319.62
296.909	300.62
297.14	296.62
297.37	304.62
297.601	276.62
297.831	292.62
298.062	300.62
298.292	311.62
298.523	277.62
298.753	316.62
298.984	307.62
299.214	315.62
299.445	309.62
299.675	300.62
299.905	326.62
300.136	304.62
300.366	304.62
300.597	316.62
300.827	293.62
301.057	321.62
301.288	295.62
301.518	312.62
301.748	335.62
301.979	314.62
302.209	304.62
302.439	330.62
302.669	335.62
302.9	337.62
303.13	317.62
303.36	319.62
303.59	322.62
303.82	346.62
304.051	363.62
304.281	345.62
304.511	321.62
304.741	316.62
304.971	326.62
305.201	307.62
305.431	320.62
305.661	327.62
305.891	331.62
306.121	323.62
306.352	323.62
306.582	312.62
306.812	325.62
307.042	332.62
307.272	320.62
307.502	333.62
307.731	326.62
307.961	322.62
308.191	311.62
308.421	336.62
308.651	318.62
308.881	311.62
309.111	328.62
309.341	341.62
309.571	332.62
309.8	346.62
310.03	372.62
310.26	336.62
310.49	354.62
310.72	361.62
310.949	365.62
311.179	378.62
311.409	341.62
311.639	354.62
311.868	373.62
312.098	375.62
312.328	359.62
312.557	373.62
312.787	389.62
313.017	403.62
313.246	389.62
313.476	364.62
313.706	376.62
313.935	381.62
314.165	389.62
314.394	393.62
314.624	370.62
314.853	377.62
315.083	390.62
315.312	371.62
315.542	363.62
315.771	362.62
316.001	361.62
316.23	387.62
316.46	363.62
316.689	382.62
316.919	369.62
317.148	364.62
317.377	391.62
317.607	380.62
317.836	377.62
318.065	379.62
318.295	365.62
318.524	365.62
318.753	369.62
318.983	369.62
319.212	387.62
319.441	381.62
319.67	370.62
319.9	371.62
320.129	375.62
320.358	396.62
320.587	400.62
320.816	397.62
321.046	381.62
321.275	389.62
321.504	389.62
321.733	386.62
321.962	383.62
322.191	400.62
322.42	425.62
322.649	416.62
322.878	445.62
323.108	427.62
323.337	453.62
323.566	475.62
323.795	506.62
324.024	533.62
324.253	633.62
324.482	901.62
324.71	1375.62
324.939	2063.62
325.168	1773.62
325.397	887.62
325.626	596.62
325.855	529.62
326.084	488.62
326.313	482.62
326.542	481.62
326.77	501.62
326.999	596.62
327.228	840.62
327.457	1255.62
327.686	1600.62
327.914	987.62
328.143	657.62
328.372	598.62
328.6	561.62
328.829	523.62
329.058	526.62
329.287	551.62
329.515	525.62
329.744	498.62
329.972	476.62
330.201	507.62
330.43	514.62
330.658	535.62
330.887	572.62
331.115	569.62
331.344	503.62
331.572	475.62
331.801	480.62
332.03	467.62
332.258	453.62
332.486	451.62
332.715	445.62
332.943	436.62
333.172	463.62
333.4	460.62
333.629	477.62
333.857	488.62
334.085	484.62
334.314	505.62
334.542	526.62
334.771	540.62
334.999	467.62
335.227	469.62
335.455	459.62
335.684	470.62
335.912	435.62
336.14	444.62
336.369	438.62
336.597	445.62
336.825	464.62
337.053	445.62
337.281	432.62
337.51	463.62
337.738	464.62
337.966	434.62
338.194	439.62
338.422	426.62
338.65	438.62
338.878	454.62
339.106	441.62
339.334	443.62
339.562	435.62
339.79	454.62
340.018	422.62
340.246	425.62
340.474	464.62
340.702	440.62
340.93	425.62
341.158	420.62
341.386	419.62
341.614	420.62
341.842	437.62
342.07	406.62
342.298	424.62
342.526	432.62
342.754	423.62
342.981	396.62
343.209	398.62
343.437	425.62
343.665	441.62
343.893	446.62
344.12	468.62
344.348	456.62
344.576	446.62
344.804	422.62
345.031	444.62
345.259	449.62
345.487	453.62
345.714	438.62
345.942	435.62
346.17	414.62
346.397	404.62
346.625	411.62
346.853	415.62
347.08	415.62
347.308	405.62
347.535	424.62
347.763	454.62
347.99	403.62
348.218	435.62
348.445	426.62
348.673	431.62
348.9	419.62
349.128	424.62
349.355	411.62
349.583	396.62
349.81	399.62
350.037	410.62
350.265	411.62
350.492	405.62
350.72	397.62
350.947	412.62
351.174	404.62
351.402	424.62
351.629	420.62
351.856	431.62
352.083	421.62
352.311	423.62
352.538	423.62
352.765	433.62
352.992	444.62
353.22	404.62
353.447	423.62
353.674	413.62
353.901	404.62
354.128	401.62
354.355	390.62
354.583	410.62
354.81	401.62
355.037	377.62
355.264	387.62
355.491	396.62
355.718	373.62
355.945	400.62
356.172	395.62
356.399	384.62
356.626	387.62
356.853	408.62
357.08	411.62
357.307	405.62
357.534	422.62
357.761	411.62
357.988	389.62
358.215	407.62
358.441	383.62
358.668	388.62
358.895	397.62
359.122	401.62
359.349	415.62
359.576	394.62
359.802	439.62
360.029	463.62
360.256	468.62
360.483	419.62
360.709	417.62
360.936	424.62
361.163	402.62
361.39	414.62
361.616	410.62
361.843	411.62
362.07	425.62
362.296	420.62
362.523	415.62
362.749	408.62
362.976	398.62
363.203	409.62
363.429	402.62
363.656	401.62
363.882	415.62
364.109	397.62
364.335	416.62
364.562	408.62
364.788	419.62
365.015	400.62
365.241	394.62
365.468	421.62
365.694	419.62
365.92	397.62
366.147	380.62
366.373	394.62
366.599	392.62
366.826	397.62
367.052	408.62
367.278	409.62
367.505	421.62
367.731	405.62
367.957	405.62
368.184	404.62
368.41	420.62
368.636	414.62
368.862	424.62
369.089	421.62
369.315	420.62
369.541	389.62
369.767	412.62
369.993	421.62
370.219	409.62
370.445	401.62
370.672	412.62
370.898	397.62
371.124	419.62
371.35	419.62
371.576	404.62
371.802	399.62
372.028	421.62
372.254	418.62
372.48	412.62
372.706	416.62
372.932	403.62
373.158	433.62
373.384	418.62
373.61	413.62
373.835	428.62
374.061	426.62
374.287	412.62
374.513	418.62
374.739	441.62
374.965	426.62
375.191	434.62
375.416	425.62
375.642	443.62
375.868	435.62
376.094	401.62
376.319	429.62
376.545	413.62
376.771	410.62
376.997	415.62
377.222	429.62
377.448	410.62
377.674	423.62
377.899	415.62
378.125	424.62
378.35	407.62
378.576	399.62
378.802	412.62
379.027	422.62
379.253	408.62
379.478	408.62
379.704	406.62
379.929	400.62
380.155	411.62
380.38	406.62
380.606	424.62
380.831	411.62
381.057	410.62
381.282	417.62
381.507	431.62
381.733	425.62
381.958	423.62
382.184	433.62
382.409	431.62
382.634	436.62
382.86	416.62
383.085	433.62
383.31	434.62
383.535	450.62
383.761	451.62
383.986	425.62
384.211	435.62
384.436	430.62
384.662	452.62
384.887	444.62
385.112	439.62
385.337	452.62
385.562	472.62
385.787	447.62
386.013	460.62
386.238	458.62
386.463	459.62
386.688	463.62
386.913	437.62
387.138	461.62
387.363	463.62
387.588	459.62
387.813	467.62
388.038	468.62
388.263	472.62
388.488	451.62
388.713	459.62
388.938	490.62
389.163	449.62
389.387	457.62
389.612	469.62
389.837	473.62
390.062	455.62
390.287	458.62
390.512	456.62
390.736	456.62
390.961	466.62
391.186	458.62
391.411	465.62
391.636	471.62
391.86	503.62
392.085	485.62
392.31	480.62
392.534	481.62
392.759	472.62
392.984	487.62
393.208	461.62
393.433	492.62
393.658	465.62
393.882	492.62
394.107	485.62
394.331	484.62
394.556	489.62
394.78	483.62
395.005	466.62
395.229	477.62
395.454	466.62
395.678	496.62
395.903	529.62
396.127	502.62
396.352	542.62
396.576	522.62
396.801	495.62
397.025	514.62
397.249	500.62
397.474	515.62
397.698	519.62
397.922	523.62
398.147	531.62
398.371	547.62
398.595	538.62
398.82	545.62
399.044	578.62
399.268	570.62
399.492	649.62
399.717	645.62
399.941	685.62
400.165	659.62
400.389	675.62
400.613	628.62
400.837	573.62
401.062	578.62
401.286	562.62
401.51	563.62
401.734	543.62
401.958	560.62
402.182	559.62
402.406	577.62
402.63	577.62
402.854	560.62
403.078	564.62
403.302	579.62
403.526	572.62
403.75	575.62
403.974	572.62
404.198	562.62
404.422	595.62
404.645	591.62
404.869	596.62
405.093	631.62
405.317	658.62
405.541	683.62
405.765	625.62
405.988	622.62
406.212	637.62
406.436	634.62
406.66	652.62
406.883	629.62
407.107	657.62
407.331	694.62
407.555	761.62
407.778	748.62
408.002	691.62
408.226	685.62
408.449	649.62
408.673	640.62
408.896	690.62
409.12	684.62
409.344	670.62
409.567	631.62
409.791	610.62
410.014	603.62
410.238	584.62
410.461	587.62
410.685	584.62
410.908	603.62
411.132	623.62
411.355	668.62
411.578	648.62
411.802	592.62
412.025	601.62
412.249	611.62
412.472	635.62
412.695	656.62
412.919	637.62
413.142	567.62
413.365	571.62
413.589	555.62
413.812	568.62
414.035	535.62
414.258	543.62
414.482	537.62
414.705	542.62
414.928	565.62
415.151	563.62
415.374	539.62
415.597	547.62
415.821	543.62
416.044	562.62
416.267	547.62
416.49	540.62
416.713	543.62
416.936	562.62
417.159	543.62
417.382	545.62
417.605	564.62
417.828	546.62
418.051	586.62
418.274	554.62
418.497	528.62
418.72	556.62
418.943	529.62
419.166	566.62
419.389	627.62
419.611	578.62
419.834	587.62
420.057	590.62
420.28	597.62
420.503	563.62
420.726	579.62
420.948	600.62
421.171	610.62
421.394	657.62
421.617	601.62
421.839	573.62
422.062	570.62
422.285	585.62
422.507	614.62
422.73	717.62
422.953	680.62
423.175	599.62
423.398	588.62
423.621	599.62
423.843	611.62
424.066	613.62
424.288	595.62
424.511	597.62
424.733	672.62
424.956	743.62
425.178	724.62
425.401	690.62
425.623	739.62
425.846	645.62
426.068	596.62
426.291	593.62
426.513	585.62
426.735	607.62
426.958	650.62
427.18	700.62
427.402	832.62
427.625	923.62
427.847	805.62
428.069	706.62
428.292	649.62
428.514	593.62
428.736	589.62
428.958	571.62
429.181	561.62
429.403	550.62
429.625	577.62
429.847	602.62
430.069	672.62
430.292	672.62
430.514	584.62
430.736	561.62
430.958	565.62
431.18	529.62
431.402	559.62
431.624	541.62
431.846	529.62
432.068	529.62
432.29	534.62
432.512	522.62
432.734	559.62
432.956	535.62
433.178	538.62
433.4	551.62
433.622	551.62
433.844	537.62
434.066	551.62
434.287	549.62
434.509	545.62
434.731	560.62
434.953	568.62
435.175	593.62
435.397	593.62
435.618	596.62
435.84	650.62
436.062	742.62
436.284	779.62
436.505	675.62
436.727	612.62
436.949	594.62
437.17	555.62
437.392	561.62
437.614	559.62
437.835	600.62
438.057	705.62
438.278	765.62
438.5	786.62
438.721	858.62
438.943	818.62
439.165	654.62
439.386	601.62
439.608	602.62
439.829	600.62
440.05	619.62
440.272	671.62
440.493	643.62
440.715	601.62
440.936	571.62
441.158	559.62
441.379	541.62
441.6	581.62
441.822	599.62
442.043	632.62
442.264	721.62
442.486	769.62
442.707	649.62
442.928	604.62
443.149	613.62
443.371	653.62
443.592	675.62
443.813	755.62
444.034	849.62
444.255	693.62
444.476	633.62
444.698	634.62
444.919	613.62
445.14	714.62
445.361	685.62
445.582	654.62
445.803	680.62
446.024	805.62
446.245	820.62
446.466	709.62
446.687	626.62
446.908	596.62
447.129	567.62
447.35	551.62
447.571	575.62
447.792	540.62
448.013	535.62
448.234	583.62
448.455	604.62
448.675	710.62
448.896	845.62
449.117	712.62
449.338	671.62
449.559	786.62
449.779	885.62
450	692.62
450.221	592.62
450.442	553.62
450.662	565.62
450.883	538.62
451.104	542.62
451.324	551.62
451.545	533.62
451.766	516.62
451.986	501.62
452.207	483.62
452.428	475.62
452.648	480.62
452.869	499.62
453.089	500.62
453.31	512.62
453.53	528.62
453.751	501.62
453.971	492.62
454.192	542.62
454.412	520.62
454.633	523.62
454.853	487.62
455.073	493.62
455.294	511.62
455.514	581.62
455.734	583.62
455.955	504.62
456.175	486.62
456.395	483.62
456.616	449.62
456.836	471.62
457.056	463.62
457.276	447.62
457.497	466.62
457.717	490.62
457.937	508.62
458.157	489.62
458.377	499.62
458.598	507.62
458.818	572.62
459.038	645.62
459.258	643.62
459.478	592.62
459.698	545.62
459.918	562.62
460.138	543.62
460.358	540.62
460.578	577.62
460.798	567.62
461.018	587.62
461.238	565.62
461.458	563.62
461.678	548.62
461.898	556.62
462.118	575.62
462.338	602.62
462.558	589.62
462.777	615.62
462.997	618.62
463.217	637.62
463.437	640.62
463.657	635.62
463.876	618.62
464.096	599.62
464.316	621.62
464.536	613.62
464.755	620.62
464.975	612.62
465.195	623.62
465.414	695.62
465.634	627.62
465.854	572.62
466.073	556.62
466.293	537.62
466.512	543.62
466.732	533.62
466.951	495.62
467.171	524.62
467.391	526.62
467.61	552.62
467.829	545.62
468.049	543.62
468.268	530.62
468.488	507.62
468.707	488.62
468.927	512.62
469.146	520.62
469.365	525.62
469.585	487.62
469.804	538.62
470.023	493.62
470.243	535.62
470.462	529.62
470.681	524.62
470.901	523.62
471.12	548.62
471.339	545.62
471.558	514.62
471.777	535.62
471.997	523.62
472.216	521.62
472.435	552.62
472.654	545.62
472.873	533.62
473.092	532.62
473.311	524.62
473.53	522.62
473.749	555.62
473.968	565.62
474.187	660.62
474.406	675.62
474.625	556.62
474.844	546.62
475.063	527.62
475.282	546.62
475.501	523.62
475.72	542.62
475.939	537.62
476.158	541.62
476.377	554.62
476.596	550.62
476.814	562.62
477.033	547.62
477.252	545.62
477.471	570.62
477.69	573.62
477.908	571.62
478.127	575.62
478.346	596.62
478.564	587.62
478.783	609.62
479.002	611.62
479.22	618.62
479.439	618.62
479.658	643.62
479.876	633.62
480.095	649.62
480.313	676.62
480.532	673.62
480.751	637.62
480.969	647.62
481.188	683.62
481.406	740.62
481.624	658.62
481.843	644.62
482.061	635.62
482.28	617.62
482.498	619.62
482.717	630.62
482.935	593.62
483.153	607.62
483.372	605.62
483.59	603.62
483.808	615.62
484.027	615.62
484.245	611.62
484.463	625.62
484.681	623.62
484.9	620.62
485.118	654.62
485.336	619.62
485.554	641.62
485.772	635.62
485.99	623.62
486.209	614.62
486.427	628.62
486.645	652.62
486.863	671.62
487.081	665.62
487.299	650.62
487.517	663.62
487.735	653.62
487.953	660.62
488.171	662.62
488.389	676.62
488.607	644.62
488.825	637.62
489.043	640.62
489.261	647.62
489.479	665.62
489.696	667.62
489.914	675.62
490.132	673.62
490.35	693.62
490.568	702.62
490.786	718.62
491.003	691.62
491.221	711.62
491.439	717.62
491.657	725.62
491.874	731.62
492.092	742.62
492.31	744.62
492.527	727.62
492.745	752.62
492.963	739.62
493.18	771.62
493.398	784.62
493.615	767.62
493.833	777.62
494.05	792.62
494.268	779.62
494.485	749.62
494.703	744.62
494.92	797.62
495.138	783.62
495.355	744.62
495.573	756.62
495.79	779.62
496.008	772.62
496.225	786.62
496.442	767.62
496.66	745.62
496.877	764.62
497.094	807.62
497.312	806.62
497.529	819.62
497.746	820.62
497.963	803.62
498.181	880.62
498.398	874.62
498.615	882.62
498.832	909.62
499.049	902.62
499.267	963.62
499.484	987.62
499.701	1047.62
499.918	1066.62
500.135	1139.62
500.352	1178.62
500.569	1239.62
500.786	1220.62
501.003	1209.62
501.22	1172.62
501.437	1112.62
501.654	1093.62
501.871	1044.62
