Data from 1979.PennyLincolnUp.Lamp.En5.5.200Scan.071719.P1_HRD10591_16-18-43-863.txt Node
Date: Thu Jul 18 16:18:43 EDT 2019
User: cochatt
Spectrometer: HR+D1059
Trigger mode: 1
Integration Time (sec): 1.000000E-1
Scans to average: 1
Electric dark correction enabled: true
Nonlinearity correction enabled: false
Boxcar width: 0
XAxis mode: Wavelengths
Number of Pixels in Spectrum: 2048
>>>>>Begin Spectral Data<<<<<
223.165	-12.44
223.4	-12.44
223.635	-12.44
223.869	-27.44
224.104	-16.44
224.338	-14.44
224.573	-11.44
224.808	-15.44
225.042	-1.44
225.277	-9.44
225.511	0.56
225.746	2.56
225.98	6.56
226.215	14.56
226.449	13.56
226.683	23.56
226.918	31.56
227.152	15.56
227.387	36.56
227.621	44.56
227.856	44.56
228.09	45.56
228.324	53.56
228.559	55.56
228.793	56.56
229.027	91.56
229.262	110.56
229.496	125.56
229.73	120.56
229.964	133.56
230.199	130.56
230.433	108.56
230.667	105.56
230.901	100.56
231.136	115.56
231.37	109.56
231.604	113.56
231.838	118.56
232.072	116.56
232.306	114.56
232.541	115.56
232.775	118.56
233.009	114.56
233.243	110.56
233.477	126.56
233.711	125.56
233.945	118.56
234.179	107.56
234.413	104.56
234.647	102.56
234.881	117.56
235.115	110.56
235.349	120.56
235.583	133.56
235.817	116.56
236.051	114.56
236.285	129.56
236.519	117.56
236.753	114.56
236.987	135.56
237.221	163.56
237.455	202.56
237.689	179.56
237.922	128.56
238.156	133.56
238.39	132.56
238.624	124.56
238.858	130.56
239.091	111.56
239.325	107.56
239.559	120.56
239.793	134.56
240.027	140.56
240.26	131.56
240.494	142.56
240.728	154.56
240.961	126.56
241.195	145.56
241.429	129.56
241.662	134.56
241.896	126.56
242.13	134.56
242.363	128.56
242.597	130.56
242.83	140.56
243.064	144.56
243.298	152.56
243.531	143.56
243.765	141.56
243.998	129.56
244.232	140.56
244.465	131.56
244.699	142.56
244.932	122.56
245.166	138.56
245.399	128.56
245.633	147.56
245.866	140.56
246.099	159.56
246.333	151.56
246.566	154.56
246.8	127.56
247.033	155.56
247.266	150.56
247.5	146.56
247.733	168.56
247.966	166.56
248.2	166.56
248.433	168.56
248.666	170.56
248.899	149.56
249.133	187.56
249.366	185.56
249.599	180.56
249.832	155.56
250.066	178.56
250.299	177.56
250.532	182.56
250.765	186.56
250.998	205.56
251.231	205.56
251.465	196.56
251.698	207.56
251.931	185.56
252.164	186.56
252.397	197.56
252.63	196.56
252.863	205.56
253.096	194.56
253.329	211.56
253.562	198.56
253.795	197.56
254.028	209.56
254.261	195.56
254.494	216.56
254.727	215.56
254.96	243.56
255.193	246.56
255.426	203.56
255.659	195.56
255.892	212.56
256.124	194.56
256.357	191.56
256.59	213.56
256.823	201.56
257.056	190.56
257.289	190.56
257.521	198.56
257.754	194.56
257.987	183.56
258.22	200.56
258.452	180.56
258.685	194.56
258.918	206.56
259.151	205.56
259.383	211.56
259.616	203.56
259.849	197.56
260.081	211.56
260.314	223.56
260.547	236.56
260.779	225.56
261.012	214.56
261.244	214.56
261.477	220.56
261.71	220.56
261.942	206.56
262.175	215.56
262.407	214.56
262.64	207.56
262.872	208.56
263.105	202.56
263.337	200.56
263.57	194.56
263.802	206.56
264.035	207.56
264.267	195.56
264.499	203.56
264.732	204.56
264.964	199.56
265.197	208.56
265.429	194.56
265.661	201.56
265.894	198.56
266.126	206.56
266.358	203.56
266.591	214.56
266.823	213.56
267.055	223.56
267.287	205.56
267.52	218.56
267.752	220.56
267.984	210.56
268.216	214.56
268.448	219.56
268.681	213.56
268.913	236.56
269.145	258.56
269.377	250.56
269.609	262.56
269.841	248.56
270.073	257.56
270.306	271.56
270.538	274.56
270.77	269.56
271.002	245.56
271.234	259.56
271.466	259.56
271.698	276.56
271.93	263.56
272.162	269.56
272.394	277.56
272.626	269.56
272.858	263.56
273.09	241.56
273.322	245.56
273.553	252.56
273.785	264.56
274.017	237.56
274.249	238.56
274.481	239.56
274.713	258.56
274.945	248.56
275.176	260.56
275.408	247.56
275.64	242.56
275.872	264.56
276.104	254.56
276.335	235.56
276.567	262.56
276.799	267.56
277.031	275.56
277.262	287.56
277.494	287.56
277.726	278.56
277.957	269.56
278.189	275.56
278.421	237.56
278.652	249.56
278.884	246.56
279.115	263.56
279.347	272.56
279.579	257.56
279.81	269.56
280.042	252.56
280.273	250.56
280.505	269.56
280.736	267.56
280.968	246.56
281.199	256.56
281.431	256.56
281.662	254.56
281.894	261.56
282.125	274.56
282.356	281.56
282.588	305.56
282.819	296.56
283.051	252.56
283.282	252.56
283.513	247.56
283.745	266.56
283.976	270.56
284.207	254.56
284.439	262.56
284.67	283.56
284.901	281.56
285.132	271.56
285.364	254.56
285.595	269.56
285.826	266.56
286.057	264.56
286.288	267.56
286.52	283.56
286.751	275.56
286.982	270.56
287.213	272.56
287.444	284.56
287.675	273.56
287.906	284.56
288.138	293.56
288.369	301.56
288.6	290.56
288.831	281.56
289.062	276.56
289.293	296.56
289.524	277.56
289.755	285.56
289.986	275.56
290.217	258.56
290.448	279.56
290.679	285.56
290.91	271.56
291.141	291.56
291.371	297.56
291.602	277.56
291.833	263.56
292.064	299.56
292.295	281.56
292.526	290.56
292.757	269.56
292.987	283.56
293.218	254.56
293.449	276.56
293.68	270.56
293.91	267.56
294.141	282.56
294.372	286.56
294.603	288.56
294.833	282.56
295.064	295.56
295.295	289.56
295.525	288.56
295.756	291.56
295.987	307.56
296.217	326.56
296.448	337.56
296.679	315.56
296.909	305.56
297.14	306.56
297.37	283.56
297.601	297.56
297.831	285.56
298.062	299.56
298.292	299.56
298.523	300.56
298.753	305.56
298.984	306.56
299.214	310.56
299.445	303.56
299.675	315.56
299.905	292.56
300.136	299.56
300.366	305.56
300.597	307.56
300.827	307.56
301.057	316.56
301.288	326.56
301.518	307.56
301.748	315.56
301.979	326.56
302.209	309.56
302.439	322.56
302.669	317.56
302.9	312.56
303.13	317.56
303.36	336.56
303.59	336.56
303.82	321.56
304.051	316.56
304.281	329.56
304.511	328.56
304.741	303.56
304.971	310.56
305.201	307.56
305.431	330.56
305.661	333.56
305.891	312.56
306.121	312.56
306.352	334.56
306.582	312.56
306.812	320.56
307.042	317.56
307.272	329.56
307.502	326.56
307.731	313.56
307.961	314.56
308.191	333.56
308.421	335.56
308.651	312.56
308.881	333.56
309.111	335.56
309.341	323.56
309.571	329.56
309.8	350.56
310.03	349.56
310.26	348.56
310.49	355.56
310.72	348.56
310.949	369.56
311.179	353.56
311.409	371.56
311.639	366.56
311.868	353.56
312.098	366.56
312.328	359.56
312.557	365.56
312.787	382.56
313.017	386.56
313.246	365.56
313.476	369.56
313.706	372.56
313.935	359.56
314.165	357.56
314.394	382.56
314.624	363.56
314.853	360.56
315.083	394.56
315.312	375.56
315.542	364.56
315.771	363.56
316.001	362.56
316.23	355.56
316.46	342.56
316.689	353.56
316.919	363.56
317.148	396.56
317.377	383.56
317.607	381.56
317.836	370.56
318.065	374.56
318.295	355.56
318.524	351.56
318.753	350.56
318.983	388.56
319.212	367.56
319.441	371.56
319.67	371.56
319.9	375.56
320.129	359.56
320.358	365.56
320.587	376.56
320.816	375.56
321.046	366.56
321.275	383.56
321.504	387.56
321.733	385.56
321.962	395.56
322.191	386.56
322.42	405.56
322.649	417.56
322.878	438.56
323.108	410.56
323.337	433.56
323.566	468.56
323.795	493.56
324.024	552.56
324.253	621.56
324.482	867.56
324.71	1331.56
324.939	1939.56
325.168	1707.56
325.397	847.56
325.626	599.56
325.855	525.56
326.084	471.56
326.313	478.56
326.542	462.56
326.77	535.56
326.999	574.56
327.228	786.56
327.457	1229.56
327.686	1483.56
327.914	955.56
328.143	618.56
328.372	570.56
328.6	535.56
328.829	493.56
329.058	535.56
329.287	525.56
329.515	530.56
329.744	463.56
329.972	465.56
330.201	499.56
330.43	518.56
330.658	527.56
330.887	575.56
331.115	556.56
331.344	485.56
331.572	461.56
331.801	463.56
332.03	476.56
332.258	445.56
332.486	445.56
332.715	456.56
332.943	444.56
333.172	469.56
333.4	447.56
333.629	484.56
333.857	483.56
334.085	489.56
334.314	486.56
334.542	520.56
334.771	541.56
334.999	494.56
335.227	455.56
335.455	467.56
335.684	478.56
335.912	456.56
336.14	418.56
336.369	443.56
336.597	439.56
336.825	442.56
337.053	445.56
337.281	446.56
337.51	427.56
337.738	429.56
337.966	413.56
338.194	452.56
338.422	463.56
338.65	468.56
338.878	434.56
339.106	425.56
339.334	422.56
339.562	436.56
339.79	428.56
340.018	440.56
340.246	422.56
340.474	431.56
340.702	408.56
340.93	423.56
341.158	420.56
341.386	430.56
341.614	429.56
341.842	422.56
342.07	439.56
342.298	404.56
342.526	409.56
342.754	411.56
342.981	422.56
343.209	411.56
343.437	401.56
343.665	410.56
343.893	455.56
344.12	454.56
344.348	428.56
344.576	435.56
344.804	433.56
345.031	435.56
345.259	411.56
345.487	427.56
345.714	420.56
345.942	424.56
346.17	396.56
346.397	418.56
346.625	422.56
346.853	423.56
347.08	388.56
347.308	400.56
347.535	432.56
347.763	408.56
347.99	402.56
348.218	398.56
348.445	417.56
348.673	447.56
348.9	429.56
349.128	399.56
349.355	420.56
349.583	394.56
349.81	402.56
350.037	400.56
350.265	404.56
350.492	415.56
350.72	399.56
350.947	427.56
351.174	415.56
351.402	427.56
351.629	404.56
351.856	421.56
352.083	428.56
352.311	404.56
352.538	420.56
352.765	420.56
352.992	410.56
353.22	419.56
353.447	402.56
353.674	421.56
353.901	412.56
354.128	412.56
354.355	391.56
354.583	395.56
354.81	367.56
355.037	403.56
355.264	392.56
355.491	383.56
355.718	401.56
355.945	399.56
356.172	375.56
356.399	379.56
356.626	397.56
356.853	387.56
357.08	406.56
357.307	378.56
357.534	384.56
357.761	406.56
357.988	417.56
358.215	406.56
358.441	375.56
358.668	409.56
358.895	374.56
359.122	382.56
359.349	399.56
359.576	417.56
359.802	437.56
360.029	447.56
360.256	438.56
360.483	446.56
360.709	426.56
360.936	423.56
361.163	427.56
361.39	405.56
361.616	441.56
361.843	401.56
362.07	432.56
362.296	418.56
362.523	398.56
362.749	405.56
362.976	408.56
363.203	397.56
363.429	389.56
363.656	396.56
363.882	393.56
364.109	424.56
364.335	402.56
364.562	398.56
364.788	391.56
365.015	429.56
365.241	408.56
365.468	395.56
365.694	393.56
365.92	420.56
366.147	407.56
366.373	404.56
366.599	382.56
366.826	393.56
367.052	409.56
367.278	411.56
367.505	403.56
367.731	419.56
367.957	387.56
368.184	407.56
368.41	424.56
368.636	416.56
368.862	441.56
369.089	434.56
369.315	412.56
369.541	402.56
369.767	413.56
369.993	410.56
370.219	412.56
370.445	410.56
370.672	399.56
370.898	408.56
371.124	418.56
371.35	408.56
371.576	407.56
371.802	387.56
372.028	397.56
372.254	395.56
372.48	423.56
372.706	410.56
372.932	420.56
373.158	414.56
373.384	417.56
373.61	410.56
373.835	427.56
374.061	420.56
374.287	417.56
374.513	422.56
374.739	412.56
374.965	427.56
375.191	420.56
375.416	438.56
375.642	417.56
375.868	423.56
376.094	422.56
376.319	409.56
376.545	397.56
376.771	424.56
376.997	395.56
377.222	421.56
377.448	411.56
377.674	406.56
377.899	410.56
378.125	417.56
378.35	407.56
378.576	402.56
378.802	411.56
379.027	405.56
379.253	392.56
379.478	401.56
379.704	421.56
379.929	422.56
380.155	407.56
380.38	429.56
380.606	399.56
380.831	415.56
381.057	421.56
381.282	419.56
381.507	434.56
381.733	433.56
381.958	423.56
382.184	422.56
382.409	419.56
382.634	426.56
382.86	411.56
383.085	431.56
383.31	435.56
383.535	424.56
383.761	433.56
383.986	438.56
384.211	467.56
384.436	441.56
384.662	444.56
384.887	457.56
385.112	441.56
385.337	454.56
385.562	458.56
385.787	452.56
386.013	488.56
386.238	481.56
386.463	478.56
386.688	439.56
386.913	456.56
387.138	459.56
387.363	451.56
387.588	469.56
387.813	458.56
388.038	443.56
388.263	428.56
388.488	467.56
388.713	466.56
388.938	457.56
389.163	467.56
389.387	464.56
389.612	454.56
389.837	468.56
390.062	471.56
390.287	491.56
390.512	463.56
390.736	472.56
390.961	487.56
391.186	491.56
391.411	464.56
391.636	457.56
391.86	475.56
392.085	467.56
392.31	491.56
392.534	470.56
392.759	466.56
392.984	461.56
393.208	468.56
393.433	474.56
393.658	446.56
393.882	474.56
394.107	477.56
394.331	471.56
394.556	459.56
394.78	489.56
395.005	478.56
395.229	484.56
395.454	498.56
395.678	501.56
395.903	491.56
396.127	529.56
396.352	508.56
396.576	482.56
396.801	516.56
397.025	498.56
397.249	492.56
397.474	497.56
397.698	512.56
397.922	503.56
398.147	526.56
398.371	519.56
398.595	530.56
398.82	520.56
399.044	560.56
399.268	590.56
399.492	583.56
399.717	615.56
399.941	671.56
400.165	677.56
400.389	673.56
400.613	628.56
400.837	598.56
401.062	581.56
401.286	585.56
401.51	539.56
401.734	533.56
401.958	584.56
402.182	565.56
402.406	570.56
402.63	592.56
402.854	581.56
403.078	567.56
403.302	556.56
403.526	575.56
403.75	583.56
403.974	585.56
404.198	577.56
404.422	586.56
404.645	594.56
404.869	580.56
405.093	622.56
405.317	659.56
405.541	669.56
405.765	602.56
405.988	585.56
406.212	607.56
406.436	635.56
406.66	652.56
406.883	603.56
407.107	652.56
407.331	705.56
407.555	758.56
407.778	763.56
408.002	666.56
408.226	652.56
408.449	633.56
408.673	626.56
408.896	650.56
409.12	677.56
409.344	655.56
409.567	610.56
409.791	577.56
410.014	574.56
410.238	598.56
410.461	584.56
410.685	567.56
410.908	603.56
411.132	609.56
411.355	655.56
411.578	636.56
411.802	593.56
412.025	563.56
412.249	586.56
412.472	583.56
412.695	632.56
412.919	641.56
413.142	571.56
413.365	586.56
413.589	571.56
413.812	559.56
414.035	569.56
414.258	565.56
414.482	548.56
414.705	551.56
414.928	533.56
415.151	564.56
415.374	561.56
415.597	543.56
415.821	549.56
416.044	539.56
416.267	555.56
416.49	559.56
416.713	532.56
416.936	520.56
417.159	528.56
417.382	537.56
417.605	545.56
417.828	554.56
418.051	565.56
418.274	563.56
418.497	549.56
418.72	551.56
418.943	533.56
419.166	559.56
419.389	605.56
419.611	596.56
419.834	571.56
420.057	558.56
420.28	567.56
420.503	586.56
420.726	575.56
420.948	592.56
421.171	608.56
421.394	641.56
421.617	583.56
421.839	591.56
422.062	574.56
422.285	585.56
422.507	630.56
422.73	714.56
422.953	704.56
423.175	605.56
423.398	587.56
423.621	619.56
423.843	604.56
424.066	593.56
424.288	641.56
424.511	626.56
424.733	654.56
424.956	764.56
425.178	693.56
425.401	708.56
425.623	711.56
425.846	638.56
426.068	614.56
426.291	581.56
426.513	601.56
426.735	612.56
426.958	631.56
427.18	717.56
427.402	824.56
427.625	925.56
427.847	788.56
428.069	689.56
428.292	617.56
428.514	581.56
428.736	579.56
428.958	572.56
429.181	544.56
429.403	560.56
429.625	543.56
429.847	601.56
430.069	638.56
430.292	632.56
430.514	573.56
430.736	559.56
430.958	546.56
431.18	547.56
431.402	542.56
431.624	513.56
431.846	517.56
432.068	525.56
432.29	535.56
432.512	535.56
432.734	538.56
432.956	550.56
433.178	521.56
433.4	557.56
433.622	532.56
433.844	539.56
434.066	515.56
434.287	542.56
434.509	553.56
434.731	515.56
434.953	558.56
435.175	558.56
435.397	591.56
435.618	593.56
435.84	644.56
436.062	701.56
436.284	783.56
436.505	641.56
436.727	610.56
436.949	557.56
437.17	571.56
437.392	580.56
437.614	563.56
437.835	590.56
438.057	680.56
438.278	772.56
438.5	728.56
438.721	825.56
438.943	816.56
439.165	660.56
439.386	605.56
439.608	615.56
439.829	596.56
440.05	603.56
440.272	654.56
440.493	616.56
440.715	575.56
440.936	568.56
441.158	582.56
441.379	559.56
441.6	576.56
441.822	593.56
442.043	639.56
442.264	696.56
442.486	744.56
442.707	674.56
442.928	630.56
443.149	613.56
443.371	627.56
443.592	659.56
443.813	738.56
444.034	798.56
444.255	693.56
444.476	630.56
444.698	601.56
444.919	609.56
445.14	702.56
445.361	666.56
445.582	652.56
445.803	697.56
446.024	769.56
446.245	808.56
446.466	730.56
446.687	634.56
446.908	597.56
447.129	567.56
447.35	566.56
447.571	550.56
447.792	561.56
448.013	545.56
448.234	548.56
448.455	598.56
448.675	682.56
448.896	807.56
449.117	708.56
449.338	683.56
449.559	753.56
449.779	848.56
450	664.56
450.221	575.56
450.442	552.56
450.662	549.56
450.883	568.56
451.104	572.56
451.324	526.56
451.545	533.56
451.766	526.56
451.986	477.56
452.207	505.56
452.428	477.56
452.648	480.56
452.869	500.56
453.089	515.56
453.31	503.56
453.53	508.56
453.751	487.56
453.971	498.56
454.192	504.56
454.412	495.56
454.633	481.56
454.853	487.56
455.073	487.56
455.294	523.56
455.514	591.56
455.734	571.56
455.955	474.56
456.175	459.56
456.395	464.56
456.616	469.56
456.836	479.56
457.056	458.56
457.276	459.56
457.497	462.56
457.717	472.56
457.937	483.56
458.157	470.56
458.377	482.56
458.598	519.56
458.818	573.56
459.038	625.56
459.258	661.56
459.478	589.56
459.698	531.56
459.918	566.56
460.138	547.56
460.358	542.56
460.578	550.56
460.798	541.56
461.018	566.56
461.238	557.56
461.458	572.56
461.678	542.56
461.898	562.56
462.118	557.56
462.338	590.56
462.558	568.56
462.777	582.56
462.997	627.56
463.217	639.56
463.437	630.56
463.657	601.56
463.876	585.56
464.096	608.56
464.316	591.56
464.536	608.56
464.755	589.56
464.975	596.56
465.195	617.56
465.414	688.56
465.634	622.56
465.854	575.56
466.073	543.56
466.293	546.56
466.512	517.56
466.732	519.56
466.951	534.56
467.171	532.56
467.391	537.56
467.61	517.56
467.829	537.56
468.049	533.56
468.268	514.56
468.488	527.56
468.707	501.56
468.927	514.56
469.146	511.56
469.365	488.56
469.585	483.56
469.804	522.56
470.023	545.56
470.243	531.56
470.462	525.56
470.681	537.56
470.901	554.56
471.12	540.56
471.339	510.56
471.558	505.56
471.777	538.56
471.997	521.56
472.216	527.56
472.435	547.56
472.654	532.56
472.873	504.56
473.092	513.56
473.311	489.56
473.53	496.56
473.749	522.56
473.968	567.56
474.187	631.56
474.406	680.56
474.625	577.56
474.844	521.56
475.063	522.56
475.282	519.56
475.501	532.56
475.72	524.56
475.939	543.56
476.158	530.56
476.377	537.56
476.596	531.56
476.814	548.56
477.033	558.56
477.252	559.56
477.471	553.56
477.69	575.56
477.908	561.56
478.127	585.56
478.346	567.56
478.564	573.56
478.783	590.56
479.002	601.56
479.22	604.56
479.439	612.56
479.658	609.56
479.876	633.56
480.095	649.56
480.313	659.56
480.532	642.56
480.751	643.56
480.969	678.56
481.188	711.56
481.406	745.56
481.624	647.56
481.843	629.56
482.061	619.56
482.28	598.56
482.498	644.56
482.717	622.56
482.935	616.56
483.153	606.56
483.372	602.56
483.59	607.56
483.808	606.56
484.027	591.56
484.245	599.56
484.463	610.56
484.681	614.56
484.9	635.56
485.118	629.56
485.336	625.56
485.554	645.56
485.772	655.56
485.99	629.56
486.209	620.56
486.427	618.56
486.645	625.56
486.863	665.56
487.081	671.56
487.299	661.56
487.517	648.56
487.735	620.56
487.953	641.56
488.171	647.56
488.389	650.56
488.607	641.56
488.825	656.56
489.043	660.56
489.261	657.56
489.479	670.56
489.696	651.56
489.914	653.56
490.132	659.56
490.35	668.56
490.568	673.56
490.786	712.56
491.003	683.56
491.221	689.56
491.439	709.56
491.657	737.56
491.874	744.56
492.092	725.56
492.31	729.56
492.527	755.56
492.745	731.56
492.963	721.56
493.18	737.56
493.398	748.56
493.615	749.56
493.833	780.56
494.05	739.56
494.268	741.56
494.485	759.56
494.703	731.56
494.92	767.56
495.138	773.56
495.355	734.56
495.573	759.56
495.79	786.56
496.008	799.56
496.225	737.56
496.442	752.56
496.66	771.56
496.877	759.56
497.094	756.56
497.312	783.56
497.529	793.56
497.746	802.56
497.963	813.56
498.181	850.56
498.398	832.56
498.615	887.56
498.832	899.56
499.049	941.56
499.267	958.56
499.484	977.56
499.701	1019.56
499.918	1086.56
500.135	1135.56
500.352	1175.56
500.569	1222.56
500.786	1236.56
501.003	1178.56
501.22	1159.56
501.437	1113.56
501.654	1063.56
501.871	1032.56
