Data from 1979.PennyLincolnUp.Lamp.En5.5.200Scan.071719.P1_HRD10591_16-18-01-863.txt Node
Date: Thu Jul 18 16:18:01 EDT 2019
User: cochatt
Spectrometer: HR+D1059
Trigger mode: 1
Integration Time (sec): 1.000000E-1
Scans to average: 1
Electric dark correction enabled: true
Nonlinearity correction enabled: false
Boxcar width: 0
XAxis mode: Wavelengths
Number of Pixels in Spectrum: 2048
>>>>>Begin Spectral Data<<<<<
223.165	-17.19
223.4	-17.19
223.635	-17.19
223.869	-11.19
224.104	-12.19
224.338	-20.19
224.573	-12.19
224.808	-18.19
225.042	-1.19
225.277	-7.19
225.511	-4.19
225.746	-12.19
225.98	19.81
226.215	12.81
226.449	15.81
226.683	32.81
226.918	8.81
227.152	25.81
227.387	48.81
227.621	50.81
227.856	45.81
228.09	37.81
228.324	47.81
228.559	56.81
228.793	68.81
229.027	95.81
229.262	96.81
229.496	94.81
229.73	117.81
229.964	127.81
230.199	121.81
230.433	123.81
230.667	129.81
230.901	107.81
231.136	114.81
231.37	104.81
231.604	110.81
231.838	110.81
232.072	104.81
232.306	117.81
232.541	117.81
232.775	101.81
233.009	118.81
233.243	109.81
233.477	106.81
233.711	119.81
233.945	120.81
234.179	103.81
234.413	122.81
234.647	111.81
234.881	96.81
235.115	90.81
235.349	104.81
235.583	107.81
235.817	124.81
236.051	124.81
236.285	95.81
236.519	106.81
236.753	120.81
236.987	127.81
237.221	152.81
237.455	197.81
237.689	161.81
237.922	133.81
238.156	129.81
238.39	105.81
238.624	124.81
238.858	115.81
239.091	120.81
239.325	128.81
239.559	122.81
239.793	128.81
240.027	122.81
240.26	134.81
240.494	140.81
240.728	125.81
240.961	138.81
241.195	133.81
241.429	138.81
241.662	126.81
241.896	111.81
242.13	148.81
242.363	142.81
242.597	129.81
242.83	132.81
243.064	131.81
243.298	143.81
243.531	132.81
243.765	150.81
243.998	130.81
244.232	136.81
244.465	142.81
244.699	139.81
244.932	144.81
245.166	152.81
245.399	136.81
245.633	134.81
245.866	144.81
246.099	144.81
246.333	140.81
246.566	143.81
246.8	150.81
247.033	144.81
247.266	147.81
247.5	151.81
247.733	135.81
247.966	166.81
248.2	145.81
248.433	166.81
248.666	154.81
248.899	172.81
249.133	163.81
249.366	184.81
249.599	180.81
249.832	163.81
250.066	162.81
250.299	148.81
250.532	168.81
250.765	199.81
250.998	197.81
251.231	195.81
251.465	174.81
251.698	184.81
251.931	182.81
252.164	177.81
252.397	168.81
252.63	187.81
252.863	182.81
253.096	184.81
253.329	198.81
253.562	183.81
253.795	196.81
254.028	194.81
254.261	190.81
254.494	205.81
254.727	218.81
254.96	226.81
255.193	226.81
255.426	203.81
255.659	185.81
255.892	202.81
256.124	191.81
256.357	190.81
256.59	194.81
256.823	177.81
257.056	170.81
257.289	194.81
257.521	204.81
257.754	182.81
257.987	200.81
258.22	196.81
258.452	185.81
258.685	167.81
258.918	183.81
259.151	191.81
259.383	189.81
259.616	201.81
259.849	213.81
260.081	189.81
260.314	208.81
260.547	225.81
260.779	204.81
261.012	208.81
261.244	215.81
261.477	204.81
261.71	178.81
261.942	199.81
262.175	211.81
262.407	203.81
262.64	202.81
262.872	201.81
263.105	187.81
263.337	197.81
263.57	204.81
263.802	198.81
264.035	214.81
264.267	187.81
264.499	190.81
264.732	174.81
264.964	202.81
265.197	200.81
265.429	194.81
265.661	196.81
265.894	195.81
266.126	200.81
266.358	184.81
266.591	199.81
266.823	206.81
267.055	201.81
267.287	209.81
267.52	218.81
267.752	200.81
267.984	212.81
268.216	212.81
268.448	192.81
268.681	226.81
268.913	226.81
269.145	232.81
269.377	221.81
269.609	235.81
269.841	219.81
270.073	231.81
270.306	248.81
270.538	264.81
270.77	264.81
271.002	244.81
271.234	247.81
271.466	264.81
271.698	251.81
271.93	255.81
272.162	255.81
272.394	276.81
272.626	262.81
272.858	256.81
273.09	233.81
273.322	224.81
273.553	242.81
273.785	238.81
274.017	234.81
274.249	230.81
274.481	244.81
274.713	229.81
274.945	256.81
275.176	238.81
275.408	235.81
275.64	232.81
275.872	237.81
276.104	227.81
276.335	231.81
276.567	239.81
276.799	250.81
277.031	254.81
277.262	264.81
277.494	283.81
277.726	290.81
277.957	253.81
278.189	237.81
278.421	228.81
278.652	236.81
278.884	243.81
279.115	227.81
279.347	239.81
279.579	254.81
279.81	240.81
280.042	228.81
280.273	223.81
280.505	249.81
280.736	229.81
280.968	231.81
281.199	231.81
281.431	252.81
281.662	250.81
281.894	259.81
282.125	233.81
282.356	258.81
282.588	272.81
282.819	276.81
283.051	252.81
283.282	251.81
283.513	259.81
283.745	250.81
283.976	245.81
284.207	273.81
284.439	261.81
284.67	255.81
284.901	264.81
285.132	261.81
285.364	238.81
285.595	266.81
285.826	250.81
286.057	270.81
286.288	258.81
286.52	245.81
286.751	268.81
286.982	264.81
287.213	257.81
287.444	250.81
287.675	269.81
287.906	270.81
288.138	277.81
288.369	282.81
288.6	265.81
288.831	282.81
289.062	265.81
289.293	265.81
289.524	240.81
289.755	271.81
289.986	288.81
290.217	273.81
290.448	271.81
290.679	251.81
290.91	271.81
291.141	260.81
291.371	270.81
291.602	280.81
291.833	268.81
292.064	282.81
292.295	250.81
292.526	270.81
292.757	253.81
292.987	262.81
293.218	276.81
293.449	278.81
293.68	260.81
293.91	272.81
294.141	275.81
294.372	270.81
294.603	280.81
294.833	265.81
295.064	282.81
295.295	277.81
295.525	279.81
295.756	279.81
295.987	291.81
296.217	299.81
296.448	281.81
296.679	292.81
296.909	278.81
297.14	300.81
297.37	278.81
297.601	274.81
297.831	289.81
298.062	282.81
298.292	292.81
298.523	307.81
298.753	278.81
298.984	292.81
299.214	288.81
299.445	294.81
299.675	308.81
299.905	295.81
300.136	288.81
300.366	291.81
300.597	314.81
300.827	306.81
301.057	305.81
301.288	285.81
301.518	301.81
301.748	314.81
301.979	303.81
302.209	302.81
302.439	299.81
302.669	303.81
302.9	311.81
303.13	292.81
303.36	302.81
303.59	276.81
303.82	315.81
304.051	329.81
304.281	313.81
304.511	291.81
304.741	308.81
304.971	310.81
305.201	300.81
305.431	287.81
305.661	304.81
305.891	303.81
306.121	302.81
306.352	302.81
306.582	307.81
306.812	301.81
307.042	318.81
307.272	330.81
307.502	334.81
307.731	322.81
307.961	318.81
308.191	323.81
308.421	318.81
308.651	318.81
308.881	310.81
309.111	302.81
309.341	306.81
309.571	319.81
309.8	326.81
310.03	333.81
310.26	347.81
310.49	345.81
310.72	328.81
310.949	337.81
311.179	362.81
311.409	331.81
311.639	343.81
311.868	330.81
312.098	340.81
312.328	342.81
312.557	343.81
312.787	338.81
313.017	373.81
313.246	349.81
313.476	323.81
313.706	348.81
313.935	345.81
314.165	348.81
314.394	353.81
314.624	342.81
314.853	349.81
315.083	337.81
315.312	342.81
315.542	356.81
315.771	347.81
316.001	331.81
316.23	336.81
316.46	342.81
316.689	359.81
316.919	344.81
317.148	351.81
317.377	348.81
317.607	341.81
317.836	348.81
318.065	344.81
318.295	345.81
318.524	340.81
318.753	330.81
318.983	340.81
319.212	359.81
319.441	356.81
319.67	366.81
319.9	351.81
320.129	352.81
320.358	370.81
320.587	353.81
320.816	362.81
321.046	374.81
321.275	367.81
321.504	368.81
321.733	363.81
321.962	377.81
322.191	380.81
322.42	386.81
322.649	396.81
322.878	399.81
323.108	407.81
323.337	407.81
323.566	414.81
323.795	431.81
324.024	484.81
324.253	543.81
324.482	773.81
324.71	1184.81
324.939	1770.81
325.168	1488.81
325.397	767.81
325.626	528.81
325.855	450.81
326.084	447.81
326.313	450.81
326.542	426.81
326.77	480.81
326.999	548.81
327.228	700.81
327.457	1068.81
327.686	1347.81
327.914	871.81
328.143	582.81
328.372	498.81
328.6	508.81
328.829	488.81
329.058	468.81
329.287	484.81
329.515	458.81
329.744	452.81
329.972	428.81
330.201	449.81
330.43	475.81
330.658	519.81
330.887	518.81
331.115	516.81
331.344	459.81
331.572	438.81
331.801	442.81
332.03	427.81
332.258	428.81
332.486	410.81
332.715	422.81
332.943	411.81
333.172	431.81
333.4	443.81
333.629	443.81
333.857	449.81
334.085	456.81
334.314	462.81
334.542	465.81
334.771	492.81
334.999	475.81
335.227	447.81
335.455	450.81
335.684	428.81
335.912	425.81
336.14	384.81
336.369	414.81
336.597	426.81
336.825	433.81
337.053	400.81
337.281	406.81
337.51	415.81
337.738	393.81
337.966	411.81
338.194	416.81
338.422	397.81
338.65	394.81
338.878	398.81
339.106	410.81
339.334	400.81
339.562	404.81
339.79	417.81
340.018	404.81
340.246	422.81
340.474	411.81
340.702	412.81
340.93	413.81
341.158	388.81
341.386	396.81
341.614	414.81
341.842	405.81
342.07	381.81
342.298	392.81
342.526	391.81
342.754	382.81
342.981	408.81
343.209	406.81
343.437	417.81
343.665	409.81
343.893	417.81
344.12	423.81
344.348	427.81
344.576	399.81
344.804	403.81
345.031	428.81
345.259	410.81
345.487	404.81
345.714	409.81
345.942	391.81
346.17	393.81
346.397	392.81
346.625	392.81
346.853	384.81
347.08	395.81
347.308	403.81
347.535	399.81
347.763	410.81
347.99	393.81
348.218	412.81
348.445	409.81
348.673	377.81
348.9	381.81
349.128	383.81
349.355	389.81
349.583	397.81
349.81	377.81
350.037	390.81
350.265	376.81
350.492	392.81
350.72	384.81
350.947	391.81
351.174	401.81
351.402	398.81
351.629	371.81
351.856	370.81
352.083	399.81
352.311	400.81
352.538	384.81
352.765	412.81
352.992	416.81
353.22	386.81
353.447	410.81
353.674	361.81
353.901	380.81
354.128	370.81
354.355	380.81
354.583	382.81
354.81	355.81
355.037	376.81
355.264	364.81
355.491	364.81
355.718	365.81
355.945	382.81
356.172	382.81
356.399	379.81
356.626	379.81
356.853	375.81
357.08	371.81
357.307	378.81
357.534	378.81
357.761	377.81
357.988	387.81
358.215	353.81
358.441	382.81
358.668	394.81
358.895	390.81
359.122	363.81
359.349	392.81
359.576	380.81
359.802	398.81
360.029	436.81
360.256	412.81
360.483	410.81
360.709	404.81
360.936	406.81
361.163	389.81
361.39	391.81
361.616	390.81
361.843	384.81
362.07	399.81
362.296	413.81
362.523	382.81
362.749	391.81
362.976	390.81
363.203	383.81
363.429	382.81
363.656	376.81
363.882	379.81
364.109	391.81
364.335	380.81
364.562	375.81
364.788	380.81
365.015	388.81
365.241	380.81
365.468	384.81
365.694	391.81
365.92	391.81
366.147	399.81
366.373	391.81
366.599	381.81
366.826	382.81
367.052	376.81
367.278	364.81
367.505	367.81
367.731	388.81
367.957	384.81
368.184	381.81
368.41	407.81
368.636	395.81
368.862	402.81
369.089	403.81
369.315	403.81
369.541	396.81
369.767	392.81
369.993	395.81
370.219	383.81
370.445	392.81
370.672	375.81
370.898	378.81
371.124	399.81
371.35	398.81
371.576	406.81
371.802	391.81
372.028	384.81
372.254	386.81
372.48	379.81
372.706	388.81
372.932	397.81
373.158	382.81
373.384	392.81
373.61	416.81
373.835	405.81
374.061	397.81
374.287	416.81
374.513	398.81
374.739	429.81
374.965	398.81
375.191	407.81
375.416	414.81
375.642	404.81
375.868	402.81
376.094	395.81
376.319	394.81
376.545	404.81
376.771	384.81
376.997	384.81
377.222	391.81
377.448	409.81
377.674	388.81
377.899	410.81
378.125	399.81
378.35	397.81
378.576	397.81
378.802	390.81
379.027	411.81
379.253	396.81
379.478	400.81
379.704	392.81
379.929	389.81
380.155	395.81
380.38	396.81
380.606	390.81
380.831	424.81
381.057	404.81
381.282	400.81
381.507	385.81
381.733	419.81
381.958	418.81
382.184	431.81
382.409	395.81
382.634	408.81
382.86	419.81
383.085	400.81
383.31	414.81
383.535	408.81
383.761	427.81
383.986	408.81
384.211	423.81
384.436	426.81
384.662	437.81
384.887	434.81
385.112	423.81
385.337	432.81
385.562	467.81
385.787	453.81
386.013	464.81
386.238	440.81
386.463	453.81
386.688	462.81
386.913	440.81
387.138	427.81
387.363	444.81
387.588	451.81
387.813	447.81
388.038	433.81
388.263	447.81
388.488	420.81
388.713	438.81
388.938	436.81
389.163	450.81
389.387	441.81
389.612	442.81
389.837	428.81
390.062	435.81
390.287	438.81
390.512	446.81
390.736	462.81
390.961	455.81
391.186	453.81
391.411	450.81
391.636	467.81
391.86	448.81
392.085	455.81
392.31	466.81
392.534	467.81
392.759	461.81
392.984	447.81
393.208	467.81
393.433	435.81
393.658	457.81
393.882	464.81
394.107	454.81
394.331	470.81
394.556	464.81
394.78	447.81
395.005	474.81
395.229	486.81
395.454	466.81
395.678	469.81
395.903	489.81
396.127	488.81
396.352	499.81
396.576	474.81
396.801	478.81
397.025	473.81
397.249	475.81
397.474	494.81
397.698	479.81
397.922	483.81
398.147	516.81
398.371	519.81
398.595	509.81
398.82	524.81
399.044	544.81
399.268	535.81
399.492	579.81
399.717	614.81
399.941	635.81
400.165	654.81
400.389	648.81
400.613	590.81
400.837	574.81
401.062	555.81
401.286	552.81
401.51	537.81
401.734	504.81
401.958	565.81
402.182	547.81
402.406	538.81
402.63	538.81
402.854	548.81
403.078	543.81
403.302	546.81
403.526	562.81
403.75	552.81
403.974	557.81
404.198	573.81
404.422	542.81
404.645	555.81
404.869	552.81
405.093	590.81
405.317	629.81
405.541	651.81
405.765	583.81
405.988	584.81
406.212	600.81
406.436	588.81
406.66	604.81
406.883	578.81
407.107	590.81
407.331	667.81
407.555	718.81
407.778	716.81
408.002	653.81
408.226	625.81
408.449	603.81
408.673	587.81
408.896	626.81
409.12	662.81
409.344	610.81
409.567	585.81
409.791	564.81
410.014	574.81
410.238	556.81
410.461	566.81
410.685	573.81
410.908	555.81
411.132	584.81
411.355	618.81
411.578	594.81
411.802	562.81
412.025	550.81
412.249	559.81
412.472	585.81
412.695	598.81
412.919	625.81
413.142	568.81
413.365	550.81
413.589	533.81
413.812	507.81
414.035	507.81
414.258	555.81
414.482	498.81
414.705	531.81
414.928	532.81
415.151	542.81
415.374	536.81
415.597	520.81
415.821	516.81
416.044	533.81
416.267	510.81
416.49	516.81
416.713	536.81
416.936	514.81
417.159	525.81
417.382	527.81
417.605	535.81
417.828	541.81
418.051	556.81
418.274	553.81
418.497	515.81
418.72	525.81
418.943	538.81
419.166	555.81
419.389	561.81
419.611	563.81
419.834	553.81
420.057	550.81
420.28	533.81
420.503	534.81
420.726	541.81
420.948	556.81
421.171	587.81
421.394	607.81
421.617	541.81
421.839	538.81
422.062	548.81
422.285	558.81
422.507	602.81
422.73	656.81
422.953	644.81
423.175	578.81
423.398	548.81
423.621	538.81
423.843	571.81
424.066	586.81
424.288	580.81
424.511	594.81
424.733	621.81
424.956	680.81
425.178	674.81
425.401	669.81
425.623	709.81
425.846	614.81
426.068	570.81
426.291	578.81
426.513	552.81
426.735	576.81
426.958	600.81
427.18	669.81
427.402	789.81
427.625	855.81
427.847	760.81
428.069	680.81
428.292	610.81
428.514	553.81
428.736	544.81
428.958	534.81
429.181	535.81
429.403	522.81
429.625	544.81
429.847	555.81
430.069	597.81
430.292	607.81
430.514	547.81
430.736	512.81
430.958	534.81
431.18	495.81
431.402	514.81
431.624	517.81
431.846	495.81
432.068	524.81
432.29	524.81
432.512	520.81
432.734	542.81
432.956	535.81
433.178	532.81
433.4	534.81
433.622	517.81
433.844	507.81
434.066	503.81
434.287	521.81
434.509	522.81
434.731	527.81
434.953	531.81
435.175	544.81
435.397	568.81
435.618	572.81
435.84	597.81
436.062	671.81
436.284	730.81
436.505	632.81
436.727	589.81
436.949	546.81
437.17	532.81
437.392	534.81
437.614	546.81
437.835	570.81
438.057	638.81
438.278	690.81
438.5	709.81
438.721	797.81
438.943	758.81
439.165	607.81
439.386	554.81
439.608	588.81
439.829	534.81
440.05	565.81
440.272	606.81
440.493	576.81
440.715	557.81
440.936	534.81
441.158	538.81
441.379	542.81
441.6	553.81
441.822	578.81
442.043	585.81
442.264	695.81
442.486	710.81
442.707	606.81
442.928	592.81
443.149	599.81
443.371	580.81
443.592	614.81
443.813	694.81
444.034	781.81
444.255	653.81
444.476	608.81
444.698	602.81
444.919	587.81
445.14	714.81
445.361	635.81
445.582	642.81
445.803	643.81
446.024	752.81
446.245	750.81
446.466	670.81
446.687	623.81
446.908	544.81
447.129	526.81
447.35	525.81
447.571	510.81
447.792	514.81
448.013	514.81
448.234	521.81
448.455	567.81
448.675	674.81
448.896	798.81
449.117	631.81
449.338	612.81
449.559	726.81
449.779	832.81
450	666.81
450.221	564.81
450.442	516.81
450.662	503.81
450.883	514.81
451.104	491.81
451.324	502.81
451.545	490.81
451.766	490.81
451.986	481.81
452.207	476.81
452.428	467.81
452.648	442.81
452.869	469.81
453.089	487.81
453.31	505.81
453.53	493.81
453.751	481.81
453.971	467.81
454.192	490.81
454.412	479.81
454.633	486.81
454.853	472.81
455.073	464.81
455.294	482.81
455.514	524.81
455.734	526.81
455.955	482.81
456.175	442.81
456.395	438.81
456.616	425.81
456.836	481.81
457.056	448.81
457.276	443.81
457.497	436.81
457.717	457.81
457.937	474.81
458.157	427.81
458.377	465.81
458.598	469.81
458.818	542.81
459.038	610.81
459.258	618.81
459.478	518.81
459.698	492.81
459.918	526.81
460.138	534.81
460.358	547.81
460.578	542.81
460.798	564.81
461.018	527.81
461.238	524.81
461.458	534.81
461.678	528.81
461.898	534.81
462.118	546.81
462.338	544.81
462.558	548.81
462.777	568.81
462.997	597.81
463.217	607.81
463.437	622.81
463.657	602.81
463.876	600.81
464.096	580.81
464.316	601.81
464.536	595.81
464.755	569.81
464.975	579.81
465.195	615.81
465.414	638.81
465.634	565.81
465.854	539.81
466.073	532.81
466.293	515.81
466.512	511.81
466.732	507.81
466.951	498.81
467.171	488.81
467.391	510.81
467.61	506.81
467.829	520.81
468.049	502.81
468.268	500.81
468.488	483.81
468.707	475.81
468.927	482.81
469.146	472.81
469.365	479.81
469.585	483.81
469.804	504.81
470.023	514.81
470.243	511.81
470.462	484.81
470.681	503.81
470.901	511.81
471.12	492.81
471.339	505.81
471.558	505.81
471.777	485.81
471.997	483.81
472.216	509.81
472.435	520.81
472.654	498.81
472.873	516.81
473.092	496.81
473.311	493.81
473.53	487.81
473.749	508.81
473.968	525.81
474.187	612.81
474.406	630.81
474.625	525.81
474.844	505.81
475.063	488.81
475.282	503.81
475.501	509.81
475.72	487.81
475.939	509.81
476.158	514.81
476.377	506.81
476.596	499.81
476.814	503.81
477.033	550.81
477.252	544.81
477.471	521.81
477.69	546.81
477.908	550.81
478.127	528.81
478.346	533.81
478.564	564.81
478.783	542.81
479.002	594.81
479.22	580.81
479.439	585.81
479.658	602.81
479.876	608.81
480.095	598.81
480.313	612.81
480.532	619.81
480.751	637.81
480.969	626.81
481.188	663.81
481.406	668.81
481.624	628.81
481.843	615.81
482.061	610.81
482.28	581.81
482.498	584.81
482.717	592.81
482.935	583.81
483.153	581.81
483.372	563.81
483.59	602.81
483.808	602.81
484.027	559.81
484.245	578.81
484.463	602.81
484.681	605.81
484.9	587.81
485.118	607.81
485.336	612.81
485.554	589.81
485.772	604.81
485.99	594.81
486.209	615.81
486.427	619.81
486.645	607.81
486.863	622.81
487.081	645.81
487.299	621.81
487.517	627.81
487.735	614.81
487.953	592.81
488.171	612.81
488.389	590.81
488.607	616.81
488.825	649.81
489.043	611.81
489.261	628.81
489.479	628.81
489.696	641.81
489.914	633.81
490.132	646.81
490.35	642.81
490.568	617.81
490.786	643.81
491.003	656.81
491.221	664.81
491.439	679.81
491.657	672.81
491.874	668.81
492.092	686.81
492.31	680.81
492.527	683.81
492.745	710.81
492.963	697.81
493.18	686.81
493.398	708.81
493.615	704.81
493.833	728.81
494.05	710.81
494.268	720.81
494.485	715.81
494.703	717.81
494.92	712.81
495.138	698.81
495.355	703.81
495.573	712.81
495.79	723.81
496.008	755.81
496.225	737.81
496.442	710.81
496.66	710.81
496.877	724.81
497.094	711.81
497.312	763.81
497.529	754.81
497.746	762.81
497.963	790.81
498.181	820.81
498.398	808.81
498.615	844.81
498.832	887.81
499.049	855.81
499.267	898.81
499.484	964.81
499.701	982.81
499.918	1000.81
500.135	1109.81
500.352	1155.81
500.569	1132.81
500.786	1191.81
501.003	1138.81
501.22	1079.81
501.437	1034.81
501.654	996.81
501.871	967.81
