Data from 1979.PennyLincolnUp.Lamp.En5.5.200Scan.071719.P1_HRD10591_16-17-48-863.txt Node
Date: Thu Jul 18 16:17:48 EDT 2019
User: cochatt
Spectrometer: HR+D1059
Trigger mode: 1
Integration Time (sec): 1.000000E-1
Scans to average: 1
Electric dark correction enabled: true
Nonlinearity correction enabled: false
Boxcar width: 0
XAxis mode: Wavelengths
Number of Pixels in Spectrum: 2048
>>>>>Begin Spectral Data<<<<<
223.165	-19.38
223.4	-19.38
223.635	-19.38
223.869	-23.38
224.104	-22.38
224.338	-14.38
224.573	-10.38
224.808	-14.38
225.042	-1.38
225.277	-20.38
225.511	-4.38
225.746	11.62
225.98	27.62
226.215	5.62
226.449	21.62
226.683	18.62
226.918	9.62
227.152	35.62
227.387	39.62
227.621	41.62
227.856	47.62
228.09	48.62
228.324	53.62
228.559	68.62
228.793	58.62
229.027	73.62
229.262	82.62
229.496	94.62
229.73	116.62
229.964	127.62
230.199	99.62
230.433	101.62
230.667	113.62
230.901	113.62
231.136	99.62
231.37	95.62
231.604	104.62
231.838	116.62
232.072	115.62
232.306	106.62
232.541	101.62
232.775	115.62
233.009	108.62
233.243	111.62
233.477	118.62
233.711	112.62
233.945	104.62
234.179	99.62
234.413	111.62
234.647	123.62
234.881	103.62
235.115	113.62
235.349	101.62
235.583	90.62
235.817	120.62
236.051	115.62
236.285	139.62
236.519	113.62
236.753	117.62
236.987	140.62
237.221	144.62
237.455	193.62
237.689	163.62
237.922	145.62
238.156	125.62
238.39	123.62
238.624	113.62
238.858	123.62
239.091	91.62
239.325	103.62
239.559	120.62
239.793	123.62
240.027	124.62
240.26	129.62
240.494	135.62
240.728	132.62
240.961	150.62
241.195	130.62
241.429	125.62
241.662	125.62
241.896	124.62
242.13	134.62
242.363	137.62
242.597	148.62
242.83	129.62
243.064	135.62
243.298	131.62
243.531	127.62
243.765	129.62
243.998	141.62
244.232	137.62
244.465	137.62
244.699	133.62
244.932	145.62
245.166	139.62
245.399	121.62
245.633	124.62
245.866	125.62
246.099	136.62
246.333	152.62
246.566	144.62
246.8	142.62
247.033	146.62
247.266	140.62
247.5	137.62
247.733	168.62
247.966	153.62
248.2	158.62
248.433	148.62
248.666	147.62
248.899	162.62
249.133	175.62
249.366	173.62
249.599	173.62
249.832	176.62
250.066	177.62
250.299	163.62
250.532	161.62
250.765	180.62
250.998	186.62
251.231	192.62
251.465	186.62
251.698	184.62
251.931	173.62
252.164	166.62
252.397	171.62
252.63	173.62
252.863	163.62
253.096	182.62
253.329	214.62
253.562	187.62
253.795	202.62
254.028	163.62
254.261	195.62
254.494	199.62
254.727	198.62
254.96	216.62
255.193	216.62
255.426	203.62
255.659	179.62
255.892	195.62
256.124	188.62
256.357	195.62
256.59	196.62
256.823	187.62
257.056	199.62
257.289	189.62
257.521	164.62
257.754	179.62
257.987	159.62
258.22	181.62
258.452	179.62
258.685	172.62
258.918	181.62
259.151	178.62
259.383	180.62
259.616	209.62
259.849	194.62
260.081	196.62
260.314	208.62
260.547	224.62
260.779	217.62
261.012	215.62
261.244	196.62
261.477	191.62
261.71	205.62
261.942	207.62
262.175	209.62
262.407	207.62
262.64	212.62
262.872	178.62
263.105	179.62
263.337	191.62
263.57	197.62
263.802	189.62
264.035	194.62
264.267	177.62
264.499	203.62
264.732	211.62
264.964	191.62
265.197	195.62
265.429	197.62
265.661	204.62
265.894	184.62
266.126	192.62
266.358	193.62
266.591	203.62
266.823	223.62
267.055	206.62
267.287	209.62
267.52	221.62
267.752	194.62
267.984	192.62
268.216	210.62
268.448	205.62
268.681	214.62
268.913	203.62
269.145	229.62
269.377	234.62
269.609	219.62
269.841	225.62
270.073	232.62
270.306	242.62
270.538	259.62
270.77	251.62
271.002	243.62
271.234	243.62
271.466	260.62
271.698	252.62
271.93	250.62
272.162	263.62
272.394	277.62
272.626	264.62
272.858	249.62
273.09	242.62
273.322	233.62
273.553	231.62
273.785	239.62
274.017	229.62
274.249	246.62
274.481	228.62
274.713	234.62
274.945	244.62
275.176	255.62
275.408	228.62
275.64	259.62
275.872	224.62
276.104	232.62
276.335	234.62
276.567	229.62
276.799	246.62
277.031	267.62
277.262	248.62
277.494	276.62
277.726	261.62
277.957	251.62
278.189	269.62
278.421	226.62
278.652	231.62
278.884	237.62
279.115	234.62
279.347	240.62
279.579	228.62
279.81	251.62
280.042	236.62
280.273	236.62
280.505	245.62
280.736	253.62
280.968	243.62
281.199	258.62
281.431	235.62
281.662	246.62
281.894	232.62
282.125	245.62
282.356	261.62
282.588	278.62
282.819	257.62
283.051	257.62
283.282	251.62
283.513	266.62
283.745	253.62
283.976	279.62
284.207	255.62
284.439	259.62
284.67	247.62
284.901	251.62
285.132	258.62
285.364	230.62
285.595	260.62
285.826	255.62
286.057	265.62
286.288	266.62
286.52	268.62
286.751	239.62
286.982	247.62
287.213	248.62
287.444	255.62
287.675	264.62
287.906	267.62
288.138	259.62
288.369	263.62
288.6	269.62
288.831	257.62
289.062	246.62
289.293	268.62
289.524	260.62
289.755	272.62
289.986	243.62
290.217	257.62
290.448	272.62
290.679	257.62
290.91	279.62
291.141	272.62
291.371	266.62
291.602	252.62
291.833	258.62
292.064	247.62
292.295	251.62
292.526	266.62
292.757	280.62
292.987	258.62
293.218	247.62
293.449	251.62
293.68	275.62
293.91	259.62
294.141	274.62
294.372	269.62
294.603	284.62
294.833	282.62
295.064	296.62
295.295	263.62
295.525	268.62
295.756	267.62
295.987	272.62
296.217	282.62
296.448	300.62
296.679	272.62
296.909	281.62
297.14	277.62
297.37	295.62
297.601	297.62
297.831	290.62
298.062	276.62
298.292	300.62
298.523	265.62
298.753	289.62
298.984	294.62
299.214	298.62
299.445	294.62
299.675	285.62
299.905	298.62
300.136	276.62
300.366	291.62
300.597	298.62
300.827	293.62
301.057	312.62
301.288	315.62
301.518	287.62
301.748	299.62
301.979	297.62
302.209	310.62
302.439	290.62
302.669	313.62
302.9	282.62
303.13	297.62
303.36	316.62
303.59	303.62
303.82	293.62
304.051	295.62
304.281	315.62
304.511	313.62
304.741	299.62
304.971	305.62
305.201	301.62
305.431	318.62
305.661	310.62
305.891	304.62
306.121	317.62
306.352	303.62
306.582	330.62
306.812	337.62
307.042	298.62
307.272	313.62
307.502	292.62
307.731	311.62
307.961	303.62
308.191	315.62
308.421	313.62
308.651	339.62
308.881	324.62
309.111	312.62
309.341	310.62
309.571	319.62
309.8	320.62
310.03	333.62
310.26	317.62
310.49	321.62
310.72	332.62
310.949	353.62
311.179	349.62
311.409	336.62
311.639	338.62
311.868	323.62
312.098	305.62
312.328	341.62
312.557	368.62
312.787	367.62
313.017	359.62
313.246	367.62
313.476	339.62
313.706	351.62
313.935	351.62
314.165	351.62
314.394	360.62
314.624	350.62
314.853	330.62
315.083	329.62
315.312	340.62
315.542	354.62
315.771	343.62
316.001	341.62
316.23	360.62
316.46	343.62
316.689	338.62
316.919	348.62
317.148	352.62
317.377	347.62
317.607	337.62
317.836	340.62
318.065	340.62
318.295	343.62
318.524	348.62
318.753	357.62
318.983	357.62
319.212	354.62
319.441	351.62
319.67	348.62
319.9	331.62
320.129	355.62
320.358	356.62
320.587	352.62
320.816	353.62
321.046	357.62
321.275	364.62
321.504	355.62
321.733	352.62
321.962	353.62
322.191	345.62
322.42	382.62
322.649	380.62
322.878	403.62
323.108	392.62
323.337	409.62
323.566	411.62
323.795	427.62
324.024	459.62
324.253	553.62
324.482	739.62
324.71	1141.62
324.939	1634.62
325.168	1429.62
325.397	712.62
325.626	515.62
325.855	445.62
326.084	438.62
326.313	423.62
326.542	443.62
326.77	458.62
326.999	544.62
327.228	706.62
327.457	1025.62
327.686	1281.62
327.914	819.62
328.143	545.62
328.372	507.62
328.6	459.62
328.829	463.62
329.058	463.62
329.287	479.62
329.515	433.62
329.744	434.62
329.972	417.62
330.201	424.62
330.43	468.62
330.658	491.62
330.887	484.62
331.115	500.62
331.344	447.62
331.572	429.62
331.801	447.62
332.03	443.62
332.258	405.62
332.486	415.62
332.715	431.62
332.943	398.62
333.172	417.62
333.4	433.62
333.629	432.62
333.857	451.62
334.085	456.62
334.314	455.62
334.542	481.62
334.771	495.62
334.999	460.62
335.227	441.62
335.455	433.62
335.684	426.62
335.912	442.62
336.14	421.62
336.369	426.62
336.597	424.62
336.825	449.62
337.053	417.62
337.281	399.62
337.51	421.62
337.738	406.62
337.966	400.62
338.194	427.62
338.422	405.62
338.65	396.62
338.878	385.62
339.106	427.62
339.334	400.62
339.562	391.62
339.79	379.62
340.018	401.62
340.246	402.62
340.474	392.62
340.702	408.62
340.93	380.62
341.158	389.62
341.386	402.62
341.614	411.62
341.842	403.62
342.07	388.62
342.298	394.62
342.526	389.62
342.754	386.62
342.981	389.62
343.209	384.62
343.437	392.62
343.665	431.62
343.893	412.62
344.12	424.62
344.348	425.62
344.576	412.62
344.804	423.62
345.031	415.62
345.259	436.62
345.487	427.62
345.714	388.62
345.942	402.62
346.17	396.62
346.397	381.62
346.625	388.62
346.853	409.62
347.08	378.62
347.308	386.62
347.535	392.62
347.763	387.62
347.99	392.62
348.218	411.62
348.445	394.62
348.673	388.62
348.9	396.62
349.128	376.62
349.355	389.62
349.583	389.62
349.81	370.62
350.037	385.62
350.265	382.62
350.492	377.62
350.72	376.62
350.947	391.62
351.174	385.62
351.402	409.62
351.629	376.62
351.856	411.62
352.083	391.62
352.311	399.62
352.538	398.62
352.765	380.62
352.992	394.62
353.22	399.62
353.447	377.62
353.674	389.62
353.901	393.62
354.128	385.62
354.355	375.62
354.583	369.62
354.81	360.62
355.037	370.62
355.264	357.62
355.491	361.62
355.718	377.62
355.945	376.62
356.172	369.62
356.399	376.62
356.626	376.62
356.853	395.62
357.08	377.62
357.307	377.62
357.534	358.62
357.761	377.62
357.988	359.62
358.215	345.62
358.441	373.62
358.668	377.62
358.895	375.62
359.122	373.62
359.349	391.62
359.576	403.62
359.802	388.62
360.029	392.62
360.256	432.62
360.483	407.62
360.709	387.62
360.936	385.62
361.163	395.62
361.39	391.62
361.616	391.62
361.843	382.62
362.07	371.62
362.296	378.62
362.523	393.62
362.749	407.62
362.976	385.62
363.203	379.62
363.429	371.62
363.656	393.62
363.882	385.62
364.109	376.62
364.335	394.62
364.562	371.62
364.788	379.62
365.015	386.62
365.241	391.62
365.468	379.62
365.694	397.62
365.92	389.62
366.147	387.62
366.373	375.62
366.599	380.62
366.826	376.62
367.052	398.62
367.278	374.62
367.505	390.62
367.731	374.62
367.957	379.62
368.184	382.62
368.41	421.62
368.636	389.62
368.862	396.62
369.089	409.62
369.315	397.62
369.541	405.62
369.767	391.62
369.993	382.62
370.219	384.62
370.445	386.62
370.672	379.62
370.898	382.62
371.124	390.62
371.35	381.62
371.576	404.62
371.802	388.62
372.028	392.62
372.254	408.62
372.48	398.62
372.706	408.62
372.932	393.62
373.158	414.62
373.384	420.62
373.61	401.62
373.835	409.62
374.061	405.62
374.287	380.62
374.513	399.62
374.739	417.62
374.965	403.62
375.191	422.62
375.416	408.62
375.642	419.62
375.868	396.62
376.094	413.62
376.319	386.62
376.545	404.62
376.771	397.62
376.997	415.62
377.222	403.62
377.448	403.62
377.674	396.62
377.899	399.62
378.125	401.62
378.35	387.62
378.576	394.62
378.802	399.62
379.027	391.62
379.253	401.62
379.478	397.62
379.704	371.62
379.929	398.62
380.155	395.62
380.38	407.62
380.606	411.62
380.831	411.62
381.057	408.62
381.282	400.62
381.507	412.62
381.733	408.62
381.958	399.62
382.184	400.62
382.409	405.62
382.634	407.62
382.86	409.62
383.085	415.62
383.31	406.62
383.535	431.62
383.761	399.62
383.986	421.62
384.211	410.62
384.436	429.62
384.662	419.62
384.887	443.62
385.112	418.62
385.337	444.62
385.562	427.62
385.787	419.62
386.013	452.62
386.238	452.62
386.463	469.62
386.688	427.62
386.913	456.62
387.138	444.62
387.363	444.62
387.588	436.62
387.813	463.62
388.038	435.62
388.263	461.62
388.488	457.62
388.713	443.62
388.938	459.62
389.163	445.62
389.387	447.62
389.612	453.62
389.837	454.62
390.062	456.62
390.287	440.62
390.512	438.62
390.736	459.62
390.961	461.62
391.186	461.62
391.411	450.62
391.636	464.62
391.86	474.62
392.085	479.62
392.31	461.62
392.534	451.62
392.759	464.62
392.984	451.62
393.208	465.62
393.433	491.62
393.658	482.62
393.882	489.62
394.107	463.62
394.331	469.62
394.556	461.62
394.78	487.62
395.005	464.62
395.229	485.62
395.454	480.62
395.678	498.62
395.903	474.62
396.127	503.62
396.352	510.62
396.576	483.62
396.801	462.62
397.025	490.62
397.249	501.62
397.474	483.62
397.698	484.62
397.922	505.62
398.147	501.62
398.371	537.62
398.595	529.62
398.82	483.62
399.044	521.62
399.268	576.62
399.492	591.62
399.717	618.62
399.941	643.62
400.165	650.62
400.389	659.62
400.613	601.62
400.837	569.62
401.062	553.62
401.286	560.62
401.51	573.62
401.734	525.62
401.958	553.62
402.182	534.62
402.406	554.62
402.63	531.62
402.854	538.62
403.078	547.62
403.302	550.62
403.526	562.62
403.75	567.62
403.974	551.62
404.198	545.62
404.422	553.62
404.645	570.62
404.869	547.62
405.093	596.62
405.317	616.62
405.541	657.62
405.765	618.62
405.988	575.62
406.212	588.62
406.436	587.62
406.66	626.62
406.883	593.62
407.107	618.62
407.331	671.62
407.555	712.62
407.778	693.62
408.002	671.62
408.226	619.62
408.449	601.62
408.673	601.62
408.896	613.62
409.12	677.62
409.344	656.62
409.567	570.62
409.791	571.62
410.014	564.62
410.238	571.62
410.461	563.62
410.685	570.62
410.908	567.62
411.132	609.62
411.355	653.62
411.578	606.62
411.802	565.62
412.025	563.62
412.249	553.62
412.472	582.62
412.695	608.62
412.919	590.62
413.142	569.62
413.365	554.62
413.589	557.62
413.812	536.62
414.035	538.62
414.258	524.62
414.482	541.62
414.705	545.62
414.928	549.62
415.151	520.62
415.374	532.62
415.597	537.62
415.821	523.62
416.044	527.62
416.267	524.62
416.49	537.62
416.713	536.62
416.936	526.62
417.159	504.62
417.382	537.62
417.605	516.62
417.828	533.62
418.051	535.62
418.274	548.62
418.497	526.62
418.72	515.62
418.943	521.62
419.166	554.62
419.389	591.62
419.611	561.62
419.834	554.62
420.057	572.62
420.28	576.62
420.503	531.62
420.726	515.62
420.948	560.62
421.171	594.62
421.394	633.62
421.617	569.62
421.839	555.62
422.062	537.62
422.285	556.62
422.507	601.62
422.73	669.62
422.953	641.62
423.175	585.62
423.398	584.62
423.621	564.62
423.843	571.62
424.066	599.62
424.288	577.62
424.511	592.62
424.733	602.62
424.956	679.62
425.178	683.62
425.401	660.62
425.623	701.62
425.846	598.62
426.068	547.62
426.291	575.62
426.513	556.62
426.735	581.62
426.958	586.62
427.18	676.62
427.402	789.62
427.625	875.62
427.847	751.62
428.069	669.62
428.292	596.62
428.514	541.62
428.736	548.62
428.958	544.62
429.181	537.62
429.403	518.62
429.625	531.62
429.847	558.62
430.069	610.62
430.292	639.62
430.514	548.62
430.736	524.62
430.958	541.62
431.18	520.62
431.402	522.62
431.624	497.62
431.846	489.62
432.068	493.62
432.29	499.62
432.512	518.62
432.734	525.62
432.956	500.62
433.178	549.62
433.4	540.62
433.622	507.62
433.844	519.62
434.066	531.62
434.287	511.62
434.509	528.62
434.731	529.62
434.953	532.62
435.175	541.62
435.397	575.62
435.618	569.62
435.84	604.62
436.062	674.62
436.284	740.62
436.505	618.62
436.727	589.62
436.949	549.62
437.17	529.62
437.392	528.62
437.614	522.62
437.835	550.62
438.057	637.62
438.278	721.62
438.5	711.62
438.721	800.62
438.943	765.62
439.165	627.62
439.386	565.62
439.608	557.62
439.829	547.62
440.05	567.62
440.272	621.62
440.493	596.62
440.715	556.62
440.936	526.62
441.158	535.62
441.379	539.62
441.6	544.62
441.822	573.62
442.043	608.62
442.264	676.62
442.486	707.62
442.707	626.62
442.928	595.62
443.149	583.62
443.371	591.62
443.592	619.62
443.813	713.62
444.034	769.62
444.255	668.62
444.476	631.62
444.698	602.62
444.919	601.62
445.14	715.62
445.361	635.62
445.582	621.62
445.803	645.62
446.024	742.62
446.245	742.62
446.466	671.62
446.687	589.62
446.908	559.62
447.129	547.62
447.35	538.62
447.571	530.62
447.792	517.62
448.013	506.62
448.234	540.62
448.455	585.62
448.675	663.62
448.896	774.62
449.117	649.62
449.338	610.62
449.559	711.62
449.779	817.62
450	636.62
450.221	567.62
450.442	527.62
450.662	521.62
450.883	522.62
451.104	518.62
451.324	502.62
451.545	479.62
451.766	493.62
451.986	483.62
452.207	471.62
452.428	461.62
452.648	445.62
452.869	472.62
453.089	464.62
453.31	462.62
453.53	455.62
453.751	462.62
453.971	472.62
454.192	485.62
454.412	475.62
454.633	478.62
454.853	448.62
455.073	477.62
455.294	484.62
455.514	549.62
455.734	559.62
455.955	466.62
456.175	466.62
456.395	452.62
456.616	445.62
456.836	459.62
457.056	470.62
457.276	429.62
457.497	436.62
457.717	458.62
457.937	479.62
458.157	448.62
458.377	471.62
458.598	490.62
458.818	505.62
459.038	561.62
459.258	614.62
459.478	541.62
459.698	521.62
459.918	499.62
460.138	538.62
460.358	521.62
460.578	534.62
460.798	538.62
461.018	551.62
461.238	531.62
461.458	523.62
461.678	541.62
461.898	539.62
462.118	548.62
462.338	579.62
462.558	572.62
462.777	581.62
462.997	603.62
463.217	597.62
463.437	616.62
463.657	602.62
463.876	594.62
464.096	611.62
464.316	563.62
464.536	580.62
464.755	578.62
464.975	593.62
465.195	588.62
465.414	636.62
465.634	556.62
465.854	526.62
466.073	529.62
466.293	524.62
466.512	517.62
466.732	496.62
466.951	512.62
467.171	515.62
467.391	499.62
467.61	503.62
467.829	505.62
468.049	495.62
468.268	522.62
468.488	495.62
468.707	469.62
468.927	480.62
469.146	473.62
469.365	482.62
469.585	489.62
469.804	500.62
470.023	497.62
470.243	500.62
470.462	497.62
470.681	514.62
470.901	512.62
471.12	499.62
471.339	495.62
471.558	497.62
471.777	510.62
471.997	466.62
472.216	503.62
472.435	504.62
472.654	496.62
472.873	495.62
473.092	476.62
473.311	501.62
473.53	493.62
473.749	503.62
473.968	519.62
474.187	593.62
474.406	626.62
474.625	535.62
474.844	504.62
475.063	499.62
475.282	491.62
475.501	497.62
475.72	522.62
475.939	501.62
476.158	520.62
476.377	502.62
476.596	500.62
476.814	538.62
477.033	533.62
477.252	543.62
477.471	521.62
477.69	520.62
477.908	560.62
478.127	551.62
478.346	559.62
478.564	568.62
478.783	594.62
479.002	569.62
479.22	574.62
479.439	603.62
479.658	591.62
479.876	613.62
480.095	618.62
480.313	632.62
480.532	611.62
480.751	607.62
480.969	631.62
481.188	659.62
481.406	691.62
481.624	624.62
481.843	599.62
482.061	594.62
482.28	586.62
482.498	603.62
482.717	584.62
482.935	579.62
483.153	572.62
483.372	571.62
483.59	573.62
483.808	579.62
484.027	595.62
484.245	576.62
484.463	588.62
484.681	596.62
484.9	588.62
485.118	602.62
485.336	601.62
485.554	616.62
485.772	611.62
485.99	599.62
486.209	619.62
486.427	598.62
486.645	617.62
486.863	644.62
487.081	621.62
487.299	614.62
487.517	616.62
487.735	603.62
487.953	612.62
488.171	645.62
488.389	628.62
488.607	591.62
488.825	623.62
489.043	623.62
489.261	620.62
489.479	611.62
489.696	609.62
489.914	635.62
490.132	638.62
490.35	667.62
490.568	639.62
490.786	684.62
491.003	653.62
491.221	668.62
491.439	678.62
491.657	708.62
491.874	692.62
492.092	685.62
492.31	710.62
492.527	714.62
492.745	690.62
492.963	700.62
493.18	697.62
493.398	713.62
493.615	708.62
493.833	707.62
494.05	711.62
494.268	725.62
494.485	709.62
494.703	713.62
494.92	714.62
495.138	710.62
495.355	715.62
495.573	738.62
495.79	722.62
496.008	732.62
496.225	723.62
496.442	716.62
496.66	737.62
496.877	735.62
497.094	756.62
497.312	761.62
497.529	771.62
497.746	751.62
497.963	770.62
498.181	783.62
498.398	815.62
498.615	828.62
498.832	856.62
499.049	870.62
499.267	900.62
499.484	940.62
499.701	1007.62
499.918	1050.62
500.135	1089.62
500.352	1170.62
500.569	1186.62
500.786	1208.62
501.003	1141.62
501.22	1104.62
501.437	1079.62
501.654	1029.62
501.871	1008.62
