Data from 1979.PennyLincolnUp.Lamp.En5.5.200Scan.071719.P1_HRD10591_16-18-04-863.txt Node
Date: Thu Jul 18 16:18:04 EDT 2019
User: cochatt
Spectrometer: HR+D1059
Trigger mode: 1
Integration Time (sec): 1.000000E-1
Scans to average: 1
Electric dark correction enabled: true
Nonlinearity correction enabled: false
Boxcar width: 0
XAxis mode: Wavelengths
Number of Pixels in Spectrum: 2048
>>>>>Begin Spectral Data<<<<<
223.165	-19.38
223.4	-19.38
223.635	-19.38
223.869	-17.38
224.104	-31.38
224.338	-13.38
224.573	-12.38
224.808	-0.38
225.042	-11.38
225.277	-8.38
225.511	0.62
225.746	15.62
225.98	-0.38
226.215	3.62
226.449	11.62
226.683	27.62
226.918	22.62
227.152	32.62
227.387	37.62
227.621	39.62
227.856	44.62
228.09	56.62
228.324	41.62
228.559	52.62
228.793	67.62
229.027	75.62
229.262	88.62
229.496	101.62
229.73	120.62
229.964	132.62
230.199	120.62
230.433	100.62
230.667	115.62
230.901	90.62
231.136	93.62
231.37	113.62
231.604	108.62
231.838	106.62
232.072	104.62
232.306	116.62
232.541	120.62
232.775	117.62
233.009	105.62
233.243	110.62
233.477	113.62
233.711	115.62
233.945	113.62
234.179	110.62
234.413	108.62
234.647	128.62
234.881	121.62
235.115	96.62
235.349	94.62
235.583	114.62
235.817	101.62
236.051	134.62
236.285	123.62
236.519	133.62
236.753	132.62
236.987	121.62
237.221	169.62
237.455	213.62
237.689	171.62
237.922	127.62
238.156	117.62
238.39	120.62
238.624	117.62
238.858	115.62
239.091	127.62
239.325	126.62
239.559	125.62
239.793	114.62
240.027	120.62
240.26	126.62
240.494	142.62
240.728	138.62
240.961	132.62
241.195	135.62
241.429	140.62
241.662	115.62
241.896	102.62
242.13	120.62
242.363	128.62
242.597	132.62
242.83	146.62
243.064	123.62
243.298	127.62
243.531	112.62
243.765	121.62
243.998	130.62
244.232	130.62
244.465	147.62
244.699	144.62
244.932	136.62
245.166	134.62
245.399	141.62
245.633	146.62
245.866	142.62
246.099	132.62
246.333	128.62
246.566	144.62
246.8	153.62
247.033	137.62
247.266	141.62
247.5	146.62
247.733	151.62
247.966	170.62
248.2	154.62
248.433	159.62
248.666	159.62
248.899	175.62
249.133	179.62
249.366	175.62
249.599	157.62
249.832	170.62
250.066	174.62
250.299	165.62
250.532	155.62
250.765	172.62
250.998	178.62
251.231	186.62
251.465	178.62
251.698	181.62
251.931	180.62
252.164	165.62
252.397	171.62
252.63	182.62
252.863	180.62
253.096	184.62
253.329	192.62
253.562	190.62
253.795	203.62
254.028	196.62
254.261	196.62
254.494	180.62
254.727	231.62
254.96	244.62
255.193	244.62
255.426	199.62
255.659	199.62
255.892	227.62
256.124	196.62
256.357	189.62
256.59	201.62
256.823	188.62
257.056	194.62
257.289	196.62
257.521	187.62
257.754	180.62
257.987	182.62
258.22	190.62
258.452	188.62
258.685	199.62
258.918	186.62
259.151	187.62
259.383	210.62
259.616	203.62
259.849	198.62
260.081	217.62
260.314	239.62
260.547	238.62
260.779	233.62
261.012	216.62
261.244	202.62
261.477	203.62
261.71	193.62
261.942	192.62
262.175	208.62
262.407	205.62
262.64	186.62
262.872	194.62
263.105	185.62
263.337	194.62
263.57	182.62
263.802	200.62
264.035	201.62
264.267	177.62
264.499	184.62
264.732	192.62
264.964	202.62
265.197	204.62
265.429	192.62
265.661	191.62
265.894	196.62
266.126	200.62
266.358	204.62
266.591	194.62
266.823	198.62
267.055	194.62
267.287	201.62
267.52	198.62
267.752	201.62
267.984	204.62
268.216	210.62
268.448	200.62
268.681	210.62
268.913	220.62
269.145	231.62
269.377	254.62
269.609	243.62
269.841	218.62
270.073	230.62
270.306	245.62
270.538	256.62
270.77	270.62
271.002	262.62
271.234	246.62
271.466	248.62
271.698	262.62
271.93	260.62
272.162	263.62
272.394	254.62
272.626	275.62
272.858	256.62
273.09	266.62
273.322	251.62
273.553	238.62
273.785	225.62
274.017	240.62
274.249	252.62
274.481	234.62
274.713	223.62
274.945	237.62
275.176	216.62
275.408	218.62
275.64	215.62
275.872	247.62
276.104	252.62
276.335	261.62
276.567	251.62
276.799	235.62
277.031	258.62
277.262	267.62
277.494	274.62
277.726	274.62
277.957	263.62
278.189	238.62
278.421	258.62
278.652	247.62
278.884	250.62
279.115	239.62
279.347	228.62
279.579	233.62
279.81	256.62
280.042	241.62
280.273	236.62
280.505	248.62
280.736	238.62
280.968	246.62
281.199	247.62
281.431	247.62
281.662	234.62
281.894	258.62
282.125	240.62
282.356	265.62
282.588	299.62
282.819	291.62
283.051	267.62
283.282	246.62
283.513	250.62
283.745	260.62
283.976	254.62
284.207	260.62
284.439	246.62
284.67	256.62
284.901	262.62
285.132	257.62
285.364	264.62
285.595	254.62
285.826	251.62
286.057	256.62
286.288	262.62
286.52	263.62
286.751	264.62
286.982	266.62
287.213	275.62
287.444	278.62
287.675	258.62
287.906	264.62
288.138	275.62
288.369	271.62
288.6	272.62
288.831	252.62
289.062	264.62
289.293	261.62
289.524	262.62
289.755	276.62
289.986	267.62
290.217	262.62
290.448	266.62
290.679	267.62
290.91	265.62
291.141	257.62
291.371	283.62
291.602	280.62
291.833	301.62
292.064	266.62
292.295	275.62
292.526	266.62
292.757	280.62
292.987	279.62
293.218	286.62
293.449	270.62
293.68	257.62
293.91	289.62
294.141	265.62
294.372	277.62
294.603	277.62
294.833	280.62
295.064	267.62
295.295	287.62
295.525	291.62
295.756	280.62
295.987	267.62
296.217	297.62
296.448	303.62
296.679	280.62
296.909	290.62
297.14	287.62
297.37	282.62
297.601	283.62
297.831	284.62
298.062	267.62
298.292	289.62
298.523	296.62
298.753	277.62
298.984	300.62
299.214	302.62
299.445	280.62
299.675	307.62
299.905	288.62
300.136	310.62
300.366	306.62
300.597	304.62
300.827	312.62
301.057	312.62
301.288	300.62
301.518	288.62
301.748	303.62
301.979	326.62
302.209	311.62
302.439	314.62
302.669	326.62
302.9	306.62
303.13	303.62
303.36	318.62
303.59	308.62
303.82	327.62
304.051	329.62
304.281	318.62
304.511	298.62
304.741	311.62
304.971	309.62
305.201	304.62
305.431	306.62
305.661	309.62
305.891	313.62
306.121	314.62
306.352	330.62
306.582	312.62
306.812	313.62
307.042	326.62
307.272	321.62
307.502	314.62
307.731	313.62
307.961	306.62
308.191	304.62
308.421	327.62
308.651	302.62
308.881	313.62
309.111	316.62
309.341	326.62
309.571	338.62
309.8	349.62
310.03	329.62
310.26	335.62
310.49	349.62
310.72	351.62
310.949	356.62
311.179	357.62
311.409	346.62
311.639	354.62
311.868	346.62
312.098	360.62
312.328	360.62
312.557	379.62
312.787	368.62
313.017	364.62
313.246	355.62
313.476	335.62
313.706	348.62
313.935	371.62
314.165	359.62
314.394	370.62
314.624	358.62
314.853	358.62
315.083	357.62
315.312	354.62
315.542	354.62
315.771	341.62
316.001	358.62
316.23	344.62
316.46	370.62
316.689	363.62
316.919	348.62
317.148	369.62
317.377	354.62
317.607	342.62
317.836	340.62
318.065	342.62
318.295	339.62
318.524	325.62
318.753	338.62
318.983	344.62
319.212	350.62
319.441	366.62
319.67	375.62
319.9	344.62
320.129	362.62
320.358	338.62
320.587	354.62
320.816	375.62
321.046	374.62
321.275	375.62
321.504	366.62
321.733	371.62
321.962	363.62
322.191	372.62
322.42	403.62
322.649	399.62
322.878	414.62
323.108	424.62
323.337	451.62
323.566	445.62
323.795	447.62
324.024	471.62
324.253	555.62
324.482	784.62
324.71	1234.62
324.939	1799.62
325.168	1592.62
325.397	795.62
325.626	535.62
325.855	471.62
326.084	440.62
326.313	421.62
326.542	432.62
326.77	496.62
326.999	566.62
327.228	743.62
327.457	1112.62
327.686	1404.62
327.914	890.62
328.143	597.62
328.372	534.62
328.6	496.62
328.829	501.62
329.058	500.62
329.287	514.62
329.515	485.62
329.744	438.62
329.972	423.62
330.201	455.62
330.43	500.62
330.658	512.62
330.887	528.62
331.115	510.62
331.344	480.62
331.572	441.62
331.801	436.62
332.03	456.62
332.258	422.62
332.486	432.62
332.715	430.62
332.943	424.62
333.172	434.62
333.4	443.62
333.629	457.62
333.857	442.62
334.085	453.62
334.314	464.62
334.542	475.62
334.771	513.62
334.999	466.62
335.227	458.62
335.455	440.62
335.684	432.62
335.912	419.62
336.14	442.62
336.369	433.62
336.597	427.62
336.825	442.62
337.053	430.62
337.281	415.62
337.51	424.62
337.738	425.62
337.966	437.62
338.194	428.62
338.422	412.62
338.65	414.62
338.878	402.62
339.106	425.62
339.334	421.62
339.562	406.62
339.79	384.62
340.018	425.62
340.246	418.62
340.474	420.62
340.702	426.62
340.93	411.62
341.158	390.62
341.386	435.62
341.614	434.62
341.842	392.62
342.07	402.62
342.298	399.62
342.526	394.62
342.754	390.62
342.981	397.62
343.209	418.62
343.437	420.62
343.665	418.62
343.893	435.62
344.12	426.62
344.348	428.62
344.576	434.62
344.804	436.62
345.031	439.62
345.259	441.62
345.487	428.62
345.714	421.62
345.942	399.62
346.17	387.62
346.397	400.62
346.625	404.62
346.853	404.62
347.08	401.62
347.308	394.62
347.535	383.62
347.763	412.62
347.99	409.62
348.218	401.62
348.445	407.62
348.673	402.62
348.9	409.62
349.128	397.62
349.355	423.62
349.583	391.62
349.81	382.62
350.037	377.62
350.265	390.62
350.492	376.62
350.72	391.62
350.947	393.62
351.174	423.62
351.402	376.62
351.629	404.62
351.856	402.62
352.083	400.62
352.311	412.62
352.538	394.62
352.765	399.62
352.992	408.62
353.22	402.62
353.447	406.62
353.674	385.62
353.901	380.62
354.128	372.62
354.355	384.62
354.583	395.62
354.81	382.62
355.037	388.62
355.264	380.62
355.491	376.62
355.718	376.62
355.945	362.62
356.172	384.62
356.399	378.62
356.626	378.62
356.853	378.62
357.08	389.62
357.307	380.62
357.534	375.62
357.761	390.62
357.988	379.62
358.215	379.62
358.441	364.62
358.668	378.62
358.895	374.62
359.122	375.62
359.349	378.62
359.576	389.62
359.802	424.62
360.029	445.62
360.256	439.62
360.483	414.62
360.709	400.62
360.936	403.62
361.163	402.62
361.39	405.62
361.616	405.62
361.843	381.62
362.07	407.62
362.296	406.62
362.523	391.62
362.749	403.62
362.976	414.62
363.203	399.62
363.429	388.62
363.656	378.62
363.882	389.62
364.109	404.62
364.335	414.62
364.562	399.62
364.788	390.62
365.015	407.62
365.241	389.62
365.468	386.62
365.694	368.62
365.92	384.62
366.147	403.62
366.373	400.62
366.599	384.62
366.826	394.62
367.052	391.62
367.278	399.62
367.505	393.62
367.731	400.62
367.957	386.62
368.184	393.62
368.41	390.62
368.636	376.62
368.862	409.62
369.089	388.62
369.315	392.62
369.541	397.62
369.767	396.62
369.993	389.62
370.219	402.62
370.445	404.62
370.672	397.62
370.898	410.62
371.124	396.62
371.35	402.62
371.576	388.62
371.802	394.62
372.028	407.62
372.254	422.62
372.48	403.62
372.706	396.62
372.932	409.62
373.158	402.62
373.384	397.62
373.61	400.62
373.835	414.62
374.061	414.62
374.287	420.62
374.513	409.62
374.739	397.62
374.965	412.62
375.191	420.62
375.416	427.62
375.642	419.62
375.868	418.62
376.094	401.62
376.319	400.62
376.545	390.62
376.771	403.62
376.997	398.62
377.222	406.62
377.448	400.62
377.674	420.62
377.899	387.62
378.125	408.62
378.35	403.62
378.576	400.62
378.802	407.62
379.027	393.62
379.253	382.62
379.478	412.62
379.704	414.62
379.929	412.62
380.155	404.62
380.38	418.62
380.606	410.62
380.831	408.62
381.057	406.62
381.282	410.62
381.507	411.62
381.733	415.62
381.958	418.62
382.184	431.62
382.409	424.62
382.634	423.62
382.86	416.62
383.085	425.62
383.31	425.62
383.535	406.62
383.761	439.62
383.986	433.62
384.211	432.62
384.436	420.62
384.662	432.62
384.887	432.62
385.112	435.62
385.337	432.62
385.562	448.62
385.787	446.62
386.013	451.62
386.238	453.62
386.463	448.62
386.688	450.62
386.913	461.62
387.138	456.62
387.363	466.62
387.588	436.62
387.813	446.62
388.038	444.62
388.263	473.62
388.488	460.62
388.713	455.62
388.938	458.62
389.163	437.62
389.387	441.62
389.612	440.62
389.837	453.62
390.062	440.62
390.287	465.62
390.512	461.62
390.736	460.62
390.961	468.62
391.186	459.62
391.411	459.62
391.636	453.62
391.86	485.62
392.085	463.62
392.31	467.62
392.534	467.62
392.759	471.62
392.984	479.62
393.208	475.62
393.433	479.62
393.658	482.62
393.882	459.62
394.107	458.62
394.331	458.62
394.556	479.62
394.78	474.62
395.005	460.62
395.229	470.62
395.454	485.62
395.678	483.62
395.903	481.62
396.127	506.62
396.352	505.62
396.576	469.62
396.801	470.62
397.025	492.62
397.249	507.62
397.474	484.62
397.698	487.62
397.922	527.62
398.147	516.62
398.371	530.62
398.595	510.62
398.82	520.62
399.044	564.62
399.268	558.62
399.492	583.62
399.717	639.62
399.941	661.62
400.165	661.62
400.389	672.62
400.613	601.62
400.837	579.62
401.062	580.62
401.286	556.62
401.51	541.62
401.734	542.62
401.958	563.62
402.182	544.62
402.406	559.62
402.63	561.62
402.854	528.62
403.078	567.62
403.302	562.62
403.526	549.62
403.75	560.62
403.974	559.62
404.198	576.62
404.422	544.62
404.645	572.62
404.869	587.62
405.093	594.62
405.317	646.62
405.541	670.62
405.765	612.62
405.988	587.62
406.212	608.62
406.436	615.62
406.66	624.62
406.883	606.62
407.107	617.62
407.331	658.62
407.555	724.62
407.778	746.62
408.002	662.62
408.226	618.62
408.449	630.62
408.673	634.62
408.896	617.62
409.12	668.62
409.344	630.62
409.567	581.62
409.791	584.62
410.014	573.62
410.238	550.62
410.461	585.62
410.685	611.62
410.908	589.62
411.132	622.62
411.355	629.62
411.578	599.62
411.802	562.62
412.025	583.62
412.249	558.62
412.472	592.62
412.695	613.62
412.919	601.62
413.142	576.62
413.365	568.62
413.589	554.62
413.812	534.62
414.035	547.62
414.258	542.62
414.482	540.62
414.705	534.62
414.928	564.62
415.151	533.62
415.374	535.62
415.597	554.62
415.821	519.62
416.044	547.62
416.267	560.62
416.49	526.62
416.713	537.62
416.936	534.62
417.159	542.62
417.382	524.62
417.605	530.62
417.828	548.62
418.051	546.62
418.274	539.62
418.497	533.62
418.72	528.62
418.943	527.62
419.166	572.62
419.389	585.62
419.611	576.62
419.834	569.62
420.057	577.62
420.28	567.62
420.503	551.62
420.726	549.62
420.948	571.62
421.171	604.62
421.394	610.62
421.617	564.62
421.839	563.62
422.062	553.62
422.285	558.62
422.507	594.62
422.73	673.62
422.953	675.62
423.175	586.62
423.398	571.62
423.621	576.62
423.843	587.62
424.066	581.62
424.288	628.62
424.511	590.62
424.733	641.62
424.956	718.62
425.178	660.62
425.401	665.62
425.623	681.62
425.846	601.62
426.068	615.62
426.291	591.62
426.513	569.62
426.735	560.62
426.958	597.62
427.18	684.62
427.402	798.62
427.625	895.62
427.847	787.62
428.069	669.62
428.292	609.62
428.514	569.62
428.736	565.62
428.958	547.62
429.181	522.62
429.403	548.62
429.625	539.62
429.847	560.62
430.069	633.62
430.292	633.62
430.514	548.62
430.736	550.62
430.958	521.62
431.18	515.62
431.402	530.62
431.624	521.62
431.846	500.62
432.068	498.62
432.29	518.62
432.512	522.62
432.734	515.62
432.956	524.62
433.178	543.62
433.4	518.62
433.622	524.62
433.844	517.62
434.066	539.62
434.287	510.62
434.509	524.62
434.731	530.62
434.953	519.62
435.175	552.62
435.397	585.62
435.618	555.62
435.84	608.62
436.062	710.62
436.284	752.62
436.505	643.62
436.727	587.62
436.949	549.62
437.17	544.62
437.392	549.62
437.614	545.62
437.835	566.62
438.057	653.62
438.278	721.62
438.5	727.62
438.721	805.62
438.943	762.62
439.165	637.62
439.386	567.62
439.608	576.62
439.829	567.62
440.05	594.62
440.272	631.62
440.493	594.62
440.715	566.62
440.936	555.62
441.158	577.62
441.379	575.62
441.6	570.62
441.822	573.62
442.043	616.62
442.264	687.62
442.486	716.62
442.707	615.62
442.928	582.62
443.149	588.62
443.371	622.62
443.592	644.62
443.813	735.62
444.034	778.62
444.255	685.62
444.476	612.62
444.698	593.62
444.919	596.62
445.14	718.62
445.361	682.62
445.582	639.62
445.803	688.62
446.024	764.62
446.245	755.62
446.466	676.62
446.687	588.62
446.908	575.62
447.129	546.62
447.35	521.62
447.571	530.62
447.792	504.62
448.013	527.62
448.234	539.62
448.455	598.62
448.675	688.62
448.896	802.62
449.117	669.62
449.338	642.62
449.559	732.62
449.779	843.62
450	675.62
450.221	578.62
450.442	550.62
450.662	498.62
450.883	529.62
451.104	529.62
451.324	508.62
451.545	500.62
451.766	495.62
451.986	478.62
452.207	480.62
452.428	467.62
452.648	468.62
452.869	461.62
453.089	473.62
453.31	466.62
453.53	506.62
453.751	474.62
453.971	475.62
454.192	514.62
454.412	495.62
454.633	476.62
454.853	480.62
455.073	498.62
455.294	498.62
455.514	546.62
455.734	546.62
455.955	471.62
456.175	470.62
456.395	450.62
456.616	447.62
456.836	483.62
457.056	459.62
457.276	443.62
457.497	470.62
457.717	460.62
457.937	471.62
458.157	474.62
458.377	471.62
458.598	508.62
458.818	534.62
459.038	564.62
459.258	628.62
459.478	556.62
459.698	507.62
459.918	521.62
460.138	528.62
460.358	531.62
460.578	539.62
460.798	542.62
461.018	558.62
461.238	550.62
461.458	558.62
461.678	533.62
461.898	562.62
462.118	530.62
462.338	548.62
462.558	570.62
462.777	552.62
462.997	594.62
463.217	611.62
463.437	613.62
463.657	593.62
463.876	598.62
464.096	602.62
464.316	587.62
464.536	609.62
464.755	594.62
464.975	600.62
465.195	606.62
465.414	644.62
465.634	594.62
465.854	572.62
466.073	530.62
466.293	521.62
466.512	525.62
466.732	492.62
466.951	495.62
467.171	491.62
467.391	517.62
467.61	534.62
467.829	506.62
468.049	539.62
468.268	510.62
468.488	505.62
468.707	503.62
468.927	481.62
469.146	498.62
469.365	518.62
469.585	495.62
469.804	512.62
470.023	527.62
470.243	529.62
470.462	527.62
470.681	517.62
470.901	535.62
471.12	511.62
471.339	495.62
471.558	482.62
471.777	519.62
471.997	518.62
472.216	495.62
472.435	538.62
472.654	519.62
472.873	496.62
473.092	506.62
473.311	491.62
473.53	532.62
473.749	516.62
473.968	544.62
474.187	616.62
474.406	645.62
474.625	564.62
474.844	522.62
475.063	524.62
475.282	496.62
475.501	515.62
475.72	522.62
475.939	511.62
476.158	524.62
476.377	512.62
476.596	524.62
476.814	538.62
477.033	552.62
477.252	527.62
477.471	545.62
477.69	561.62
477.908	550.62
478.127	556.62
478.346	581.62
478.564	564.62
478.783	562.62
479.002	571.62
479.22	583.62
479.439	603.62
479.658	620.62
479.876	625.62
480.095	635.62
480.313	651.62
480.532	653.62
480.751	628.62
480.969	633.62
481.188	667.62
481.406	707.62
481.624	640.62
481.843	603.62
482.061	595.62
482.28	608.62
482.498	578.62
482.717	602.62
482.935	626.62
483.153	595.62
483.372	588.62
483.59	579.62
483.808	601.62
484.027	583.62
484.245	587.62
484.463	607.62
484.681	598.62
484.9	616.62
485.118	600.62
485.336	592.62
485.554	597.62
485.772	618.62
485.99	618.62
486.209	626.62
486.427	646.62
486.645	646.62
486.863	660.62
487.081	656.62
487.299	618.62
487.517	617.62
487.735	613.62
487.953	627.62
488.171	645.62
488.389	639.62
488.607	633.62
488.825	652.62
489.043	613.62
489.261	642.62
489.479	628.62
489.696	646.62
489.914	644.62
490.132	655.62
490.35	651.62
490.568	658.62
490.786	666.62
491.003	665.62
491.221	670.62
491.439	690.62
491.657	694.62
491.874	695.62
492.092	711.62
492.31	707.62
492.527	742.62
492.745	731.62
492.963	703.62
493.18	729.62
493.398	711.62
493.615	722.62
493.833	741.62
494.05	743.62
494.268	728.62
494.485	715.62
494.703	740.62
494.92	734.62
495.138	750.62
495.355	741.62
495.573	727.62
495.79	743.62
496.008	731.62
496.225	729.62
496.442	731.62
496.66	752.62
496.877	712.62
497.094	750.62
497.312	767.62
497.529	786.62
497.746	801.62
497.963	798.62
498.181	828.62
498.398	835.62
498.615	856.62
498.832	872.62
499.049	904.62
499.267	920.62
499.484	981.62
499.701	1022.62
499.918	1037.62
500.135	1123.62
500.352	1172.62
500.569	1148.62
500.786	1193.62
501.003	1177.62
501.22	1122.62
501.437	1070.62
501.654	1053.62
501.871	1026.62
