Data from 1979.PennyLincolnUp.Lamp.En5.5.200Scan.071719.P1_HRD10591_16-17-40-862.txt Node
Date: Thu Jul 18 16:17:40 EDT 2019
User: cochatt
Spectrometer: HR+D1059
Trigger mode: 1
Integration Time (sec): 1.000000E-1
Scans to average: 1
Electric dark correction enabled: true
Nonlinearity correction enabled: false
Boxcar width: 0
XAxis mode: Wavelengths
Number of Pixels in Spectrum: 2048
>>>>>Begin Spectral Data<<<<<
223.165	-14.44
223.4	-14.44
223.635	-14.44
223.869	-19.44
224.104	-16.44
224.338	-12.44
224.573	-19.44
224.808	-20.44
225.042	-0.44
225.277	-1.44
225.511	2.56
225.746	14.56
225.98	4.56
226.215	14.56
226.449	9.56
226.683	5.56
226.918	22.56
227.152	30.56
227.387	35.56
227.621	43.56
227.856	38.56
228.09	50.56
228.324	48.56
228.559	50.56
228.793	61.56
229.027	78.56
229.262	99.56
229.496	93.56
229.73	109.56
229.964	141.56
230.199	113.56
230.433	101.56
230.667	106.56
230.901	115.56
231.136	101.56
231.37	109.56
231.604	103.56
231.838	98.56
232.072	108.56
232.306	99.56
232.541	94.56
232.775	102.56
233.009	109.56
233.243	119.56
233.477	118.56
233.711	109.56
233.945	118.56
234.179	108.56
234.413	113.56
234.647	113.56
234.881	111.56
235.115	111.56
235.349	123.56
235.583	114.56
235.817	130.56
236.051	117.56
236.285	105.56
236.519	112.56
236.753	116.56
236.987	144.56
237.221	154.56
237.455	170.56
237.689	163.56
237.922	126.56
238.156	114.56
238.39	108.56
238.624	103.56
238.858	103.56
239.091	109.56
239.325	123.56
239.559	107.56
239.793	106.56
240.027	122.56
240.26	125.56
240.494	132.56
240.728	136.56
240.961	139.56
241.195	129.56
241.429	130.56
241.662	136.56
241.896	126.56
242.13	116.56
242.363	119.56
242.597	113.56
242.83	126.56
243.064	131.56
243.298	123.56
243.531	120.56
243.765	111.56
243.998	122.56
244.232	117.56
244.465	119.56
244.699	135.56
244.932	139.56
245.166	129.56
245.399	145.56
245.633	125.56
245.866	145.56
246.099	137.56
246.333	129.56
246.566	128.56
246.8	134.56
247.033	149.56
247.266	145.56
247.5	143.56
247.733	147.56
247.966	150.56
248.2	174.56
248.433	159.56
248.666	142.56
248.899	170.56
249.133	157.56
249.366	180.56
249.599	170.56
249.832	143.56
250.066	157.56
250.299	153.56
250.532	158.56
250.765	166.56
250.998	171.56
251.231	180.56
251.465	180.56
251.698	170.56
251.931	171.56
252.164	170.56
252.397	176.56
252.63	174.56
252.863	168.56
253.096	173.56
253.329	186.56
253.562	190.56
253.795	180.56
254.028	170.56
254.261	184.56
254.494	195.56
254.727	208.56
254.96	227.56
255.193	226.56
255.426	208.56
255.659	176.56
255.892	187.56
256.124	201.56
256.357	188.56
256.59	203.56
256.823	195.56
257.056	178.56
257.289	190.56
257.521	178.56
257.754	171.56
257.987	183.56
258.22	176.56
258.452	173.56
258.685	175.56
258.918	185.56
259.151	169.56
259.383	187.56
259.616	171.56
259.849	188.56
260.081	197.56
260.314	205.56
260.547	203.56
260.779	197.56
261.012	193.56
261.244	202.56
261.477	199.56
261.71	187.56
261.942	187.56
262.175	185.56
262.407	185.56
262.64	181.56
262.872	186.56
263.105	182.56
263.337	179.56
263.57	184.56
263.802	185.56
264.035	169.56
264.267	190.56
264.499	190.56
264.732	180.56
264.964	169.56
265.197	175.56
265.429	192.56
265.661	168.56
265.894	178.56
266.126	201.56
266.358	198.56
266.591	203.56
266.823	183.56
267.055	201.56
267.287	196.56
267.52	193.56
267.752	183.56
267.984	185.56
268.216	195.56
268.448	189.56
268.681	211.56
268.913	197.56
269.145	219.56
269.377	235.56
269.609	216.56
269.841	215.56
270.073	234.56
270.306	225.56
270.538	230.56
270.77	233.56
271.002	229.56
271.234	241.56
271.466	215.56
271.698	243.56
271.93	244.56
272.162	233.56
272.394	241.56
272.626	238.56
272.858	231.56
273.09	226.56
273.322	217.56
273.553	215.56
273.785	202.56
274.017	236.56
274.249	222.56
274.481	212.56
274.713	212.56
274.945	227.56
275.176	231.56
275.408	235.56
275.64	226.56
275.872	223.56
276.104	228.56
276.335	232.56
276.567	239.56
276.799	230.56
277.031	234.56
277.262	257.56
277.494	270.56
277.726	241.56
277.957	232.56
278.189	205.56
278.421	214.56
278.652	234.56
278.884	235.56
279.115	231.56
279.347	223.56
279.579	219.56
279.81	246.56
280.042	236.56
280.273	222.56
280.505	210.56
280.736	227.56
280.968	245.56
281.199	212.56
281.431	231.56
281.662	246.56
281.894	231.56
282.125	237.56
282.356	243.56
282.588	267.56
282.819	263.56
283.051	247.56
283.282	233.56
283.513	232.56
283.745	226.56
283.976	229.56
284.207	232.56
284.439	241.56
284.67	241.56
284.901	247.56
285.132	237.56
285.364	223.56
285.595	246.56
285.826	228.56
286.057	245.56
286.288	238.56
286.52	234.56
286.751	235.56
286.982	245.56
287.213	251.56
287.444	245.56
287.675	247.56
287.906	271.56
288.138	246.56
288.369	236.56
288.6	269.56
288.831	258.56
289.062	236.56
289.293	260.56
289.524	258.56
289.755	270.56
289.986	265.56
290.217	221.56
290.448	235.56
290.679	226.56
290.91	254.56
291.141	261.56
291.371	252.56
291.602	234.56
291.833	245.56
292.064	260.56
292.295	258.56
292.526	254.56
292.757	254.56
292.987	239.56
293.218	235.56
293.449	258.56
293.68	252.56
293.91	249.56
294.141	272.56
294.372	258.56
294.603	260.56
294.833	250.56
295.064	265.56
295.295	253.56
295.525	274.56
295.756	257.56
295.987	268.56
296.217	269.56
296.448	266.56
296.679	265.56
296.909	267.56
297.14	270.56
297.37	267.56
297.601	265.56
297.831	252.56
298.062	262.56
298.292	250.56
298.523	269.56
298.753	290.56
298.984	241.56
299.214	272.56
299.445	265.56
299.675	266.56
299.905	269.56
300.136	272.56
300.366	284.56
300.597	269.56
300.827	274.56
301.057	267.56
301.288	297.56
301.518	297.56
301.748	292.56
301.979	289.56
302.209	285.56
302.439	296.56
302.669	275.56
302.9	295.56
303.13	267.56
303.36	288.56
303.59	290.56
303.82	277.56
304.051	279.56
304.281	288.56
304.511	294.56
304.741	284.56
304.971	292.56
305.201	289.56
305.431	280.56
305.661	285.56
305.891	281.56
306.121	283.56
306.352	278.56
306.582	298.56
306.812	285.56
307.042	292.56
307.272	283.56
307.502	290.56
307.731	291.56
307.961	284.56
308.191	282.56
308.421	271.56
308.651	287.56
308.881	296.56
309.111	295.56
309.341	301.56
309.571	278.56
309.8	313.56
310.03	300.56
310.26	303.56
310.49	306.56
310.72	317.56
310.949	329.56
311.179	329.56
311.409	319.56
311.639	289.56
311.868	320.56
312.098	305.56
312.328	301.56
312.557	338.56
312.787	329.56
313.017	319.56
313.246	324.56
313.476	315.56
313.706	317.56
313.935	311.56
314.165	321.56
314.394	316.56
314.624	339.56
314.853	339.56
315.083	307.56
315.312	319.56
315.542	314.56
315.771	304.56
316.001	335.56
316.23	308.56
316.46	318.56
316.689	330.56
316.919	341.56
317.148	305.56
317.377	325.56
317.607	321.56
317.836	322.56
318.065	324.56
318.295	324.56
318.524	312.56
318.753	309.56
318.983	316.56
319.212	315.56
319.441	310.56
319.67	328.56
319.9	309.56
320.129	323.56
320.358	327.56
320.587	337.56
320.816	334.56
321.046	334.56
321.275	322.56
321.504	333.56
321.733	337.56
321.962	329.56
322.191	343.56
322.42	356.56
322.649	351.56
322.878	364.56
323.108	365.56
323.337	355.56
323.566	383.56
323.795	382.56
324.024	411.56
324.253	473.56
324.482	664.56
324.71	1003.56
324.939	1469.56
325.168	1261.56
325.397	628.56
325.626	463.56
325.855	407.56
326.084	383.56
326.313	378.56
326.542	393.56
326.77	419.56
326.999	488.56
327.228	612.56
327.457	910.56
327.686	1150.56
327.914	726.56
328.143	516.56
328.372	463.56
328.6	437.56
328.829	416.56
329.058	439.56
329.287	443.56
329.515	412.56
329.744	403.56
329.972	387.56
330.201	403.56
330.43	408.56
330.658	415.56
330.887	455.56
331.115	457.56
331.344	410.56
331.572	393.56
331.801	397.56
332.03	407.56
332.258	400.56
332.486	389.56
332.715	377.56
332.943	405.56
333.172	380.56
333.4	402.56
333.629	384.56
333.857	420.56
334.085	403.56
334.314	417.56
334.542	427.56
334.771	454.56
334.999	421.56
335.227	407.56
335.455	421.56
335.684	398.56
335.912	383.56
336.14	390.56
336.369	411.56
336.597	397.56
336.825	389.56
337.053	374.56
337.281	376.56
337.51	377.56
337.738	386.56
337.966	389.56
338.194	372.56
338.422	400.56
338.65	366.56
338.878	363.56
339.106	381.56
339.334	367.56
339.562	378.56
339.79	349.56
340.018	376.56
340.246	371.56
340.474	386.56
340.702	372.56
340.93	359.56
341.158	364.56
341.386	365.56
341.614	384.56
341.842	367.56
342.07	356.56
342.298	367.56
342.526	353.56
342.754	354.56
342.981	350.56
343.209	353.56
343.437	372.56
343.665	387.56
343.893	381.56
344.12	390.56
344.348	391.56
344.576	400.56
344.804	400.56
345.031	372.56
345.259	387.56
345.487	388.56
345.714	388.56
345.942	354.56
346.17	371.56
346.397	365.56
346.625	360.56
346.853	362.56
347.08	359.56
347.308	364.56
347.535	365.56
347.763	373.56
347.99	363.56
348.218	352.56
348.445	358.56
348.673	359.56
348.9	359.56
349.128	359.56
349.355	364.56
349.583	347.56
349.81	370.56
350.037	360.56
350.265	355.56
350.492	321.56
350.72	345.56
350.947	361.56
351.174	362.56
351.402	378.56
351.629	356.56
351.856	371.56
352.083	358.56
352.311	361.56
352.538	369.56
352.765	373.56
352.992	341.56
353.22	366.56
353.447	355.56
353.674	325.56
353.901	348.56
354.128	346.56
354.355	338.56
354.583	330.56
354.81	353.56
355.037	340.56
355.264	357.56
355.491	355.56
355.718	341.56
355.945	341.56
356.172	339.56
356.399	353.56
356.626	359.56
356.853	334.56
357.08	346.56
357.307	353.56
357.534	351.56
357.761	347.56
357.988	364.56
358.215	365.56
358.441	370.56
358.668	355.56
358.895	335.56
359.122	353.56
359.349	357.56
359.576	365.56
359.802	370.56
360.029	411.56
360.256	393.56
360.483	375.56
360.709	358.56
360.936	371.56
361.163	371.56
361.39	380.56
361.616	367.56
361.843	366.56
362.07	370.56
362.296	371.56
362.523	361.56
362.749	360.56
362.976	369.56
363.203	342.56
363.429	334.56
363.656	381.56
363.882	350.56
364.109	367.56
364.335	370.56
364.562	342.56
364.788	349.56
365.015	334.56
365.241	364.56
365.468	364.56
365.694	369.56
365.92	350.56
366.147	350.56
366.373	352.56
366.599	345.56
366.826	338.56
367.052	361.56
367.278	340.56
367.505	350.56
367.731	365.56
367.957	375.56
368.184	360.56
368.41	365.56
368.636	362.56
368.862	373.56
369.089	381.56
369.315	359.56
369.541	377.56
369.767	369.56
369.993	370.56
370.219	379.56
370.445	376.56
370.672	370.56
370.898	346.56
371.124	372.56
371.35	370.56
371.576	358.56
371.802	369.56
372.028	359.56
372.254	358.56
372.48	359.56
372.706	391.56
372.932	377.56
373.158	373.56
373.384	359.56
373.61	372.56
373.835	394.56
374.061	363.56
374.287	385.56
374.513	385.56
374.739	374.56
374.965	376.56
375.191	369.56
375.416	412.56
375.642	360.56
375.868	393.56
376.094	363.56
376.319	380.56
376.545	366.56
376.771	373.56
376.997	385.56
377.222	379.56
377.448	367.56
377.674	367.56
377.899	365.56
378.125	376.56
378.35	342.56
378.576	365.56
378.802	381.56
379.027	370.56
379.253	361.56
379.478	366.56
379.704	366.56
379.929	376.56
380.155	371.56
380.38	368.56
380.606	368.56
380.831	354.56
381.057	385.56
381.282	377.56
381.507	381.56
381.733	370.56
381.958	377.56
382.184	402.56
382.409	393.56
382.634	392.56
382.86	396.56
383.085	383.56
383.31	392.56
383.535	411.56
383.761	379.56
383.986	395.56
384.211	407.56
384.436	405.56
384.662	385.56
384.887	404.56
385.112	407.56
385.337	422.56
385.562	436.56
385.787	424.56
386.013	439.56
386.238	419.56
386.463	403.56
386.688	434.56
386.913	407.56
387.138	410.56
387.363	437.56
387.588	435.56
387.813	422.56
388.038	427.56
388.263	418.56
388.488	414.56
388.713	411.56
388.938	410.56
389.163	412.56
389.387	421.56
389.612	391.56
389.837	414.56
390.062	423.56
390.287	439.56
390.512	406.56
390.736	422.56
390.961	425.56
391.186	419.56
391.411	437.56
391.636	421.56
391.86	435.56
392.085	435.56
392.31	433.56
392.534	452.56
392.759	447.56
392.984	445.56
393.208	451.56
393.433	461.56
393.658	430.56
393.882	456.56
394.107	447.56
394.331	450.56
394.556	429.56
394.78	420.56
395.005	445.56
395.229	431.56
395.454	446.56
395.678	463.56
395.903	451.56
396.127	453.56
396.352	476.56
396.576	445.56
396.801	460.56
397.025	473.56
397.249	457.56
397.474	468.56
397.698	451.56
397.922	473.56
398.147	459.56
398.371	494.56
398.595	494.56
398.82	482.56
399.044	487.56
399.268	515.56
399.492	556.56
399.717	582.56
399.941	619.56
400.165	602.56
400.389	611.56
400.613	571.56
400.837	527.56
401.062	480.56
401.286	519.56
401.51	486.56
401.734	488.56
401.958	487.56
402.182	503.56
402.406	495.56
402.63	525.56
402.854	505.56
403.078	513.56
403.302	523.56
403.526	522.56
403.75	517.56
403.974	534.56
404.198	516.56
404.422	538.56
404.645	534.56
404.869	521.56
405.093	548.56
405.317	600.56
405.541	597.56
405.765	572.56
405.988	542.56
406.212	545.56
406.436	559.56
406.66	549.56
406.883	546.56
407.107	582.56
407.331	588.56
407.555	666.56
407.778	655.56
408.002	605.56
408.226	600.56
408.449	553.56
408.673	567.56
408.896	579.56
409.12	611.56
409.344	604.56
409.567	538.56
409.791	532.56
410.014	531.56
410.238	539.56
410.461	527.56
410.685	537.56
410.908	524.56
411.132	543.56
411.355	603.56
411.578	564.56
411.802	515.56
412.025	522.56
412.249	550.56
412.472	551.56
412.695	571.56
412.919	562.56
413.142	528.56
413.365	511.56
413.589	499.56
413.812	485.56
414.035	488.56
414.258	522.56
414.482	513.56
414.705	509.56
414.928	478.56
415.151	475.56
415.374	517.56
415.597	497.56
415.821	492.56
416.044	470.56
416.267	497.56
416.49	480.56
416.713	507.56
416.936	467.56
417.159	483.56
417.382	500.56
417.605	488.56
417.828	502.56
418.051	513.56
418.274	505.56
418.497	478.56
418.72	489.56
418.943	506.56
419.166	512.56
419.389	537.56
419.611	522.56
419.834	521.56
420.057	545.56
420.28	511.56
420.503	490.56
420.726	478.56
420.948	534.56
421.171	545.56
421.394	573.56
421.617	557.56
421.839	522.56
422.062	523.56
422.285	499.56
422.507	570.56
422.73	611.56
422.953	595.56
423.175	523.56
423.398	523.56
423.621	533.56
423.843	545.56
424.066	538.56
424.288	523.56
424.511	547.56
424.733	585.56
424.956	679.56
425.178	598.56
425.401	628.56
425.623	645.56
425.846	545.56
426.068	541.56
426.291	517.56
426.513	543.56
426.735	554.56
426.958	552.56
427.18	628.56
427.402	717.56
427.625	763.56
427.847	663.56
428.069	611.56
428.292	535.56
428.514	529.56
428.736	497.56
428.958	488.56
429.181	465.56
429.403	473.56
429.625	497.56
429.847	511.56
430.069	549.56
430.292	578.56
430.514	511.56
430.736	474.56
430.958	489.56
431.18	471.56
431.402	483.56
431.624	449.56
431.846	471.56
432.068	439.56
432.29	488.56
432.512	473.56
432.734	474.56
432.956	487.56
433.178	493.56
433.4	491.56
433.622	483.56
433.844	473.56
434.066	461.56
434.287	482.56
434.509	503.56
434.731	487.56
434.953	504.56
435.175	504.56
435.397	536.56
435.618	536.56
435.84	556.56
436.062	628.56
436.284	658.56
436.505	581.56
436.727	509.56
436.949	514.56
437.17	510.56
437.392	511.56
437.614	507.56
437.835	520.56
438.057	587.56
438.278	660.56
438.5	653.56
438.721	715.56
438.943	695.56
439.165	565.56
439.386	524.56
439.608	538.56
439.829	517.56
440.05	531.56
440.272	553.56
440.493	528.56
440.715	533.56
440.936	522.56
441.158	504.56
441.379	493.56
441.6	527.56
441.822	530.56
442.043	580.56
442.264	627.56
442.486	659.56
442.707	580.56
442.928	561.56
443.149	563.56
443.371	554.56
443.592	589.56
443.813	670.56
444.034	714.56
444.255	595.56
444.476	535.56
444.698	538.56
444.919	561.56
445.14	652.56
445.361	592.56
445.582	579.56
445.803	617.56
446.024	671.56
446.245	678.56
446.466	627.56
446.687	569.56
446.908	513.56
447.129	517.56
447.35	486.56
447.571	484.56
447.792	486.56
448.013	476.56
448.234	501.56
448.455	537.56
448.675	626.56
448.896	710.56
449.117	589.56
449.338	574.56
449.559	650.56
449.779	757.56
450	639.56
450.221	522.56
450.442	485.56
450.662	459.56
450.883	462.56
451.104	475.56
451.324	483.56
451.545	482.56
451.766	460.56
451.986	439.56
452.207	451.56
452.428	453.56
452.648	433.56
452.869	437.56
453.089	444.56
453.31	435.56
453.53	433.56
453.751	430.56
453.971	445.56
454.192	441.56
454.412	463.56
454.633	442.56
454.853	439.56
455.073	436.56
455.294	445.56
455.514	500.56
455.734	480.56
455.955	419.56
456.175	435.56
456.395	428.56
456.616	429.56
456.836	423.56
457.056	412.56
457.276	429.56
457.497	418.56
457.717	443.56
457.937	440.56
458.157	441.56
458.377	445.56
458.598	455.56
458.818	471.56
459.038	548.56
459.258	526.56
459.478	493.56
459.698	490.56
459.918	484.56
460.138	497.56
460.358	496.56
460.578	518.56
460.798	513.56
461.018	517.56
461.238	477.56
461.458	492.56
461.678	506.56
461.898	509.56
462.118	514.56
462.338	509.56
462.558	534.56
462.777	537.56
462.997	539.56
463.217	561.56
463.437	554.56
463.657	558.56
463.876	539.56
464.096	542.56
464.316	545.56
464.536	545.56
464.755	558.56
464.975	523.56
465.195	549.56
465.414	605.56
465.634	534.56
465.854	513.56
466.073	488.56
466.293	467.56
466.512	488.56
466.732	477.56
466.951	466.56
467.171	474.56
467.391	453.56
467.61	469.56
467.829	473.56
468.049	454.56
468.268	460.56
468.488	453.56
468.707	425.56
468.927	435.56
469.146	448.56
469.365	474.56
469.585	459.56
469.804	465.56
470.023	477.56
470.243	453.56
470.462	449.56
470.681	472.56
470.901	467.56
471.12	487.56
471.339	459.56
471.558	473.56
471.777	453.56
471.997	454.56
472.216	476.56
472.435	502.56
472.654	475.56
472.873	448.56
473.092	469.56
473.311	463.56
473.53	440.56
473.749	463.56
473.968	514.56
474.187	576.56
474.406	579.56
474.625	495.56
474.844	467.56
475.063	461.56
475.282	459.56
475.501	479.56
475.72	467.56
475.939	498.56
476.158	489.56
476.377	471.56
476.596	479.56
476.814	475.56
477.033	474.56
477.252	482.56
477.471	496.56
477.69	515.56
477.908	516.56
478.127	523.56
478.346	495.56
478.564	532.56
478.783	541.56
479.002	536.56
479.22	546.56
479.439	562.56
479.658	546.56
479.876	570.56
480.095	562.56
480.313	572.56
480.532	576.56
480.751	593.56
480.969	587.56
481.188	608.56
481.406	629.56
481.624	562.56
481.843	561.56
482.061	552.56
482.28	541.56
482.498	556.56
482.717	540.56
482.935	549.56
483.153	525.56
483.372	548.56
483.59	551.56
483.808	561.56
484.027	557.56
484.245	550.56
484.463	563.56
484.681	548.56
484.9	539.56
485.118	564.56
485.336	572.56
485.554	571.56
485.772	564.56
485.99	558.56
486.209	575.56
486.427	586.56
486.645	590.56
486.863	559.56
487.081	569.56
487.299	583.56
487.517	575.56
487.735	578.56
487.953	598.56
488.171	586.56
488.389	588.56
488.607	573.56
488.825	585.56
489.043	569.56
489.261	583.56
489.479	570.56
489.696	599.56
489.914	598.56
490.132	611.56
490.35	605.56
490.568	611.56
490.786	585.56
491.003	635.56
491.221	649.56
491.439	628.56
491.657	634.56
491.874	638.56
492.092	641.56
492.31	653.56
492.527	654.56
492.745	640.56
492.963	654.56
493.18	652.56
493.398	667.56
493.615	669.56
493.833	683.56
494.05	654.56
494.268	656.56
494.485	639.56
494.703	670.56
494.92	670.56
495.138	656.56
495.355	667.56
495.573	696.56
495.79	671.56
496.008	710.56
496.225	680.56
496.442	683.56
496.66	686.56
496.877	702.56
497.094	713.56
497.312	681.56
497.529	693.56
497.746	715.56
497.963	737.56
498.181	745.56
498.398	756.56
498.615	787.56
498.832	820.56
499.049	837.56
499.267	834.56
499.484	883.56
499.701	921.56
499.918	965.56
500.135	1021.56
500.352	1077.56
500.569	1069.56
500.786	1098.56
501.003	1078.56
501.22	1043.56
501.437	988.56
501.654	967.56
501.871	936.56
