Data from 1979.PennyLincolnUp.Lamp.En5.5.200Scan.071719.P1_HRD10591_16-20-27-866.txt Node
Date: Thu Jul 18 16:20:27 EDT 2019
User: cochatt
Spectrometer: HR+D1059
Trigger mode: 1
Integration Time (sec): 1.000000E-1
Scans to average: 1
Electric dark correction enabled: true
Nonlinearity correction enabled: false
Boxcar width: 0
XAxis mode: Wavelengths
Number of Pixels in Spectrum: 2048
>>>>>Begin Spectral Data<<<<<
223.165	-8.75
223.4	-8.75
223.635	-8.75
223.869	-10.75
224.104	-20.75
224.338	-1.75
224.573	-37.75
224.808	-26.75
225.042	-9.75
225.277	-15.75
225.511	17.25
225.746	9.25
225.98	4.25
226.215	19.25
226.449	3.25
226.683	23.25
226.918	21.25
227.152	34.25
227.387	45.25
227.621	44.25
227.856	53.25
228.09	64.25
228.324	55.25
228.559	70.25
228.793	77.25
229.027	94.25
229.262	97.25
229.496	121.25
229.73	131.25
229.964	166.25
230.199	142.25
230.433	124.25
230.667	104.25
230.901	109.25
231.136	125.25
231.37	114.25
231.604	112.25
231.838	99.25
232.072	121.25
232.306	114.25
232.541	119.25
232.775	121.25
233.009	131.25
233.243	123.25
233.477	120.25
233.711	123.25
233.945	106.25
234.179	119.25
234.413	119.25
234.647	114.25
234.881	141.25
235.115	125.25
235.349	131.25
235.583	130.25
235.817	125.25
236.051	137.25
236.285	125.25
236.519	129.25
236.753	116.25
236.987	133.25
237.221	176.25
237.455	225.25
237.689	170.25
237.922	142.25
238.156	150.25
238.39	136.25
238.624	104.25
238.858	141.25
239.091	125.25
239.325	134.25
239.559	132.25
239.793	138.25
240.027	145.25
240.26	145.25
240.494	162.25
240.728	148.25
240.961	146.25
241.195	151.25
241.429	150.25
241.662	141.25
241.896	145.25
242.13	134.25
242.363	141.25
242.597	133.25
242.83	134.25
243.064	144.25
243.298	158.25
243.531	155.25
243.765	155.25
243.998	146.25
244.232	155.25
244.465	147.25
244.699	141.25
244.932	154.25
245.166	141.25
245.399	141.25
245.633	167.25
245.866	148.25
246.099	145.25
246.333	157.25
246.566	154.25
246.8	163.25
247.033	162.25
247.266	149.25
247.5	169.25
247.733	180.25
247.966	187.25
248.2	185.25
248.433	173.25
248.666	174.25
248.899	179.25
249.133	210.25
249.366	205.25
249.599	199.25
249.832	191.25
250.066	186.25
250.299	186.25
250.532	189.25
250.765	200.25
250.998	211.25
251.231	225.25
251.465	211.25
251.698	216.25
251.931	213.25
252.164	184.25
252.397	206.25
252.63	194.25
252.863	200.25
253.096	217.25
253.329	226.25
253.562	226.25
253.795	217.25
254.028	229.25
254.261	209.25
254.494	218.25
254.727	245.25
254.96	272.25
255.193	257.25
255.426	259.25
255.659	215.25
255.892	226.25
256.124	230.25
256.357	224.25
256.59	225.25
256.823	215.25
257.056	210.25
257.289	210.25
257.521	207.25
257.754	225.25
257.987	202.25
258.22	214.25
258.452	210.25
258.685	196.25
258.918	205.25
259.151	208.25
259.383	223.25
259.616	214.25
259.849	224.25
260.081	237.25
260.314	249.25
260.547	261.25
260.779	242.25
261.012	234.25
261.244	230.25
261.477	230.25
261.71	226.25
261.942	222.25
262.175	229.25
262.407	234.25
262.64	226.25
262.872	227.25
263.105	205.25
263.337	226.25
263.57	212.25
263.802	215.25
264.035	220.25
264.267	230.25
264.499	245.25
264.732	225.25
264.964	223.25
265.197	205.25
265.429	211.25
265.661	229.25
265.894	210.25
266.126	220.25
266.358	230.25
266.591	220.25
266.823	230.25
267.055	221.25
267.287	232.25
267.52	218.25
267.752	229.25
267.984	229.25
268.216	232.25
268.448	230.25
268.681	229.25
268.913	247.25
269.145	267.25
269.377	274.25
269.609	273.25
269.841	259.25
270.073	270.25
270.306	285.25
270.538	302.25
270.77	312.25
271.002	287.25
271.234	286.25
271.466	283.25
271.698	293.25
271.93	299.25
272.162	287.25
272.394	301.25
272.626	285.25
272.858	272.25
273.09	285.25
273.322	251.25
273.553	244.25
273.785	269.25
274.017	273.25
274.249	262.25
274.481	256.25
274.713	248.25
274.945	269.25
275.176	255.25
275.408	254.25
275.64	263.25
275.872	274.25
276.104	263.25
276.335	264.25
276.567	270.25
276.799	287.25
277.031	315.25
277.262	309.25
277.494	311.25
277.726	289.25
277.957	277.25
278.189	286.25
278.421	286.25
278.652	275.25
278.884	269.25
279.115	273.25
279.347	286.25
279.579	283.25
279.81	271.25
280.042	283.25
280.273	273.25
280.505	273.25
280.736	280.25
280.968	281.25
281.199	280.25
281.431	276.25
281.662	275.25
281.894	253.25
282.125	285.25
282.356	281.25
282.588	301.25
282.819	289.25
283.051	285.25
283.282	274.25
283.513	283.25
283.745	273.25
283.976	283.25
284.207	279.25
284.439	268.25
284.67	282.25
284.901	297.25
285.132	286.25
285.364	289.25
285.595	293.25
285.826	283.25
286.057	292.25
286.288	269.25
286.52	272.25
286.751	276.25
286.982	275.25
287.213	283.25
287.444	299.25
287.675	302.25
287.906	308.25
288.138	298.25
288.369	301.25
288.6	302.25
288.831	298.25
289.062	292.25
289.293	289.25
289.524	313.25
289.755	288.25
289.986	293.25
290.217	309.25
290.448	288.25
290.679	315.25
290.91	293.25
291.141	311.25
291.371	312.25
291.602	296.25
291.833	273.25
292.064	283.25
292.295	309.25
292.526	306.25
292.757	303.25
292.987	300.25
293.218	314.25
293.449	290.25
293.68	314.25
293.91	289.25
294.141	293.25
294.372	293.25
294.603	301.25
294.833	305.25
295.064	317.25
295.295	302.25
295.525	306.25
295.756	302.25
295.987	331.25
296.217	323.25
296.448	336.25
296.679	328.25
296.909	323.25
297.14	314.25
297.37	312.25
297.601	318.25
297.831	312.25
298.062	321.25
298.292	311.25
298.523	325.25
298.753	324.25
298.984	312.25
299.214	329.25
299.445	320.25
299.675	336.25
299.905	314.25
300.136	326.25
300.366	322.25
300.597	337.25
300.827	332.25
301.057	327.25
301.288	332.25
301.518	329.25
301.748	312.25
301.979	334.25
302.209	326.25
302.439	338.25
302.669	339.25
302.9	335.25
303.13	334.25
303.36	338.25
303.59	327.25
303.82	349.25
304.051	351.25
304.281	339.25
304.511	341.25
304.741	332.25
304.971	342.25
305.201	351.25
305.431	348.25
305.661	330.25
305.891	341.25
306.121	345.25
306.352	351.25
306.582	346.25
306.812	332.25
307.042	339.25
307.272	353.25
307.502	346.25
307.731	372.25
307.961	345.25
308.191	331.25
308.421	354.25
308.651	339.25
308.881	335.25
309.111	355.25
309.341	353.25
309.571	367.25
309.8	363.25
310.03	375.25
310.26	381.25
310.49	383.25
310.72	380.25
310.949	400.25
311.179	389.25
311.409	395.25
311.639	381.25
311.868	390.25
312.098	371.25
312.328	389.25
312.557	394.25
312.787	425.25
313.017	418.25
313.246	397.25
313.476	394.25
313.706	383.25
313.935	388.25
314.165	381.25
314.394	383.25
314.624	414.25
314.853	378.25
315.083	371.25
315.312	389.25
315.542	389.25
315.771	389.25
316.001	382.25
316.23	397.25
316.46	377.25
316.689	387.25
316.919	389.25
317.148	402.25
317.377	413.25
317.607	391.25
317.836	406.25
318.065	394.25
318.295	359.25
318.524	394.25
318.753	383.25
318.983	381.25
319.212	387.25
319.441	392.25
319.67	394.25
319.9	389.25
320.129	381.25
320.358	397.25
320.587	394.25
320.816	397.25
321.046	376.25
321.275	402.25
321.504	404.25
321.733	415.25
321.962	421.25
322.191	413.25
322.42	453.25
322.649	445.25
322.878	448.25
323.108	442.25
323.337	488.25
323.566	483.25
323.795	528.25
324.024	571.25
324.253	667.25
324.482	946.25
324.71	1472.25
324.939	2264.25
325.168	1907.25
325.397	940.25
325.626	624.25
325.855	554.25
326.084	525.25
326.313	480.25
326.542	517.25
326.77	556.25
326.999	645.25
327.228	886.25
327.457	1365.25
327.686	1673.25
327.914	1074.25
328.143	689.25
328.372	637.25
328.6	610.25
328.829	559.25
329.058	561.25
329.287	584.25
329.515	554.25
329.744	496.25
329.972	524.25
330.201	538.25
330.43	565.25
330.658	618.25
330.887	613.25
331.115	583.25
331.344	537.25
331.572	495.25
331.801	511.25
332.03	502.25
332.258	486.25
332.486	490.25
332.715	457.25
332.943	464.25
333.172	495.25
333.4	483.25
333.629	525.25
333.857	498.25
334.085	526.25
334.314	535.25
334.542	549.25
334.771	588.25
334.999	517.25
335.227	501.25
335.455	487.25
335.684	471.25
335.912	471.25
336.14	485.25
336.369	461.25
336.597	468.25
336.825	468.25
337.053	473.25
337.281	445.25
337.51	477.25
337.738	472.25
337.966	474.25
338.194	478.25
338.422	472.25
338.65	473.25
338.878	456.25
339.106	452.25
339.334	454.25
339.562	449.25
339.79	431.25
340.018	451.25
340.246	451.25
340.474	453.25
340.702	461.25
340.93	447.25
341.158	430.25
341.386	452.25
341.614	458.25
341.842	439.25
342.07	450.25
342.298	436.25
342.526	438.25
342.754	427.25
342.981	430.25
343.209	459.25
343.437	440.25
343.665	447.25
343.893	469.25
344.12	463.25
344.348	454.25
344.576	462.25
344.804	473.25
345.031	448.25
345.259	472.25
345.487	485.25
345.714	435.25
345.942	434.25
346.17	439.25
346.397	443.25
346.625	440.25
346.853	431.25
347.08	437.25
347.308	457.25
347.535	458.25
347.763	457.25
347.99	450.25
348.218	438.25
348.445	439.25
348.673	449.25
348.9	425.25
349.128	433.25
349.355	427.25
349.583	431.25
349.81	428.25
350.037	449.25
350.265	433.25
350.492	404.25
350.72	440.25
350.947	427.25
351.174	431.25
351.402	435.25
351.629	449.25
351.856	467.25
352.083	450.25
352.311	454.25
352.538	442.25
352.765	466.25
352.992	450.25
353.22	460.25
353.447	426.25
353.674	435.25
353.901	422.25
354.128	409.25
354.355	414.25
354.583	446.25
354.81	402.25
355.037	414.25
355.264	420.25
355.491	388.25
355.718	403.25
355.945	409.25
356.172	433.25
356.399	398.25
356.626	411.25
356.853	431.25
357.08	412.25
357.307	412.25
357.534	406.25
357.761	406.25
357.988	422.25
358.215	407.25
358.441	437.25
358.668	423.25
358.895	413.25
359.122	410.25
359.349	429.25
359.576	454.25
359.802	469.25
360.029	494.25
360.256	489.25
360.483	473.25
360.709	443.25
360.936	467.25
361.163	428.25
361.39	443.25
361.616	437.25
361.843	439.25
362.07	437.25
362.296	445.25
362.523	413.25
362.749	426.25
362.976	448.25
363.203	421.25
363.429	412.25
363.656	442.25
363.882	435.25
364.109	441.25
364.335	421.25
364.562	434.25
364.788	439.25
365.015	418.25
365.241	429.25
365.468	434.25
365.694	433.25
365.92	453.25
366.147	416.25
366.373	445.25
366.599	413.25
366.826	409.25
367.052	421.25
367.278	426.25
367.505	421.25
367.731	434.25
367.957	419.25
368.184	434.25
368.41	428.25
368.636	474.25
368.862	452.25
369.089	438.25
369.315	433.25
369.541	433.25
369.767	439.25
369.993	440.25
370.219	425.25
370.445	456.25
370.672	426.25
370.898	426.25
371.124	426.25
371.35	440.25
371.576	438.25
371.802	428.25
372.028	421.25
372.254	426.25
372.48	441.25
372.706	419.25
372.932	432.25
373.158	441.25
373.384	462.25
373.61	424.25
373.835	447.25
374.061	453.25
374.287	438.25
374.513	454.25
374.739	456.25
374.965	485.25
375.191	458.25
375.416	449.25
375.642	453.25
375.868	458.25
376.094	455.25
376.319	444.25
376.545	440.25
376.771	425.25
376.997	427.25
377.222	453.25
377.448	430.25
377.674	421.25
377.899	421.25
378.125	424.25
378.35	434.25
378.576	410.25
378.802	438.25
379.027	429.25
379.253	447.25
379.478	426.25
379.704	442.25
379.929	440.25
380.155	432.25
380.38	414.25
380.606	453.25
380.831	449.25
381.057	428.25
381.282	434.25
381.507	447.25
381.733	445.25
381.958	426.25
382.184	402.25
382.409	472.25
382.634	453.25
382.86	446.25
383.085	463.25
383.31	472.25
383.535	461.25
383.761	450.25
383.986	464.25
384.211	475.25
384.436	471.25
384.662	464.25
384.887	477.25
385.112	463.25
385.337	466.25
385.562	464.25
385.787	506.25
386.013	482.25
386.238	483.25
386.463	481.25
386.688	481.25
386.913	503.25
387.138	481.25
387.363	478.25
387.588	479.25
387.813	489.25
388.038	487.25
388.263	480.25
388.488	494.25
388.713	492.25
388.938	488.25
389.163	488.25
389.387	486.25
389.612	468.25
389.837	489.25
390.062	487.25
390.287	481.25
390.512	483.25
390.736	477.25
390.961	490.25
391.186	477.25
391.411	457.25
391.636	485.25
391.86	509.25
392.085	508.25
392.31	503.25
392.534	496.25
392.759	517.25
392.984	512.25
393.208	502.25
393.433	509.25
393.658	496.25
393.882	517.25
394.107	498.25
394.331	507.25
394.556	489.25
394.78	498.25
395.005	514.25
395.229	504.25
395.454	518.25
395.678	524.25
395.903	523.25
396.127	553.25
396.352	545.25
396.576	534.25
396.801	513.25
397.025	539.25
397.249	535.25
397.474	558.25
397.698	499.25
397.922	544.25
398.147	553.25
398.371	565.25
398.595	551.25
398.82	536.25
399.044	584.25
399.268	608.25
399.492	618.25
399.717	694.25
399.941	708.25
400.165	723.25
400.389	727.25
400.613	640.25
400.837	605.25
401.062	585.25
401.286	601.25
401.51	591.25
401.734	550.25
401.958	574.25
402.182	587.25
402.406	589.25
402.63	608.25
402.854	605.25
403.078	603.25
403.302	600.25
403.526	603.25
403.75	599.25
403.974	603.25
404.198	616.25
404.422	612.25
404.645	618.25
404.869	607.25
405.093	645.25
405.317	694.25
405.541	733.25
405.765	692.25
405.988	644.25
406.212	626.25
406.436	659.25
406.66	649.25
406.883	657.25
407.107	691.25
407.331	735.25
407.555	803.25
407.778	779.25
408.002	750.25
408.226	684.25
408.449	664.25
408.673	669.25
408.896	682.25
409.12	733.25
409.344	714.25
409.567	649.25
409.791	637.25
410.014	605.25
410.238	619.25
410.461	600.25
410.685	619.25
410.908	615.25
411.132	669.25
411.355	695.25
411.578	649.25
411.802	611.25
412.025	618.25
412.249	608.25
412.472	654.25
412.695	667.25
412.919	657.25
413.142	590.25
413.365	601.25
413.589	587.25
413.812	597.25
414.035	575.25
414.258	574.25
414.482	589.25
414.705	575.25
414.928	603.25
415.151	579.25
415.374	598.25
415.597	569.25
415.821	596.25
416.044	551.25
416.267	565.25
416.49	590.25
416.713	590.25
416.936	590.25
417.159	579.25
417.382	575.25
417.605	562.25
417.828	578.25
418.051	614.25
418.274	602.25
418.497	595.25
418.72	573.25
418.943	585.25
419.166	606.25
419.389	633.25
419.611	615.25
419.834	602.25
420.057	617.25
420.28	606.25
420.503	593.25
420.726	607.25
420.948	598.25
421.171	641.25
421.394	685.25
421.617	609.25
421.839	602.25
422.062	615.25
422.285	625.25
422.507	669.25
422.73	742.25
422.953	729.25
423.175	651.25
423.398	613.25
423.621	629.25
423.843	642.25
424.066	646.25
424.288	640.25
424.511	647.25
424.733	688.25
424.956	767.25
425.178	755.25
425.401	779.25
425.623	771.25
425.846	674.25
426.068	635.25
426.291	614.25
426.513	626.25
426.735	642.25
426.958	672.25
427.18	757.25
427.402	898.25
427.625	969.25
427.847	845.25
428.069	751.25
428.292	667.25
428.514	617.25
428.736	591.25
428.958	602.25
429.181	570.25
429.403	560.25
429.625	600.25
429.847	610.25
430.069	693.25
430.292	720.25
430.514	605.25
430.736	583.25
430.958	569.25
431.18	561.25
431.402	559.25
431.624	547.25
431.846	577.25
432.068	565.25
432.29	558.25
432.512	588.25
432.734	573.25
432.956	569.25
433.178	598.25
433.4	593.25
433.622	564.25
433.844	571.25
434.066	573.25
434.287	573.25
434.509	579.25
434.731	573.25
434.953	585.25
435.175	616.25
435.397	639.25
435.618	645.25
435.84	676.25
436.062	774.25
436.284	863.25
436.505	699.25
436.727	651.25
436.949	618.25
437.17	607.25
437.392	603.25
437.614	584.25
437.835	610.25
438.057	728.25
438.278	851.25
438.5	821.25
438.721	914.25
438.943	878.25
439.165	678.25
439.386	642.25
439.608	624.25
439.829	600.25
440.05	646.25
440.272	693.25
440.493	669.25
440.715	646.25
440.936	634.25
441.158	595.25
441.379	590.25
441.6	618.25
441.822	640.25
442.043	673.25
442.264	758.25
442.486	817.25
442.707	703.25
442.928	645.25
443.149	643.25
443.371	678.25
443.592	715.25
443.813	812.25
444.034	868.25
444.255	736.25
444.476	654.25
444.698	636.25
444.919	649.25
445.14	714.25
445.361	694.25
445.582	665.25
445.803	745.25
446.024	829.25
446.245	868.25
446.466	764.25
446.687	673.25
446.908	622.25
447.129	599.25
447.35	599.25
447.571	569.25
447.792	573.25
448.013	569.25
448.234	577.25
448.455	650.25
448.675	750.25
448.896	885.25
449.117	759.25
449.338	678.25
449.559	832.25
449.779	907.25
450	740.25
450.221	628.25
450.442	589.25
450.662	558.25
450.883	573.25
451.104	581.25
451.324	569.25
451.545	561.25
451.766	541.25
451.986	529.25
452.207	535.25
452.428	531.25
452.648	541.25
452.869	522.25
453.089	541.25
453.31	543.25
453.53	530.25
453.751	532.25
453.971	541.25
454.192	531.25
454.412	555.25
454.633	537.25
454.853	535.25
455.073	503.25
455.294	560.25
455.514	601.25
455.734	593.25
455.955	521.25
456.175	504.25
456.395	497.25
456.616	485.25
456.836	506.25
457.056	490.25
457.276	482.25
457.497	495.25
457.717	503.25
457.937	506.25
458.157	532.25
458.377	517.25
458.598	530.25
458.818	587.25
459.038	683.25
459.258	697.25
459.478	639.25
459.698	571.25
459.918	567.25
460.138	567.25
460.358	594.25
460.578	570.25
460.798	588.25
461.018	581.25
461.238	589.25
461.458	592.25
461.678	589.25
461.898	583.25
462.118	590.25
462.338	615.25
462.558	618.25
462.777	612.25
462.997	632.25
463.217	674.25
463.437	660.25
463.657	657.25
463.876	613.25
464.096	645.25
464.316	645.25
464.536	642.25
464.755	653.25
464.975	612.25
465.195	682.25
465.414	722.25
465.634	657.25
465.854	584.25
466.073	599.25
466.293	565.25
466.512	558.25
466.732	549.25
466.951	545.25
467.171	555.25
467.391	555.25
467.61	559.25
467.829	578.25
468.049	570.25
468.268	560.25
468.488	560.25
468.707	550.25
468.927	552.25
469.146	533.25
469.365	551.25
469.585	528.25
469.804	549.25
470.023	539.25
470.243	550.25
470.462	544.25
470.681	551.25
470.901	551.25
471.12	561.25
471.339	547.25
471.558	545.25
471.777	539.25
471.997	543.25
472.216	546.25
472.435	603.25
472.654	598.25
472.873	543.25
473.092	525.25
473.311	539.25
473.53	545.25
473.749	543.25
473.968	583.25
474.187	698.25
474.406	721.25
474.625	608.25
474.844	567.25
475.063	585.25
475.282	550.25
475.501	565.25
475.72	557.25
475.939	556.25
476.158	576.25
476.377	549.25
476.596	531.25
476.814	551.25
477.033	574.25
477.252	590.25
477.471	566.25
477.69	608.25
477.908	594.25
478.127	617.25
478.346	626.25
478.564	647.25
478.783	621.25
479.002	609.25
479.22	604.25
479.439	635.25
479.658	637.25
479.876	671.25
480.095	660.25
480.313	724.25
480.532	706.25
480.751	695.25
480.969	697.25
481.188	754.25
481.406	789.25
481.624	677.25
481.843	658.25
482.061	642.25
482.28	641.25
482.498	630.25
482.717	633.25
482.935	649.25
483.153	647.25
483.372	649.25
483.59	611.25
483.808	624.25
484.027	642.25
484.245	671.25
484.463	646.25
484.681	677.25
484.9	659.25
485.118	659.25
485.336	666.25
485.554	692.25
485.772	656.25
485.99	680.25
486.209	668.25
486.427	670.25
486.645	651.25
486.863	687.25
487.081	683.25
487.299	677.25
487.517	682.25
487.735	687.25
487.953	673.25
488.171	670.25
488.389	685.25
488.607	685.25
488.825	697.25
489.043	704.25
489.261	720.25
489.479	703.25
489.696	699.25
489.914	699.25
490.132	714.25
490.35	709.25
490.568	733.25
490.786	724.25
491.003	739.25
491.221	717.25
491.439	772.25
491.657	736.25
491.874	782.25
492.092	763.25
492.31	785.25
492.527	788.25
492.745	799.25
492.963	785.25
493.18	786.25
493.398	814.25
493.615	813.25
493.833	824.25
494.05	797.25
494.268	807.25
494.485	811.25
494.703	769.25
494.92	775.25
495.138	778.25
495.355	816.25
495.573	807.25
495.79	809.25
496.008	816.25
496.225	801.25
496.442	811.25
496.66	818.25
496.877	815.25
497.094	816.25
497.312	845.25
497.529	848.25
497.746	873.25
497.963	871.25
498.181	905.25
498.398	910.25
498.615	912.25
498.832	957.25
499.049	986.25
499.267	991.25
499.484	1041.25
499.701	1082.25
499.918	1124.25
500.135	1161.25
500.352	1236.25
500.569	1305.25
500.786	1300.25
501.003	1316.25
501.22	1225.25
501.437	1164.25
501.654	1125.25
501.871	1080.25
