Data from 1979.PennyLincolnUp.Lamp.En5.5.200Scan.071719.P1_HRD10591_16-20-18-863.txt Node
Date: Thu Jul 18 16:20:18 EDT 2019
User: cochatt
Spectrometer: HR+D1059
Trigger mode: 1
Integration Time (sec): 1.000000E-1
Scans to average: 1
Electric dark correction enabled: true
Nonlinearity correction enabled: false
Boxcar width: 0
XAxis mode: Wavelengths
Number of Pixels in Spectrum: 2048
>>>>>Begin Spectral Data<<<<<
223.165	-10.75
223.4	-10.75
223.635	-10.75
223.869	-5.75
224.104	-25.75
224.338	-17.75
224.573	-11.75
224.808	-12.75
225.042	-5.75
225.277	-1.75
225.511	-2.75
225.746	6.25
225.98	-0.75
226.215	14.25
226.449	10.25
226.683	8.25
226.918	27.25
227.152	29.25
227.387	41.25
227.621	38.25
227.856	37.25
228.09	42.25
228.324	28.25
228.559	51.25
228.793	59.25
229.027	105.25
229.262	102.25
229.496	126.25
229.73	139.25
229.964	135.25
230.199	124.25
230.433	106.25
230.667	115.25
230.901	104.25
231.136	97.25
231.37	120.25
231.604	130.25
231.838	120.25
232.072	104.25
232.306	124.25
232.541	118.25
232.775	101.25
233.009	111.25
233.243	125.25
233.477	115.25
233.711	103.25
233.945	120.25
234.179	121.25
234.413	126.25
234.647	119.25
234.881	108.25
235.115	108.25
235.349	124.25
235.583	120.25
235.817	120.25
236.051	128.25
236.285	127.25
236.519	130.25
236.753	131.25
236.987	132.25
237.221	176.25
237.455	234.25
237.689	190.25
237.922	144.25
238.156	133.25
238.39	134.25
238.624	124.25
238.858	126.25
239.091	124.25
239.325	124.25
239.559	129.25
239.793	123.25
240.027	139.25
240.26	147.25
240.494	134.25
240.728	154.25
240.961	148.25
241.195	135.25
241.429	155.25
241.662	143.25
241.896	138.25
242.13	142.25
242.363	110.25
242.597	126.25
242.83	144.25
243.064	141.25
243.298	156.25
243.531	135.25
243.765	144.25
243.998	141.25
244.232	157.25
244.465	140.25
244.699	132.25
244.932	144.25
245.166	134.25
245.399	143.25
245.633	143.25
245.866	152.25
246.099	163.25
246.333	144.25
246.566	158.25
246.8	153.25
247.033	179.25
247.266	167.25
247.5	157.25
247.733	170.25
247.966	166.25
248.2	166.25
248.433	161.25
248.666	173.25
248.899	194.25
249.133	189.25
249.366	199.25
249.599	188.25
249.832	183.25
250.066	195.25
250.299	191.25
250.532	190.25
250.765	176.25
250.998	219.25
251.231	214.25
251.465	219.25
251.698	206.25
251.931	197.25
252.164	208.25
252.397	203.25
252.63	205.25
252.863	206.25
253.096	211.25
253.329	221.25
253.562	223.25
253.795	199.25
254.028	208.25
254.261	209.25
254.494	211.25
254.727	236.25
254.96	272.25
255.193	245.25
255.426	236.25
255.659	219.25
255.892	219.25
256.124	226.25
256.357	226.25
256.59	228.25
256.823	207.25
257.056	214.25
257.289	210.25
257.521	208.25
257.754	212.25
257.987	226.25
258.22	199.25
258.452	187.25
258.685	202.25
258.918	212.25
259.151	216.25
259.383	220.25
259.616	212.25
259.849	231.25
260.081	229.25
260.314	237.25
260.547	261.25
260.779	235.25
261.012	246.25
261.244	223.25
261.477	218.25
261.71	221.25
261.942	224.25
262.175	237.25
262.407	222.25
262.64	224.25
262.872	213.25
263.105	211.25
263.337	210.25
263.57	218.25
263.802	215.25
264.035	231.25
264.267	203.25
264.499	188.25
264.732	217.25
264.964	209.25
265.197	215.25
265.429	216.25
265.661	196.25
265.894	206.25
266.126	207.25
266.358	204.25
266.591	208.25
266.823	245.25
267.055	235.25
267.287	226.25
267.52	223.25
267.752	223.25
267.984	218.25
268.216	233.25
268.448	224.25
268.681	227.25
268.913	242.25
269.145	270.25
269.377	276.25
269.609	277.25
269.841	253.25
270.073	266.25
270.306	266.25
270.538	301.25
270.77	284.25
271.002	282.25
271.234	276.25
271.466	291.25
271.698	301.25
271.93	287.25
272.162	304.25
272.394	303.25
272.626	278.25
272.858	278.25
273.09	275.25
273.322	283.25
273.553	275.25
273.785	272.25
274.017	269.25
274.249	253.25
274.481	244.25
274.713	244.25
274.945	260.25
275.176	260.25
275.408	271.25
275.64	249.25
275.872	269.25
276.104	274.25
276.335	282.25
276.567	276.25
276.799	302.25
277.031	293.25
277.262	318.25
277.494	311.25
277.726	292.25
277.957	266.25
278.189	278.25
278.421	282.25
278.652	276.25
278.884	268.25
279.115	264.25
279.347	262.25
279.579	269.25
279.81	259.25
280.042	278.25
280.273	278.25
280.505	267.25
280.736	268.25
280.968	280.25
281.199	276.25
281.431	267.25
281.662	271.25
281.894	256.25
282.125	271.25
282.356	302.25
282.588	312.25
282.819	308.25
283.051	282.25
283.282	278.25
283.513	282.25
283.745	280.25
283.976	290.25
284.207	294.25
284.439	270.25
284.67	268.25
284.901	278.25
285.132	285.25
285.364	278.25
285.595	271.25
285.826	287.25
286.057	288.25
286.288	249.25
286.52	284.25
286.751	292.25
286.982	298.25
287.213	277.25
287.444	281.25
287.675	311.25
287.906	290.25
288.138	286.25
288.369	300.25
288.6	313.25
288.831	300.25
289.062	282.25
289.293	291.25
289.524	285.25
289.755	303.25
289.986	298.25
290.217	296.25
290.448	278.25
290.679	298.25
290.91	297.25
291.141	301.25
291.371	303.25
291.602	288.25
291.833	321.25
292.064	294.25
292.295	292.25
292.526	298.25
292.757	294.25
292.987	290.25
293.218	286.25
293.449	310.25
293.68	307.25
293.91	286.25
294.141	299.25
294.372	296.25
294.603	301.25
294.833	296.25
295.064	297.25
295.295	300.25
295.525	298.25
295.756	295.25
295.987	320.25
296.217	336.25
296.448	348.25
296.679	316.25
296.909	307.25
297.14	296.25
297.37	322.25
297.601	315.25
297.831	320.25
298.062	308.25
298.292	317.25
298.523	317.25
298.753	301.25
298.984	327.25
299.214	329.25
299.445	318.25
299.675	312.25
299.905	287.25
300.136	331.25
300.366	331.25
300.597	330.25
300.827	344.25
301.057	337.25
301.288	346.25
301.518	345.25
301.748	333.25
301.979	339.25
302.209	336.25
302.439	315.25
302.669	346.25
302.9	328.25
303.13	315.25
303.36	346.25
303.59	339.25
303.82	347.25
304.051	355.25
304.281	355.25
304.511	335.25
304.741	339.25
304.971	336.25
305.201	346.25
305.431	325.25
305.661	338.25
305.891	343.25
306.121	333.25
306.352	336.25
306.582	357.25
306.812	347.25
307.042	355.25
307.272	329.25
307.502	339.25
307.731	347.25
307.961	339.25
308.191	348.25
308.421	341.25
308.651	355.25
308.881	369.25
309.111	359.25
309.341	374.25
309.571	345.25
309.8	384.25
310.03	372.25
310.26	365.25
310.49	375.25
310.72	390.25
310.949	394.25
311.179	415.25
311.409	372.25
311.639	389.25
311.868	381.25
312.098	396.25
312.328	401.25
312.557	417.25
312.787	419.25
313.017	435.25
313.246	401.25
313.476	388.25
313.706	374.25
313.935	399.25
314.165	394.25
314.394	414.25
314.624	394.25
314.853	399.25
315.083	417.25
315.312	404.25
315.542	381.25
315.771	379.25
316.001	378.25
316.23	385.25
316.46	367.25
316.689	384.25
316.919	408.25
317.148	434.25
317.377	418.25
317.607	399.25
317.836	395.25
318.065	384.25
318.295	377.25
318.524	382.25
318.753	390.25
318.983	389.25
319.212	377.25
319.441	406.25
319.67	396.25
319.9	406.25
320.129	397.25
320.358	390.25
320.587	403.25
320.816	392.25
321.046	412.25
321.275	427.25
321.504	414.25
321.733	411.25
321.962	419.25
322.191	429.25
322.42	444.25
322.649	440.25
322.878	457.25
323.108	468.25
323.337	488.25
323.566	501.25
323.795	542.25
324.024	557.25
324.253	667.25
324.482	912.25
324.71	1496.25
324.939	2220.25
325.168	1895.25
325.397	930.25
325.626	652.25
325.855	553.25
326.084	510.25
326.313	520.25
326.542	488.25
326.77	562.25
326.999	644.25
327.228	875.25
327.457	1336.25
327.686	1703.25
327.914	1044.25
328.143	682.25
328.372	605.25
328.6	589.25
328.829	574.25
329.058	596.25
329.287	591.25
329.515	536.25
329.744	505.25
329.972	507.25
330.201	535.25
330.43	570.25
330.658	578.25
330.887	612.25
331.115	595.25
331.344	528.25
331.572	507.25
331.801	505.25
332.03	487.25
332.258	486.25
332.486	493.25
332.715	442.25
332.943	492.25
333.172	492.25
333.4	521.25
333.629	478.25
333.857	504.25
334.085	515.25
334.314	526.25
334.542	554.25
334.771	577.25
334.999	540.25
335.227	532.25
335.455	490.25
335.684	503.25
335.912	474.25
336.14	471.25
336.369	485.25
336.597	475.25
336.825	474.25
337.053	471.25
337.281	447.25
337.51	476.25
337.738	475.25
337.966	481.25
338.194	481.25
338.422	461.25
338.65	463.25
338.878	447.25
339.106	468.25
339.334	446.25
339.562	440.25
339.79	438.25
340.018	453.25
340.246	462.25
340.474	463.25
340.702	465.25
340.93	464.25
341.158	460.25
341.386	466.25
341.614	450.25
341.842	449.25
342.07	422.25
342.298	461.25
342.526	435.25
342.754	428.25
342.981	445.25
343.209	424.25
343.437	466.25
343.665	449.25
343.893	458.25
344.12	485.25
344.348	461.25
344.576	454.25
344.804	485.25
345.031	469.25
345.259	448.25
345.487	464.25
345.714	438.25
345.942	439.25
346.17	431.25
346.397	427.25
346.625	456.25
346.853	426.25
347.08	417.25
347.308	434.25
347.535	451.25
347.763	423.25
347.99	446.25
348.218	435.25
348.445	430.25
348.673	446.25
348.9	453.25
349.128	422.25
349.355	418.25
349.583	440.25
349.81	412.25
350.037	434.25
350.265	426.25
350.492	432.25
350.72	415.25
350.947	440.25
351.174	438.25
351.402	454.25
351.629	431.25
351.856	434.25
352.083	440.25
352.311	455.25
352.538	441.25
352.765	450.25
352.992	426.25
353.22	438.25
353.447	436.25
353.674	418.25
353.901	419.25
354.128	426.25
354.355	423.25
354.583	415.25
354.81	422.25
355.037	424.25
355.264	414.25
355.491	406.25
355.718	419.25
355.945	412.25
356.172	398.25
356.399	402.25
356.626	405.25
356.853	412.25
357.08	395.25
357.307	395.25
357.534	406.25
357.761	410.25
357.988	434.25
358.215	421.25
358.441	402.25
358.668	420.25
358.895	435.25
359.122	418.25
359.349	420.25
359.576	442.25
359.802	454.25
360.029	501.25
360.256	489.25
360.483	489.25
360.709	451.25
360.936	427.25
361.163	430.25
361.39	434.25
361.616	422.25
361.843	412.25
362.07	422.25
362.296	439.25
362.523	449.25
362.749	443.25
362.976	432.25
363.203	417.25
363.429	428.25
363.656	420.25
363.882	421.25
364.109	418.25
364.335	422.25
364.562	420.25
364.788	441.25
365.015	430.25
365.241	421.25
365.468	440.25
365.694	419.25
365.92	431.25
366.147	445.25
366.373	432.25
366.599	408.25
366.826	416.25
367.052	421.25
367.278	438.25
367.505	434.25
367.731	425.25
367.957	427.25
368.184	431.25
368.41	418.25
368.636	420.25
368.862	446.25
369.089	444.25
369.315	422.25
369.541	433.25
369.767	442.25
369.993	427.25
370.219	432.25
370.445	418.25
370.672	428.25
370.898	442.25
371.124	456.25
371.35	414.25
371.576	428.25
371.802	427.25
372.028	442.25
372.254	420.25
372.48	432.25
372.706	438.25
372.932	438.25
373.158	440.25
373.384	444.25
373.61	436.25
373.835	440.25
374.061	440.25
374.287	447.25
374.513	429.25
374.739	436.25
374.965	436.25
375.191	435.25
375.416	446.25
375.642	451.25
375.868	456.25
376.094	445.25
376.319	441.25
376.545	428.25
376.771	426.25
376.997	405.25
377.222	433.25
377.448	452.25
377.674	436.25
377.899	436.25
378.125	446.25
378.35	424.25
378.576	426.25
378.802	436.25
379.027	443.25
379.253	437.25
379.478	435.25
379.704	416.25
379.929	442.25
380.155	438.25
380.38	441.25
380.606	434.25
380.831	450.25
381.057	447.25
381.282	448.25
381.507	435.25
381.733	449.25
381.958	463.25
382.184	459.25
382.409	457.25
382.634	466.25
382.86	448.25
383.085	443.25
383.31	460.25
383.535	458.25
383.761	472.25
383.986	475.25
384.211	448.25
384.436	469.25
384.662	470.25
384.887	467.25
385.112	493.25
385.337	474.25
385.562	488.25
385.787	484.25
386.013	489.25
386.238	483.25
386.463	494.25
386.688	496.25
386.913	489.25
387.138	484.25
387.363	477.25
387.588	503.25
387.813	495.25
388.038	483.25
388.263	483.25
388.488	467.25
388.713	474.25
388.938	464.25
389.163	474.25
389.387	512.25
389.612	491.25
389.837	484.25
390.062	472.25
390.287	481.25
390.512	485.25
390.736	479.25
390.961	505.25
391.186	516.25
391.411	504.25
391.636	515.25
391.86	500.25
392.085	516.25
392.31	527.25
392.534	504.25
392.759	521.25
392.984	516.25
393.208	525.25
393.433	509.25
393.658	486.25
393.882	485.25
394.107	500.25
394.331	492.25
394.556	479.25
394.78	502.25
395.005	514.25
395.229	481.25
395.454	506.25
395.678	520.25
395.903	528.25
396.127	574.25
396.352	536.25
396.576	544.25
396.801	520.25
397.025	512.25
397.249	495.25
397.474	527.25
397.698	543.25
397.922	551.25
398.147	552.25
398.371	566.25
398.595	566.25
398.82	575.25
399.044	578.25
399.268	602.25
399.492	652.25
399.717	669.25
399.941	744.25
400.165	730.25
400.389	716.25
400.613	673.25
400.837	638.25
401.062	617.25
401.286	578.25
401.51	573.25
401.734	574.25
401.958	593.25
402.182	602.25
402.406	606.25
402.63	580.25
402.854	592.25
403.078	593.25
403.302	594.25
403.526	607.25
403.75	590.25
403.974	603.25
404.198	615.25
404.422	596.25
404.645	642.25
404.869	602.25
405.093	648.25
405.317	686.25
405.541	711.25
405.765	660.25
405.988	646.25
406.212	653.25
406.436	653.25
406.66	696.25
406.883	681.25
407.107	704.25
407.331	739.25
407.555	828.25
407.778	780.25
408.002	742.25
408.226	675.25
408.449	664.25
408.673	676.25
408.896	703.25
409.12	745.25
409.344	715.25
409.567	627.25
409.791	614.25
410.014	629.25
410.238	608.25
410.461	607.25
410.685	604.25
410.908	647.25
411.132	658.25
411.355	696.25
411.578	638.25
411.802	605.25
412.025	619.25
412.249	614.25
412.472	663.25
412.695	663.25
412.919	666.25
413.142	633.25
413.365	607.25
413.589	589.25
413.812	592.25
414.035	599.25
414.258	584.25
414.482	579.25
414.705	582.25
414.928	580.25
415.151	589.25
415.374	582.25
415.597	557.25
415.821	582.25
416.044	567.25
416.267	589.25
416.49	585.25
416.713	557.25
416.936	566.25
417.159	578.25
417.382	573.25
417.605	588.25
417.828	580.25
418.051	621.25
418.274	594.25
418.497	574.25
418.72	592.25
418.943	590.25
419.166	591.25
419.389	635.25
419.611	607.25
419.834	617.25
420.057	603.25
420.28	631.25
420.503	582.25
420.726	608.25
420.948	622.25
421.171	661.25
421.394	676.25
421.617	608.25
421.839	595.25
422.062	603.25
422.285	603.25
422.507	678.25
422.73	733.25
422.953	708.25
423.175	638.25
423.398	619.25
423.621	631.25
423.843	639.25
424.066	670.25
424.288	626.25
424.511	652.25
424.733	665.25
424.956	788.25
425.178	757.25
425.401	770.25
425.623	790.25
425.846	666.25
426.068	658.25
426.291	624.25
426.513	608.25
426.735	637.25
426.958	673.25
427.18	760.25
427.402	876.25
427.625	1008.25
427.847	863.25
428.069	751.25
428.292	674.25
428.514	637.25
428.736	603.25
428.958	611.25
429.181	584.25
429.403	574.25
429.625	584.25
429.847	621.25
430.069	719.25
430.292	683.25
430.514	606.25
430.736	590.25
430.958	578.25
431.18	581.25
431.402	558.25
431.624	556.25
431.846	553.25
432.068	570.25
432.29	565.25
432.512	558.25
432.734	565.25
432.956	603.25
433.178	570.25
433.4	578.25
433.622	559.25
433.844	564.25
434.066	594.25
434.287	579.25
434.509	568.25
434.731	575.25
434.953	583.25
435.175	577.25
435.397	623.25
435.618	635.25
435.84	704.25
436.062	782.25
436.284	849.25
436.505	697.25
436.727	634.25
436.949	612.25
437.17	597.25
437.392	598.25
437.614	605.25
437.835	614.25
438.057	754.25
438.278	852.25
438.5	812.25
438.721	908.25
438.943	884.25
439.165	679.25
439.386	651.25
439.608	642.25
439.829	634.25
440.05	680.25
440.272	695.25
440.493	674.25
440.715	623.25
440.936	592.25
441.158	603.25
441.379	586.25
441.6	597.25
441.822	643.25
442.043	682.25
442.264	782.25
442.486	833.25
442.707	684.25
442.928	638.25
443.149	658.25
443.371	675.25
443.592	699.25
443.813	830.25
444.034	868.25
444.255	724.25
444.476	704.25
444.698	680.25
444.919	657.25
445.14	740.25
445.361	676.25
445.582	678.25
445.803	750.25
446.024	847.25
446.245	856.25
446.466	777.25
446.687	683.25
446.908	627.25
447.129	606.25
447.35	588.25
447.571	605.25
447.792	579.25
448.013	587.25
448.234	591.25
448.455	639.25
448.675	778.25
448.896	887.25
449.117	766.25
449.338	716.25
449.559	847.25
449.779	937.25
450	747.25
450.221	631.25
450.442	587.25
450.662	588.25
450.883	584.25
451.104	577.25
451.324	571.25
451.545	560.25
451.766	552.25
451.986	524.25
452.207	516.25
452.428	489.25
452.648	537.25
452.869	533.25
453.089	515.25
453.31	528.25
453.53	526.25
453.751	533.25
453.971	519.25
454.192	557.25
454.412	540.25
454.633	505.25
454.853	524.25
455.073	511.25
455.294	564.25
455.514	614.25
455.734	611.25
455.955	519.25
456.175	497.25
456.395	488.25
456.616	466.25
456.836	481.25
457.056	499.25
457.276	471.25
457.497	474.25
457.717	486.25
457.937	495.25
458.157	519.25
458.377	518.25
458.598	547.25
458.818	585.25
459.038	671.25
459.258	704.25
459.478	620.25
459.698	576.25
459.918	552.25
460.138	564.25
460.358	573.25
460.578	598.25
460.798	586.25
461.018	594.25
461.238	581.25
461.458	585.25
461.678	588.25
461.898	600.25
462.118	608.25
462.338	595.25
462.558	603.25
462.777	645.25
462.997	648.25
463.217	668.25
463.437	668.25
463.657	622.25
463.876	628.25
464.096	664.25
464.316	629.25
464.536	634.25
464.755	622.25
464.975	634.25
465.195	667.25
465.414	733.25
465.634	654.25
465.854	610.25
466.073	565.25
466.293	569.25
466.512	568.25
466.732	536.25
466.951	554.25
467.171	545.25
467.391	538.25
467.61	533.25
467.829	555.25
468.049	557.25
468.268	566.25
468.488	546.25
468.707	536.25
468.927	533.25
469.146	528.25
469.365	525.25
469.585	514.25
469.804	550.25
470.023	540.25
470.243	543.25
470.462	557.25
470.681	576.25
470.901	576.25
471.12	565.25
471.339	563.25
471.558	567.25
471.777	541.25
471.997	545.25
472.216	562.25
472.435	610.25
472.654	550.25
472.873	567.25
473.092	529.25
473.311	550.25
473.53	555.25
473.749	550.25
473.968	603.25
474.187	686.25
474.406	716.25
474.625	564.25
474.844	582.25
475.063	566.25
475.282	559.25
475.501	571.25
475.72	580.25
475.939	567.25
476.158	550.25
476.377	563.25
476.596	576.25
476.814	581.25
477.033	616.25
477.252	602.25
477.471	603.25
477.69	604.25
477.908	604.25
478.127	597.25
478.346	614.25
478.564	604.25
478.783	626.25
479.002	638.25
479.22	655.25
479.439	642.25
479.658	662.25
479.876	669.25
480.095	683.25
480.313	687.25
480.532	685.25
480.751	687.25
480.969	689.25
481.188	770.25
481.406	771.25
481.624	718.25
481.843	699.25
482.061	666.25
482.28	654.25
482.498	649.25
482.717	614.25
482.935	615.25
483.153	649.25
483.372	642.25
483.59	635.25
483.808	642.25
484.027	640.25
484.245	631.25
484.463	645.25
484.681	667.25
484.9	653.25
485.118	668.25
485.336	675.25
485.554	656.25
485.772	662.25
485.99	652.25
486.209	662.25
486.427	699.25
486.645	664.25
486.863	701.25
487.081	684.25
487.299	708.25
487.517	703.25
487.735	682.25
487.953	706.25
488.171	691.25
488.389	681.25
488.607	700.25
488.825	695.25
489.043	694.25
489.261	702.25
489.479	686.25
489.696	685.25
489.914	698.25
490.132	695.25
490.35	709.25
490.568	723.25
490.786	743.25
491.003	738.25
491.221	769.25
491.439	766.25
491.657	758.25
491.874	751.25
492.092	778.25
492.31	760.25
492.527	806.25
492.745	763.25
492.963	764.25
493.18	782.25
493.398	797.25
493.615	825.25
493.833	795.25
494.05	770.25
494.268	812.25
494.485	779.25
494.703	788.25
494.92	801.25
495.138	784.25
495.355	830.25
495.573	845.25
495.79	827.25
496.008	798.25
496.225	822.25
496.442	827.25
496.66	806.25
496.877	818.25
497.094	832.25
497.312	828.25
497.529	831.25
497.746	818.25
497.963	878.25
498.181	903.25
498.398	918.25
498.615	933.25
498.832	932.25
499.049	985.25
499.267	1021.25
499.484	1042.25
499.701	1086.25
499.918	1109.25
500.135	1196.25
500.352	1259.25
500.569	1275.25
500.786	1290.25
501.003	1294.25
501.22	1211.25
501.437	1166.25
501.654	1144.25
