Data from 1979.PennyLincolnUp.Lamp.En5.5.200Scan.071719.P1_HRD10591_16-19-53-863.txt Node
Date: Thu Jul 18 16:19:53 EDT 2019
User: cochatt
Spectrometer: HR+D1059
Trigger mode: 1
Integration Time (sec): 1.000000E-1
Scans to average: 1
Electric dark correction enabled: true
Nonlinearity correction enabled: false
Boxcar width: 0
XAxis mode: Wavelengths
Number of Pixels in Spectrum: 2048
>>>>>Begin Spectral Data<<<<<
223.165	-12.12
223.4	-12.12
223.635	-12.12
223.869	-22.12
224.104	-27.12
224.338	-3.12
224.573	-2.12
224.808	-17.12
225.042	-10.12
225.277	2.88
225.511	2.88
225.746	3.88
225.98	6.88
226.215	1.88
226.449	5.88
226.683	25.88
226.918	22.88
227.152	20.88
227.387	47.88
227.621	34.88
227.856	37.88
228.09	40.88
228.324	55.88
228.559	47.88
228.793	46.88
229.027	90.88
229.262	107.88
229.496	103.88
229.73	142.88
229.964	142.88
230.199	117.88
230.433	115.88
230.667	121.88
230.901	112.88
231.136	111.88
231.37	117.88
231.604	102.88
231.838	111.88
232.072	115.88
232.306	123.88
232.541	125.88
232.775	137.88
233.009	120.88
233.243	103.88
233.477	120.88
233.711	106.88
233.945	120.88
234.179	117.88
234.413	103.88
234.647	124.88
234.881	114.88
235.115	111.88
235.349	112.88
235.583	100.88
235.817	126.88
236.051	130.88
236.285	112.88
236.519	126.88
236.753	142.88
236.987	144.88
237.221	182.88
237.455	218.88
237.689	182.88
237.922	147.88
238.156	140.88
238.39	125.88
238.624	130.88
238.858	128.88
239.091	130.88
239.325	122.88
239.559	134.88
239.793	114.88
240.027	142.88
240.26	125.88
240.494	157.88
240.728	144.88
240.961	142.88
241.195	129.88
241.429	141.88
241.662	142.88
241.896	134.88
242.13	141.88
242.363	133.88
242.597	129.88
242.83	139.88
243.064	157.88
243.298	143.88
243.531	131.88
243.765	145.88
243.998	138.88
244.232	143.88
244.465	155.88
244.699	137.88
244.932	134.88
245.166	151.88
245.399	149.88
245.633	156.88
245.866	161.88
246.099	162.88
246.333	144.88
246.566	158.88
246.8	167.88
247.033	158.88
247.266	144.88
247.5	160.88
247.733	166.88
247.966	167.88
248.2	160.88
248.433	162.88
248.666	181.88
248.899	173.88
249.133	169.88
249.366	205.88
249.599	199.88
249.832	176.88
250.066	183.88
250.299	174.88
250.532	184.88
250.765	198.88
250.998	202.88
251.231	205.88
251.465	196.88
251.698	182.88
251.931	170.88
252.164	204.88
252.397	200.88
252.63	198.88
252.863	184.88
253.096	189.88
253.329	226.88
253.562	208.88
253.795	211.88
254.028	215.88
254.261	198.88
254.494	218.88
254.727	246.88
254.96	263.88
255.193	260.88
255.426	229.88
255.659	208.88
255.892	220.88
256.124	217.88
256.357	223.88
256.59	207.88
256.823	201.88
257.056	211.88
257.289	204.88
257.521	198.88
257.754	207.88
257.987	208.88
258.22	218.88
258.452	214.88
258.685	195.88
258.918	208.88
259.151	210.88
259.383	207.88
259.616	216.88
259.849	206.88
260.081	208.88
260.314	252.88
260.547	245.88
260.779	223.88
261.012	217.88
261.244	215.88
261.477	219.88
261.71	220.88
261.942	216.88
262.175	231.88
262.407	209.88
262.64	203.88
262.872	200.88
263.105	204.88
263.337	223.88
263.57	216.88
263.802	227.88
264.035	200.88
264.267	207.88
264.499	222.88
264.732	213.88
264.964	211.88
265.197	211.88
265.429	224.88
265.661	204.88
265.894	231.88
266.126	214.88
266.358	210.88
266.591	204.88
266.823	219.88
267.055	228.88
267.287	220.88
267.52	220.88
267.752	231.88
267.984	213.88
268.216	202.88
268.448	230.88
268.681	223.88
268.913	229.88
269.145	237.88
269.377	252.88
269.609	273.88
269.841	253.88
270.073	268.88
270.306	276.88
270.538	301.88
270.77	278.88
271.002	298.88
271.234	273.88
271.466	279.88
271.698	278.88
271.93	302.88
272.162	281.88
272.394	291.88
272.626	280.88
272.858	264.88
273.09	252.88
273.322	273.88
273.553	250.88
273.785	241.88
274.017	237.88
274.249	244.88
274.481	262.88
274.713	266.88
274.945	268.88
275.176	247.88
275.408	268.88
275.64	256.88
275.872	267.88
276.104	266.88
276.335	265.88
276.567	265.88
276.799	271.88
277.031	300.88
277.262	278.88
277.494	311.88
277.726	308.88
277.957	283.88
278.189	272.88
278.421	246.88
278.652	258.88
278.884	250.88
279.115	237.88
279.347	272.88
279.579	261.88
279.81	254.88
280.042	255.88
280.273	266.88
280.505	258.88
280.736	264.88
280.968	263.88
281.199	245.88
281.431	262.88
281.662	262.88
281.894	289.88
282.125	283.88
282.356	277.88
282.588	312.88
282.819	301.88
283.051	291.88
283.282	275.88
283.513	271.88
283.745	275.88
283.976	277.88
284.207	283.88
284.439	293.88
284.67	268.88
284.901	276.88
285.132	271.88
285.364	280.88
285.595	283.88
285.826	276.88
286.057	273.88
286.288	276.88
286.52	280.88
286.751	287.88
286.982	300.88
287.213	278.88
287.444	282.88
287.675	283.88
287.906	299.88
288.138	306.88
288.369	283.88
288.6	274.88
288.831	294.88
289.062	288.88
289.293	276.88
289.524	286.88
289.755	298.88
289.986	275.88
290.217	267.88
290.448	283.88
290.679	282.88
290.91	281.88
291.141	283.88
291.371	286.88
291.602	286.88
291.833	303.88
292.064	275.88
292.295	292.88
292.526	301.88
292.757	289.88
292.987	293.88
293.218	270.88
293.449	302.88
293.68	295.88
293.91	276.88
294.141	290.88
294.372	287.88
294.603	292.88
294.833	294.88
295.064	294.88
295.295	300.88
295.525	290.88
295.756	282.88
295.987	303.88
296.217	332.88
296.448	324.88
296.679	311.88
296.909	297.88
297.14	298.88
297.37	308.88
297.601	302.88
297.831	303.88
298.062	307.88
298.292	332.88
298.523	311.88
298.753	327.88
298.984	293.88
299.214	315.88
299.445	312.88
299.675	302.88
299.905	297.88
300.136	311.88
300.366	302.88
300.597	306.88
300.827	316.88
301.057	317.88
301.288	331.88
301.518	318.88
301.748	328.88
301.979	331.88
302.209	326.88
302.439	315.88
302.669	335.88
302.9	324.88
303.13	334.88
303.36	343.88
303.59	336.88
303.82	345.88
304.051	323.88
304.281	314.88
304.511	337.88
304.741	327.88
304.971	335.88
305.201	327.88
305.431	335.88
305.661	334.88
305.891	344.88
306.121	333.88
306.352	322.88
306.582	335.88
306.812	342.88
307.042	318.88
307.272	337.88
307.502	336.88
307.731	355.88
307.961	336.88
308.191	334.88
308.421	345.88
308.651	343.88
308.881	336.88
309.111	327.88
309.341	361.88
309.571	350.88
309.8	351.88
310.03	347.88
310.26	371.88
310.49	374.88
310.72	386.88
310.949	380.88
311.179	393.88
311.409	379.88
311.639	379.88
311.868	364.88
312.098	373.88
312.328	386.88
312.557	403.88
312.787	406.88
313.017	407.88
313.246	379.88
313.476	379.88
313.706	370.88
313.935	384.88
314.165	385.88
314.394	391.88
314.624	374.88
314.853	385.88
315.083	385.88
315.312	385.88
315.542	360.88
315.771	359.88
316.001	371.88
316.23	379.88
316.46	384.88
316.689	360.88
316.919	380.88
317.148	386.88
317.377	390.88
317.607	391.88
317.836	372.88
318.065	395.88
318.295	366.88
318.524	355.88
318.753	374.88
318.983	384.88
319.212	381.88
319.441	364.88
319.67	382.88
319.9	380.88
320.129	403.88
320.358	382.88
320.587	356.88
320.816	403.88
321.046	400.88
321.275	414.88
321.504	400.88
321.733	393.88
321.962	388.88
322.191	405.88
322.42	418.88
322.649	433.88
322.878	442.88
323.108	453.88
323.337	440.88
323.566	485.88
323.795	510.88
324.024	515.88
324.253	639.88
324.482	902.88
324.71	1422.88
324.939	2178.88
325.168	1892.88
325.397	898.88
325.626	638.88
325.855	537.88
326.084	487.88
326.313	474.88
326.542	504.88
326.77	500.88
326.999	611.88
327.228	851.88
327.457	1311.88
327.686	1634.88
327.914	1028.88
328.143	698.88
328.372	613.88
328.6	560.88
328.829	543.88
329.058	550.88
329.287	563.88
329.515	533.88
329.744	518.88
329.972	473.88
330.201	493.88
330.43	545.88
330.658	555.88
330.887	588.88
331.115	573.88
331.344	504.88
331.572	489.88
331.801	486.88
332.03	495.88
332.258	459.88
332.486	446.88
332.715	424.88
332.943	456.88
333.172	455.88
333.4	461.88
333.629	491.88
333.857	480.88
334.085	506.88
334.314	509.88
334.542	547.88
334.771	553.88
334.999	512.88
335.227	490.88
335.455	464.88
335.684	477.88
335.912	446.88
336.14	471.88
336.369	440.88
336.597	446.88
336.825	461.88
337.053	464.88
337.281	441.88
337.51	447.88
337.738	434.88
337.966	444.88
338.194	459.88
338.422	445.88
338.65	451.88
338.878	423.88
339.106	444.88
339.334	444.88
339.562	441.88
339.79	410.88
340.018	449.88
340.246	445.88
340.474	428.88
340.702	454.88
340.93	453.88
341.158	443.88
341.386	437.88
341.614	435.88
341.842	428.88
342.07	442.88
342.298	440.88
342.526	412.88
342.754	427.88
342.981	453.88
343.209	446.88
343.437	448.88
343.665	446.88
343.893	462.88
344.12	476.88
344.348	468.88
344.576	441.88
344.804	455.88
345.031	463.88
345.259	454.88
345.487	441.88
345.714	427.88
345.942	429.88
346.17	426.88
346.397	419.88
346.625	429.88
346.853	411.88
347.08	411.88
347.308	431.88
347.535	414.88
347.763	444.88
347.99	412.88
348.218	427.88
348.445	443.88
348.673	418.88
348.9	446.88
349.128	427.88
349.355	411.88
349.583	399.88
349.81	404.88
350.037	415.88
350.265	387.88
350.492	410.88
350.72	411.88
350.947	395.88
351.174	403.88
351.402	422.88
351.629	407.88
351.856	455.88
352.083	439.88
352.311	430.88
352.538	436.88
352.765	451.88
352.992	438.88
353.22	420.88
353.447	414.88
353.674	415.88
353.901	424.88
354.128	419.88
354.355	402.88
354.583	375.88
354.81	404.88
355.037	398.88
355.264	410.88
355.491	403.88
355.718	419.88
355.945	414.88
356.172	396.88
356.399	410.88
356.626	390.88
356.853	396.88
357.08	379.88
357.307	410.88
357.534	420.88
357.761	391.88
357.988	401.88
358.215	404.88
358.441	397.88
358.668	403.88
358.895	417.88
359.122	415.88
359.349	397.88
359.576	418.88
359.802	449.88
360.029	462.88
360.256	476.88
360.483	460.88
360.709	442.88
360.936	416.88
361.163	416.88
361.39	438.88
361.616	440.88
361.843	438.88
362.07	425.88
362.296	443.88
362.523	430.88
362.749	426.88
362.976	422.88
363.203	407.88
363.429	418.88
363.656	414.88
363.882	391.88
364.109	402.88
364.335	420.88
364.562	413.88
364.788	411.88
365.015	405.88
365.241	422.88
365.468	416.88
365.694	432.88
365.92	413.88
366.147	396.88
366.373	421.88
366.599	422.88
366.826	410.88
367.052	423.88
367.278	434.88
367.505	396.88
367.731	414.88
367.957	428.88
368.184	429.88
368.41	432.88
368.636	412.88
368.862	420.88
369.089	422.88
369.315	425.88
369.541	418.88
369.767	397.88
369.993	412.88
370.219	429.88
370.445	418.88
370.672	403.88
370.898	413.88
371.124	428.88
371.35	426.88
371.576	431.88
371.802	419.88
372.028	413.88
372.254	420.88
372.48	449.88
372.706	413.88
372.932	403.88
373.158	411.88
373.384	421.88
373.61	431.88
373.835	438.88
374.061	432.88
374.287	434.88
374.513	436.88
374.739	424.88
374.965	428.88
375.191	432.88
375.416	440.88
375.642	431.88
375.868	439.88
376.094	438.88
376.319	430.88
376.545	428.88
376.771	420.88
376.997	417.88
377.222	405.88
377.448	423.88
377.674	415.88
377.899	406.88
378.125	418.88
378.35	432.88
378.576	411.88
378.802	426.88
379.027	434.88
379.253	412.88
379.478	425.88
379.704	411.88
379.929	402.88
380.155	432.88
380.38	432.88
380.606	437.88
380.831	434.88
381.057	439.88
381.282	425.88
381.507	428.88
381.733	408.88
381.958	435.88
382.184	453.88
382.409	442.88
382.634	427.88
382.86	443.88
383.085	448.88
383.31	444.88
383.535	442.88
383.761	437.88
383.986	462.88
384.211	459.88
384.436	448.88
384.662	454.88
384.887	456.88
385.112	453.88
385.337	440.88
385.562	438.88
385.787	450.88
386.013	497.88
386.238	489.88
386.463	478.88
386.688	463.88
386.913	480.88
387.138	456.88
387.363	460.88
387.588	503.88
387.813	472.88
388.038	471.88
388.263	466.88
388.488	480.88
388.713	489.88
388.938	471.88
389.163	481.88
389.387	487.88
389.612	462.88
389.837	480.88
390.062	467.88
390.287	478.88
390.512	456.88
390.736	479.88
390.961	468.88
391.186	470.88
391.411	475.88
391.636	477.88
391.86	491.88
392.085	488.88
392.31	482.88
392.534	498.88
392.759	500.88
392.984	503.88
393.208	463.88
393.433	478.88
393.658	486.88
393.882	476.88
394.107	467.88
394.331	477.88
394.556	484.88
394.78	474.88
395.005	483.88
395.229	498.88
395.454	477.88
395.678	500.88
395.903	517.88
396.127	531.88
396.352	525.88
396.576	491.88
396.801	503.88
397.025	488.88
397.249	482.88
397.474	512.88
397.698	536.88
397.922	536.88
398.147	547.88
398.371	527.88
398.595	552.88
398.82	547.88
399.044	536.88
399.268	604.88
399.492	615.88
399.717	653.88
399.941	663.88
400.165	680.88
400.389	703.88
400.613	630.88
400.837	591.88
401.062	566.88
401.286	568.88
401.51	556.88
401.734	562.88
401.958	570.88
402.182	566.88
402.406	591.88
402.63	575.88
402.854	574.88
403.078	581.88
403.302	597.88
403.526	607.88
403.75	594.88
403.974	586.88
404.198	595.88
404.422	583.88
404.645	578.88
404.869	598.88
405.093	641.88
405.317	634.88
405.541	695.88
405.765	626.88
405.988	616.88
406.212	627.88
406.436	642.88
406.66	676.88
406.883	627.88
407.107	650.88
407.331	678.88
407.555	780.88
407.778	758.88
408.002	700.88
408.226	649.88
408.449	638.88
408.673	671.88
408.896	657.88
409.12	712.88
409.344	688.88
409.567	624.88
409.791	628.88
410.014	589.88
410.238	586.88
410.461	615.88
410.685	621.88
410.908	599.88
411.132	612.88
411.355	672.88
411.578	672.88
411.802	613.88
412.025	576.88
412.249	607.88
412.472	639.88
412.695	627.88
412.919	653.88
413.142	611.88
413.365	578.88
413.589	566.88
413.812	561.88
414.035	553.88
414.258	566.88
414.482	552.88
414.705	539.88
414.928	559.88
415.151	542.88
415.374	558.88
415.597	550.88
415.821	560.88
416.044	583.88
416.267	554.88
416.49	574.88
416.713	563.88
416.936	550.88
417.159	564.88
417.382	556.88
417.605	555.88
417.828	583.88
418.051	588.88
418.274	572.88
418.497	559.88
418.72	541.88
418.943	538.88
419.166	568.88
419.389	608.88
419.611	610.88
419.834	596.88
420.057	589.88
420.28	578.88
420.503	580.88
420.726	562.88
420.948	601.88
421.171	623.88
421.394	648.88
421.617	616.88
421.839	584.88
422.062	587.88
422.285	586.88
422.507	623.88
422.73	730.88
422.953	704.88
423.175	622.88
423.398	618.88
423.621	604.88
423.843	625.88
424.066	608.88
424.288	614.88
424.511	630.88
424.733	658.88
424.956	759.88
425.178	733.88
425.401	730.88
425.623	752.88
425.846	685.88
426.068	604.88
426.291	616.88
426.513	590.88
426.735	607.88
426.958	681.88
427.18	751.88
427.402	882.88
427.625	966.88
427.847	841.88
428.069	715.88
428.292	626.88
428.514	603.88
428.736	582.88
428.958	584.88
429.181	558.88
429.403	578.88
429.625	581.88
429.847	586.88
430.069	674.88
430.292	661.88
430.514	585.88
430.736	580.88
430.958	551.88
431.18	560.88
431.402	556.88
431.624	550.88
431.846	543.88
432.068	534.88
432.29	555.88
432.512	554.88
432.734	543.88
432.956	548.88
433.178	571.88
433.4	571.88
433.622	572.88
433.844	562.88
434.066	551.88
434.287	566.88
434.509	550.88
434.731	559.88
434.953	570.88
435.175	591.88
435.397	608.88
435.618	620.88
435.84	642.88
436.062	751.88
436.284	820.88
436.505	686.88
436.727	638.88
436.949	583.88
437.17	584.88
437.392	575.88
437.614	593.88
437.835	609.88
438.057	692.88
438.278	814.88
438.5	802.88
438.721	866.88
438.943	844.88
439.165	685.88
439.386	630.88
439.608	602.88
439.829	610.88
440.05	628.88
440.272	692.88
440.493	629.88
440.715	614.88
440.936	569.88
441.158	567.88
441.379	568.88
441.6	591.88
441.822	616.88
442.043	670.88
442.264	726.88
442.486	781.88
442.707	685.88
442.928	621.88
443.149	629.88
443.371	651.88
443.592	649.88
443.813	790.88
444.034	852.88
444.255	746.88
444.476	657.88
444.698	635.88
444.919	656.88
445.14	714.88
445.361	700.88
445.582	678.88
445.803	718.88
446.024	837.88
446.245	838.88
446.466	773.88
446.687	651.88
446.908	611.88
447.129	576.88
447.35	538.88
447.571	573.88
447.792	544.88
448.013	578.88
448.234	620.88
448.455	632.88
448.675	744.88
448.896	844.88
449.117	732.88
449.338	675.88
449.559	774.88
449.779	904.88
450	717.88
450.221	614.88
450.442	572.88
450.662	574.88
450.883	569.88
451.104	576.88
451.324	575.88
451.545	542.88
451.766	535.88
451.986	533.88
452.207	501.88
452.428	507.88
452.648	516.88
452.869	509.88
453.089	532.88
453.31	537.88
453.53	535.88
453.751	530.88
453.971	489.88
454.192	528.88
454.412	535.88
454.633	490.88
454.853	496.88
455.073	492.88
455.294	522.88
455.514	574.88
455.734	568.88
455.955	512.88
456.175	490.88
456.395	495.88
456.616	484.88
456.836	486.88
457.056	482.88
457.276	452.88
457.497	468.88
457.717	493.88
457.937	484.88
458.157	509.88
458.377	495.88
458.598	522.88
458.818	566.88
459.038	648.88
459.258	664.88
459.478	585.88
459.698	568.88
459.918	560.88
460.138	541.88
460.358	543.88
460.578	569.88
460.798	566.88
461.018	583.88
461.238	579.88
461.458	570.88
461.678	550.88
461.898	580.88
462.118	553.88
462.338	562.88
462.558	582.88
462.777	585.88
462.997	624.88
463.217	634.88
463.437	644.88
463.657	632.88
463.876	619.88
464.096	632.88
464.316	616.88
464.536	604.88
464.755	646.88
464.975	595.88
465.195	637.88
465.414	737.88
465.634	631.88
465.854	586.88
466.073	557.88
466.293	548.88
466.512	544.88
466.732	541.88
466.951	547.88
467.171	525.88
467.391	524.88
467.61	547.88
467.829	549.88
468.049	539.88
468.268	567.88
468.488	530.88
468.707	538.88
468.927	522.88
469.146	517.88
469.365	495.88
469.585	512.88
469.804	502.88
470.023	533.88
470.243	533.88
470.462	547.88
470.681	578.88
470.901	550.88
471.12	544.88
471.339	534.88
471.558	525.88
471.777	514.88
471.997	518.88
472.216	530.88
472.435	573.88
472.654	548.88
472.873	523.88
473.092	524.88
473.311	539.88
473.53	524.88
473.749	523.88
473.968	562.88
474.187	664.88
474.406	691.88
474.625	580.88
474.844	535.88
475.063	543.88
475.282	536.88
475.501	559.88
475.72	571.88
475.939	522.88
476.158	534.88
476.377	544.88
476.596	544.88
476.814	544.88
477.033	558.88
477.252	560.88
477.471	587.88
477.69	586.88
477.908	593.88
478.127	583.88
478.346	601.88
478.564	581.88
478.783	599.88
479.002	634.88
479.22	622.88
479.439	626.88
479.658	633.88
479.876	622.88
480.095	652.88
480.313	694.88
480.532	667.88
480.751	680.88
480.969	679.88
481.188	719.88
481.406	748.88
481.624	699.88
481.843	640.88
482.061	634.88
482.28	628.88
482.498	595.88
482.717	623.88
482.935	604.88
483.153	613.88
483.372	623.88
483.59	624.88
483.808	632.88
484.027	624.88
484.245	610.88
484.463	619.88
484.681	640.88
484.9	629.88
485.118	620.88
485.336	646.88
485.554	636.88
485.772	646.88
485.99	648.88
486.209	647.88
486.427	652.88
486.645	660.88
486.863	709.88
487.081	667.88
487.299	665.88
487.517	643.88
487.735	650.88
487.953	646.88
488.171	675.88
488.389	666.88
488.607	667.88
488.825	693.88
489.043	686.88
489.261	651.88
489.479	694.88
489.696	688.88
489.914	673.88
490.132	699.88
490.35	709.88
490.568	684.88
490.786	703.88
491.003	708.88
491.221	724.88
491.439	745.88
491.657	736.88
491.874	755.88
492.092	763.88
492.31	749.88
492.527	758.88
492.745	759.88
492.963	750.88
493.18	754.88
493.398	776.88
493.615	782.88
493.833	765.88
494.05	770.88
494.268	772.88
494.485	774.88
494.703	760.88
494.92	792.88
495.138	781.88
495.355	759.88
495.573	806.88
495.79	780.88
496.008	788.88
496.225	783.88
496.442	778.88
496.66	794.88
496.877	801.88
497.094	811.88
497.312	808.88
497.529	786.88
497.746	819.88
497.963	834.88
498.181	865.88
498.398	889.88
498.615	897.88
498.832	921.88
499.049	942.88
499.267	999.88
499.484	1022.88
499.701	1061.88
499.918	1096.88
500.135	1170.88
500.352	1199.88
500.569	1243.88
500.786	1215.88
501.003	1189.88
501.22	1173.88
501.437	1110.88
501.654	1101.88
501.871	1027.88
