Data from 1979.PennyLincolnUp.Lamp.En5.5.200Scan.071719.P1_HRD10591_16-17-59-865.txt Node
Date: Thu Jul 18 16:17:59 EDT 2019
User: cochatt
Spectrometer: HR+D1059
Trigger mode: 1
Integration Time (sec): 1.000000E-1
Scans to average: 1
Electric dark correction enabled: true
Nonlinearity correction enabled: false
Boxcar width: 0
XAxis mode: Wavelengths
Number of Pixels in Spectrum: 2048
>>>>>Begin Spectral Data<<<<<
223.165	-22.69
223.4	-22.69
223.635	-22.69
223.869	-18.69
224.104	-27.69
224.338	0.31
224.573	-28.69
224.808	-4.69
225.042	-7.69
225.277	10.31
225.511	-12.69
225.746	2.31
225.98	4.31
226.215	26.31
226.449	21.31
226.683	18.31
226.918	13.31
227.152	26.31
227.387	38.31
227.621	39.31
227.856	43.31
228.09	41.31
228.324	39.31
228.559	56.31
228.793	73.31
229.027	88.31
229.262	87.31
229.496	107.31
229.73	109.31
229.964	138.31
230.199	121.31
230.433	105.31
230.667	116.31
230.901	92.31
231.136	107.31
231.37	106.31
231.604	108.31
231.838	114.31
232.072	116.31
232.306	115.31
232.541	116.31
232.775	106.31
233.009	114.31
233.243	99.31
233.477	116.31
233.711	105.31
233.945	92.31
234.179	120.31
234.413	128.31
234.647	113.31
234.881	101.31
235.115	96.31
235.349	104.31
235.583	104.31
235.817	123.31
236.051	123.31
236.285	112.31
236.519	129.31
236.753	128.31
236.987	125.31
237.221	151.31
237.455	195.31
237.689	164.31
237.922	119.31
238.156	118.31
238.39	118.31
238.624	120.31
238.858	121.31
239.091	116.31
239.325	114.31
239.559	122.31
239.793	126.31
240.027	120.31
240.26	141.31
240.494	148.31
240.728	146.31
240.961	131.31
241.195	136.31
241.429	129.31
241.662	120.31
241.896	125.31
242.13	125.31
242.363	117.31
242.597	141.31
242.83	132.31
243.064	129.31
243.298	132.31
243.531	123.31
243.765	126.31
243.998	124.31
244.232	145.31
244.465	154.31
244.699	132.31
244.932	144.31
245.166	140.31
245.399	152.31
245.633	132.31
245.866	148.31
246.099	126.31
246.333	149.31
246.566	138.31
246.8	152.31
247.033	139.31
247.266	166.31
247.5	166.31
247.733	149.31
247.966	158.31
248.2	163.31
248.433	156.31
248.666	163.31
248.899	169.31
249.133	160.31
249.366	173.31
249.599	176.31
249.832	155.31
250.066	164.31
250.299	166.31
250.532	178.31
250.765	175.31
250.998	187.31
251.231	200.31
251.465	179.31
251.698	173.31
251.931	173.31
252.164	183.31
252.397	180.31
252.63	182.31
252.863	186.31
253.096	181.31
253.329	193.31
253.562	188.31
253.795	175.31
254.028	171.31
254.261	190.31
254.494	190.31
254.727	203.31
254.96	232.31
255.193	207.31
255.426	216.31
255.659	214.31
255.892	210.31
256.124	191.31
256.357	193.31
256.59	192.31
256.823	193.31
257.056	193.31
257.289	181.31
257.521	187.31
257.754	172.31
257.987	186.31
258.22	190.31
258.452	169.31
258.685	189.31
258.918	189.31
259.151	181.31
259.383	192.31
259.616	189.31
259.849	200.31
260.081	211.31
260.314	227.31
260.547	216.31
260.779	212.31
261.012	201.31
261.244	208.31
261.477	201.31
261.71	206.31
261.942	199.31
262.175	209.31
262.407	187.31
262.64	191.31
262.872	182.31
263.105	192.31
263.337	190.31
263.57	188.31
263.802	205.31
264.035	200.31
264.267	203.31
264.499	192.31
264.732	217.31
264.964	216.31
265.197	190.31
265.429	196.31
265.661	216.31
265.894	184.31
266.126	201.31
266.358	192.31
266.591	194.31
266.823	200.31
267.055	203.31
267.287	201.31
267.52	207.31
267.752	206.31
267.984	199.31
268.216	220.31
268.448	202.31
268.681	195.31
268.913	218.31
269.145	242.31
269.377	238.31
269.609	218.31
269.841	223.31
270.073	234.31
270.306	226.31
270.538	263.31
270.77	243.31
271.002	269.31
271.234	230.31
271.466	248.31
271.698	247.31
271.93	271.31
272.162	261.31
272.394	265.31
272.626	254.31
272.858	230.31
273.09	225.31
273.322	266.31
273.553	237.31
273.785	227.31
274.017	243.31
274.249	238.31
274.481	242.31
274.713	243.31
274.945	232.31
275.176	229.31
275.408	241.31
275.64	240.31
275.872	235.31
276.104	225.31
276.335	244.31
276.567	244.31
276.799	257.31
277.031	258.31
277.262	270.31
277.494	261.31
277.726	253.31
277.957	268.31
278.189	244.31
278.421	241.31
278.652	265.31
278.884	247.31
279.115	233.31
279.347	250.31
279.579	254.31
279.81	245.31
280.042	266.31
280.273	245.31
280.505	242.31
280.736	254.31
280.968	256.31
281.199	256.31
281.431	254.31
281.662	234.31
281.894	250.31
282.125	248.31
282.356	260.31
282.588	278.31
282.819	274.31
283.051	258.31
283.282	253.31
283.513	253.31
283.745	252.31
283.976	260.31
284.207	258.31
284.439	259.31
284.67	249.31
284.901	237.31
285.132	256.31
285.364	260.31
285.595	234.31
285.826	257.31
286.057	255.31
286.288	246.31
286.52	242.31
286.751	252.31
286.982	266.31
287.213	269.31
287.444	262.31
287.675	260.31
287.906	274.31
288.138	264.31
288.369	278.31
288.6	249.31
288.831	243.31
289.062	270.31
289.293	282.31
289.524	272.31
289.755	259.31
289.986	256.31
290.217	285.31
290.448	271.31
290.679	272.31
290.91	253.31
291.141	274.31
291.371	276.31
291.602	259.31
291.833	264.31
292.064	252.31
292.295	251.31
292.526	257.31
292.757	245.31
292.987	270.31
293.218	275.31
293.449	264.31
293.68	268.31
293.91	268.31
294.141	270.31
294.372	273.31
294.603	272.31
294.833	262.31
295.064	267.31
295.295	256.31
295.525	253.31
295.756	277.31
295.987	276.31
296.217	291.31
296.448	309.31
296.679	293.31
296.909	258.31
297.14	298.31
297.37	286.31
297.601	292.31
297.831	276.31
298.062	284.31
298.292	277.31
298.523	292.31
298.753	288.31
298.984	280.31
299.214	291.31
299.445	287.31
299.675	285.31
299.905	283.31
300.136	286.31
300.366	301.31
300.597	288.31
300.827	299.31
301.057	306.31
301.288	301.31
301.518	301.31
301.748	283.31
301.979	299.31
302.209	304.31
302.439	304.31
302.669	317.31
302.9	314.31
303.13	299.31
303.36	316.31
303.59	324.31
303.82	302.31
304.051	300.31
304.281	284.31
304.511	312.31
304.741	313.31
304.971	306.31
305.201	292.31
305.431	299.31
305.661	285.31
305.891	300.31
306.121	304.31
306.352	305.31
306.582	337.31
306.812	295.31
307.042	307.31
307.272	304.31
307.502	321.31
307.731	291.31
307.961	318.31
308.191	322.31
308.421	324.31
308.651	300.31
308.881	310.31
309.111	312.31
309.341	308.31
309.571	321.31
309.8	311.31
310.03	342.31
310.26	360.31
310.49	342.31
310.72	334.31
310.949	309.31
311.179	340.31
311.409	320.31
311.639	333.31
311.868	332.31
312.098	344.31
312.328	355.31
312.557	361.31
312.787	372.31
313.017	370.31
313.246	338.31
313.476	346.31
313.706	344.31
313.935	347.31
314.165	363.31
314.394	353.31
314.624	351.31
314.853	348.31
315.083	359.31
315.312	352.31
315.542	352.31
315.771	348.31
316.001	339.31
316.23	347.31
316.46	353.31
316.689	338.31
316.919	345.31
317.148	370.31
317.377	351.31
317.607	343.31
317.836	345.31
318.065	332.31
318.295	352.31
318.524	353.31
318.753	327.31
318.983	325.31
319.212	343.31
319.441	329.31
319.67	351.31
319.9	358.31
320.129	337.31
320.358	345.31
320.587	366.31
320.816	347.31
321.046	354.31
321.275	368.31
321.504	378.31
321.733	372.31
321.962	376.31
322.191	379.31
322.42	383.31
322.649	379.31
322.878	380.31
323.108	392.31
323.337	390.31
323.566	424.31
323.795	423.31
324.024	456.31
324.253	552.31
324.482	739.31
324.71	1164.31
324.939	1692.31
325.168	1482.31
325.397	742.31
325.626	555.31
325.855	477.31
326.084	443.31
326.313	438.31
326.542	452.31
326.77	450.31
326.999	550.31
327.228	724.31
327.457	1063.31
327.686	1277.31
327.914	824.31
328.143	593.31
328.372	512.31
328.6	486.31
328.829	476.31
329.058	480.31
329.287	468.31
329.515	458.31
329.744	433.31
329.972	440.31
330.201	447.31
330.43	480.31
330.658	499.31
330.887	520.31
331.115	489.31
331.344	448.31
331.572	447.31
331.801	409.31
332.03	444.31
332.258	449.31
332.486	437.31
332.715	410.31
332.943	425.31
333.172	429.31
333.4	441.31
333.629	435.31
333.857	450.31
334.085	454.31
334.314	475.31
334.542	474.31
334.771	494.31
334.999	463.31
335.227	468.31
335.455	433.31
335.684	405.31
335.912	425.31
336.14	428.31
336.369	427.31
336.597	428.31
336.825	440.31
337.053	422.31
337.281	422.31
337.51	432.31
337.738	417.31
337.966	424.31
338.194	411.31
338.422	403.31
338.65	405.31
338.878	419.31
339.106	403.31
339.334	430.31
339.562	386.31
339.79	399.31
340.018	404.31
340.246	401.31
340.474	412.31
340.702	403.31
340.93	382.31
341.158	400.31
341.386	398.31
341.614	400.31
341.842	409.31
342.07	402.31
342.298	383.31
342.526	394.31
342.754	387.31
342.981	381.31
343.209	399.31
343.437	395.31
343.665	398.31
343.893	412.31
344.12	398.31
344.348	435.31
344.576	412.31
344.804	416.31
345.031	412.31
345.259	402.31
345.487	412.31
345.714	401.31
345.942	405.31
346.17	408.31
346.397	377.31
346.625	396.31
346.853	391.31
347.08	393.31
347.308	420.31
347.535	372.31
347.763	390.31
347.99	381.31
348.218	409.31
348.445	412.31
348.673	395.31
348.9	373.31
349.128	388.31
349.355	369.31
349.583	384.31
349.81	380.31
350.037	377.31
350.265	373.31
350.492	377.31
350.72	380.31
350.947	366.31
351.174	378.31
351.402	400.31
351.629	379.31
351.856	397.31
352.083	410.31
352.311	406.31
352.538	384.31
352.765	411.31
352.992	414.31
353.22	399.31
353.447	377.31
353.674	381.31
353.901	384.31
354.128	365.31
354.355	384.31
354.583	375.31
354.81	388.31
355.037	364.31
355.264	364.31
355.491	376.31
355.718	357.31
355.945	382.31
356.172	382.31
356.399	360.31
356.626	343.31
356.853	391.31
357.08	384.31
357.307	359.31
357.534	366.31
357.761	377.31
357.988	372.31
358.215	386.31
358.441	369.31
358.668	379.31
358.895	366.31
359.122	382.31
359.349	401.31
359.576	400.31
359.802	404.31
360.029	426.31
360.256	432.31
360.483	408.31
360.709	379.31
360.936	402.31
361.163	390.31
361.39	392.31
361.616	419.31
361.843	382.31
362.07	394.31
362.296	397.31
362.523	394.31
362.749	396.31
362.976	375.31
363.203	388.31
363.429	359.31
363.656	377.31
363.882	380.31
364.109	380.31
364.335	372.31
364.562	385.31
364.788	377.31
365.015	399.31
365.241	384.31
365.468	378.31
365.694	358.31
365.92	391.31
366.147	391.31
366.373	388.31
366.599	400.31
366.826	390.31
367.052	381.31
367.278	387.31
367.505	388.31
367.731	389.31
367.957	381.31
368.184	373.31
368.41	383.31
368.636	394.31
368.862	381.31
369.089	400.31
369.315	394.31
369.541	373.31
369.767	379.31
369.993	390.31
370.219	378.31
370.445	384.31
370.672	402.31
370.898	378.31
371.124	399.31
371.35	386.31
371.576	380.31
371.802	386.31
372.028	395.31
372.254	369.31
372.48	391.31
372.706	379.31
372.932	397.31
373.158	412.31
373.384	399.31
373.61	392.31
373.835	403.31
374.061	368.31
374.287	410.31
374.513	390.31
374.739	397.31
374.965	415.31
375.191	396.31
375.416	388.31
375.642	410.31
375.868	406.31
376.094	407.31
376.319	405.31
376.545	409.31
376.771	393.31
376.997	395.31
377.222	379.31
377.448	397.31
377.674	409.31
377.899	404.31
378.125	395.31
378.35	384.31
378.576	394.31
378.802	400.31
379.027	404.31
379.253	409.31
379.478	382.31
379.704	388.31
379.929	396.31
380.155	387.31
380.38	408.31
380.606	413.31
380.831	401.31
381.057	402.31
381.282	385.31
381.507	424.31
381.733	404.31
381.958	394.31
382.184	406.31
382.409	412.31
382.634	400.31
382.86	389.31
383.085	411.31
383.31	428.31
383.535	402.31
383.761	428.31
383.986	429.31
384.211	408.31
384.436	420.31
384.662	434.31
384.887	425.31
385.112	431.31
385.337	459.31
385.562	441.31
385.787	450.31
386.013	446.31
386.238	463.31
386.463	443.31
386.688	442.31
386.913	448.31
387.138	439.31
387.363	472.31
387.588	416.31
387.813	422.31
388.038	437.31
388.263	460.31
388.488	454.31
388.713	462.31
388.938	457.31
389.163	440.31
389.387	472.31
389.612	450.31
389.837	449.31
390.062	433.31
390.287	441.31
390.512	429.31
390.736	437.31
390.961	434.31
391.186	452.31
391.411	471.31
391.636	452.31
391.86	457.31
392.085	480.31
392.31	459.31
392.534	467.31
392.759	470.31
392.984	452.31
393.208	465.31
393.433	462.31
393.658	470.31
393.882	466.31
394.107	430.31
394.331	461.31
394.556	444.31
394.78	447.31
395.005	466.31
395.229	473.31
395.454	468.31
395.678	478.31
395.903	489.31
396.127	499.31
396.352	496.31
396.576	473.31
396.801	472.31
397.025	462.31
397.249	501.31
397.474	495.31
397.698	489.31
397.922	517.31
398.147	494.31
398.371	492.31
398.595	507.31
398.82	514.31
399.044	543.31
399.268	520.31
399.492	593.31
399.717	619.31
399.941	631.31
400.165	636.31
400.389	644.31
400.613	599.31
400.837	570.31
401.062	516.31
401.286	539.31
401.51	529.31
401.734	532.31
401.958	538.31
402.182	521.31
402.406	526.31
402.63	550.31
402.854	533.31
403.078	541.31
403.302	547.31
403.526	536.31
403.75	541.31
403.974	563.31
404.198	580.31
404.422	586.31
404.645	568.31
404.869	568.31
405.093	596.31
405.317	624.31
405.541	633.31
405.765	596.31
405.988	590.31
406.212	572.31
406.436	589.31
406.66	616.31
406.883	597.31
407.107	587.31
407.331	644.31
407.555	707.31
407.778	705.31
408.002	660.31
408.226	627.31
408.449	640.31
408.673	604.31
408.896	640.31
409.12	644.31
409.344	632.31
409.567	576.31
409.791	576.31
410.014	566.31
410.238	558.31
410.461	557.31
410.685	555.31
410.908	561.31
411.132	588.31
411.355	626.31
411.578	620.31
411.802	568.31
412.025	572.31
412.249	562.31
412.472	581.31
412.695	626.31
412.919	585.31
413.142	582.31
413.365	553.31
413.589	548.31
413.812	536.31
414.035	518.31
414.258	524.31
414.482	520.31
414.705	496.31
414.928	522.31
415.151	544.31
415.374	545.31
415.597	532.31
415.821	539.31
416.044	516.31
416.267	532.31
416.49	524.31
416.713	505.31
416.936	530.31
417.159	521.31
417.382	526.31
417.605	518.31
417.828	522.31
418.051	517.31
418.274	527.31
418.497	510.31
418.72	535.31
418.943	509.31
419.166	549.31
419.389	572.31
419.611	598.31
419.834	547.31
420.057	569.31
420.28	544.31
420.503	545.31
420.726	507.31
420.948	534.31
421.171	581.31
421.394	584.31
421.617	548.31
421.839	535.31
422.062	538.31
422.285	551.31
422.507	612.31
422.73	661.31
422.953	636.31
423.175	584.31
423.398	588.31
423.621	552.31
423.843	568.31
424.066	580.31
424.288	576.31
424.511	593.31
424.733	636.31
424.956	702.31
425.178	630.31
425.401	649.31
425.623	682.31
425.846	609.31
426.068	556.31
426.291	565.31
426.513	548.31
426.735	559.31
426.958	595.31
427.18	665.31
427.402	790.31
427.625	844.31
427.847	710.31
428.069	652.31
428.292	600.31
428.514	573.31
428.736	534.31
428.958	551.31
429.181	544.31
429.403	522.31
429.625	544.31
429.847	567.31
430.069	597.31
430.292	621.31
430.514	542.31
430.736	532.31
430.958	539.31
431.18	527.31
431.402	530.31
431.624	496.31
431.846	503.31
432.068	504.31
432.29	504.31
432.512	506.31
432.734	535.31
432.956	509.31
433.178	524.31
433.4	523.31
433.622	496.31
433.844	520.31
434.066	534.31
434.287	520.31
434.509	489.31
434.731	529.31
434.953	537.31
435.175	537.31
435.397	560.31
435.618	564.31
435.84	566.31
436.062	661.31
436.284	730.31
436.505	600.31
436.727	583.31
436.949	551.31
437.17	529.31
437.392	522.31
437.614	546.31
437.835	551.31
438.057	614.31
438.278	707.31
438.5	712.31
438.721	772.31
438.943	736.31
439.165	589.31
439.386	554.31
439.608	581.31
439.829	562.31
440.05	591.31
440.272	628.31
440.493	607.31
440.715	531.31
440.936	540.31
441.158	531.31
441.379	512.31
441.6	546.31
441.822	567.31
442.043	589.31
442.264	676.31
442.486	717.31
442.707	631.31
442.928	585.31
443.149	597.31
443.371	579.31
443.592	609.31
443.813	717.31
444.034	750.31
444.255	651.31
444.476	603.31
444.698	592.31
444.919	596.31
445.14	721.31
445.361	630.31
445.582	619.31
445.803	666.31
446.024	711.31
446.245	747.31
446.466	674.31
446.687	578.31
446.908	560.31
447.129	548.31
447.35	525.31
447.571	536.31
447.792	498.31
448.013	523.31
448.234	530.31
448.455	560.31
448.675	669.31
448.896	755.31
449.117	628.31
449.338	641.31
449.559	688.31
449.779	820.31
450	644.31
450.221	562.31
450.442	519.31
450.662	486.31
450.883	525.31
451.104	520.31
451.324	514.31
451.545	487.31
451.766	496.31
451.986	478.31
452.207	470.31
452.428	460.31
452.648	470.31
452.869	479.31
453.089	461.31
453.31	475.31
453.53	474.31
453.751	452.31
453.971	480.31
454.192	492.31
454.412	457.31
454.633	469.31
454.853	460.31
455.073	474.31
455.294	493.31
455.514	532.31
455.734	520.31
455.955	468.31
456.175	435.31
456.395	470.31
456.616	438.31
456.836	448.31
457.056	450.31
457.276	447.31
457.497	451.31
457.717	449.31
457.937	473.31
458.157	458.31
458.377	451.31
458.598	474.31
458.818	537.31
459.038	590.31
459.258	615.31
459.478	535.31
459.698	513.31
459.918	520.31
460.138	521.31
460.358	529.31
460.578	543.31
460.798	557.31
461.018	552.31
461.238	526.31
461.458	514.31
461.678	501.31
461.898	527.31
462.118	544.31
462.338	556.31
462.558	533.31
462.777	572.31
462.997	605.31
463.217	590.31
463.437	599.31
463.657	577.31
463.876	572.31
464.096	606.31
464.316	573.31
464.536	594.31
464.755	567.31
464.975	557.31
465.195	598.31
465.414	642.31
465.634	562.31
465.854	555.31
466.073	546.31
466.293	524.31
466.512	501.31
466.732	474.31
466.951	491.31
467.171	496.31
467.391	477.31
467.61	509.31
467.829	509.31
468.049	498.31
468.268	499.31
468.488	468.31
468.707	489.31
468.927	468.31
469.146	475.31
469.365	485.31
469.585	471.31
469.804	499.31
470.023	504.31
470.243	508.31
470.462	483.31
470.681	522.31
470.901	510.31
471.12	514.31
471.339	482.31
471.558	497.31
471.777	491.31
471.997	473.31
472.216	504.31
472.435	512.31
472.654	513.31
472.873	489.31
473.092	480.31
473.311	487.31
473.53	492.31
473.749	509.31
473.968	530.31
474.187	580.31
474.406	611.31
474.625	543.31
474.844	500.31
475.063	498.31
475.282	491.31
475.501	493.31
475.72	490.31
475.939	529.31
476.158	480.31
476.377	518.31
476.596	506.31
476.814	512.31
477.033	525.31
477.252	524.31
477.471	493.31
477.69	539.31
477.908	530.31
478.127	556.31
478.346	542.31
478.564	537.31
478.783	571.31
479.002	580.31
479.22	578.31
479.439	575.31
479.658	596.31
479.876	596.31
480.095	611.31
480.313	647.31
480.532	635.31
480.751	599.31
480.969	634.31
481.188	668.31
481.406	647.31
481.624	625.31
481.843	612.31
482.061	582.31
482.28	590.31
482.498	595.31
482.717	585.31
482.935	577.31
483.153	554.31
483.372	580.31
483.59	566.31
483.808	577.31
484.027	560.31
484.245	582.31
484.463	591.31
484.681	593.31
484.9	591.31
485.118	613.31
485.336	587.31
485.554	597.31
485.772	605.31
485.99	603.31
486.209	618.31
486.427	611.31
486.645	595.31
486.863	618.31
487.081	617.31
487.299	627.31
487.517	620.31
487.735	616.31
487.953	633.31
488.171	636.31
488.389	633.31
488.607	626.31
488.825	616.31
489.043	614.31
489.261	602.31
489.479	629.31
489.696	651.31
489.914	643.31
490.132	629.31
490.35	628.31
490.568	627.31
490.786	654.31
491.003	634.31
491.221	664.31
491.439	666.31
491.657	676.31
491.874	688.31
492.092	688.31
492.31	684.31
492.527	679.31
492.745	700.31
492.963	714.31
493.18	703.31
493.398	692.31
493.615	713.31
493.833	710.31
494.05	707.31
494.268	681.31
494.485	700.31
494.703	717.31
494.92	700.31
495.138	710.31
495.355	698.31
495.573	702.31
495.79	720.31
496.008	743.31
496.225	738.31
496.442	742.31
496.66	743.31
496.877	728.31
497.094	744.31
497.312	757.31
497.529	782.31
497.746	764.31
497.963	771.31
498.181	801.31
498.398	804.31
498.615	820.31
498.832	850.31
499.049	875.31
499.267	890.31
499.484	931.31
499.701	990.31
499.918	1051.31
500.135	1103.31
500.352	1149.31
500.569	1170.31
500.786	1150.31
501.003	1145.31
501.22	1085.31
501.437	1048.31
501.654	1002.31
501.871	968.31
