Data from 1979.PennyLincolnUp.Lamp.En5.5.200Scan.071719.P1_HRD10591_16-17-29-862.txt Node
Date: Thu Jul 18 16:17:29 EDT 2019
User: cochatt
Spectrometer: HR+D1059
Trigger mode: 1
Integration Time (sec): 1.000000E-1
Scans to average: 1
Electric dark correction enabled: true
Nonlinearity correction enabled: false
Boxcar width: 0
XAxis mode: Wavelengths
Number of Pixels in Spectrum: 2048
>>>>>Begin Spectral Data<<<<<
223.165	-5.44
223.4	-5.44
223.635	-5.44
223.869	-4.44
224.104	-20.44
224.338	-3.44
224.573	-22.44
224.808	-21.44
225.042	-10.44
225.277	-9.44
225.511	-3.44
225.746	11.56
225.98	6.56
226.215	7.56
226.449	11.56
226.683	18.56
226.918	14.56
227.152	30.56
227.387	33.56
227.621	43.56
227.856	53.56
228.09	37.56
228.324	47.56
228.559	40.56
228.793	60.56
229.027	82.56
229.262	87.56
229.496	84.56
229.73	106.56
229.964	116.56
230.199	108.56
230.433	105.56
230.667	99.56
230.901	87.56
231.136	110.56
231.37	105.56
231.604	99.56
231.838	106.56
232.072	112.56
232.306	104.56
232.541	119.56
232.775	104.56
233.009	87.56
233.243	108.56
233.477	108.56
233.711	117.56
233.945	109.56
234.179	105.56
234.413	110.56
234.647	102.56
234.881	117.56
235.115	110.56
235.349	121.56
235.583	101.56
235.817	105.56
236.051	99.56
236.285	110.56
236.519	122.56
236.753	118.56
236.987	127.56
237.221	130.56
237.455	167.56
237.689	152.56
237.922	128.56
238.156	106.56
238.39	107.56
238.624	103.56
238.858	107.56
239.091	121.56
239.325	104.56
239.559	116.56
239.793	116.56
240.027	105.56
240.26	113.56
240.494	137.56
240.728	130.56
240.961	111.56
241.195	116.56
241.429	109.56
241.662	143.56
241.896	136.56
242.13	126.56
242.363	122.56
242.597	131.56
242.83	138.56
243.064	130.56
243.298	128.56
243.531	122.56
243.765	131.56
243.998	125.56
244.232	145.56
244.465	134.56
244.699	132.56
244.932	139.56
245.166	138.56
245.399	128.56
245.633	126.56
245.866	147.56
246.099	128.56
246.333	127.56
246.566	144.56
246.8	123.56
247.033	145.56
247.266	136.56
247.5	147.56
247.733	138.56
247.966	162.56
248.2	148.56
248.433	150.56
248.666	162.56
248.899	151.56
249.133	163.56
249.366	174.56
249.599	161.56
249.832	160.56
250.066	162.56
250.299	156.56
250.532	166.56
250.765	156.56
250.998	171.56
251.231	188.56
251.465	170.56
251.698	154.56
251.931	172.56
252.164	172.56
252.397	156.56
252.63	158.56
252.863	165.56
253.096	173.56
253.329	168.56
253.562	191.56
253.795	176.56
254.028	186.56
254.261	181.56
254.494	172.56
254.727	194.56
254.96	216.56
255.193	194.56
255.426	190.56
255.659	188.56
255.892	181.56
256.124	173.56
256.357	182.56
256.59	186.56
256.823	184.56
257.056	175.56
257.289	180.56
257.521	163.56
257.754	178.56
257.987	164.56
258.22	182.56
258.452	178.56
258.685	184.56
258.918	171.56
259.151	184.56
259.383	191.56
259.616	175.56
259.849	189.56
260.081	183.56
260.314	202.56
260.547	191.56
260.779	204.56
261.012	172.56
261.244	185.56
261.477	169.56
261.71	173.56
261.942	180.56
262.175	187.56
262.407	199.56
262.64	181.56
262.872	186.56
263.105	188.56
263.337	187.56
263.57	173.56
263.802	192.56
264.035	178.56
264.267	171.56
264.499	184.56
264.732	197.56
264.964	182.56
265.197	183.56
265.429	182.56
265.661	191.56
265.894	183.56
266.126	181.56
266.358	196.56
266.591	187.56
266.823	182.56
267.055	182.56
267.287	188.56
267.52	196.56
267.752	188.56
267.984	186.56
268.216	196.56
268.448	190.56
268.681	203.56
268.913	200.56
269.145	205.56
269.377	211.56
269.609	190.56
269.841	216.56
270.073	216.56
270.306	222.56
270.538	229.56
270.77	216.56
271.002	243.56
271.234	222.56
271.466	235.56
271.698	224.56
271.93	223.56
272.162	213.56
272.394	218.56
272.626	234.56
272.858	245.56
273.09	235.56
273.322	215.56
273.553	214.56
273.785	205.56
274.017	206.56
274.249	227.56
274.481	208.56
274.713	212.56
274.945	234.56
275.176	221.56
275.408	220.56
275.64	239.56
275.872	231.56
276.104	226.56
276.335	239.56
276.567	217.56
276.799	231.56
277.031	220.56
277.262	262.56
277.494	230.56
277.726	259.56
277.957	218.56
278.189	228.56
278.421	235.56
278.652	222.56
278.884	226.56
279.115	235.56
279.347	230.56
279.579	237.56
279.81	238.56
280.042	224.56
280.273	229.56
280.505	237.56
280.736	251.56
280.968	222.56
281.199	244.56
281.431	240.56
281.662	237.56
281.894	232.56
282.125	224.56
282.356	240.56
282.588	238.56
282.819	240.56
283.051	216.56
283.282	228.56
283.513	234.56
283.745	223.56
283.976	238.56
284.207	229.56
284.439	233.56
284.67	239.56
284.901	247.56
285.132	247.56
285.364	236.56
285.595	244.56
285.826	247.56
286.057	255.56
286.288	247.56
286.52	247.56
286.751	259.56
286.982	246.56
287.213	246.56
287.444	238.56
287.675	242.56
287.906	263.56
288.138	249.56
288.369	248.56
288.6	251.56
288.831	251.56
289.062	260.56
289.293	235.56
289.524	271.56
289.755	251.56
289.986	268.56
290.217	245.56
290.448	244.56
290.679	254.56
290.91	272.56
291.141	243.56
291.371	259.56
291.602	270.56
291.833	256.56
292.064	253.56
292.295	248.56
292.526	251.56
292.757	248.56
292.987	251.56
293.218	247.56
293.449	265.56
293.68	269.56
293.91	262.56
294.141	258.56
294.372	262.56
294.603	257.56
294.833	271.56
295.064	254.56
295.295	246.56
295.525	257.56
295.756	263.56
295.987	266.56
296.217	271.56
296.448	299.56
296.679	278.56
296.909	262.56
297.14	264.56
297.37	271.56
297.601	262.56
297.831	264.56
298.062	278.56
298.292	270.56
298.523	271.56
298.753	254.56
298.984	274.56
299.214	286.56
299.445	283.56
299.675	272.56
299.905	272.56
300.136	280.56
300.366	275.56
300.597	264.56
300.827	275.56
301.057	282.56
301.288	280.56
301.518	294.56
301.748	275.56
301.979	302.56
302.209	286.56
302.439	283.56
302.669	286.56
302.9	284.56
303.13	310.56
303.36	296.56
303.59	292.56
303.82	307.56
304.051	309.56
304.281	285.56
304.511	271.56
304.741	282.56
304.971	280.56
305.201	286.56
305.431	291.56
305.661	296.56
305.891	275.56
306.121	296.56
306.352	303.56
306.582	303.56
306.812	297.56
307.042	283.56
307.272	308.56
307.502	299.56
307.731	295.56
307.961	291.56
308.191	287.56
308.421	300.56
308.651	285.56
308.881	296.56
309.111	313.56
309.341	297.56
309.571	311.56
309.8	299.56
310.03	310.56
310.26	323.56
310.49	302.56
310.72	301.56
310.949	316.56
311.179	313.56
311.409	324.56
311.639	301.56
311.868	317.56
312.098	299.56
312.328	308.56
312.557	316.56
312.787	308.56
313.017	348.56
313.246	329.56
313.476	304.56
313.706	319.56
313.935	316.56
314.165	312.56
314.394	323.56
314.624	312.56
314.853	332.56
315.083	317.56
315.312	337.56
315.542	331.56
315.771	319.56
316.001	319.56
316.23	323.56
316.46	322.56
316.689	324.56
316.919	326.56
317.148	346.56
317.377	302.56
317.607	316.56
317.836	340.56
318.065	353.56
318.295	339.56
318.524	328.56
318.753	314.56
318.983	307.56
319.212	322.56
319.441	318.56
319.67	324.56
319.9	346.56
320.129	320.56
320.358	331.56
320.587	325.56
320.816	341.56
321.046	330.56
321.275	327.56
321.504	331.56
321.733	334.56
321.962	351.56
322.191	354.56
322.42	342.56
322.649	348.56
322.878	360.56
323.108	368.56
323.337	376.56
323.566	367.56
323.795	380.56
324.024	416.56
324.253	466.56
324.482	589.56
324.71	877.56
324.939	1334.56
325.168	1145.56
325.397	595.56
325.626	452.56
325.855	399.56
326.084	390.56
326.313	363.56
326.542	371.56
326.77	400.56
326.999	429.56
327.228	557.56
327.457	843.56
327.686	992.56
327.914	685.56
328.143	474.56
328.372	418.56
328.6	411.56
328.829	405.56
329.058	393.56
329.287	436.56
329.515	399.56
329.744	388.56
329.972	379.56
330.201	386.56
330.43	398.56
330.658	406.56
330.887	440.56
331.115	424.56
331.344	402.56
331.572	400.56
331.801	366.56
332.03	394.56
332.258	382.56
332.486	400.56
332.715	381.56
332.943	403.56
333.172	404.56
333.4	401.56
333.629	403.56
333.857	411.56
334.085	420.56
334.314	424.56
334.542	421.56
334.771	430.56
334.999	393.56
335.227	398.56
335.455	383.56
335.684	398.56
335.912	407.56
336.14	384.56
336.369	394.56
336.597	392.56
336.825	394.56
337.053	401.56
337.281	399.56
337.51	388.56
337.738	399.56
337.966	372.56
338.194	378.56
338.422	376.56
338.65	379.56
338.878	377.56
339.106	392.56
339.334	376.56
339.562	371.56
339.79	372.56
340.018	372.56
340.246	371.56
340.474	373.56
340.702	381.56
340.93	385.56
341.158	362.56
341.386	379.56
341.614	378.56
341.842	374.56
342.07	358.56
342.298	355.56
342.526	363.56
342.754	366.56
342.981	358.56
343.209	367.56
343.437	381.56
343.665	380.56
343.893	394.56
344.12	408.56
344.348	410.56
344.576	403.56
344.804	390.56
345.031	389.56
345.259	386.56
345.487	382.56
345.714	389.56
345.942	385.56
346.17	377.56
346.397	376.56
346.625	379.56
346.853	362.56
347.08	343.56
347.308	353.56
347.535	354.56
347.763	372.56
347.99	366.56
348.218	370.56
348.445	369.56
348.673	379.56
348.9	366.56
349.128	359.56
349.355	341.56
349.583	351.56
349.81	346.56
350.037	344.56
350.265	363.56
350.492	364.56
350.72	356.56
350.947	364.56
351.174	371.56
351.402	344.56
351.629	362.56
351.856	342.56
352.083	355.56
352.311	363.56
352.538	358.56
352.765	383.56
352.992	380.56
353.22	365.56
353.447	355.56
353.674	379.56
353.901	347.56
354.128	354.56
354.355	337.56
354.583	342.56
354.81	361.56
355.037	352.56
355.264	346.56
355.491	383.56
355.718	336.56
355.945	352.56
356.172	344.56
356.399	352.56
356.626	358.56
356.853	358.56
357.08	350.56
357.307	346.56
357.534	359.56
357.761	347.56
357.988	359.56
358.215	374.56
358.441	348.56
358.668	342.56
358.895	363.56
359.122	366.56
359.349	350.56
359.576	362.56
359.802	389.56
360.029	407.56
360.256	383.56
360.483	379.56
360.709	367.56
360.936	366.56
361.163	343.56
361.39	362.56
361.616	367.56
361.843	372.56
362.07	350.56
362.296	358.56
362.523	371.56
362.749	347.56
362.976	359.56
363.203	356.56
363.429	372.56
363.656	363.56
363.882	359.56
364.109	354.56
364.335	343.56
364.562	344.56
364.788	344.56
365.015	379.56
365.241	354.56
365.468	366.56
365.694	365.56
365.92	354.56
366.147	334.56
366.373	357.56
366.599	349.56
366.826	365.56
367.052	363.56
367.278	365.56
367.505	378.56
367.731	386.56
367.957	350.56
368.184	360.56
368.41	362.56
368.636	359.56
368.862	405.56
369.089	367.56
369.315	382.56
369.541	368.56
369.767	361.56
369.993	374.56
370.219	386.56
370.445	381.56
370.672	370.56
370.898	366.56
371.124	376.56
371.35	390.56
371.576	366.56
371.802	374.56
372.028	363.56
372.254	390.56
372.48	379.56
372.706	373.56
372.932	390.56
373.158	399.56
373.384	371.56
373.61	374.56
373.835	388.56
374.061	382.56
374.287	373.56
374.513	378.56
374.739	391.56
374.965	400.56
375.191	373.56
375.416	394.56
375.642	388.56
375.868	373.56
376.094	390.56
376.319	379.56
376.545	378.56
376.771	383.56
376.997	365.56
377.222	382.56
377.448	388.56
377.674	396.56
377.899	398.56
378.125	382.56
378.35	370.56
378.576	374.56
378.802	382.56
379.027	370.56
379.253	396.56
379.478	397.56
379.704	386.56
379.929	382.56
380.155	380.56
380.38	377.56
380.606	386.56
380.831	380.56
381.057	391.56
381.282	380.56
381.507	398.56
381.733	405.56
381.958	390.56
382.184	413.56
382.409	382.56
382.634	392.56
382.86	382.56
383.085	388.56
383.31	404.56
383.535	407.56
383.761	393.56
383.986	399.56
384.211	408.56
384.436	412.56
384.662	415.56
384.887	429.56
385.112	426.56
385.337	452.56
385.562	431.56
385.787	426.56
386.013	429.56
386.238	447.56
386.463	464.56
386.688	419.56
386.913	452.56
387.138	432.56
387.363	422.56
387.588	415.56
387.813	438.56
388.038	426.56
388.263	447.56
388.488	466.56
388.713	436.56
388.938	426.56
389.163	440.56
389.387	434.56
389.612	412.56
389.837	422.56
390.062	416.56
390.287	424.56
390.512	410.56
390.736	423.56
390.961	456.56
391.186	437.56
391.411	448.56
391.636	444.56
391.86	447.56
392.085	454.56
392.31	450.56
392.534	428.56
392.759	445.56
392.984	468.56
393.208	475.56
393.433	507.56
393.658	519.56
393.882	452.56
394.107	441.56
394.331	472.56
394.556	464.56
394.78	457.56
395.005	470.56
395.229	455.56
395.454	481.56
395.678	467.56
395.903	459.56
396.127	476.56
396.352	498.56
396.576	450.56
396.801	463.56
397.025	505.56
397.249	492.56
397.474	458.56
397.698	468.56
397.922	469.56
398.147	485.56
398.371	470.56
398.595	487.56
398.82	483.56
399.044	533.56
399.268	548.56
399.492	570.56
399.717	602.56
399.941	645.56
400.165	630.56
400.389	614.56
400.613	563.56
400.837	533.56
401.062	534.56
401.286	512.56
401.51	506.56
401.734	487.56
401.958	528.56
402.182	516.56
402.406	514.56
402.63	521.56
402.854	494.56
403.078	504.56
403.302	522.56
403.526	524.56
403.75	559.56
403.974	534.56
404.198	552.56
404.422	538.56
404.645	568.56
404.869	548.56
405.093	523.56
405.317	575.56
405.541	595.56
405.765	573.56
405.988	517.56
406.212	552.56
406.436	560.56
406.66	551.56
406.883	562.56
407.107	580.56
407.331	624.56
407.555	634.56
407.778	636.56
408.002	639.56
408.226	584.56
408.449	591.56
408.673	601.56
408.896	584.56
409.12	615.56
409.344	602.56
409.567	566.56
409.791	562.56
410.014	576.56
410.238	534.56
410.461	529.56
410.685	556.56
410.908	556.56
411.132	579.56
411.355	590.56
411.578	575.56
411.802	537.56
412.025	560.56
412.249	551.56
412.472	567.56
412.695	575.56
412.919	557.56
413.142	558.56
413.365	539.56
413.589	544.56
413.812	538.56
414.035	533.56
414.258	531.56
414.482	515.56
414.705	501.56
414.928	505.56
415.151	515.56
415.374	517.56
415.597	514.56
415.821	519.56
416.044	501.56
416.267	518.56
416.49	521.56
416.713	496.56
416.936	475.56
417.159	504.56
417.382	493.56
417.605	502.56
417.828	518.56
418.051	533.56
418.274	526.56
418.497	509.56
418.72	494.56
418.943	504.56
419.166	499.56
419.389	551.56
419.611	538.56
419.834	542.56
420.057	515.56
420.28	520.56
420.503	521.56
420.726	513.56
420.948	514.56
421.171	531.56
421.394	586.56
421.617	535.56
421.839	498.56
422.062	498.56
422.285	526.56
422.507	596.56
422.73	621.56
422.953	603.56
423.175	535.56
423.398	529.56
423.621	531.56
423.843	553.56
424.066	537.56
424.288	544.56
424.511	563.56
424.733	589.56
424.956	636.56
425.178	634.56
425.401	600.56
425.623	622.56
425.846	564.56
426.068	542.56
426.291	522.56
426.513	524.56
426.735	557.56
426.958	567.56
427.18	616.56
427.402	680.56
427.625	769.56
427.847	670.56
428.069	586.56
428.292	539.56
428.514	514.56
428.736	522.56
428.958	496.56
429.181	494.56
429.403	510.56
429.625	500.56
429.847	522.56
430.069	551.56
430.292	562.56
430.514	510.56
430.736	496.56
430.958	514.56
431.18	490.56
431.402	498.56
431.624	487.56
431.846	486.56
432.068	501.56
432.29	503.56
432.512	483.56
432.734	494.56
432.956	502.56
433.178	500.56
433.4	484.56
433.622	484.56
433.844	479.56
434.066	474.56
434.287	477.56
434.509	500.56
434.731	508.56
434.953	511.56
435.175	539.56
435.397	552.56
435.618	525.56
435.84	548.56
436.062	621.56
436.284	687.56
436.505	562.56
436.727	539.56
436.949	510.56
437.17	504.56
437.392	495.56
437.614	516.56
437.835	518.56
438.057	568.56
438.278	637.56
438.5	656.56
438.721	725.56
438.943	698.56
439.165	549.56
439.386	521.56
439.608	527.56
439.829	537.56
440.05	555.56
440.272	585.56
440.493	555.56
440.715	504.56
440.936	500.56
441.158	500.56
441.379	502.56
441.6	524.56
441.822	522.56
442.043	565.56
442.264	605.56
442.486	636.56
442.707	580.56
442.928	554.56
443.149	542.56
443.371	548.56
443.592	570.56
443.813	673.56
444.034	726.56
444.255	648.56
444.476	576.56
444.698	560.56
444.919	551.56
445.14	622.56
445.361	574.56
445.582	570.56
445.803	611.56
446.024	662.56
446.245	653.56
446.466	624.56
446.687	558.56
446.908	519.56
447.129	510.56
447.35	501.56
447.571	501.56
447.792	474.56
448.013	485.56
448.234	500.56
448.455	540.56
448.675	613.56
448.896	692.56
449.117	594.56
449.338	570.56
449.559	643.56
449.779	754.56
450	589.56
450.221	507.56
450.442	483.56
450.662	507.56
450.883	468.56
451.104	483.56
451.324	460.56
451.545	462.56
451.766	459.56
451.986	452.56
452.207	453.56
452.428	447.56
452.648	419.56
452.869	456.56
453.089	460.56
453.31	459.56
453.53	447.56
453.751	432.56
453.971	434.56
454.192	448.56
454.412	456.56
454.633	445.56
454.853	423.56
455.073	457.56
455.294	453.56
455.514	470.56
455.734	487.56
455.955	418.56
456.175	432.56
456.395	424.56
456.616	445.56
456.836	434.56
457.056	432.56
457.276	410.56
457.497	430.56
457.717	414.56
457.937	438.56
458.157	445.56
458.377	470.56
458.598	443.56
458.818	479.56
459.038	545.56
459.258	539.56
459.478	519.56
459.698	500.56
459.918	496.56
460.138	494.56
460.358	522.56
460.578	505.56
460.798	515.56
461.018	522.56
461.238	526.56
461.458	529.56
461.678	532.56
461.898	508.56
462.118	539.56
462.338	531.56
462.558	550.56
462.777	528.56
462.997	544.56
463.217	586.56
463.437	588.56
463.657	567.56
463.876	555.56
464.096	559.56
464.316	571.56
464.536	557.56
464.755	588.56
464.975	552.56
465.195	548.56
465.414	575.56
465.634	502.56
465.854	522.56
466.073	491.56
466.293	475.56
466.512	468.56
466.732	487.56
466.951	475.56
467.171	454.56
467.391	469.56
467.61	491.56
467.829	456.56
468.049	479.56
468.268	469.56
468.488	474.56
468.707	467.56
468.927	472.56
469.146	465.56
469.365	477.56
469.585	454.56
469.804	460.56
470.023	465.56
470.243	483.56
470.462	466.56
470.681	516.56
470.901	497.56
471.12	481.56
471.339	489.56
471.558	467.56
471.777	476.56
471.997	489.56
472.216	461.56
472.435	499.56
472.654	488.56
472.873	474.56
473.092	468.56
473.311	467.56
473.53	472.56
473.749	483.56
473.968	511.56
474.187	565.56
474.406	588.56
474.625	518.56
474.844	504.56
475.063	499.56
475.282	495.56
475.501	483.56
475.72	495.56
475.939	481.56
476.158	494.56
476.377	475.56
476.596	479.56
476.814	491.56
477.033	500.56
477.252	532.56
477.471	519.56
477.69	522.56
477.908	518.56
478.127	527.56
478.346	520.56
478.564	556.56
478.783	548.56
479.002	532.56
479.22	552.56
479.439	574.56
479.658	587.56
479.876	584.56
480.095	581.56
480.313	596.56
480.532	602.56
480.751	608.56
480.969	588.56
481.188	596.56
481.406	621.56
481.624	587.56
481.843	575.56
482.061	555.56
482.28	543.56
482.498	564.56
482.717	540.56
482.935	574.56
483.153	562.56
483.372	542.56
483.59	558.56
483.808	556.56
484.027	555.56
484.245	573.56
484.463	570.56
484.681	583.56
484.9	577.56
485.118	577.56
485.336	577.56
485.554	579.56
485.772	567.56
485.99	600.56
486.209	591.56
486.427	567.56
486.645	580.56
486.863	602.56
487.081	582.56
487.299	621.56
487.517	583.56
487.735	598.56
487.953	569.56
488.171	591.56
488.389	584.56
488.607	611.56
488.825	598.56
489.043	582.56
489.261	600.56
489.479	616.56
489.696	609.56
489.914	597.56
490.132	618.56
490.35	622.56
490.568	604.56
490.786	626.56
491.003	616.56
491.221	652.56
491.439	630.56
491.657	651.56
491.874	670.56
492.092	638.56
492.31	651.56
492.527	669.56
492.745	656.56
492.963	671.56
493.18	684.56
493.398	671.56
493.615	669.56
493.833	693.56
494.05	674.56
494.268	677.56
494.485	693.56
494.703	652.56
494.92	665.56
495.138	681.56
495.355	676.56
495.573	706.56
495.79	678.56
496.008	713.56
496.225	708.56
496.442	692.56
496.66	699.56
496.877	703.56
497.094	700.56
497.312	715.56
497.529	722.56
497.746	720.56
497.963	776.56
498.181	775.56
498.398	769.56
498.615	827.56
498.832	844.56
499.049	848.56
499.267	894.56
499.484	912.56
499.701	930.56
499.918	1028.56
500.135	1036.56
500.352	1125.56
500.569	1139.56
500.786	1143.56
501.003	1105.56
501.22	1036.56
501.437	986.56
501.654	986.56
501.871	931.56
502.088	926.56
