Data from 1979.PennyLincolnUp.Lamp.En5.5.200Scan.071719.P1_HRD10591_16-20-32-866.txt Node
Date: Thu Jul 18 16:20:32 EDT 2019
User: cochatt
Spectrometer: HR+D1059
Trigger mode: 1
Integration Time (sec): 1.000000E-1
Scans to average: 1
Electric dark correction enabled: true
Nonlinearity correction enabled: false
Boxcar width: 0
XAxis mode: Wavelengths
Number of Pixels in Spectrum: 2048
>>>>>Begin Spectral Data<<<<<
223.165	8.62
223.4	8.62
223.635	8.62
223.869	-23.38
224.104	-18.38
224.338	-20.38
224.573	-25.38
224.808	-13.38
225.042	6.62
225.277	5.62
225.511	-2.38
225.746	0.62
225.98	-9.38
226.215	0.62
226.449	24.62
226.683	15.62
226.918	26.62
227.152	23.62
227.387	25.62
227.621	32.62
227.856	32.62
228.09	49.62
228.324	72.62
228.559	51.62
228.793	68.62
229.027	101.62
229.262	103.62
229.496	118.62
229.73	126.62
229.964	154.62
230.199	133.62
230.433	110.62
230.667	121.62
230.901	116.62
231.136	108.62
231.37	108.62
231.604	122.62
231.838	96.62
232.072	119.62
232.306	126.62
232.541	115.62
232.775	107.62
233.009	122.62
233.243	116.62
233.477	107.62
233.711	119.62
233.945	109.62
234.179	124.62
234.413	123.62
234.647	115.62
234.881	121.62
235.115	113.62
235.349	129.62
235.583	122.62
235.817	128.62
236.051	125.62
236.285	128.62
236.519	130.62
236.753	133.62
236.987	131.62
237.221	169.62
237.455	214.62
237.689	177.62
237.922	144.62
238.156	141.62
238.39	128.62
238.624	106.62
238.858	132.62
239.091	120.62
239.325	134.62
239.559	130.62
239.793	126.62
240.027	135.62
240.26	127.62
240.494	165.62
240.728	122.62
240.961	141.62
241.195	128.62
241.429	132.62
241.662	146.62
241.896	135.62
242.13	140.62
242.363	121.62
242.597	132.62
242.83	133.62
243.064	138.62
243.298	128.62
243.531	154.62
243.765	139.62
243.998	132.62
244.232	137.62
244.465	152.62
244.699	140.62
244.932	156.62
245.166	140.62
245.399	140.62
245.633	147.62
245.866	137.62
246.099	152.62
246.333	162.62
246.566	137.62
246.8	151.62
247.033	150.62
247.266	166.62
247.5	177.62
247.733	176.62
247.966	183.62
248.2	176.62
248.433	160.62
248.666	159.62
248.899	191.62
249.133	184.62
249.366	181.62
249.599	197.62
249.832	179.62
250.066	198.62
250.299	175.62
250.532	194.62
250.765	212.62
250.998	201.62
251.231	218.62
251.465	200.62
251.698	209.62
251.931	197.62
252.164	184.62
252.397	203.62
252.63	192.62
252.863	202.62
253.096	218.62
253.329	219.62
253.562	229.62
253.795	210.62
254.028	215.62
254.261	219.62
254.494	226.62
254.727	238.62
254.96	267.62
255.193	264.62
255.426	236.62
255.659	220.62
255.892	226.62
256.124	234.62
256.357	241.62
256.59	213.62
256.823	193.62
257.056	226.62
257.289	189.62
257.521	213.62
257.754	215.62
257.987	191.62
258.22	205.62
258.452	207.62
258.685	204.62
258.918	205.62
259.151	208.62
259.383	206.62
259.616	229.62
259.849	215.62
260.081	212.62
260.314	234.62
260.547	250.62
260.779	237.62
261.012	222.62
261.244	214.62
261.477	220.62
261.71	227.62
261.942	229.62
262.175	219.62
262.407	210.62
262.64	217.62
262.872	206.62
263.105	209.62
263.337	213.62
263.57	198.62
263.802	205.62
264.035	211.62
264.267	228.62
264.499	219.62
264.732	218.62
264.964	206.62
265.197	204.62
265.429	214.62
265.661	201.62
265.894	201.62
266.126	212.62
266.358	201.62
266.591	212.62
266.823	212.62
267.055	222.62
267.287	215.62
267.52	225.62
267.752	221.62
267.984	235.62
268.216	220.62
268.448	245.62
268.681	232.62
268.913	245.62
269.145	253.62
269.377	253.62
269.609	257.62
269.841	268.62
270.073	260.62
270.306	276.62
270.538	289.62
270.77	273.62
271.002	275.62
271.234	283.62
271.466	284.62
271.698	293.62
271.93	304.62
272.162	311.62
272.394	314.62
272.626	283.62
272.858	280.62
273.09	281.62
273.322	264.62
273.553	249.62
273.785	242.62
274.017	241.62
274.249	260.62
274.481	260.62
274.713	273.62
274.945	275.62
275.176	278.62
275.408	260.62
275.64	256.62
275.872	261.62
276.104	266.62
276.335	258.62
276.567	277.62
276.799	291.62
277.031	285.62
277.262	313.62
277.494	294.62
277.726	284.62
277.957	275.62
278.189	239.62
278.421	267.62
278.652	272.62
278.884	286.62
279.115	281.62
279.347	264.62
279.579	265.62
279.81	256.62
280.042	260.62
280.273	277.62
280.505	266.62
280.736	278.62
280.968	274.62
281.199	280.62
281.431	262.62
281.662	276.62
281.894	286.62
282.125	269.62
282.356	271.62
282.588	286.62
282.819	320.62
283.051	263.62
283.282	280.62
283.513	269.62
283.745	258.62
283.976	268.62
284.207	286.62
284.439	284.62
284.67	281.62
284.901	291.62
285.132	293.62
285.364	274.62
285.595	286.62
285.826	278.62
286.057	285.62
286.288	282.62
286.52	285.62
286.751	277.62
286.982	278.62
287.213	265.62
287.444	298.62
287.675	301.62
287.906	272.62
288.138	281.62
288.369	300.62
288.6	298.62
288.831	299.62
289.062	286.62
289.293	288.62
289.524	277.62
289.755	286.62
289.986	283.62
290.217	285.62
290.448	292.62
290.679	290.62
290.91	293.62
291.141	274.62
291.371	281.62
291.602	289.62
291.833	286.62
292.064	298.62
292.295	270.62
292.526	300.62
292.757	282.62
292.987	282.62
293.218	295.62
293.449	285.62
293.68	282.62
293.91	291.62
294.141	291.62
294.372	289.62
294.603	293.62
294.833	282.62
295.064	280.62
295.295	306.62
295.525	295.62
295.756	290.62
295.987	297.62
296.217	315.62
296.448	314.62
296.679	322.62
296.909	296.62
297.14	293.62
297.37	311.62
297.601	319.62
297.831	312.62
298.062	319.62
298.292	301.62
298.523	299.62
298.753	314.62
298.984	298.62
299.214	309.62
299.445	307.62
299.675	304.62
299.905	304.62
300.136	318.62
300.366	315.62
300.597	333.62
300.827	328.62
301.057	331.62
301.288	338.62
301.518	342.62
301.748	335.62
301.979	326.62
302.209	332.62
302.439	338.62
302.669	332.62
302.9	328.62
303.13	308.62
303.36	314.62
303.59	322.62
303.82	348.62
304.051	354.62
304.281	334.62
304.511	337.62
304.741	349.62
304.971	325.62
305.201	308.62
305.431	334.62
305.661	326.62
305.891	316.62
306.121	342.62
306.352	344.62
306.582	342.62
306.812	342.62
307.042	337.62
307.272	340.62
307.502	349.62
307.731	340.62
307.961	347.62
308.191	320.62
308.421	353.62
308.651	345.62
308.881	341.62
309.111	341.62
309.341	350.62
309.571	370.62
309.8	365.62
310.03	347.62
310.26	359.62
310.49	366.62
310.72	390.62
310.949	396.62
311.179	403.62
311.409	374.62
311.639	382.62
311.868	401.62
312.098	385.62
312.328	387.62
312.557	384.62
312.787	392.62
313.017	399.62
313.246	402.62
313.476	363.62
313.706	373.62
313.935	361.62
314.165	408.62
314.394	380.62
314.624	399.62
314.853	382.62
315.083	394.62
315.312	376.62
315.542	388.62
315.771	358.62
316.001	365.62
316.23	370.62
316.46	354.62
316.689	392.62
316.919	379.62
317.148	375.62
317.377	389.62
317.607	398.62
317.836	382.62
318.065	382.62
318.295	383.62
318.524	376.62
318.753	368.62
318.983	392.62
319.212	388.62
319.441	404.62
319.67	399.62
319.9	396.62
320.129	382.62
320.358	389.62
320.587	374.62
320.816	365.62
321.046	384.62
321.275	413.62
321.504	392.62
321.733	399.62
321.962	403.62
322.191	403.62
322.42	424.62
322.649	446.62
322.878	469.62
323.108	454.62
323.337	465.62
323.566	482.62
323.795	520.62
324.024	550.62
324.253	672.62
324.482	973.62
324.71	1436.62
324.939	2178.62
325.168	1919.62
325.397	937.62
325.626	626.62
325.855	519.62
326.084	501.62
326.313	507.62
326.542	508.62
326.77	559.62
326.999	627.62
327.228	839.62
327.457	1328.62
327.686	1716.62
327.914	1068.62
328.143	710.62
328.372	608.62
328.6	584.62
328.829	550.62
329.058	575.62
329.287	573.62
329.515	534.62
329.744	515.62
329.972	490.62
330.201	512.62
330.43	548.62
330.658	601.62
330.887	602.62
331.115	570.62
331.344	541.62
331.572	474.62
331.801	504.62
332.03	477.62
332.258	467.62
332.486	471.62
332.715	451.62
332.943	460.62
333.172	475.62
333.4	487.62
333.629	499.62
333.857	519.62
334.085	482.62
334.314	544.62
334.542	541.62
334.771	564.62
334.999	526.62
335.227	475.62
335.455	489.62
335.684	475.62
335.912	475.62
336.14	470.62
336.369	470.62
336.597	474.62
336.825	469.62
337.053	485.62
337.281	447.62
337.51	462.62
337.738	452.62
337.966	464.62
338.194	464.62
338.422	441.62
338.65	442.62
338.878	456.62
339.106	449.62
339.334	457.62
339.562	452.62
339.79	452.62
340.018	422.62
340.246	458.62
340.474	443.62
340.702	445.62
340.93	435.62
341.158	436.62
341.386	430.62
341.614	430.62
341.842	426.62
342.07	459.62
342.298	434.62
342.526	449.62
342.754	449.62
342.981	422.62
343.209	435.62
343.437	450.62
343.665	453.62
343.893	452.62
344.12	471.62
344.348	476.62
344.576	463.62
344.804	452.62
345.031	466.62
345.259	469.62
345.487	466.62
345.714	451.62
345.942	427.62
346.17	434.62
346.397	450.62
346.625	427.62
346.853	438.62
347.08	418.62
347.308	423.62
347.535	452.62
347.763	432.62
347.99	421.62
348.218	451.62
348.445	436.62
348.673	444.62
348.9	424.62
349.128	419.62
349.355	419.62
349.583	425.62
349.81	434.62
350.037	407.62
350.265	416.62
350.492	422.62
350.72	451.62
350.947	412.62
351.174	409.62
351.402	419.62
351.629	422.62
351.856	420.62
352.083	431.62
352.311	436.62
352.538	441.62
352.765	450.62
352.992	436.62
353.22	422.62
353.447	423.62
353.674	434.62
353.901	420.62
354.128	406.62
354.355	400.62
354.583	418.62
354.81	406.62
355.037	394.62
355.264	398.62
355.491	399.62
355.718	396.62
355.945	385.62
356.172	410.62
356.399	406.62
356.626	403.62
356.853	390.62
357.08	391.62
357.307	389.62
357.534	388.62
357.761	397.62
357.988	387.62
358.215	414.62
358.441	410.62
358.668	415.62
358.895	400.62
359.122	411.62
359.349	417.62
359.576	445.62
359.802	436.62
360.029	459.62
360.256	481.62
360.483	477.62
360.709	441.62
360.936	435.62
361.163	437.62
361.39	438.62
361.616	437.62
361.843	436.62
362.07	423.62
362.296	438.62
362.523	439.62
362.749	428.62
362.976	445.62
363.203	422.62
363.429	426.62
363.656	429.62
363.882	409.62
364.109	421.62
364.335	424.62
364.562	425.62
364.788	437.62
365.015	429.62
365.241	432.62
365.468	415.62
365.694	419.62
365.92	425.62
366.147	427.62
366.373	417.62
366.599	411.62
366.826	410.62
367.052	415.62
367.278	432.62
367.505	405.62
367.731	427.62
367.957	405.62
368.184	413.62
368.41	405.62
368.636	427.62
368.862	453.62
369.089	436.62
369.315	421.62
369.541	425.62
369.767	429.62
369.993	441.62
370.219	444.62
370.445	428.62
370.672	411.62
370.898	413.62
371.124	417.62
371.35	436.62
371.576	421.62
371.802	414.62
372.028	419.62
372.254	421.62
372.48	428.62
372.706	435.62
372.932	449.62
373.158	434.62
373.384	419.62
373.61	418.62
373.835	416.62
374.061	423.62
374.287	423.62
374.513	421.62
374.739	435.62
374.965	430.62
375.191	441.62
375.416	421.62
375.642	418.62
375.868	440.62
376.094	421.62
376.319	448.62
376.545	434.62
376.771	426.62
376.997	440.62
377.222	431.62
377.448	427.62
377.674	440.62
377.899	422.62
378.125	402.62
378.35	441.62
378.576	421.62
378.802	416.62
379.027	421.62
379.253	426.62
379.478	421.62
379.704	426.62
379.929	451.62
380.155	424.62
380.38	420.62
380.606	444.62
380.831	422.62
381.057	419.62
381.282	450.62
381.507	430.62
381.733	432.62
381.958	454.62
382.184	442.62
382.409	452.62
382.634	445.62
382.86	440.62
383.085	446.62
383.31	434.62
383.535	422.62
383.761	441.62
383.986	458.62
384.211	440.62
384.436	452.62
384.662	465.62
384.887	469.62
385.112	449.62
385.337	467.62
385.562	471.62
385.787	453.62
386.013	463.62
386.238	493.62
386.463	471.62
386.688	467.62
386.913	467.62
387.138	472.62
387.363	472.62
387.588	471.62
387.813	476.62
388.038	489.62
388.263	469.62
388.488	485.62
388.713	491.62
388.938	496.62
389.163	477.62
389.387	472.62
389.612	501.62
389.837	462.62
390.062	480.62
390.287	498.62
390.512	480.62
390.736	483.62
390.961	459.62
391.186	470.62
391.411	471.62
391.636	473.62
391.86	515.62
392.085	514.62
392.31	496.62
392.534	503.62
392.759	499.62
392.984	487.62
393.208	493.62
393.433	470.62
393.658	500.62
393.882	479.62
394.107	496.62
394.331	514.62
394.556	481.62
394.78	506.62
395.005	497.62
395.229	500.62
395.454	510.62
395.678	516.62
395.903	531.62
396.127	526.62
396.352	525.62
396.576	504.62
396.801	502.62
397.025	512.62
397.249	538.62
397.474	526.62
397.698	547.62
397.922	556.62
398.147	572.62
398.371	559.62
398.595	553.62
398.82	568.62
399.044	572.62
399.268	580.62
399.492	653.62
399.717	684.62
399.941	721.62
400.165	707.62
400.389	711.62
400.613	638.62
400.837	613.62
401.062	588.62
401.286	586.62
401.51	576.62
401.734	600.62
401.958	588.62
402.182	587.62
402.406	610.62
402.63	600.62
402.854	590.62
403.078	591.62
403.302	590.62
403.526	576.62
403.75	608.62
403.974	604.62
404.198	595.62
404.422	584.62
404.645	624.62
404.869	594.62
405.093	675.62
405.317	701.62
405.541	716.62
405.765	673.62
405.988	626.62
406.212	656.62
406.436	669.62
406.66	673.62
406.883	643.62
407.107	658.62
407.331	696.62
407.555	784.62
407.778	776.62
408.002	711.62
408.226	662.62
408.449	663.62
408.673	655.62
408.896	691.62
409.12	729.62
409.344	675.62
409.567	636.62
409.791	640.62
410.014	632.62
410.238	597.62
410.461	616.62
410.685	607.62
410.908	635.62
411.132	664.62
411.355	677.62
411.578	644.62
411.802	597.62
412.025	621.62
412.249	591.62
412.472	618.62
412.695	659.62
412.919	663.62
413.142	619.62
413.365	590.62
413.589	595.62
413.812	573.62
414.035	576.62
414.258	556.62
414.482	568.62
414.705	576.62
414.928	580.62
415.151	583.62
415.374	543.62
415.597	550.62
415.821	555.62
416.044	537.62
416.267	587.62
416.49	597.62
416.713	550.62
416.936	557.62
417.159	554.62
417.382	573.62
417.605	584.62
417.828	601.62
418.051	600.62
418.274	574.62
418.497	572.62
418.72	563.62
418.943	566.62
419.166	589.62
419.389	605.62
419.611	620.62
419.834	574.62
420.057	600.62
420.28	599.62
420.503	586.62
420.726	568.62
420.948	604.62
421.171	679.62
421.394	676.62
421.617	609.62
421.839	599.62
422.062	582.62
422.285	610.62
422.507	661.62
422.73	734.62
422.953	715.62
423.175	651.62
423.398	620.62
423.621	637.62
423.843	636.62
424.066	659.62
424.288	641.62
424.511	617.62
424.733	712.62
424.956	787.62
425.178	756.62
425.401	758.62
425.623	766.62
425.846	672.62
426.068	642.62
426.291	634.62
426.513	614.62
426.735	647.62
426.958	665.62
427.18	733.62
427.402	892.62
427.625	961.62
427.847	866.62
428.069	759.62
428.292	680.62
428.514	606.62
428.736	603.62
428.958	586.62
429.181	568.62
429.403	573.62
429.625	573.62
429.847	611.62
430.069	690.62
430.292	710.62
430.514	592.62
430.736	574.62
430.958	522.62
431.18	553.62
431.402	565.62
431.624	536.62
431.846	550.62
432.068	574.62
432.29	551.62
432.512	550.62
432.734	558.62
432.956	544.62
433.178	573.62
433.4	590.62
433.622	568.62
433.844	570.62
434.066	552.62
434.287	584.62
434.509	545.62
434.731	563.62
434.953	588.62
435.175	603.62
435.397	633.62
435.618	622.62
435.84	655.62
436.062	774.62
436.284	846.62
436.505	696.62
436.727	640.62
436.949	608.62
437.17	586.62
437.392	570.62
437.614	598.62
437.835	605.62
438.057	690.62
438.278	826.62
438.5	800.62
438.721	904.62
438.943	839.62
439.165	682.62
439.386	614.62
439.608	640.62
439.829	632.62
440.05	656.62
440.272	714.62
440.493	666.62
440.715	614.62
440.936	595.62
441.158	593.62
441.379	565.62
441.6	628.62
441.822	630.62
442.043	669.62
442.264	746.62
442.486	777.62
442.707	682.62
442.928	669.62
443.149	650.62
443.371	682.62
443.592	714.62
443.813	798.62
444.034	867.62
444.255	735.62
444.476	668.62
444.698	646.62
444.919	644.62
445.14	730.62
445.361	688.62
445.582	683.62
445.803	751.62
446.024	826.62
446.245	805.62
446.466	757.62
446.687	657.62
446.908	613.62
447.129	589.62
447.35	558.62
447.571	583.62
447.792	572.62
448.013	557.62
448.234	567.62
448.455	632.62
448.675	757.62
448.896	862.62
449.117	730.62
449.338	699.62
449.559	826.62
449.779	908.62
450	722.62
450.221	598.62
450.442	598.62
450.662	567.62
450.883	552.62
451.104	567.62
451.324	577.62
451.545	555.62
451.766	555.62
451.986	536.62
452.207	493.62
452.428	509.62
452.648	514.62
452.869	530.62
453.089	509.62
453.31	531.62
453.53	537.62
453.751	522.62
453.971	500.62
454.192	544.62
454.412	524.62
454.633	523.62
454.853	502.62
455.073	499.62
455.294	546.62
455.514	602.62
455.734	595.62
455.955	528.62
456.175	481.62
456.395	471.62
456.616	484.62
456.836	492.62
457.056	481.62
457.276	485.62
457.497	496.62
457.717	500.62
457.937	516.62
458.157	538.62
458.377	520.62
458.598	537.62
458.818	589.62
459.038	649.62
459.258	708.62
459.478	604.62
459.698	558.62
459.918	547.62
460.138	573.62
460.358	593.62
460.578	587.62
460.798	574.62
461.018	573.62
461.238	587.62
461.458	590.62
461.678	592.62
461.898	594.62
462.118	593.62
462.338	617.62
462.558	590.62
462.777	629.62
462.997	634.62
463.217	685.62
463.437	653.62
463.657	612.62
463.876	621.62
464.096	638.62
464.316	617.62
464.536	628.62
464.755	644.62
464.975	630.62
465.195	654.62
465.414	740.62
465.634	645.62
465.854	581.62
466.073	592.62
466.293	551.62
466.512	543.62
466.732	569.62
466.951	551.62
467.171	566.62
467.391	521.62
467.61	537.62
467.829	546.62
468.049	555.62
468.268	542.62
468.488	528.62
468.707	517.62
468.927	514.62
469.146	534.62
469.365	522.62
469.585	544.62
469.804	538.62
470.023	548.62
470.243	546.62
470.462	542.62
470.681	594.62
470.901	577.62
471.12	585.62
471.339	557.62
471.558	545.62
471.777	562.62
471.997	562.62
472.216	554.62
472.435	579.62
472.654	537.62
472.873	541.62
473.092	551.62
473.311	542.62
473.53	535.62
473.749	538.62
473.968	577.62
474.187	666.62
474.406	699.62
474.625	586.62
474.844	556.62
475.063	554.62
475.282	528.62
475.501	549.62
475.72	550.62
475.939	550.62
476.158	548.62
476.377	548.62
476.596	552.62
476.814	587.62
477.033	574.62
477.252	586.62
477.471	586.62
477.69	562.62
477.908	598.62
478.127	599.62
478.346	566.62
478.564	596.62
478.783	591.62
479.002	608.62
479.22	621.62
479.439	623.62
479.658	656.62
479.876	650.62
480.095	659.62
480.313	693.62
480.532	701.62
480.751	664.62
480.969	685.62
481.188	766.62
481.406	814.62
481.624	694.62
481.843	646.62
482.061	649.62
482.28	651.62
482.498	639.62
482.717	634.62
482.935	629.62
483.153	638.62
483.372	635.62
483.59	632.62
483.808	606.62
484.027	622.62
484.245	666.62
484.463	643.62
484.681	660.62
484.9	663.62
485.118	658.62
485.336	677.62
485.554	643.62
485.772	662.62
485.99	674.62
486.209	641.62
486.427	653.62
486.645	670.62
486.863	690.62
487.081	678.62
487.299	688.62
487.517	665.62
487.735	662.62
487.953	651.62
488.171	672.62
488.389	671.62
488.607	691.62
488.825	681.62
489.043	667.62
489.261	675.62
489.479	707.62
489.696	682.62
489.914	709.62
490.132	708.62
490.35	728.62
490.568	710.62
490.786	717.62
491.003	721.62
491.221	748.62
491.439	759.62
491.657	771.62
491.874	755.62
492.092	795.62
492.31	775.62
492.527	764.62
492.745	792.62
492.963	790.62
493.18	780.62
493.398	789.62
493.615	779.62
493.833	792.62
494.05	788.62
494.268	795.62
494.485	797.62
494.703	786.62
494.92	773.62
495.138	794.62
495.355	786.62
495.573	826.62
495.79	819.62
496.008	844.62
496.225	809.62
496.442	783.62
496.66	807.62
496.877	799.62
497.094	812.62
497.312	826.62
497.529	823.62
497.746	837.62
497.963	871.62
498.181	886.62
498.398	894.62
498.615	941.62
498.832	929.62
499.049	948.62
499.267	996.62
499.484	1050.62
499.701	1091.62
499.918	1137.62
500.135	1158.62
500.352	1237.62
500.569	1266.62
500.786	1288.62
501.003	1229.62
501.22	1192.62
501.437	1148.62
501.654	1085.62
501.871	1076.62
