Data from 1979.PennyLincolnUp.Lamp.En5.5.200Scan.071719.P1_HRD10591_16-20-34-863.txt Node
Date: Thu Jul 18 16:20:34 EDT 2019
User: cochatt
Spectrometer: HR+D1059
Trigger mode: 1
Integration Time (sec): 1.000000E-1
Scans to average: 1
Electric dark correction enabled: true
Nonlinearity correction enabled: false
Boxcar width: 0
XAxis mode: Wavelengths
Number of Pixels in Spectrum: 2048
>>>>>Begin Spectral Data<<<<<
223.165	-11.44
223.4	-11.44
223.635	-11.44
223.869	-19.44
224.104	-17.44
224.338	-10.44
224.573	-16.44
224.808	1.56
225.042	-9.44
225.277	-10.44
225.511	-3.44
225.746	13.56
225.98	1.56
226.215	0.56
226.449	12.56
226.683	13.56
226.918	20.56
227.152	34.56
227.387	31.56
227.621	41.56
227.856	44.56
228.09	36.56
228.324	52.56
228.559	60.56
228.793	63.56
229.027	95.56
229.262	98.56
229.496	107.56
229.73	111.56
229.964	149.56
230.199	129.56
230.433	109.56
230.667	118.56
230.901	121.56
231.136	110.56
231.37	101.56
231.604	115.56
231.838	114.56
232.072	114.56
232.306	117.56
232.541	107.56
232.775	110.56
233.009	126.56
233.243	105.56
233.477	123.56
233.711	121.56
233.945	108.56
234.179	110.56
234.413	124.56
234.647	109.56
234.881	123.56
235.115	110.56
235.349	117.56
235.583	125.56
235.817	107.56
236.051	123.56
236.285	139.56
236.519	123.56
236.753	125.56
236.987	130.56
237.221	173.56
237.455	201.56
237.689	179.56
237.922	137.56
238.156	129.56
238.39	119.56
238.624	125.56
238.858	115.56
239.091	108.56
239.325	129.56
239.559	129.56
239.793	135.56
240.027	133.56
240.26	127.56
240.494	141.56
240.728	148.56
240.961	147.56
241.195	147.56
241.429	130.56
241.662	152.56
241.896	133.56
242.13	101.56
242.363	122.56
242.597	151.56
242.83	146.56
243.064	135.56
243.298	129.56
243.531	133.56
243.765	133.56
243.998	147.56
244.232	154.56
244.465	136.56
244.699	158.56
244.932	154.56
245.166	142.56
245.399	150.56
245.633	128.56
245.866	156.56
246.099	148.56
246.333	141.56
246.566	140.56
246.8	138.56
247.033	167.56
247.266	170.56
247.5	161.56
247.733	168.56
247.966	169.56
248.2	163.56
248.433	174.56
248.666	172.56
248.899	159.56
249.133	200.56
249.366	213.56
249.599	183.56
249.832	181.56
250.066	186.56
250.299	178.56
250.532	189.56
250.765	193.56
250.998	209.56
251.231	220.56
251.465	187.56
251.698	203.56
251.931	176.56
252.164	203.56
252.397	200.56
252.63	190.56
252.863	197.56
253.096	204.56
253.329	207.56
253.562	215.56
253.795	219.56
254.028	208.56
254.261	221.56
254.494	219.56
254.727	239.56
254.96	273.56
255.193	246.56
255.426	226.56
255.659	206.56
255.892	227.56
256.124	227.56
256.357	232.56
256.59	204.56
256.823	213.56
257.056	206.56
257.289	198.56
257.521	211.56
257.754	208.56
257.987	212.56
258.22	212.56
258.452	220.56
258.685	207.56
258.918	221.56
259.151	226.56
259.383	229.56
259.616	233.56
259.849	231.56
260.081	223.56
260.314	248.56
260.547	260.56
260.779	237.56
261.012	236.56
261.244	211.56
261.477	220.56
261.71	215.56
261.942	236.56
262.175	239.56
262.407	228.56
262.64	211.56
262.872	215.56
263.105	209.56
263.337	214.56
263.57	196.56
263.802	224.56
264.035	221.56
264.267	213.56
264.499	215.56
264.732	220.56
264.964	207.56
265.197	209.56
265.429	207.56
265.661	211.56
265.894	210.56
266.126	204.56
266.358	202.56
266.591	234.56
266.823	223.56
267.055	221.56
267.287	228.56
267.52	220.56
267.752	217.56
267.984	232.56
268.216	230.56
268.448	241.56
268.681	234.56
268.913	245.56
269.145	250.56
269.377	265.56
269.609	278.56
269.841	257.56
270.073	255.56
270.306	291.56
270.538	285.56
270.77	295.56
271.002	279.56
271.234	268.56
271.466	271.56
271.698	300.56
271.93	314.56
272.162	265.56
272.394	290.56
272.626	273.56
272.858	275.56
273.09	285.56
273.322	254.56
273.553	258.56
273.785	260.56
274.017	270.56
274.249	261.56
274.481	252.56
274.713	242.56
274.945	260.56
275.176	260.56
275.408	266.56
275.64	250.56
275.872	258.56
276.104	252.56
276.335	251.56
276.567	256.56
276.799	283.56
277.031	301.56
277.262	326.56
277.494	302.56
277.726	283.56
277.957	262.56
278.189	265.56
278.421	275.56
278.652	265.56
278.884	268.56
279.115	266.56
279.347	270.56
279.579	246.56
279.81	272.56
280.042	260.56
280.273	262.56
280.505	271.56
280.736	270.56
280.968	266.56
281.199	251.56
281.431	266.56
281.662	253.56
281.894	267.56
282.125	258.56
282.356	283.56
282.588	309.56
282.819	315.56
283.051	277.56
283.282	272.56
283.513	278.56
283.745	266.56
283.976	269.56
284.207	270.56
284.439	283.56
284.67	270.56
284.901	278.56
285.132	259.56
285.364	276.56
285.595	267.56
285.826	281.56
286.057	279.56
286.288	289.56
286.52	286.56
286.751	288.56
286.982	271.56
287.213	270.56
287.444	289.56
287.675	277.56
287.906	272.56
288.138	289.56
288.369	306.56
288.6	305.56
288.831	294.56
289.062	283.56
289.293	311.56
289.524	279.56
289.755	284.56
289.986	295.56
290.217	296.56
290.448	306.56
290.679	275.56
290.91	299.56
291.141	302.56
291.371	303.56
291.602	296.56
291.833	289.56
292.064	310.56
292.295	305.56
292.526	282.56
292.757	300.56
292.987	289.56
293.218	296.56
293.449	307.56
293.68	315.56
293.91	301.56
294.141	289.56
294.372	293.56
294.603	311.56
294.833	294.56
295.064	296.56
295.295	298.56
295.525	289.56
295.756	298.56
295.987	307.56
296.217	330.56
296.448	327.56
296.679	307.56
296.909	307.56
297.14	296.56
297.37	303.56
297.601	316.56
297.831	301.56
298.062	296.56
298.292	316.56
298.523	320.56
298.753	306.56
298.984	314.56
299.214	322.56
299.445	306.56
299.675	313.56
299.905	333.56
300.136	325.56
300.366	322.56
300.597	327.56
300.827	315.56
301.057	317.56
301.288	323.56
301.518	338.56
301.748	327.56
301.979	322.56
302.209	342.56
302.439	330.56
302.669	340.56
302.9	347.56
303.13	352.56
303.36	335.56
303.59	337.56
303.82	345.56
304.051	342.56
304.281	344.56
304.511	338.56
304.741	334.56
304.971	326.56
305.201	326.56
305.431	316.56
305.661	354.56
305.891	324.56
306.121	348.56
306.352	348.56
306.582	345.56
306.812	357.56
307.042	344.56
307.272	329.56
307.502	339.56
307.731	326.56
307.961	326.56
308.191	342.56
308.421	333.56
308.651	345.56
308.881	326.56
309.111	345.56
309.341	340.56
309.571	360.56
309.8	365.56
310.03	382.56
310.26	373.56
310.49	364.56
310.72	372.56
310.949	397.56
311.179	393.56
311.409	387.56
311.639	389.56
311.868	378.56
312.098	385.56
312.328	385.56
312.557	393.56
312.787	407.56
313.017	418.56
313.246	381.56
313.476	379.56
313.706	368.56
313.935	401.56
314.165	394.56
314.394	403.56
314.624	396.56
314.853	377.56
315.083	385.56
315.312	373.56
315.542	383.56
315.771	387.56
316.001	371.56
316.23	370.56
316.46	378.56
316.689	411.56
316.919	381.56
317.148	389.56
317.377	411.56
317.607	385.56
317.836	385.56
318.065	386.56
318.295	382.56
318.524	385.56
318.753	357.56
318.983	391.56
319.212	379.56
319.441	386.56
319.67	392.56
319.9	363.56
320.129	393.56
320.358	379.56
320.587	392.56
320.816	401.56
321.046	397.56
321.275	410.56
321.504	408.56
321.733	415.56
321.962	403.56
322.191	420.56
322.42	417.56
322.649	440.56
322.878	470.56
323.108	433.56
323.337	467.56
323.566	499.56
323.795	498.56
324.024	535.56
324.253	658.56
324.482	890.56
324.71	1482.56
324.939	2172.56
325.168	1898.56
325.397	901.56
325.626	629.56
325.855	545.56
326.084	499.56
326.313	502.56
326.542	486.56
326.77	537.56
326.999	612.56
327.228	827.56
327.457	1325.56
327.686	1637.56
327.914	1062.56
328.143	675.56
328.372	637.56
328.6	577.56
328.829	547.56
329.058	554.56
329.287	576.56
329.515	543.56
329.744	489.56
329.972	484.56
330.201	485.56
330.43	541.56
330.658	572.56
330.887	611.56
331.115	572.56
331.344	501.56
331.572	471.56
331.801	495.56
332.03	492.56
332.258	487.56
332.486	477.56
332.715	457.56
332.943	481.56
333.172	469.56
333.4	471.56
333.629	499.56
333.857	498.56
334.085	516.56
334.314	511.56
334.542	550.56
334.771	563.56
334.999	511.56
335.227	486.56
335.455	475.56
335.684	475.56
335.912	465.56
336.14	469.56
336.369	443.56
336.597	485.56
336.825	481.56
337.053	470.56
337.281	467.56
337.51	471.56
337.738	468.56
337.966	459.56
338.194	445.56
338.422	446.56
338.65	439.56
338.878	438.56
339.106	450.56
339.334	450.56
339.562	438.56
339.79	445.56
340.018	463.56
340.246	428.56
340.474	434.56
340.702	458.56
340.93	443.56
341.158	436.56
341.386	435.56
341.614	458.56
341.842	459.56
342.07	436.56
342.298	446.56
342.526	440.56
342.754	428.56
342.981	421.56
343.209	437.56
343.437	462.56
343.665	440.56
343.893	469.56
344.12	448.56
344.348	460.56
344.576	439.56
344.804	429.56
345.031	428.56
345.259	452.56
345.487	462.56
345.714	459.56
345.942	411.56
346.17	428.56
346.397	430.56
346.625	430.56
346.853	422.56
347.08	435.56
347.308	411.56
347.535	442.56
347.763	433.56
347.99	446.56
348.218	466.56
348.445	439.56
348.673	442.56
348.9	444.56
349.128	415.56
349.355	430.56
349.583	417.56
349.81	417.56
350.037	407.56
350.265	414.56
350.492	408.56
350.72	434.56
350.947	434.56
351.174	422.56
351.402	434.56
351.629	444.56
351.856	408.56
352.083	446.56
352.311	435.56
352.538	414.56
352.765	429.56
352.992	437.56
353.22	418.56
353.447	430.56
353.674	418.56
353.901	429.56
354.128	413.56
354.355	399.56
354.583	403.56
354.81	417.56
355.037	412.56
355.264	411.56
355.491	405.56
355.718	414.56
355.945	410.56
356.172	428.56
356.399	410.56
356.626	419.56
356.853	410.56
357.08	394.56
357.307	390.56
357.534	391.56
357.761	402.56
357.988	398.56
358.215	407.56
358.441	400.56
358.668	430.56
358.895	412.56
359.122	394.56
359.349	423.56
359.576	422.56
359.802	462.56
360.029	475.56
360.256	484.56
360.483	479.56
360.709	454.56
360.936	450.56
361.163	433.56
361.39	442.56
361.616	448.56
361.843	422.56
362.07	429.56
362.296	434.56
362.523	427.56
362.749	420.56
362.976	430.56
363.203	439.56
363.429	411.56
363.656	411.56
363.882	414.56
364.109	403.56
364.335	416.56
364.562	415.56
364.788	403.56
365.015	414.56
365.241	419.56
365.468	410.56
365.694	413.56
365.92	411.56
366.147	410.56
366.373	434.56
366.599	428.56
366.826	421.56
367.052	412.56
367.278	409.56
367.505	395.56
367.731	417.56
367.957	393.56
368.184	422.56
368.41	432.56
368.636	461.56
368.862	428.56
369.089	424.56
369.315	419.56
369.541	419.56
369.767	439.56
369.993	418.56
370.219	424.56
370.445	416.56
370.672	410.56
370.898	402.56
371.124	414.56
371.35	429.56
371.576	423.56
371.802	444.56
372.028	430.56
372.254	423.56
372.48	426.56
372.706	436.56
372.932	429.56
373.158	444.56
373.384	437.56
373.61	428.56
373.835	442.56
374.061	437.56
374.287	431.56
374.513	439.56
374.739	442.56
374.965	435.56
375.191	447.56
375.416	442.56
375.642	445.56
375.868	442.56
376.094	443.56
376.319	414.56
376.545	426.56
376.771	434.56
376.997	441.56
377.222	430.56
377.448	443.56
377.674	428.56
377.899	433.56
378.125	439.56
378.35	420.56
378.576	412.56
378.802	423.56
379.027	397.56
379.253	420.56
379.478	404.56
379.704	425.56
379.929	417.56
380.155	429.56
380.38	424.56
380.606	411.56
380.831	428.56
381.057	433.56
381.282	433.56
381.507	417.56
381.733	418.56
381.958	441.56
382.184	453.56
382.409	439.56
382.634	464.56
382.86	450.56
383.085	444.56
383.31	452.56
383.535	424.56
383.761	440.56
383.986	463.56
384.211	456.56
384.436	451.56
384.662	448.56
384.887	463.56
385.112	460.56
385.337	473.56
385.562	486.56
385.787	459.56
386.013	489.56
386.238	470.56
386.463	489.56
386.688	471.56
386.913	463.56
387.138	491.56
387.363	479.56
387.588	470.56
387.813	476.56
388.038	484.56
388.263	474.56
388.488	456.56
388.713	492.56
388.938	486.56
389.163	475.56
389.387	501.56
389.612	489.56
389.837	473.56
390.062	475.56
390.287	477.56
390.512	492.56
390.736	470.56
390.961	499.56
391.186	483.56
391.411	478.56
391.636	507.56
391.86	498.56
392.085	492.56
392.31	492.56
392.534	498.56
392.759	499.56
392.984	479.56
393.208	495.56
393.433	478.56
393.658	479.56
393.882	486.56
394.107	488.56
394.331	474.56
394.556	500.56
394.78	490.56
395.005	515.56
395.229	520.56
395.454	507.56
395.678	523.56
395.903	503.56
396.127	525.56
396.352	547.56
396.576	519.56
396.801	507.56
397.025	488.56
397.249	499.56
397.474	513.56
397.698	511.56
397.922	533.56
398.147	545.56
398.371	553.56
398.595	543.56
398.82	562.56
399.044	567.56
399.268	596.56
399.492	638.56
399.717	659.56
399.941	692.56
400.165	711.56
400.389	695.56
400.613	658.56
400.837	587.56
401.062	572.56
401.286	573.56
401.51	579.56
401.734	556.56
401.958	581.56
402.182	589.56
402.406	600.56
402.63	601.56
402.854	578.56
403.078	553.56
403.302	578.56
403.526	602.56
403.75	618.56
403.974	590.56
404.198	603.56
404.422	615.56
404.645	617.56
404.869	601.56
405.093	622.56
405.317	683.56
405.541	701.56
405.765	661.56
405.988	634.56
406.212	626.56
406.436	652.56
406.66	676.56
406.883	643.56
407.107	693.56
407.331	685.56
407.555	783.56
407.778	820.56
408.002	718.56
408.226	659.56
408.449	658.56
408.673	653.56
408.896	679.56
409.12	692.56
409.344	681.56
409.567	606.56
409.791	606.56
410.014	587.56
410.238	589.56
410.461	604.56
410.685	602.56
410.908	613.56
411.132	666.56
411.355	693.56
411.578	658.56
411.802	619.56
412.025	618.56
412.249	612.56
412.472	621.56
412.695	664.56
412.919	641.56
413.142	610.56
413.365	573.56
413.589	572.56
413.812	594.56
414.035	563.56
414.258	557.56
414.482	567.56
414.705	588.56
414.928	583.56
415.151	571.56
415.374	573.56
415.597	579.56
415.821	559.56
416.044	563.56
416.267	574.56
416.49	574.56
416.713	575.56
416.936	568.56
417.159	592.56
417.382	577.56
417.605	594.56
417.828	573.56
418.051	590.56
418.274	571.56
418.497	582.56
418.72	553.56
418.943	555.56
419.166	604.56
419.389	610.56
419.611	608.56
419.834	633.56
420.057	611.56
420.28	614.56
420.503	596.56
420.726	563.56
420.948	599.56
421.171	663.56
421.394	673.56
421.617	605.56
421.839	602.56
422.062	583.56
422.285	598.56
422.507	651.56
422.73	727.56
422.953	703.56
423.175	639.56
423.398	615.56
423.621	607.56
423.843	633.56
424.066	633.56
424.288	627.56
424.511	642.56
424.733	694.56
424.956	778.56
425.178	739.56
425.401	739.56
425.623	757.56
425.846	663.56
426.068	634.56
426.291	613.56
426.513	608.56
426.735	629.56
426.958	683.56
427.18	747.56
427.402	870.56
427.625	997.56
427.847	853.56
428.069	753.56
428.292	674.56
428.514	606.56
428.736	587.56
428.958	582.56
429.181	554.56
429.403	584.56
429.625	597.56
429.847	633.56
430.069	670.56
430.292	651.56
430.514	605.56
430.736	589.56
430.958	554.56
431.18	546.56
431.402	545.56
431.624	555.56
431.846	550.56
432.068	535.56
432.29	555.56
432.512	545.56
432.734	557.56
432.956	545.56
433.178	569.56
433.4	586.56
433.622	561.56
433.844	573.56
434.066	546.56
434.287	550.56
434.509	573.56
434.731	585.56
434.953	587.56
435.175	618.56
435.397	628.56
435.618	637.56
435.84	648.56
436.062	771.56
436.284	835.56
436.505	703.56
436.727	639.56
436.949	602.56
437.17	567.56
437.392	581.56
437.614	589.56
437.835	636.56
438.057	721.56
438.278	857.56
438.5	782.56
438.721	879.56
438.943	852.56
439.165	681.56
439.386	615.56
439.608	639.56
439.829	617.56
440.05	634.56
440.272	703.56
440.493	675.56
440.715	629.56
440.936	580.56
441.158	574.56
441.379	597.56
441.6	597.56
441.822	630.56
442.043	669.56
442.264	730.56
442.486	785.56
442.707	677.56
442.928	637.56
443.149	642.56
443.371	653.56
443.592	714.56
443.813	789.56
444.034	890.56
444.255	739.56
444.476	683.56
444.698	659.56
444.919	649.56
445.14	740.56
445.361	668.56
445.582	668.56
445.803	742.56
446.024	824.56
446.245	851.56
446.466	773.56
446.687	667.56
446.908	599.56
447.129	581.56
447.35	578.56
447.571	562.56
447.792	551.56
448.013	585.56
448.234	597.56
448.455	618.56
448.675	747.56
448.896	871.56
449.117	720.56
449.338	678.56
449.559	825.56
449.779	924.56
450	717.56
450.221	630.56
450.442	559.56
450.662	556.56
450.883	575.56
451.104	570.56
451.324	557.56
451.545	557.56
451.766	521.56
451.986	502.56
452.207	515.56
452.428	519.56
452.648	516.56
452.869	526.56
453.089	519.56
453.31	523.56
453.53	524.56
453.751	515.56
453.971	495.56
454.192	554.56
454.412	542.56
454.633	521.56
454.853	525.56
455.073	491.56
455.294	526.56
455.514	614.56
455.734	581.56
455.955	531.56
456.175	506.56
456.395	504.56
456.616	489.56
456.836	484.56
457.056	509.56
457.276	476.56
457.497	502.56
457.717	497.56
457.937	508.56
458.157	501.56
458.377	491.56
458.598	547.56
458.818	593.56
459.038	673.56
459.258	663.56
459.478	609.56
459.698	586.56
459.918	542.56
460.138	567.56
460.358	571.56
460.578	577.56
460.798	583.56
461.018	588.56
461.238	578.56
461.458	599.56
461.678	592.56
461.898	584.56
462.118	565.56
462.338	599.56
462.558	605.56
462.777	609.56
462.997	629.56
463.217	645.56
463.437	663.56
463.657	637.56
463.876	647.56
464.096	629.56
464.316	626.56
464.536	624.56
464.755	633.56
464.975	635.56
465.195	646.56
465.414	714.56
465.634	646.56
465.854	609.56
466.073	589.56
466.293	558.56
466.512	561.56
466.732	546.56
466.951	524.56
467.171	540.56
467.391	535.56
467.61	549.56
467.829	567.56
468.049	565.56
468.268	525.56
468.488	543.56
468.707	513.56
468.927	522.56
469.146	498.56
469.365	507.56
469.585	521.56
469.804	531.56
470.023	543.56
470.243	553.56
470.462	532.56
470.681	549.56
470.901	561.56
471.12	537.56
471.339	558.56
471.558	553.56
471.777	524.56
471.997	526.56
472.216	582.56
472.435	581.56
472.654	579.56
472.873	547.56
473.092	552.56
473.311	539.56
473.53	527.56
473.749	553.56
473.968	579.56
474.187	675.56
474.406	693.56
474.625	585.56
474.844	545.56
475.063	522.56
475.282	548.56
475.501	530.56
475.72	548.56
475.939	522.56
476.158	563.56
476.377	587.56
476.596	550.56
476.814	572.56
477.033	577.56
477.252	557.56
477.471	589.56
477.69	580.56
477.908	585.56
478.127	594.56
478.346	604.56
478.564	614.56
478.783	588.56
479.002	607.56
479.22	634.56
479.439	619.56
479.658	633.56
479.876	671.56
480.095	646.56
480.313	689.56
480.532	705.56
480.751	667.56
480.969	675.56
481.188	720.56
481.406	754.56
481.624	708.56
481.843	647.56
482.061	637.56
482.28	632.56
482.498	632.56
482.717	640.56
482.935	639.56
483.153	633.56
483.372	618.56
483.59	635.56
483.808	633.56
484.027	619.56
484.245	638.56
484.463	625.56
484.681	631.56
484.9	649.56
485.118	661.56
485.336	650.56
485.554	639.56
485.772	656.56
485.99	644.56
486.209	651.56
486.427	681.56
486.645	664.56
486.863	718.56
487.081	674.56
487.299	657.56
487.517	686.56
487.735	678.56
487.953	662.56
488.171	680.56
488.389	661.56
488.607	676.56
488.825	662.56
489.043	699.56
489.261	683.56
489.479	684.56
489.696	704.56
489.914	695.56
490.132	691.56
490.35	697.56
490.568	724.56
490.786	731.56
491.003	705.56
491.221	748.56
491.439	717.56
491.657	741.56
491.874	760.56
492.092	737.56
492.31	792.56
492.527	783.56
492.745	781.56
492.963	778.56
493.18	776.56
493.398	789.56
493.615	801.56
493.833	803.56
494.05	790.56
494.268	809.56
494.485	778.56
494.703	801.56
494.92	779.56
495.138	759.56
495.355	806.56
495.573	792.56
495.79	818.56
496.008	803.56
496.225	808.56
496.442	794.56
496.66	807.56
496.877	801.56
497.094	825.56
497.312	831.56
497.529	827.56
497.746	841.56
497.963	868.56
498.181	862.56
498.398	892.56
498.615	900.56
498.832	949.56
499.049	1007.56
499.267	985.56
499.484	1017.56
499.701	1064.56
499.918	1115.56
500.135	1151.56
500.352	1261.56
500.569	1262.56
500.786	1238.56
501.003	1266.56
501.22	1197.56
501.437	1130.56
501.654	1132.56
501.871	1073.56
