Data from 1979.PennyLincolnUp.Lamp.En5.5.200Scan.071719.P1_HRD10591_16-20-03-865.txt Node
Date: Thu Jul 18 16:20:03 EDT 2019
User: cochatt
Spectrometer: HR+D1059
Trigger mode: 1
Integration Time (sec): 1.000000E-1
Scans to average: 1
Electric dark correction enabled: true
Nonlinearity correction enabled: false
Boxcar width: 0
XAxis mode: Wavelengths
Number of Pixels in Spectrum: 2048
>>>>>Begin Spectral Data<<<<<
223.165	-15.44
223.4	-15.44
223.635	-15.44
223.869	-24.44
224.104	-22.44
224.338	-11.44
224.573	-25.44
224.808	-6.44
225.042	-7.44
225.277	0.56
225.511	2.56
225.746	3.56
225.98	1.56
226.215	28.56
226.449	6.56
226.683	22.56
226.918	17.56
227.152	29.56
227.387	26.56
227.621	47.56
227.856	42.56
228.09	44.56
228.324	54.56
228.559	42.56
228.793	76.56
229.027	101.56
229.262	88.56
229.496	112.56
229.73	119.56
229.964	148.56
230.199	132.56
230.433	114.56
230.667	119.56
230.901	114.56
231.136	103.56
231.37	102.56
231.604	92.56
231.838	102.56
232.072	109.56
232.306	110.56
232.541	106.56
232.775	102.56
233.009	126.56
233.243	124.56
233.477	94.56
233.711	116.56
233.945	110.56
234.179	128.56
234.413	121.56
234.647	122.56
234.881	118.56
235.115	108.56
235.349	119.56
235.583	102.56
235.817	120.56
236.051	110.56
236.285	121.56
236.519	125.56
236.753	138.56
236.987	137.56
237.221	180.56
237.455	215.56
237.689	165.56
237.922	144.56
238.156	117.56
238.39	124.56
238.624	129.56
238.858	120.56
239.091	109.56
239.325	124.56
239.559	132.56
239.793	140.56
240.027	132.56
240.26	132.56
240.494	155.56
240.728	150.56
240.961	152.56
241.195	143.56
241.429	139.56
241.662	130.56
241.896	132.56
242.13	129.56
242.363	138.56
242.597	126.56
242.83	140.56
243.064	149.56
243.298	144.56
243.531	133.56
243.765	132.56
243.998	131.56
244.232	139.56
244.465	142.56
244.699	147.56
244.932	142.56
245.166	137.56
245.399	140.56
245.633	137.56
245.866	161.56
246.099	157.56
246.333	152.56
246.566	142.56
246.8	152.56
247.033	157.56
247.266	156.56
247.5	165.56
247.733	170.56
247.966	186.56
248.2	170.56
248.433	157.56
248.666	152.56
248.899	164.56
249.133	187.56
249.366	187.56
249.599	196.56
249.832	179.56
250.066	170.56
250.299	192.56
250.532	184.56
250.765	203.56
250.998	207.56
251.231	201.56
251.465	196.56
251.698	201.56
251.931	192.56
252.164	180.56
252.397	186.56
252.63	197.56
252.863	203.56
253.096	210.56
253.329	232.56
253.562	206.56
253.795	231.56
254.028	187.56
254.261	215.56
254.494	200.56
254.727	228.56
254.96	242.56
255.193	253.56
255.426	229.56
255.659	226.56
255.892	216.56
256.124	216.56
256.357	220.56
256.59	217.56
256.823	213.56
257.056	196.56
257.289	202.56
257.521	204.56
257.754	192.56
257.987	202.56
258.22	205.56
258.452	205.56
258.685	196.56
258.918	196.56
259.151	217.56
259.383	200.56
259.616	215.56
259.849	210.56
260.081	225.56
260.314	243.56
260.547	233.56
260.779	228.56
261.012	217.56
261.244	211.56
261.477	224.56
261.71	214.56
261.942	220.56
262.175	210.56
262.407	223.56
262.64	197.56
262.872	184.56
263.105	209.56
263.337	192.56
263.57	215.56
263.802	210.56
264.035	210.56
264.267	218.56
264.499	195.56
264.732	206.56
264.964	209.56
265.197	208.56
265.429	217.56
265.661	213.56
265.894	204.56
266.126	213.56
266.358	206.56
266.591	215.56
266.823	229.56
267.055	219.56
267.287	217.56
267.52	221.56
267.752	222.56
267.984	209.56
268.216	240.56
268.448	253.56
268.681	213.56
268.913	229.56
269.145	237.56
269.377	261.56
269.609	255.56
269.841	261.56
270.073	259.56
270.306	275.56
270.538	312.56
270.77	291.56
271.002	278.56
271.234	278.56
271.466	279.56
271.698	284.56
271.93	299.56
272.162	284.56
272.394	310.56
272.626	276.56
272.858	261.56
273.09	282.56
273.322	238.56
273.553	249.56
273.785	269.56
274.017	264.56
274.249	259.56
274.481	241.56
274.713	241.56
274.945	253.56
275.176	269.56
275.408	246.56
275.64	257.56
275.872	269.56
276.104	262.56
276.335	257.56
276.567	268.56
276.799	282.56
277.031	298.56
277.262	301.56
277.494	332.56
277.726	301.56
277.957	292.56
278.189	258.56
278.421	263.56
278.652	267.56
278.884	257.56
279.115	251.56
279.347	252.56
279.579	268.56
279.81	256.56
280.042	247.56
280.273	248.56
280.505	253.56
280.736	274.56
280.968	255.56
281.199	274.56
281.431	272.56
281.662	263.56
281.894	264.56
282.125	263.56
282.356	276.56
282.588	298.56
282.819	316.56
283.051	286.56
283.282	282.56
283.513	281.56
283.745	280.56
283.976	269.56
284.207	271.56
284.439	266.56
284.67	280.56
284.901	293.56
285.132	280.56
285.364	268.56
285.595	249.56
285.826	260.56
286.057	270.56
286.288	251.56
286.52	283.56
286.751	279.56
286.982	279.56
287.213	264.56
287.444	287.56
287.675	273.56
287.906	281.56
288.138	293.56
288.369	294.56
288.6	289.56
288.831	294.56
289.062	300.56
289.293	287.56
289.524	289.56
289.755	277.56
289.986	285.56
290.217	277.56
290.448	280.56
290.679	298.56
290.91	293.56
291.141	289.56
291.371	281.56
291.602	300.56
291.833	296.56
292.064	279.56
292.295	294.56
292.526	279.56
292.757	279.56
292.987	286.56
293.218	293.56
293.449	296.56
293.68	288.56
293.91	274.56
294.141	291.56
294.372	280.56
294.603	296.56
294.833	300.56
295.064	276.56
295.295	284.56
295.525	282.56
295.756	304.56
295.987	308.56
296.217	325.56
296.448	309.56
296.679	298.56
296.909	288.56
297.14	288.56
297.37	291.56
297.601	302.56
297.831	278.56
298.062	312.56
298.292	301.56
298.523	296.56
298.753	328.56
298.984	308.56
299.214	299.56
299.445	312.56
299.675	298.56
299.905	310.56
300.136	316.56
300.366	308.56
300.597	318.56
300.827	311.56
301.057	307.56
301.288	323.56
301.518	330.56
301.748	311.56
301.979	326.56
302.209	318.56
302.439	320.56
302.669	324.56
302.9	320.56
303.13	325.56
303.36	340.56
303.59	338.56
303.82	324.56
304.051	334.56
304.281	330.56
304.511	324.56
304.741	342.56
304.971	351.56
305.201	320.56
305.431	314.56
305.661	343.56
305.891	333.56
306.121	326.56
306.352	343.56
306.582	330.56
306.812	337.56
307.042	341.56
307.272	340.56
307.502	334.56
307.731	339.56
307.961	329.56
308.191	333.56
308.421	330.56
308.651	350.56
308.881	328.56
309.111	349.56
309.341	348.56
309.571	362.56
309.8	360.56
310.03	342.56
310.26	375.56
310.49	374.56
310.72	368.56
310.949	397.56
311.179	388.56
311.409	376.56
311.639	361.56
311.868	384.56
312.098	369.56
312.328	384.56
312.557	378.56
312.787	380.56
313.017	388.56
313.246	381.56
313.476	370.56
313.706	348.56
313.935	344.56
314.165	415.56
314.394	386.56
314.624	398.56
314.853	386.56
315.083	375.56
315.312	371.56
315.542	369.56
315.771	381.56
316.001	380.56
316.23	366.56
316.46	355.56
316.689	357.56
316.919	382.56
317.148	372.56
317.377	389.56
317.607	378.56
317.836	377.56
318.065	362.56
318.295	374.56
318.524	359.56
318.753	342.56
318.983	359.56
319.212	376.56
319.441	380.56
319.67	377.56
319.9	392.56
320.129	376.56
320.358	360.56
320.587	364.56
320.816	390.56
321.046	394.56
321.275	399.56
321.504	382.56
321.733	379.56
321.962	393.56
322.191	395.56
322.42	422.56
322.649	431.56
322.878	436.56
323.108	439.56
323.337	474.56
323.566	467.56
323.795	500.56
324.024	546.56
324.253	644.56
324.482	898.56
324.71	1408.56
324.939	2123.56
325.168	1811.56
325.397	894.56
325.626	637.56
325.855	515.56
326.084	502.56
326.313	481.56
326.542	479.56
326.77	550.56
326.999	602.56
327.228	835.56
327.457	1309.56
327.686	1612.56
327.914	1042.56
328.143	664.56
328.372	589.56
328.6	572.56
328.829	538.56
329.058	555.56
329.287	558.56
329.515	509.56
329.744	483.56
329.972	485.56
330.201	529.56
330.43	543.56
330.658	573.56
330.887	604.56
331.115	570.56
331.344	527.56
331.572	488.56
331.801	509.56
332.03	498.56
332.258	464.56
332.486	448.56
332.715	462.56
332.943	460.56
333.172	469.56
333.4	461.56
333.629	463.56
333.857	493.56
334.085	497.56
334.314	496.56
334.542	548.56
334.771	556.56
334.999	508.56
335.227	472.56
335.455	464.56
335.684	464.56
335.912	456.56
336.14	443.56
336.369	474.56
336.597	457.56
336.825	467.56
337.053	460.56
337.281	450.56
337.51	444.56
337.738	468.56
337.966	462.56
338.194	454.56
338.422	470.56
338.65	430.56
338.878	455.56
339.106	444.56
339.334	441.56
339.562	454.56
339.79	443.56
340.018	434.56
340.246	445.56
340.474	423.56
340.702	426.56
340.93	408.56
341.158	448.56
341.386	443.56
341.614	437.56
341.842	438.56
342.07	424.56
342.298	434.56
342.526	420.56
342.754	411.56
342.981	420.56
343.209	416.56
343.437	419.56
343.665	441.56
343.893	451.56
344.12	448.56
344.348	444.56
344.576	456.56
344.804	458.56
345.031	425.56
345.259	453.56
345.487	453.56
345.714	426.56
345.942	426.56
346.17	423.56
346.397	425.56
346.625	415.56
346.853	410.56
347.08	428.56
347.308	416.56
347.535	420.56
347.763	427.56
347.99	450.56
348.218	422.56
348.445	439.56
348.673	424.56
348.9	440.56
349.128	417.56
349.355	410.56
349.583	405.56
349.81	411.56
350.037	388.56
350.265	407.56
350.492	412.56
350.72	414.56
350.947	401.56
351.174	434.56
351.402	427.56
351.629	410.56
351.856	441.56
352.083	441.56
352.311	429.56
352.538	456.56
352.765	432.56
352.992	439.56
353.22	435.56
353.447	422.56
353.674	417.56
353.901	416.56
354.128	406.56
354.355	419.56
354.583	399.56
354.81	387.56
355.037	406.56
355.264	410.56
355.491	386.56
355.718	403.56
355.945	399.56
356.172	395.56
356.399	394.56
356.626	373.56
356.853	386.56
357.08	386.56
357.307	416.56
357.534	396.56
357.761	386.56
357.988	410.56
358.215	406.56
358.441	417.56
358.668	413.56
358.895	418.56
359.122	379.56
359.349	417.56
359.576	425.56
359.802	443.56
360.029	453.56
360.256	482.56
360.483	448.56
360.709	416.56
360.936	424.56
361.163	419.56
361.39	433.56
361.616	441.56
361.843	414.56
362.07	429.56
362.296	425.56
362.523	427.56
362.749	424.56
362.976	422.56
363.203	419.56
363.429	408.56
363.656	428.56
363.882	410.56
364.109	418.56
364.335	419.56
364.562	422.56
364.788	405.56
365.015	409.56
365.241	413.56
365.468	414.56
365.694	415.56
365.92	420.56
366.147	404.56
366.373	419.56
366.599	386.56
366.826	403.56
367.052	423.56
367.278	422.56
367.505	414.56
367.731	405.56
367.957	405.56
368.184	414.56
368.41	417.56
368.636	393.56
368.862	448.56
369.089	413.56
369.315	419.56
369.541	421.56
369.767	409.56
369.993	411.56
370.219	413.56
370.445	408.56
370.672	417.56
370.898	421.56
371.124	423.56
371.35	418.56
371.576	413.56
371.802	421.56
372.028	416.56
372.254	421.56
372.48	399.56
372.706	424.56
372.932	445.56
373.158	429.56
373.384	424.56
373.61	412.56
373.835	419.56
374.061	413.56
374.287	419.56
374.513	434.56
374.739	437.56
374.965	440.56
375.191	438.56
375.416	433.56
375.642	428.56
375.868	456.56
376.094	423.56
376.319	424.56
376.545	439.56
376.771	431.56
376.997	407.56
377.222	419.56
377.448	440.56
377.674	421.56
377.899	412.56
378.125	421.56
378.35	439.56
378.576	419.56
378.802	402.56
379.027	408.56
379.253	426.56
379.478	416.56
379.704	415.56
379.929	403.56
380.155	400.56
380.38	413.56
380.606	417.56
380.831	413.56
381.057	424.56
381.282	427.56
381.507	416.56
381.733	432.56
381.958	437.56
382.184	428.56
382.409	431.56
382.634	449.56
382.86	443.56
383.085	439.56
383.31	436.56
383.535	434.56
383.761	439.56
383.986	445.56
384.211	444.56
384.436	450.56
384.662	455.56
384.887	477.56
385.112	472.56
385.337	455.56
385.562	474.56
385.787	448.56
386.013	458.56
386.238	470.56
386.463	472.56
386.688	459.56
386.913	454.56
387.138	467.56
387.363	466.56
387.588	476.56
387.813	471.56
388.038	450.56
388.263	490.56
388.488	462.56
388.713	491.56
388.938	466.56
389.163	465.56
389.387	477.56
389.612	471.56
389.837	462.56
390.062	484.56
390.287	467.56
390.512	450.56
390.736	462.56
390.961	472.56
391.186	473.56
391.411	479.56
391.636	484.56
391.86	486.56
392.085	489.56
392.31	491.56
392.534	496.56
392.759	508.56
392.984	489.56
393.208	496.56
393.433	500.56
393.658	481.56
393.882	483.56
394.107	481.56
394.331	493.56
394.556	467.56
394.78	484.56
395.005	486.56
395.229	489.56
395.454	503.56
395.678	500.56
395.903	510.56
396.127	529.56
396.352	538.56
396.576	494.56
396.801	485.56
397.025	498.56
397.249	531.56
397.474	502.56
397.698	529.56
397.922	518.56
398.147	544.56
398.371	557.56
398.595	561.56
398.82	533.56
399.044	553.56
399.268	578.56
399.492	624.56
399.717	654.56
399.941	672.56
400.165	699.56
400.389	709.56
400.613	627.56
400.837	575.56
401.062	570.56
401.286	548.56
401.51	582.56
401.734	563.56
401.958	567.56
402.182	571.56
402.406	568.56
402.63	572.56
402.854	561.56
403.078	582.56
403.302	600.56
403.526	562.56
403.75	597.56
403.974	586.56
404.198	574.56
404.422	601.56
404.645	605.56
404.869	596.56
405.093	651.56
405.317	661.56
405.541	678.56
405.765	629.56
405.988	601.56
406.212	622.56
406.436	669.56
406.66	674.56
406.883	645.56
407.107	692.56
407.331	704.56
407.555	782.56
407.778	770.56
408.002	700.56
408.226	667.56
408.449	665.56
408.673	651.56
408.896	674.56
409.12	730.56
409.344	676.56
409.567	640.56
409.791	612.56
410.014	610.56
410.238	583.56
410.461	592.56
410.685	612.56
410.908	586.56
411.132	624.56
411.355	642.56
411.578	629.56
411.802	619.56
412.025	587.56
412.249	598.56
412.472	628.56
412.695	653.56
412.919	662.56
413.142	595.56
413.365	573.56
413.589	561.56
413.812	573.56
414.035	562.56
414.258	573.56
414.482	585.56
414.705	578.56
414.928	579.56
415.151	592.56
415.374	537.56
415.597	533.56
415.821	555.56
416.044	531.56
416.267	548.56
416.49	553.56
416.713	540.56
416.936	570.56
417.159	560.56
417.382	569.56
417.605	565.56
417.828	574.56
418.051	563.56
418.274	582.56
418.497	570.56
418.72	566.56
418.943	565.56
419.166	579.56
419.389	608.56
419.611	597.56
419.834	594.56
420.057	581.56
420.28	578.56
420.503	584.56
420.726	574.56
420.948	586.56
421.171	633.56
421.394	651.56
421.617	607.56
421.839	588.56
422.062	556.56
422.285	598.56
422.507	630.56
422.73	712.56
422.953	677.56
423.175	627.56
423.398	600.56
423.621	608.56
423.843	617.56
424.066	621.56
424.288	593.56
424.511	626.56
424.733	687.56
424.956	788.56
425.178	748.56
425.401	721.56
425.623	741.56
425.846	650.56
426.068	608.56
426.291	600.56
426.513	594.56
426.735	618.56
426.958	645.56
427.18	725.56
427.402	855.56
427.625	974.56
427.847	839.56
428.069	724.56
428.292	646.56
428.514	597.56
428.736	564.56
428.958	541.56
429.181	586.56
429.403	550.56
429.625	576.56
429.847	610.56
430.069	670.56
430.292	686.56
430.514	586.56
430.736	551.56
430.958	578.56
431.18	555.56
431.402	521.56
431.624	552.56
431.846	550.56
432.068	548.56
432.29	547.56
432.512	539.56
432.734	552.56
432.956	541.56
433.178	554.56
433.4	566.56
433.622	546.56
433.844	544.56
434.066	553.56
434.287	531.56
434.509	549.56
434.731	547.56
434.953	560.56
435.175	585.56
435.397	585.56
435.618	605.56
435.84	632.56
436.062	738.56
436.284	827.56
436.505	688.56
436.727	594.56
436.949	598.56
437.17	555.56
437.392	574.56
437.614	568.56
437.835	582.56
438.057	691.56
438.278	798.56
438.5	800.56
438.721	900.56
438.943	833.56
439.165	681.56
439.386	624.56
439.608	632.56
439.829	619.56
440.05	648.56
440.272	686.56
440.493	631.56
440.715	606.56
440.936	616.56
441.158	572.56
441.379	538.56
441.6	579.56
441.822	605.56
442.043	663.56
442.264	728.56
442.486	769.56
442.707	660.56
442.928	651.56
443.149	616.56
443.371	660.56
443.592	679.56
443.813	793.56
444.034	852.56
444.255	724.56
444.476	621.56
444.698	659.56
444.919	634.56
445.14	706.56
445.361	694.56
445.582	646.56
445.803	705.56
446.024	817.56
446.245	828.56
446.466	741.56
446.687	677.56
446.908	635.56
447.129	574.56
447.35	579.56
447.571	555.56
447.792	553.56
448.013	550.56
448.234	574.56
448.455	617.56
448.675	736.56
448.896	874.56
449.117	732.56
449.338	684.56
449.559	783.56
449.779	903.56
450	731.56
450.221	608.56
450.442	593.56
450.662	553.56
450.883	556.56
451.104	549.56
451.324	562.56
451.545	526.56
451.766	505.56
451.986	508.56
452.207	520.56
452.428	515.56
452.648	538.56
452.869	517.56
453.089	521.56
453.31	538.56
453.53	512.56
453.751	493.56
453.971	492.56
454.192	522.56
454.412	503.56
454.633	522.56
454.853	493.56
455.073	491.56
455.294	533.56
455.514	591.56
455.734	576.56
455.955	510.56
456.175	505.56
456.395	489.56
456.616	482.56
456.836	477.56
457.056	493.56
457.276	468.56
457.497	490.56
457.717	489.56
457.937	480.56
458.157	480.56
458.377	494.56
458.598	504.56
458.818	588.56
459.038	630.56
459.258	676.56
459.478	555.56
459.698	536.56
459.918	550.56
460.138	537.56
460.358	565.56
460.578	536.56
460.798	593.56
461.018	587.56
461.238	574.56
461.458	573.56
461.678	562.56
461.898	572.56
462.118	556.56
462.338	584.56
462.558	608.56
462.777	612.56
462.997	597.56
463.217	628.56
463.437	642.56
463.657	599.56
463.876	630.56
464.096	613.56
464.316	603.56
464.536	624.56
464.755	628.56
464.975	619.56
465.195	642.56
465.414	710.56
465.634	641.56
465.854	569.56
466.073	546.56
466.293	552.56
466.512	539.56
466.732	522.56
466.951	537.56
467.171	524.56
467.391	535.56
467.61	560.56
467.829	543.56
468.049	532.56
468.268	551.56
468.488	540.56
468.707	526.56
468.927	510.56
469.146	517.56
469.365	518.56
469.585	521.56
469.804	532.56
470.023	530.56
470.243	541.56
470.462	555.56
470.681	549.56
470.901	547.56
471.12	555.56
471.339	547.56
471.558	535.56
471.777	542.56
471.997	528.56
472.216	537.56
472.435	569.56
472.654	531.56
472.873	536.56
473.092	511.56
473.311	516.56
473.53	509.56
473.749	542.56
473.968	564.56
474.187	653.56
474.406	669.56
474.625	570.56
474.844	544.56
475.063	532.56
475.282	539.56
475.501	528.56
475.72	532.56
475.939	546.56
476.158	554.56
476.377	542.56
476.596	558.56
476.814	573.56
477.033	540.56
477.252	583.56
477.471	575.56
477.69	565.56
477.908	572.56
478.127	571.56
478.346	599.56
478.564	601.56
478.783	611.56
479.002	606.56
479.22	617.56
479.439	650.56
479.658	642.56
479.876	651.56
480.095	655.56
480.313	672.56
480.532	672.56
480.751	669.56
480.969	660.56
481.188	738.56
481.406	753.56
481.624	676.56
481.843	638.56
482.061	638.56
482.28	617.56
482.498	602.56
482.717	609.56
482.935	611.56
483.153	620.56
483.372	601.56
483.59	617.56
483.808	624.56
484.027	630.56
484.245	626.56
484.463	645.56
484.681	628.56
484.9	654.56
485.118	630.56
485.336	644.56
485.554	665.56
485.772	653.56
485.99	630.56
486.209	645.56
486.427	661.56
486.645	640.56
486.863	688.56
487.081	648.56
487.299	659.56
487.517	666.56
487.735	653.56
487.953	663.56
488.171	677.56
488.389	652.56
488.607	691.56
488.825	648.56
489.043	636.56
489.261	672.56
489.479	672.56
489.696	693.56
489.914	678.56
490.132	680.56
490.35	672.56
490.568	712.56
490.786	694.56
491.003	697.56
491.221	724.56
491.439	729.56
491.657	728.56
491.874	748.56
492.092	771.56
492.31	729.56
492.527	756.56
492.745	754.56
492.963	760.56
493.18	760.56
493.398	769.56
493.615	764.56
493.833	765.56
494.05	755.56
494.268	747.56
494.485	750.56
494.703	781.56
494.92	759.56
495.138	766.56
495.355	777.56
495.573	789.56
495.79	787.56
496.008	786.56
496.225	792.56
496.442	772.56
496.66	786.56
496.877	807.56
497.094	801.56
497.312	784.56
497.529	806.56
497.746	875.56
497.963	826.56
498.181	877.56
498.398	892.56
498.615	874.56
498.832	930.56
499.049	937.56
499.267	949.56
499.484	978.56
499.701	1037.56
499.918	1051.56
500.135	1161.56
500.352	1219.56
500.569	1247.56
500.786	1245.56
501.003	1220.56
501.22	1184.56
501.437	1112.56
501.654	1086.56
501.871	1040.56
