Data from 1979.PennyLincolnUp.Lamp.En5.5.200Scan.071719.P1_HRD10591_16-20-17-863.txt Node
Date: Thu Jul 18 16:20:17 EDT 2019
User: cochatt
Spectrometer: HR+D1059
Trigger mode: 1
Integration Time (sec): 1.000000E-1
Scans to average: 1
Electric dark correction enabled: true
Nonlinearity correction enabled: false
Boxcar width: 0
XAxis mode: Wavelengths
Number of Pixels in Spectrum: 2048
>>>>>Begin Spectral Data<<<<<
223.165	-6.88
223.4	-6.88
223.635	-6.88
223.869	-10.88
224.104	-16.88
224.338	-15.88
224.573	-16.88
224.808	-13.88
225.042	-2.88
225.277	-12.88
225.511	-5.88
225.746	-7.88
225.98	-2.88
226.215	9.12
226.449	30.12
226.683	28.12
226.918	20.12
227.152	26.12
227.387	38.12
227.621	35.12
227.856	39.12
228.09	29.12
228.324	44.12
228.559	60.12
228.793	58.12
229.027	88.12
229.262	104.12
229.496	108.12
229.73	133.12
229.964	158.12
230.199	121.12
230.433	115.12
230.667	111.12
230.901	116.12
231.136	123.12
231.37	124.12
231.604	117.12
231.838	116.12
232.072	122.12
232.306	125.12
232.541	114.12
232.775	109.12
233.009	105.12
233.243	121.12
233.477	128.12
233.711	123.12
233.945	107.12
234.179	105.12
234.413	118.12
234.647	122.12
234.881	113.12
235.115	126.12
235.349	111.12
235.583	119.12
235.817	121.12
236.051	128.12
236.285	125.12
236.519	125.12
236.753	130.12
236.987	136.12
237.221	174.12
237.455	222.12
237.689	155.12
237.922	141.12
238.156	135.12
238.39	138.12
238.624	119.12
238.858	116.12
239.091	138.12
239.325	110.12
239.559	117.12
239.793	154.12
240.027	148.12
240.26	134.12
240.494	154.12
240.728	147.12
240.961	147.12
241.195	131.12
241.429	131.12
241.662	136.12
241.896	137.12
242.13	144.12
242.363	139.12
242.597	130.12
242.83	140.12
243.064	140.12
243.298	153.12
243.531	145.12
243.765	125.12
243.998	138.12
244.232	126.12
244.465	154.12
244.699	137.12
244.932	137.12
245.166	130.12
245.399	154.12
245.633	147.12
245.866	159.12
246.099	148.12
246.333	155.12
246.566	145.12
246.8	157.12
247.033	169.12
247.266	164.12
247.5	173.12
247.733	166.12
247.966	184.12
248.2	161.12
248.433	172.12
248.666	171.12
248.899	185.12
249.133	186.12
249.366	197.12
249.599	198.12
249.832	181.12
250.066	179.12
250.299	170.12
250.532	206.12
250.765	197.12
250.998	213.12
251.231	205.12
251.465	195.12
251.698	194.12
251.931	170.12
252.164	199.12
252.397	190.12
252.63	175.12
252.863	212.12
253.096	211.12
253.329	225.12
253.562	197.12
253.795	189.12
254.028	196.12
254.261	202.12
254.494	213.12
254.727	241.12
254.96	249.12
255.193	238.12
255.426	227.12
255.659	208.12
255.892	227.12
256.124	209.12
256.357	217.12
256.59	249.12
256.823	204.12
257.056	214.12
257.289	187.12
257.521	211.12
257.754	214.12
257.987	211.12
258.22	215.12
258.452	212.12
258.685	219.12
258.918	203.12
259.151	201.12
259.383	217.12
259.616	201.12
259.849	221.12
260.081	243.12
260.314	248.12
260.547	226.12
260.779	226.12
261.012	226.12
261.244	226.12
261.477	208.12
261.71	204.12
261.942	222.12
262.175	228.12
262.407	219.12
262.64	193.12
262.872	208.12
263.105	212.12
263.337	201.12
263.57	213.12
263.802	204.12
264.035	187.12
264.267	206.12
264.499	204.12
264.732	214.12
264.964	217.12
265.197	217.12
265.429	200.12
265.661	203.12
265.894	224.12
266.126	205.12
266.358	220.12
266.591	248.12
266.823	216.12
267.055	218.12
267.287	209.12
267.52	219.12
267.752	231.12
267.984	229.12
268.216	234.12
268.448	225.12
268.681	237.12
268.913	254.12
269.145	253.12
269.377	266.12
269.609	261.12
269.841	238.12
270.073	266.12
270.306	273.12
270.538	291.12
270.77	302.12
271.002	300.12
271.234	282.12
271.466	295.12
271.698	289.12
271.93	305.12
272.162	293.12
272.394	295.12
272.626	300.12
272.858	281.12
273.09	270.12
273.322	249.12
273.553	239.12
273.785	266.12
274.017	242.12
274.249	267.12
274.481	246.12
274.713	257.12
274.945	261.12
275.176	281.12
275.408	249.12
275.64	253.12
275.872	247.12
276.104	242.12
276.335	237.12
276.567	267.12
276.799	282.12
277.031	301.12
277.262	305.12
277.494	306.12
277.726	287.12
277.957	279.12
278.189	283.12
278.421	265.12
278.652	249.12
278.884	243.12
279.115	256.12
279.347	261.12
279.579	263.12
279.81	266.12
280.042	275.12
280.273	258.12
280.505	267.12
280.736	274.12
280.968	261.12
281.199	278.12
281.431	283.12
281.662	260.12
281.894	268.12
282.125	250.12
282.356	308.12
282.588	312.12
282.819	295.12
283.051	261.12
283.282	258.12
283.513	271.12
283.745	269.12
283.976	262.12
284.207	276.12
284.439	290.12
284.67	284.12
284.901	268.12
285.132	280.12
285.364	278.12
285.595	270.12
285.826	268.12
286.057	272.12
286.288	287.12
286.52	290.12
286.751	271.12
286.982	293.12
287.213	280.12
287.444	297.12
287.675	295.12
287.906	287.12
288.138	297.12
288.369	305.12
288.6	289.12
288.831	290.12
289.062	273.12
289.293	287.12
289.524	270.12
289.755	266.12
289.986	283.12
290.217	283.12
290.448	292.12
290.679	277.12
290.91	301.12
291.141	269.12
291.371	293.12
291.602	291.12
291.833	287.12
292.064	297.12
292.295	282.12
292.526	285.12
292.757	283.12
292.987	298.12
293.218	297.12
293.449	299.12
293.68	285.12
293.91	283.12
294.141	285.12
294.372	281.12
294.603	293.12
294.833	280.12
295.064	301.12
295.295	298.12
295.525	310.12
295.756	303.12
295.987	295.12
296.217	324.12
296.448	327.12
296.679	302.12
296.909	319.12
297.14	329.12
297.37	301.12
297.601	305.12
297.831	311.12
298.062	312.12
298.292	287.12
298.523	300.12
298.753	310.12
298.984	332.12
299.214	295.12
299.445	311.12
299.675	327.12
299.905	318.12
300.136	323.12
300.366	323.12
300.597	336.12
300.827	315.12
301.057	329.12
301.288	321.12
301.518	341.12
301.748	307.12
301.979	335.12
302.209	320.12
302.439	335.12
302.669	333.12
302.9	340.12
303.13	326.12
303.36	347.12
303.59	337.12
303.82	349.12
304.051	325.12
304.281	339.12
304.511	337.12
304.741	338.12
304.971	332.12
305.201	333.12
305.431	339.12
305.661	343.12
305.891	332.12
306.121	320.12
306.352	331.12
306.582	348.12
306.812	322.12
307.042	335.12
307.272	338.12
307.502	327.12
307.731	342.12
307.961	343.12
308.191	335.12
308.421	327.12
308.651	346.12
308.881	350.12
309.111	347.12
309.341	353.12
309.571	357.12
309.8	358.12
310.03	348.12
310.26	360.12
310.49	367.12
310.72	382.12
310.949	370.12
311.179	388.12
311.409	375.12
311.639	379.12
311.868	381.12
312.098	357.12
312.328	377.12
312.557	374.12
312.787	379.12
313.017	392.12
313.246	395.12
313.476	388.12
313.706	393.12
313.935	390.12
314.165	374.12
314.394	395.12
314.624	397.12
314.853	385.12
315.083	380.12
315.312	381.12
315.542	370.12
315.771	380.12
316.001	384.12
316.23	389.12
316.46	373.12
316.689	377.12
316.919	377.12
317.148	382.12
317.377	379.12
317.607	385.12
317.836	379.12
318.065	387.12
318.295	383.12
318.524	390.12
318.753	372.12
318.983	382.12
319.212	374.12
319.441	390.12
319.67	361.12
319.9	371.12
320.129	390.12
320.358	396.12
320.587	399.12
320.816	404.12
321.046	391.12
321.275	400.12
321.504	390.12
321.733	389.12
321.962	409.12
322.191	397.12
322.42	425.12
322.649	424.12
322.878	417.12
323.108	461.12
323.337	472.12
323.566	486.12
323.795	507.12
324.024	541.12
324.253	640.12
324.482	942.12
324.71	1450.12
324.939	2225.12
325.168	1893.12
325.397	921.12
325.626	617.12
325.855	535.12
326.084	499.12
326.313	492.12
326.542	490.12
326.77	518.12
326.999	647.12
327.228	881.12
327.457	1321.12
327.686	1640.12
327.914	1055.12
328.143	677.12
328.372	601.12
328.6	590.12
328.829	525.12
329.058	568.12
329.287	567.12
329.515	538.12
329.744	515.12
329.972	507.12
330.201	503.12
330.43	558.12
330.658	563.12
330.887	589.12
331.115	585.12
331.344	520.12
331.572	473.12
331.801	476.12
332.03	491.12
332.258	476.12
332.486	456.12
332.715	469.12
332.943	482.12
333.172	464.12
333.4	463.12
333.629	479.12
333.857	505.12
334.085	509.12
334.314	538.12
334.542	537.12
334.771	581.12
334.999	520.12
335.227	472.12
335.455	467.12
335.684	465.12
335.912	458.12
336.14	453.12
336.369	451.12
336.597	454.12
336.825	464.12
337.053	455.12
337.281	452.12
337.51	435.12
337.738	459.12
337.966	442.12
338.194	458.12
338.422	445.12
338.65	439.12
338.878	435.12
339.106	457.12
339.334	482.12
339.562	430.12
339.79	450.12
340.018	438.12
340.246	438.12
340.474	423.12
340.702	441.12
340.93	433.12
341.158	418.12
341.386	452.12
341.614	444.12
341.842	433.12
342.07	422.12
342.298	433.12
342.526	435.12
342.754	427.12
342.981	425.12
343.209	454.12
343.437	446.12
343.665	448.12
343.893	452.12
344.12	476.12
344.348	435.12
344.576	442.12
344.804	433.12
345.031	449.12
345.259	459.12
345.487	467.12
345.714	452.12
345.942	421.12
346.17	435.12
346.397	431.12
346.625	426.12
346.853	431.12
347.08	414.12
347.308	427.12
347.535	418.12
347.763	440.12
347.99	435.12
348.218	429.12
348.445	433.12
348.673	420.12
348.9	440.12
349.128	430.12
349.355	410.12
349.583	427.12
349.81	420.12
350.037	407.12
350.265	398.12
350.492	409.12
350.72	399.12
350.947	405.12
351.174	431.12
351.402	436.12
351.629	433.12
351.856	416.12
352.083	443.12
352.311	444.12
352.538	436.12
352.765	450.12
352.992	432.12
353.22	415.12
353.447	426.12
353.674	435.12
353.901	415.12
354.128	413.12
354.355	390.12
354.583	410.12
354.81	421.12
355.037	405.12
355.264	399.12
355.491	392.12
355.718	382.12
355.945	414.12
356.172	405.12
356.399	409.12
356.626	400.12
356.853	415.12
357.08	394.12
357.307	425.12
357.534	403.12
357.761	400.12
357.988	385.12
358.215	417.12
358.441	413.12
358.668	418.12
358.895	423.12
359.122	432.12
359.349	418.12
359.576	439.12
359.802	452.12
360.029	460.12
360.256	479.12
360.483	453.12
360.709	442.12
360.936	437.12
361.163	403.12
361.39	418.12
361.616	454.12
361.843	415.12
362.07	417.12
362.296	417.12
362.523	430.12
362.749	424.12
362.976	410.12
363.203	417.12
363.429	400.12
363.656	424.12
363.882	393.12
364.109	395.12
364.335	402.12
364.562	415.12
364.788	416.12
365.015	405.12
365.241	421.12
365.468	416.12
365.694	439.12
365.92	411.12
366.147	406.12
366.373	413.12
366.599	413.12
366.826	414.12
367.052	402.12
367.278	414.12
367.505	396.12
367.731	437.12
367.957	405.12
368.184	406.12
368.41	420.12
368.636	433.12
368.862	423.12
369.089	436.12
369.315	421.12
369.541	422.12
369.767	412.12
369.993	422.12
370.219	431.12
370.445	428.12
370.672	421.12
370.898	422.12
371.124	430.12
371.35	418.12
371.576	442.12
371.802	438.12
372.028	405.12
372.254	423.12
372.48	430.12
372.706	427.12
372.932	402.12
373.158	434.12
373.384	428.12
373.61	416.12
373.835	444.12
374.061	426.12
374.287	436.12
374.513	420.12
374.739	419.12
374.965	438.12
375.191	445.12
375.416	447.12
375.642	423.12
375.868	439.12
376.094	420.12
376.319	408.12
376.545	426.12
376.771	432.12
376.997	406.12
377.222	416.12
377.448	425.12
377.674	413.12
377.899	407.12
378.125	425.12
378.35	430.12
378.576	422.12
378.802	412.12
379.027	407.12
379.253	423.12
379.478	416.12
379.704	422.12
379.929	425.12
380.155	421.12
380.38	414.12
380.606	414.12
380.831	433.12
381.057	426.12
381.282	426.12
381.507	426.12
381.733	421.12
381.958	427.12
382.184	437.12
382.409	433.12
382.634	391.12
382.86	430.12
383.085	448.12
383.31	461.12
383.535	453.12
383.761	460.12
383.986	455.12
384.211	462.12
384.436	441.12
384.662	456.12
384.887	454.12
385.112	444.12
385.337	451.12
385.562	470.12
385.787	474.12
386.013	469.12
386.238	492.12
386.463	490.12
386.688	476.12
386.913	459.12
387.138	470.12
387.363	462.12
387.588	454.12
387.813	490.12
388.038	470.12
388.263	471.12
388.488	502.12
388.713	481.12
388.938	474.12
389.163	476.12
389.387	458.12
389.612	462.12
389.837	472.12
390.062	486.12
390.287	463.12
390.512	466.12
390.736	477.12
390.961	475.12
391.186	473.12
391.411	499.12
391.636	490.12
391.86	511.12
392.085	500.12
392.31	501.12
392.534	520.12
392.759	493.12
392.984	477.12
393.208	481.12
393.433	481.12
393.658	483.12
393.882	483.12
394.107	478.12
394.331	491.12
394.556	479.12
394.78	491.12
395.005	471.12
395.229	483.12
395.454	529.12
395.678	506.12
395.903	497.12
396.127	531.12
396.352	536.12
396.576	502.12
396.801	488.12
397.025	523.12
397.249	503.12
397.474	525.12
397.698	515.12
397.922	539.12
398.147	563.12
398.371	557.12
398.595	533.12
398.82	547.12
399.044	562.12
399.268	583.12
399.492	629.12
399.717	656.12
399.941	718.12
400.165	702.12
400.389	681.12
400.613	638.12
400.837	597.12
401.062	586.12
401.286	587.12
401.51	572.12
401.734	561.12
401.958	572.12
402.182	570.12
402.406	589.12
402.63	573.12
402.854	593.12
403.078	571.12
403.302	584.12
403.526	575.12
403.75	597.12
403.974	582.12
404.198	585.12
404.422	613.12
404.645	591.12
404.869	598.12
405.093	642.12
405.317	686.12
405.541	717.12
405.765	647.12
405.988	602.12
406.212	636.12
406.436	655.12
406.66	653.12
406.883	630.12
407.107	695.12
407.331	710.12
407.555	790.12
407.778	792.12
408.002	715.12
408.226	677.12
408.449	673.12
408.673	669.12
408.896	646.12
409.12	700.12
409.344	682.12
409.567	617.12
409.791	603.12
410.014	609.12
410.238	593.12
410.461	582.12
410.685	618.12
410.908	622.12
411.132	646.12
411.355	654.12
411.578	621.12
411.802	620.12
412.025	590.12
412.249	595.12
412.472	625.12
412.695	651.12
412.919	664.12
413.142	602.12
413.365	581.12
413.589	583.12
413.812	579.12
414.035	583.12
414.258	562.12
414.482	553.12
414.705	587.12
414.928	562.12
415.151	535.12
415.374	559.12
415.597	559.12
415.821	541.12
416.044	563.12
416.267	565.12
416.49	544.12
416.713	571.12
416.936	567.12
417.159	563.12
417.382	557.12
417.605	558.12
417.828	596.12
418.051	581.12
418.274	577.12
418.497	562.12
418.72	572.12
418.943	556.12
419.166	590.12
419.389	637.12
419.611	599.12
419.834	633.12
420.057	617.12
420.28	614.12
420.503	595.12
420.726	595.12
420.948	606.12
421.171	643.12
421.394	667.12
421.617	605.12
421.839	588.12
422.062	590.12
422.285	587.12
422.507	667.12
422.73	734.12
422.953	703.12
423.175	634.12
423.398	588.12
423.621	609.12
423.843	615.12
424.066	602.12
424.288	621.12
424.511	639.12
424.733	684.12
424.956	789.12
425.178	756.12
425.401	730.12
425.623	738.12
425.846	652.12
426.068	634.12
426.291	592.12
426.513	605.12
426.735	636.12
426.958	680.12
427.18	729.12
427.402	870.12
427.625	975.12
427.847	849.12
428.069	733.12
428.292	652.12
428.514	604.12
428.736	575.12
428.958	565.12
429.181	560.12
429.403	546.12
429.625	569.12
429.847	593.12
430.069	665.12
430.292	683.12
430.514	587.12
430.736	573.12
430.958	587.12
431.18	549.12
431.402	569.12
431.624	539.12
431.846	543.12
432.068	546.12
432.29	565.12
432.512	533.12
432.734	560.12
432.956	562.12
433.178	553.12
433.4	554.12
433.622	549.12
433.844	551.12
434.066	534.12
434.287	554.12
434.509	558.12
434.731	571.12
434.953	581.12
435.175	591.12
435.397	620.12
435.618	633.12
435.84	651.12
436.062	762.12
436.284	823.12
436.505	701.12
436.727	634.12
436.949	579.12
437.17	585.12
437.392	564.12
437.614	577.12
437.835	618.12
438.057	710.12
438.278	797.12
438.5	814.12
438.721	902.12
438.943	849.12
439.165	693.12
439.386	631.12
439.608	633.12
439.829	637.12
440.05	644.12
440.272	699.12
440.493	645.12
440.715	617.12
440.936	591.12
441.158	602.12
441.379	574.12
441.6	598.12
441.822	600.12
442.043	658.12
442.264	734.12
442.486	802.12
442.707	684.12
442.928	636.12
443.149	627.12
443.371	669.12
443.592	716.12
443.813	799.12
444.034	875.12
444.255	719.12
444.476	662.12
444.698	633.12
444.919	649.12
445.14	706.12
445.361	668.12
445.582	660.12
445.803	737.12
446.024	836.12
446.245	856.12
446.466	766.12
446.687	667.12
446.908	598.12
447.129	581.12
447.35	586.12
447.571	585.12
447.792	577.12
448.013	570.12
448.234	597.12
448.455	629.12
448.675	721.12
448.896	862.12
449.117	724.12
449.338	683.12
449.559	821.12
449.779	907.12
450	718.12
450.221	632.12
450.442	564.12
450.662	554.12
450.883	551.12
451.104	591.12
451.324	572.12
451.545	521.12
451.766	522.12
451.986	523.12
452.207	509.12
452.428	487.12
452.648	499.12
452.869	524.12
453.089	525.12
453.31	534.12
453.53	502.12
453.751	526.12
453.971	511.12
454.192	538.12
454.412	503.12
454.633	510.12
454.853	508.12
455.073	497.12
455.294	556.12
455.514	605.12
455.734	576.12
455.955	526.12
456.175	476.12
456.395	478.12
456.616	487.12
456.836	476.12
457.056	486.12
457.276	481.12
457.497	478.12
457.717	490.12
457.937	470.12
458.157	485.12
458.377	498.12
458.598	561.12
458.818	613.12
459.038	661.12
459.258	699.12
459.478	586.12
459.698	551.12
459.918	572.12
460.138	559.12
460.358	557.12
460.578	598.12
460.798	571.12
461.018	582.12
461.238	584.12
461.458	571.12
461.678	572.12
461.898	595.12
462.118	568.12
462.338	593.12
462.558	601.12
462.777	611.12
462.997	594.12
463.217	634.12
463.437	672.12
463.657	633.12
463.876	635.12
464.096	628.12
464.316	617.12
464.536	607.12
464.755	621.12
464.975	597.12
465.195	677.12
465.414	723.12
465.634	645.12
465.854	588.12
466.073	604.12
466.293	558.12
466.512	528.12
466.732	532.12
466.951	535.12
467.171	532.12
467.391	559.12
467.61	546.12
467.829	554.12
468.049	563.12
468.268	546.12
468.488	535.12
468.707	539.12
468.927	517.12
469.146	518.12
469.365	525.12
469.585	499.12
469.804	551.12
470.023	545.12
470.243	545.12
470.462	541.12
470.681	580.12
470.901	560.12
471.12	562.12
471.339	550.12
471.558	534.12
471.777	548.12
471.997	546.12
472.216	520.12
472.435	598.12
472.654	559.12
472.873	541.12
473.092	544.12
473.311	532.12
473.53	538.12
473.749	558.12
473.968	589.12
474.187	681.12
474.406	690.12
474.625	612.12
474.844	534.12
475.063	520.12
475.282	536.12
475.501	536.12
475.72	569.12
475.939	555.12
476.158	559.12
476.377	572.12
476.596	542.12
476.814	553.12
477.033	574.12
477.252	587.12
477.471	571.12
477.69	565.12
477.908	583.12
478.127	585.12
478.346	597.12
478.564	595.12
478.783	589.12
479.002	601.12
479.22	600.12
479.439	617.12
479.658	644.12
479.876	662.12
480.095	652.12
480.313	673.12
480.532	656.12
480.751	672.12
480.969	674.12
481.188	727.12
481.406	756.12
481.624	685.12
481.843	634.12
482.061	631.12
482.28	624.12
482.498	620.12
482.717	634.12
482.935	645.12
483.153	630.12
483.372	628.12
483.59	627.12
483.808	612.12
484.027	644.12
484.245	635.12
484.463	629.12
484.681	660.12
484.9	644.12
485.118	653.12
485.336	637.12
485.554	642.12
485.772	655.12
485.99	630.12
486.209	661.12
486.427	662.12
486.645	676.12
486.863	684.12
487.081	669.12
487.299	659.12
487.517	654.12
487.735	674.12
487.953	670.12
488.171	677.12
488.389	678.12
488.607	670.12
488.825	668.12
489.043	679.12
489.261	699.12
489.479	698.12
489.696	675.12
489.914	679.12
490.132	700.12
490.35	698.12
490.568	707.12
490.786	714.12
491.003	713.12
491.221	728.12
491.439	745.12
491.657	767.12
491.874	750.12
492.092	769.12
492.31	760.12
492.527	758.12
492.745	746.12
492.963	754.12
493.18	759.12
493.398	786.12
493.615	789.12
493.833	782.12
494.05	800.12
494.268	793.12
494.485	790.12
494.703	790.12
494.92	775.12
495.138	790.12
495.355	789.12
495.573	783.12
495.79	793.12
496.008	812.12
496.225	801.12
496.442	818.12
496.66	798.12
496.877	803.12
497.094	803.12
497.312	825.12
497.529	825.12
497.746	859.12
497.963	866.12
498.181	905.12
498.398	895.12
498.615	899.12
498.832	947.12
499.049	949.12
499.267	988.12
499.484	1045.12
499.701	1091.12
499.918	1120.12
500.135	1170.12
500.352	1237.12
500.569	1268.12
500.786	1252.12
501.003	1221.12
501.22	1183.12
501.437	1143.12
501.654	1079.12
501.871	1039.12
