Data from 1979.PennyLincolnUp.Lamp.En5.5.200Scan.071719.P1_HRD10591_16-17-53-863.txt Node
Date: Thu Jul 18 16:17:53 EDT 2019
User: cochatt
Spectrometer: HR+D1059
Trigger mode: 1
Integration Time (sec): 1.000000E-1
Scans to average: 1
Electric dark correction enabled: true
Nonlinearity correction enabled: false
Boxcar width: 0
XAxis mode: Wavelengths
Number of Pixels in Spectrum: 2048
>>>>>Begin Spectral Data<<<<<
223.165	-11.88
223.4	-11.88
223.635	-11.88
223.869	2.12
224.104	-10.88
224.338	-22.88
224.573	-6.88
224.808	-6.88
225.042	-12.88
225.277	-13.88
225.511	-1.88
225.746	-11.88
225.98	17.12
226.215	4.12
226.449	14.12
226.683	15.12
226.918	31.12
227.152	16.12
227.387	29.12
227.621	41.12
227.856	38.12
228.09	40.12
228.324	59.12
228.559	59.12
228.793	68.12
229.027	98.12
229.262	101.12
229.496	97.12
229.73	119.12
229.964	142.12
230.199	111.12
230.433	106.12
230.667	115.12
230.901	109.12
231.136	116.12
231.37	112.12
231.604	115.12
231.838	111.12
232.072	105.12
232.306	105.12
232.541	110.12
232.775	118.12
233.009	105.12
233.243	113.12
233.477	107.12
233.711	105.12
233.945	105.12
234.179	102.12
234.413	101.12
234.647	119.12
234.881	119.12
235.115	98.12
235.349	100.12
235.583	106.12
235.817	113.12
236.051	110.12
236.285	114.12
236.519	112.12
236.753	133.12
236.987	122.12
237.221	176.12
237.455	191.12
237.689	165.12
237.922	142.12
238.156	123.12
238.39	125.12
238.624	118.12
238.858	123.12
239.091	121.12
239.325	124.12
239.559	120.12
239.793	110.12
240.027	125.12
240.26	134.12
240.494	129.12
240.728	131.12
240.961	134.12
241.195	136.12
241.429	144.12
241.662	128.12
241.896	121.12
242.13	125.12
242.363	133.12
242.597	129.12
242.83	149.12
243.064	122.12
243.298	124.12
243.531	123.12
243.765	139.12
243.998	140.12
244.232	134.12
244.465	136.12
244.699	140.12
244.932	146.12
245.166	144.12
245.399	127.12
245.633	138.12
245.866	139.12
246.099	135.12
246.333	129.12
246.566	137.12
246.8	154.12
247.033	137.12
247.266	149.12
247.5	165.12
247.733	153.12
247.966	157.12
248.2	159.12
248.433	172.12
248.666	144.12
248.899	167.12
249.133	184.12
249.366	179.12
249.599	182.12
249.832	174.12
250.066	160.12
250.299	170.12
250.532	167.12
250.765	189.12
250.998	171.12
251.231	184.12
251.465	180.12
251.698	191.12
251.931	173.12
252.164	185.12
252.397	173.12
252.63	181.12
252.863	187.12
253.096	178.12
253.329	196.12
253.562	190.12
253.795	185.12
254.028	191.12
254.261	199.12
254.494	207.12
254.727	198.12
254.96	212.12
255.193	207.12
255.426	220.12
255.659	195.12
255.892	217.12
256.124	222.12
256.357	201.12
256.59	199.12
256.823	197.12
257.056	174.12
257.289	190.12
257.521	197.12
257.754	182.12
257.987	182.12
258.22	178.12
258.452	201.12
258.685	178.12
258.918	187.12
259.151	193.12
259.383	200.12
259.616	192.12
259.849	194.12
260.081	221.12
260.314	219.12
260.547	202.12
260.779	219.12
261.012	196.12
261.244	209.12
261.477	197.12
261.71	194.12
261.942	204.12
262.175	227.12
262.407	201.12
262.64	197.12
262.872	223.12
263.105	205.12
263.337	205.12
263.57	181.12
263.802	190.12
264.035	184.12
264.267	211.12
264.499	212.12
264.732	203.12
264.964	183.12
265.197	197.12
265.429	188.12
265.661	187.12
265.894	197.12
266.126	206.12
266.358	200.12
266.591	189.12
266.823	209.12
267.055	205.12
267.287	217.12
267.52	198.12
267.752	201.12
267.984	207.12
268.216	198.12
268.448	197.12
268.681	212.12
268.913	237.12
269.145	234.12
269.377	230.12
269.609	235.12
269.841	242.12
270.073	226.12
270.306	251.12
270.538	235.12
270.77	258.12
271.002	248.12
271.234	243.12
271.466	250.12
271.698	267.12
271.93	271.12
272.162	274.12
272.394	273.12
272.626	260.12
272.858	255.12
273.09	254.12
273.322	249.12
273.553	232.12
273.785	243.12
274.017	222.12
274.249	243.12
274.481	240.12
274.713	230.12
274.945	251.12
275.176	259.12
275.408	239.12
275.64	251.12
275.872	245.12
276.104	233.12
276.335	234.12
276.567	239.12
276.799	234.12
277.031	274.12
277.262	266.12
277.494	275.12
277.726	262.12
277.957	265.12
278.189	244.12
278.421	227.12
278.652	234.12
278.884	247.12
279.115	253.12
279.347	247.12
279.579	257.12
279.81	255.12
280.042	249.12
280.273	219.12
280.505	247.12
280.736	233.12
280.968	255.12
281.199	257.12
281.431	259.12
281.662	259.12
281.894	246.12
282.125	245.12
282.356	253.12
282.588	260.12
282.819	294.12
283.051	261.12
283.282	258.12
283.513	257.12
283.745	252.12
283.976	269.12
284.207	270.12
284.439	251.12
284.67	245.12
284.901	254.12
285.132	259.12
285.364	248.12
285.595	268.12
285.826	273.12
286.057	273.12
286.288	263.12
286.52	269.12
286.751	273.12
286.982	258.12
287.213	261.12
287.444	272.12
287.675	259.12
287.906	270.12
288.138	270.12
288.369	284.12
288.6	286.12
288.831	268.12
289.062	243.12
289.293	264.12
289.524	288.12
289.755	269.12
289.986	260.12
290.217	267.12
290.448	263.12
290.679	270.12
290.91	286.12
291.141	276.12
291.371	271.12
291.602	268.12
291.833	288.12
292.064	268.12
292.295	270.12
292.526	282.12
292.757	269.12
292.987	273.12
293.218	261.12
293.449	279.12
293.68	277.12
293.91	268.12
294.141	279.12
294.372	267.12
294.603	272.12
294.833	263.12
295.064	295.12
295.295	273.12
295.525	271.12
295.756	289.12
295.987	291.12
296.217	294.12
296.448	325.12
296.679	297.12
296.909	289.12
297.14	285.12
297.37	297.12
297.601	290.12
297.831	275.12
298.062	275.12
298.292	284.12
298.523	286.12
298.753	324.12
298.984	293.12
299.214	306.12
299.445	297.12
299.675	285.12
299.905	290.12
300.136	303.12
300.366	290.12
300.597	297.12
300.827	293.12
301.057	281.12
301.288	302.12
301.518	317.12
301.748	308.12
301.979	286.12
302.209	311.12
302.439	302.12
302.669	299.12
302.9	294.12
303.13	299.12
303.36	309.12
303.59	293.12
303.82	310.12
304.051	331.12
304.281	298.12
304.511	309.12
304.741	297.12
304.971	309.12
305.201	317.12
305.431	308.12
305.661	312.12
305.891	309.12
306.121	301.12
306.352	331.12
306.582	310.12
306.812	324.12
307.042	321.12
307.272	305.12
307.502	309.12
307.731	310.12
307.961	335.12
308.191	301.12
308.421	327.12
308.651	321.12
308.881	311.12
309.111	303.12
309.341	332.12
309.571	330.12
309.8	338.12
310.03	336.12
310.26	327.12
310.49	345.12
310.72	331.12
310.949	358.12
311.179	348.12
311.409	333.12
311.639	331.12
311.868	339.12
312.098	357.12
312.328	327.12
312.557	353.12
312.787	380.12
313.017	369.12
313.246	374.12
313.476	328.12
313.706	339.12
313.935	374.12
314.165	369.12
314.394	343.12
314.624	355.12
314.853	361.12
315.083	352.12
315.312	350.12
315.542	340.12
315.771	329.12
316.001	349.12
316.23	346.12
316.46	350.12
316.689	354.12
316.919	349.12
317.148	358.12
317.377	358.12
317.607	366.12
317.836	360.12
318.065	340.12
318.295	335.12
318.524	334.12
318.753	343.12
318.983	378.12
319.212	349.12
319.441	335.12
319.67	363.12
319.9	342.12
320.129	356.12
320.358	357.12
320.587	354.12
320.816	368.12
321.046	380.12
321.275	365.12
321.504	363.12
321.733	349.12
321.962	362.12
322.191	367.12
322.42	377.12
322.649	388.12
322.878	391.12
323.108	391.12
323.337	417.12
323.566	403.12
323.795	471.12
324.024	482.12
324.253	539.12
324.482	738.12
324.71	1129.12
324.939	1706.12
325.168	1469.12
325.397	725.12
325.626	547.12
325.855	462.12
326.084	440.12
326.313	453.12
326.542	446.12
326.77	479.12
326.999	533.12
327.228	726.12
327.457	1061.12
327.686	1320.12
327.914	855.12
328.143	569.12
328.372	525.12
328.6	511.12
328.829	465.12
329.058	467.12
329.287	497.12
329.515	465.12
329.744	453.12
329.972	450.12
330.201	445.12
330.43	475.12
330.658	485.12
330.887	493.12
331.115	503.12
331.344	459.12
331.572	446.12
331.801	441.12
332.03	426.12
332.258	427.12
332.486	423.12
332.715	415.12
332.943	446.12
333.172	438.12
333.4	430.12
333.629	443.12
333.857	450.12
334.085	480.12
334.314	447.12
334.542	485.12
334.771	481.12
334.999	459.12
335.227	446.12
335.455	441.12
335.684	428.12
335.912	427.12
336.14	421.12
336.369	453.12
336.597	447.12
336.825	422.12
337.053	429.12
337.281	409.12
337.51	427.12
337.738	418.12
337.966	394.12
338.194	415.12
338.422	426.12
338.65	419.12
338.878	395.12
339.106	424.12
339.334	412.12
339.562	416.12
339.79	400.12
340.018	394.12
340.246	391.12
340.474	410.12
340.702	405.12
340.93	395.12
341.158	411.12
341.386	411.12
341.614	419.12
341.842	407.12
342.07	391.12
342.298	383.12
342.526	394.12
342.754	375.12
342.981	397.12
343.209	405.12
343.437	440.12
343.665	418.12
343.893	431.12
344.12	414.12
344.348	426.12
344.576	435.12
344.804	418.12
345.031	417.12
345.259	419.12
345.487	388.12
345.714	414.12
345.942	394.12
346.17	394.12
346.397	384.12
346.625	389.12
346.853	403.12
347.08	393.12
347.308	392.12
347.535	408.12
347.763	406.12
347.99	394.12
348.218	395.12
348.445	378.12
348.673	403.12
348.9	394.12
349.128	385.12
349.355	398.12
349.583	396.12
349.81	384.12
350.037	391.12
350.265	396.12
350.492	379.12
350.72	391.12
350.947	384.12
351.174	391.12
351.402	402.12
351.629	406.12
351.856	390.12
352.083	405.12
352.311	395.12
352.538	401.12
352.765	396.12
352.992	393.12
353.22	385.12
353.447	398.12
353.674	397.12
353.901	394.12
354.128	382.12
354.355	381.12
354.583	379.12
354.81	393.12
355.037	373.12
355.264	381.12
355.491	374.12
355.718	362.12
355.945	358.12
356.172	374.12
356.399	377.12
356.626	377.12
356.853	369.12
357.08	381.12
357.307	372.12
357.534	378.12
357.761	375.12
357.988	377.12
358.215	393.12
358.441	376.12
358.668	373.12
358.895	385.12
359.122	393.12
359.349	386.12
359.576	385.12
359.802	404.12
360.029	418.12
360.256	431.12
360.483	411.12
360.709	399.12
360.936	389.12
361.163	386.12
361.39	399.12
361.616	393.12
361.843	392.12
362.07	399.12
362.296	406.12
362.523	383.12
362.749	374.12
362.976	390.12
363.203	382.12
363.429	387.12
363.656	403.12
363.882	398.12
364.109	391.12
364.335	397.12
364.562	397.12
364.788	382.12
365.015	382.12
365.241	388.12
365.468	377.12
365.694	391.12
365.92	365.12
366.147	369.12
366.373	373.12
366.599	395.12
366.826	395.12
367.052	379.12
367.278	390.12
367.505	372.12
367.731	398.12
367.957	416.12
368.184	390.12
368.41	386.12
368.636	383.12
368.862	405.12
369.089	411.12
369.315	414.12
369.541	396.12
369.767	387.12
369.993	403.12
370.219	378.12
370.445	391.12
370.672	382.12
370.898	401.12
371.124	396.12
371.35	409.12
371.576	418.12
371.802	407.12
372.028	387.12
372.254	404.12
372.48	400.12
372.706	420.12
372.932	402.12
373.158	391.12
373.384	400.12
373.61	385.12
373.835	397.12
374.061	402.12
374.287	407.12
374.513	414.12
374.739	400.12
374.965	425.12
375.191	396.12
375.416	411.12
375.642	389.12
375.868	417.12
376.094	426.12
376.319	413.12
376.545	402.12
376.771	407.12
376.997	408.12
377.222	397.12
377.448	395.12
377.674	377.12
377.899	410.12
378.125	391.12
378.35	391.12
378.576	388.12
378.802	378.12
379.027	389.12
379.253	392.12
379.478	405.12
379.704	389.12
379.929	394.12
380.155	393.12
380.38	417.12
380.606	420.12
380.831	400.12
381.057	384.12
381.282	373.12
381.507	406.12
381.733	406.12
381.958	406.12
382.184	413.12
382.409	412.12
382.634	429.12
382.86	399.12
383.085	411.12
383.31	413.12
383.535	430.12
383.761	407.12
383.986	430.12
384.211	437.12
384.436	433.12
384.662	435.12
384.887	428.12
385.112	439.12
385.337	447.12
385.562	430.12
385.787	447.12
386.013	452.12
386.238	463.12
386.463	470.12
386.688	454.12
386.913	456.12
387.138	454.12
387.363	437.12
387.588	453.12
387.813	463.12
388.038	459.12
388.263	455.12
388.488	457.12
388.713	446.12
388.938	445.12
389.163	450.12
389.387	461.12
389.612	452.12
389.837	453.12
390.062	438.12
390.287	462.12
390.512	459.12
390.736	448.12
390.961	448.12
391.186	454.12
391.411	479.12
391.636	473.12
391.86	470.12
392.085	473.12
392.31	473.12
392.534	472.12
392.759	480.12
392.984	462.12
393.208	486.12
393.433	479.12
393.658	497.12
393.882	458.12
394.107	445.12
394.331	453.12
394.556	471.12
394.78	462.12
395.005	453.12
395.229	470.12
395.454	463.12
395.678	498.12
395.903	485.12
396.127	491.12
396.352	507.12
396.576	499.12
396.801	477.12
397.025	485.12
397.249	498.12
397.474	494.12
397.698	473.12
397.922	518.12
398.147	496.12
398.371	501.12
398.595	519.12
398.82	524.12
399.044	528.12
399.268	549.12
399.492	615.12
399.717	630.12
399.941	649.12
400.165	656.12
400.389	654.12
400.613	621.12
400.837	570.12
401.062	576.12
401.286	561.12
401.51	546.12
401.734	524.12
401.958	513.12
402.182	504.12
402.406	541.12
402.63	537.12
402.854	554.12
403.078	546.12
403.302	542.12
403.526	549.12
403.75	565.12
403.974	556.12
404.198	573.12
404.422	571.12
404.645	558.12
404.869	568.12
405.093	591.12
405.317	636.12
405.541	645.12
405.765	602.12
405.988	579.12
406.212	597.12
406.436	579.12
406.66	653.12
406.883	587.12
407.107	630.12
407.331	666.12
407.555	723.12
407.778	705.12
408.002	670.12
408.226	631.12
408.449	631.12
408.673	613.12
408.896	637.12
409.12	677.12
409.344	643.12
409.567	604.12
409.791	583.12
410.014	558.12
410.238	558.12
410.461	574.12
410.685	567.12
410.908	589.12
411.132	595.12
411.355	629.12
411.578	622.12
411.802	573.12
412.025	543.12
412.249	565.12
412.472	597.12
412.695	630.12
412.919	598.12
413.142	566.12
413.365	555.12
413.589	559.12
413.812	525.12
414.035	534.12
414.258	533.12
414.482	529.12
414.705	538.12
414.928	539.12
415.151	528.12
415.374	537.12
415.597	503.12
415.821	524.12
416.044	515.12
416.267	531.12
416.49	541.12
416.713	533.12
416.936	510.12
417.159	521.12
417.382	520.12
417.605	531.12
417.828	554.12
418.051	535.12
418.274	548.12
418.497	534.12
418.72	528.12
418.943	521.12
419.166	561.12
419.389	580.12
419.611	581.12
419.834	566.12
420.057	589.12
420.28	571.12
420.503	529.12
420.726	532.12
420.948	561.12
421.171	585.12
421.394	616.12
421.617	585.12
421.839	548.12
422.062	557.12
422.285	557.12
422.507	616.12
422.73	655.12
422.953	659.12
423.175	608.12
423.398	571.12
423.621	556.12
423.843	569.12
424.066	575.12
424.288	591.12
424.511	600.12
424.733	627.12
424.956	686.12
425.178	653.12
425.401	665.12
425.623	689.12
425.846	620.12
426.068	579.12
426.291	542.12
426.513	554.12
426.735	559.12
426.958	590.12
427.18	662.12
427.402	795.12
427.625	851.12
427.847	733.12
428.069	675.12
428.292	589.12
428.514	572.12
428.736	566.12
428.958	548.12
429.181	535.12
429.403	528.12
429.625	526.12
429.847	528.12
430.069	620.12
430.292	623.12
430.514	568.12
430.736	519.12
430.958	517.12
431.18	518.12
431.402	517.12
431.624	524.12
431.846	510.12
432.068	515.12
432.29	520.12
432.512	529.12
432.734	505.12
432.956	517.12
433.178	527.12
433.4	513.12
433.622	537.12
433.844	513.12
434.066	531.12
434.287	507.12
434.509	538.12
434.731	548.12
434.953	531.12
435.175	577.12
435.397	544.12
435.618	563.12
435.84	609.12
436.062	689.12
436.284	739.12
436.505	628.12
436.727	571.12
436.949	532.12
437.17	547.12
437.392	539.12
437.614	559.12
437.835	552.12
438.057	633.12
438.278	703.12
438.5	729.12
438.721	778.12
438.943	795.12
439.165	615.12
439.386	545.12
439.608	551.12
439.829	555.12
440.05	589.12
440.272	631.12
440.493	559.12
440.715	562.12
440.936	547.12
441.158	541.12
441.379	545.12
441.6	550.12
441.822	534.12
442.043	613.12
442.264	669.12
442.486	708.12
442.707	614.12
442.928	589.12
443.149	591.12
443.371	598.12
443.592	664.12
443.813	689.12
444.034	757.12
444.255	670.12
444.476	610.12
444.698	611.12
444.919	588.12
445.14	722.12
445.361	651.12
445.582	607.12
445.803	665.12
446.024	738.12
446.245	740.12
446.466	646.12
446.687	594.12
446.908	577.12
447.129	559.12
447.35	545.12
447.571	537.12
447.792	526.12
448.013	514.12
448.234	517.12
448.455	575.12
448.675	667.12
448.896	779.12
449.117	665.12
449.338	643.12
449.559	731.12
449.779	819.12
450	640.12
450.221	567.12
450.442	527.12
450.662	508.12
450.883	489.12
451.104	522.12
451.324	503.12
451.545	497.12
451.766	481.12
451.986	466.12
452.207	474.12
452.428	474.12
452.648	470.12
452.869	464.12
453.089	491.12
453.31	484.12
453.53	468.12
453.751	473.12
453.971	463.12
454.192	487.12
454.412	472.12
454.633	478.12
454.853	461.12
455.073	480.12
455.294	477.12
455.514	517.12
455.734	524.12
455.955	478.12
456.175	475.12
456.395	473.12
456.616	482.12
456.836	462.12
457.056	440.12
457.276	455.12
457.497	464.12
457.717	468.12
457.937	469.12
458.157	457.12
458.377	500.12
458.598	489.12
458.818	527.12
459.038	590.12
459.258	641.12
459.478	545.12
459.698	527.12
459.918	523.12
460.138	515.12
460.358	521.12
460.578	550.12
460.798	553.12
461.018	558.12
461.238	536.12
461.458	554.12
461.678	546.12
461.898	557.12
462.118	559.12
462.338	570.12
462.558	565.12
462.777	598.12
462.997	605.12
463.217	629.12
463.437	616.12
463.657	589.12
463.876	589.12
464.096	595.12
464.316	586.12
464.536	594.12
464.755	569.12
464.975	577.12
465.195	612.12
465.414	651.12
465.634	590.12
465.854	547.12
466.073	549.12
466.293	511.12
466.512	481.12
466.732	510.12
466.951	503.12
467.171	479.12
467.391	487.12
467.61	511.12
467.829	536.12
468.049	504.12
468.268	489.12
468.488	494.12
468.707	485.12
468.927	462.12
469.146	497.12
469.365	483.12
469.585	505.12
469.804	492.12
470.023	494.12
470.243	496.12
470.462	485.12
470.681	515.12
470.901	519.12
471.12	517.12
471.339	504.12
471.558	497.12
471.777	523.12
471.997	491.12
472.216	485.12
472.435	523.12
472.654	517.12
472.873	512.12
473.092	505.12
473.311	489.12
473.53	495.12
473.749	499.12
473.968	549.12
474.187	616.12
474.406	601.12
474.625	529.12
474.844	523.12
475.063	478.12
475.282	500.12
475.501	509.12
475.72	532.12
475.939	517.12
476.158	506.12
476.377	533.12
476.596	536.12
476.814	523.12
477.033	540.12
477.252	543.12
477.471	541.12
477.69	565.12
477.908	590.12
478.127	569.12
478.346	565.12
478.564	554.12
478.783	577.12
479.002	558.12
479.22	556.12
479.439	588.12
479.658	599.12
479.876	607.12
480.095	593.12
480.313	619.12
480.532	620.12
480.751	617.12
480.969	625.12
481.188	651.12
481.406	686.12
481.624	631.12
481.843	604.12
482.061	590.12
482.28	597.12
482.498	570.12
482.717	586.12
482.935	601.12
483.153	576.12
483.372	573.12
483.59	587.12
483.808	596.12
484.027	609.12
484.245	593.12
484.463	604.12
484.681	626.12
484.9	627.12
485.118	592.12
485.336	601.12
485.554	636.12
485.772	602.12
485.99	606.12
486.209	632.12
486.427	613.12
486.645	631.12
486.863	645.12
487.081	652.12
487.299	634.12
487.517	619.12
487.735	617.12
487.953	636.12
488.171	593.12
488.389	633.12
488.607	613.12
488.825	622.12
489.043	618.12
489.261	641.12
489.479	618.12
489.696	653.12
489.914	646.12
490.132	660.12
490.35	657.12
490.568	655.12
490.786	632.12
491.003	639.12
491.221	677.12
491.439	702.12
491.657	687.12
491.874	690.12
492.092	709.12
492.31	728.12
492.527	687.12
492.745	709.12
492.963	735.12
493.18	718.12
493.398	720.12
493.615	723.12
493.833	710.12
494.05	726.12
494.268	741.12
494.485	715.12
494.703	717.12
494.92	755.12
495.138	730.12
495.355	728.12
495.573	743.12
495.79	720.12
496.008	754.12
496.225	728.12
496.442	736.12
496.66	738.12
496.877	750.12
497.094	747.12
497.312	760.12
497.529	791.12
497.746	794.12
497.963	806.12
498.181	806.12
498.398	817.12
498.615	835.12
498.832	890.12
499.049	898.12
499.267	921.12
499.484	959.12
499.701	1039.12
499.918	1028.12
500.135	1116.12
500.352	1175.12
500.569	1228.12
500.786	1207.12
501.003	1177.12
501.22	1113.12
501.437	1058.12
501.654	1036.12
501.871	973.12
