Data from 1979.PennyLincolnUp.Lamp.En5.5.200Scan.071719.P1_HRD10591_16-18-02-862.txt Node
Date: Thu Jul 18 16:18:02 EDT 2019
User: cochatt
Spectrometer: HR+D1059
Trigger mode: 1
Integration Time (sec): 1.000000E-1
Scans to average: 1
Electric dark correction enabled: true
Nonlinearity correction enabled: false
Boxcar width: 0
XAxis mode: Wavelengths
Number of Pixels in Spectrum: 2048
>>>>>Begin Spectral Data<<<<<
223.165	-8.12
223.4	-8.12
223.635	-8.12
223.869	-9.12
224.104	-17.12
224.338	-14.12
224.573	-8.12
224.808	-23.12
225.042	-20.12
225.277	-19.12
225.511	0.88
225.746	-7.12
225.98	5.88
226.215	15.88
226.449	27.88
226.683	24.88
226.918	28.88
227.152	21.88
227.387	32.88
227.621	43.88
227.856	35.88
228.09	25.88
228.324	51.88
228.559	55.88
228.793	65.88
229.027	88.88
229.262	92.88
229.496	99.88
229.73	113.88
229.964	128.88
230.199	133.88
230.433	113.88
230.667	118.88
230.901	114.88
231.136	109.88
231.37	108.88
231.604	99.88
231.838	101.88
232.072	109.88
232.306	105.88
232.541	115.88
232.775	99.88
233.009	104.88
233.243	104.88
233.477	116.88
233.711	106.88
233.945	99.88
234.179	121.88
234.413	124.88
234.647	123.88
234.881	117.88
235.115	109.88
235.349	119.88
235.583	110.88
235.817	125.88
236.051	109.88
236.285	128.88
236.519	105.88
236.753	122.88
236.987	135.88
237.221	149.88
237.455	210.88
237.689	163.88
237.922	140.88
238.156	132.88
238.39	125.88
238.624	114.88
238.858	108.88
239.091	126.88
239.325	115.88
239.559	130.88
239.793	103.88
240.027	123.88
240.26	117.88
240.494	132.88
240.728	138.88
240.961	130.88
241.195	113.88
241.429	109.88
241.662	128.88
241.896	135.88
242.13	124.88
242.363	123.88
242.597	134.88
242.83	113.88
243.064	129.88
243.298	125.88
243.531	142.88
243.765	132.88
243.998	128.88
244.232	140.88
244.465	145.88
244.699	138.88
244.932	146.88
245.166	139.88
245.399	130.88
245.633	164.88
245.866	139.88
246.099	118.88
246.333	130.88
246.566	142.88
246.8	140.88
247.033	153.88
247.266	143.88
247.5	135.88
247.733	152.88
247.966	181.88
248.2	144.88
248.433	160.88
248.666	143.88
248.899	156.88
249.133	176.88
249.366	179.88
249.599	173.88
249.832	157.88
250.066	173.88
250.299	168.88
250.532	159.88
250.765	186.88
250.998	190.88
251.231	190.88
251.465	194.88
251.698	196.88
251.931	178.88
252.164	167.88
252.397	184.88
252.63	187.88
252.863	184.88
253.096	188.88
253.329	202.88
253.562	204.88
253.795	197.88
254.028	180.88
254.261	193.88
254.494	201.88
254.727	229.88
254.96	246.88
255.193	246.88
255.426	197.88
255.659	199.88
255.892	194.88
256.124	212.88
256.357	212.88
256.59	221.88
256.823	186.88
257.056	180.88
257.289	184.88
257.521	187.88
257.754	194.88
257.987	191.88
258.22	201.88
258.452	171.88
258.685	177.88
258.918	182.88
259.151	181.88
259.383	200.88
259.616	192.88
259.849	199.88
260.081	203.88
260.314	237.88
260.547	206.88
260.779	206.88
261.012	214.88
261.244	224.88
261.477	199.88
261.71	199.88
261.942	199.88
262.175	203.88
262.407	193.88
262.64	194.88
262.872	202.88
263.105	198.88
263.337	188.88
263.57	188.88
263.802	204.88
264.035	186.88
264.267	172.88
264.499	202.88
264.732	188.88
264.964	203.88
265.197	197.88
265.429	202.88
265.661	206.88
265.894	200.88
266.126	195.88
266.358	202.88
266.591	195.88
266.823	196.88
267.055	209.88
267.287	221.88
267.52	196.88
267.752	197.88
267.984	211.88
268.216	213.88
268.448	213.88
268.681	215.88
268.913	215.88
269.145	225.88
269.377	247.88
269.609	236.88
269.841	246.88
270.073	242.88
270.306	260.88
270.538	275.88
270.77	244.88
271.002	248.88
271.234	247.88
271.466	252.88
271.698	267.88
271.93	287.88
272.162	255.88
272.394	258.88
272.626	264.88
272.858	235.88
273.09	242.88
273.322	249.88
273.553	245.88
273.785	244.88
274.017	254.88
274.249	241.88
274.481	239.88
274.713	229.88
274.945	239.88
275.176	241.88
275.408	232.88
275.64	233.88
275.872	226.88
276.104	256.88
276.335	241.88
276.567	236.88
276.799	245.88
277.031	265.88
277.262	246.88
277.494	269.88
277.726	269.88
277.957	237.88
278.189	260.88
278.421	240.88
278.652	250.88
278.884	249.88
279.115	231.88
279.347	230.88
279.579	250.88
279.81	235.88
280.042	244.88
280.273	250.88
280.505	235.88
280.736	250.88
280.968	237.88
281.199	248.88
281.431	248.88
281.662	256.88
281.894	246.88
282.125	245.88
282.356	230.88
282.588	272.88
282.819	262.88
283.051	266.88
283.282	237.88
283.513	256.88
283.745	243.88
283.976	260.88
284.207	252.88
284.439	261.88
284.67	258.88
284.901	278.88
285.132	256.88
285.364	273.88
285.595	258.88
285.826	238.88
286.057	257.88
286.288	268.88
286.52	266.88
286.751	265.88
286.982	261.88
287.213	269.88
287.444	269.88
287.675	250.88
287.906	281.88
288.138	276.88
288.369	284.88
288.6	267.88
288.831	246.88
289.062	249.88
289.293	252.88
289.524	258.88
289.755	265.88
289.986	266.88
290.217	267.88
290.448	261.88
290.679	287.88
290.91	271.88
291.141	282.88
291.371	275.88
291.602	265.88
291.833	268.88
292.064	252.88
292.295	263.88
292.526	272.88
292.757	280.88
292.987	264.88
293.218	278.88
293.449	288.88
293.68	284.88
293.91	280.88
294.141	262.88
294.372	274.88
294.603	284.88
294.833	288.88
295.064	281.88
295.295	266.88
295.525	273.88
295.756	272.88
295.987	269.88
296.217	284.88
296.448	308.88
296.679	302.88
296.909	272.88
297.14	278.88
297.37	290.88
297.601	309.88
297.831	268.88
298.062	308.88
298.292	281.88
298.523	283.88
298.753	278.88
298.984	307.88
299.214	306.88
299.445	300.88
299.675	281.88
299.905	278.88
300.136	288.88
300.366	293.88
300.597	292.88
300.827	297.88
301.057	285.88
301.288	319.88
301.518	312.88
301.748	295.88
301.979	320.88
302.209	316.88
302.439	317.88
302.669	306.88
302.9	310.88
303.13	292.88
303.36	287.88
303.59	287.88
303.82	308.88
304.051	320.88
304.281	310.88
304.511	316.88
304.741	304.88
304.971	301.88
305.201	304.88
305.431	302.88
305.661	306.88
305.891	316.88
306.121	283.88
306.352	290.88
306.582	307.88
306.812	294.88
307.042	308.88
307.272	306.88
307.502	293.88
307.731	307.88
307.961	316.88
308.191	298.88
308.421	310.88
308.651	316.88
308.881	324.88
309.111	319.88
309.341	324.88
309.571	305.88
309.8	336.88
310.03	342.88
310.26	329.88
310.49	341.88
310.72	352.88
310.949	346.88
311.179	340.88
311.409	318.88
311.639	333.88
311.868	340.88
312.098	328.88
312.328	344.88
312.557	347.88
312.787	371.88
313.017	360.88
313.246	350.88
313.476	354.88
313.706	348.88
313.935	360.88
314.165	356.88
314.394	355.88
314.624	346.88
314.853	345.88
315.083	363.88
315.312	355.88
315.542	331.88
315.771	350.88
316.001	350.88
316.23	373.88
316.46	347.88
316.689	353.88
316.919	360.88
317.148	364.88
317.377	345.88
317.607	371.88
317.836	358.88
318.065	357.88
318.295	349.88
318.524	359.88
318.753	344.88
318.983	338.88
319.212	365.88
319.441	350.88
319.67	354.88
319.9	350.88
320.129	351.88
320.358	338.88
320.587	355.88
320.816	358.88
321.046	378.88
321.275	382.88
321.504	352.88
321.733	356.88
321.962	378.88
322.191	376.88
322.42	389.88
322.649	394.88
322.878	405.88
323.108	408.88
323.337	430.88
323.566	426.88
323.795	440.88
324.024	478.88
324.253	552.88
324.482	770.88
324.71	1215.88
324.939	1800.88
325.168	1553.88
325.397	788.88
325.626	562.88
325.855	466.88
326.084	432.88
326.313	443.88
326.542	461.88
326.77	466.88
326.999	554.88
327.228	738.88
327.457	1113.88
327.686	1398.88
327.914	890.88
328.143	599.88
328.372	547.88
328.6	495.88
328.829	506.88
329.058	508.88
329.287	507.88
329.515	467.88
329.744	466.88
329.972	462.88
330.201	444.88
330.43	481.88
330.658	488.88
330.887	507.88
331.115	506.88
331.344	463.88
331.572	441.88
331.801	430.88
332.03	441.88
332.258	434.88
332.486	433.88
332.715	426.88
332.943	436.88
333.172	433.88
333.4	419.88
333.629	440.88
333.857	472.88
334.085	455.88
334.314	456.88
334.542	476.88
334.771	498.88
334.999	459.88
335.227	438.88
335.455	461.88
335.684	395.88
335.912	425.88
336.14	448.88
336.369	439.88
336.597	433.88
336.825	428.88
337.053	420.88
337.281	409.88
337.51	444.88
337.738	408.88
337.966	417.88
338.194	410.88
338.422	415.88
338.65	411.88
338.878	423.88
339.106	407.88
339.334	410.88
339.562	414.88
339.79	405.88
340.018	414.88
340.246	406.88
340.474	413.88
340.702	409.88
340.93	392.88
341.158	398.88
341.386	401.88
341.614	407.88
341.842	394.88
342.07	385.88
342.298	398.88
342.526	390.88
342.754	399.88
342.981	376.88
343.209	398.88
343.437	415.88
343.665	414.88
343.893	415.88
344.12	428.88
344.348	399.88
344.576	429.88
344.804	410.88
345.031	417.88
345.259	410.88
345.487	425.88
345.714	428.88
345.942	421.88
346.17	411.88
346.397	385.88
346.625	384.88
346.853	397.88
347.08	378.88
347.308	391.88
347.535	402.88
347.763	395.88
347.99	410.88
348.218	399.88
348.445	409.88
348.673	413.88
348.9	389.88
349.128	373.88
349.355	359.88
349.583	384.88
349.81	388.88
350.037	405.88
350.265	393.88
350.492	380.88
350.72	381.88
350.947	380.88
351.174	404.88
351.402	385.88
351.629	412.88
351.856	384.88
352.083	388.88
352.311	388.88
352.538	400.88
352.765	398.88
352.992	389.88
353.22	380.88
353.447	384.88
353.674	390.88
353.901	387.88
354.128	394.88
354.355	380.88
354.583	387.88
354.81	386.88
355.037	381.88
355.264	384.88
355.491	345.88
355.718	361.88
355.945	378.88
356.172	350.88
356.399	368.88
356.626	356.88
356.853	374.88
357.08	364.88
357.307	377.88
357.534	354.88
357.761	365.88
357.988	364.88
358.215	386.88
358.441	393.88
358.668	400.88
358.895	382.88
359.122	384.88
359.349	400.88
359.576	404.88
359.802	408.88
360.029	429.88
360.256	434.88
360.483	416.88
360.709	377.88
360.936	398.88
361.163	404.88
361.39	392.88
361.616	398.88
361.843	382.88
362.07	396.88
362.296	397.88
362.523	405.88
362.749	398.88
362.976	378.88
363.203	409.88
363.429	385.88
363.656	384.88
363.882	389.88
364.109	384.88
364.335	380.88
364.562	386.88
364.788	396.88
365.015	381.88
365.241	368.88
365.468	400.88
365.694	386.88
365.92	392.88
366.147	393.88
366.373	378.88
366.599	390.88
366.826	410.88
367.052	392.88
367.278	402.88
367.505	404.88
367.731	391.88
367.957	406.88
368.184	386.88
368.41	397.88
368.636	395.88
368.862	409.88
369.089	384.88
369.315	382.88
369.541	398.88
369.767	393.88
369.993	390.88
370.219	384.88
370.445	395.88
370.672	395.88
370.898	370.88
371.124	378.88
371.35	402.88
371.576	372.88
371.802	404.88
372.028	390.88
372.254	410.88
372.48	398.88
372.706	396.88
372.932	407.88
373.158	392.88
373.384	402.88
373.61	402.88
373.835	398.88
374.061	382.88
374.287	397.88
374.513	396.88
374.739	380.88
374.965	398.88
375.191	418.88
375.416	396.88
375.642	421.88
375.868	407.88
376.094	416.88
376.319	408.88
376.545	388.88
376.771	385.88
376.997	413.88
377.222	403.88
377.448	404.88
377.674	388.88
377.899	398.88
378.125	390.88
378.35	380.88
378.576	378.88
378.802	380.88
379.027	392.88
379.253	394.88
379.478	376.88
379.704	412.88
379.929	418.88
380.155	382.88
380.38	416.88
380.606	411.88
380.831	408.88
381.057	395.88
381.282	385.88
381.507	389.88
381.733	415.88
381.958	416.88
382.184	422.88
382.409	408.88
382.634	418.88
382.86	406.88
383.085	413.88
383.31	425.88
383.535	410.88
383.761	422.88
383.986	427.88
384.211	422.88
384.436	419.88
384.662	437.88
384.887	430.88
385.112	450.88
385.337	435.88
385.562	422.88
385.787	426.88
386.013	434.88
386.238	451.88
386.463	440.88
386.688	444.88
386.913	436.88
387.138	461.88
387.363	444.88
387.588	453.88
387.813	443.88
388.038	442.88
388.263	461.88
388.488	426.88
388.713	426.88
388.938	444.88
389.163	436.88
389.387	426.88
389.612	458.88
389.837	453.88
390.062	437.88
390.287	445.88
390.512	443.88
390.736	453.88
390.961	446.88
391.186	458.88
391.411	460.88
391.636	452.88
391.86	476.88
392.085	469.88
392.31	472.88
392.534	462.88
392.759	463.88
392.984	459.88
393.208	464.88
393.433	463.88
393.658	478.88
393.882	476.88
394.107	470.88
394.331	467.88
394.556	457.88
394.78	444.88
395.005	461.88
395.229	475.88
395.454	501.88
395.678	461.88
395.903	474.88
396.127	482.88
396.352	516.88
396.576	485.88
396.801	481.88
397.025	488.88
397.249	488.88
397.474	511.88
397.698	500.88
397.922	504.88
398.147	523.88
398.371	525.88
398.595	495.88
398.82	525.88
399.044	536.88
399.268	549.88
399.492	596.88
399.717	594.88
399.941	648.88
400.165	654.88
400.389	648.88
400.613	606.88
400.837	572.88
401.062	541.88
401.286	542.88
401.51	533.88
401.734	550.88
401.958	536.88
402.182	526.88
402.406	540.88
402.63	570.88
402.854	553.88
403.078	572.88
403.302	528.88
403.526	557.88
403.75	567.88
403.974	558.88
404.198	534.88
404.422	550.88
404.645	560.88
404.869	553.88
405.093	582.88
405.317	617.88
405.541	669.88
405.765	614.88
405.988	606.88
406.212	611.88
406.436	586.88
406.66	615.88
406.883	592.88
407.107	632.88
407.331	672.88
407.555	744.88
407.778	716.88
408.002	642.88
408.226	630.88
408.449	625.88
408.673	596.88
408.896	630.88
409.12	666.88
409.344	630.88
409.567	585.88
409.791	588.88
410.014	549.88
410.238	548.88
410.461	547.88
410.685	554.88
410.908	576.88
411.132	591.88
411.355	625.88
411.578	612.88
411.802	572.88
412.025	566.88
412.249	571.88
412.472	588.88
412.695	608.88
412.919	613.88
413.142	585.88
413.365	541.88
413.589	556.88
413.812	527.88
414.035	533.88
414.258	537.88
414.482	531.88
414.705	549.88
414.928	545.88
415.151	540.88
415.374	526.88
415.597	526.88
415.821	527.88
416.044	527.88
416.267	521.88
416.49	527.88
416.713	506.88
416.936	518.88
417.159	531.88
417.382	530.88
417.605	536.88
417.828	512.88
418.051	543.88
418.274	529.88
418.497	530.88
418.72	530.88
418.943	520.88
419.166	562.88
419.389	594.88
419.611	567.88
419.834	564.88
420.057	551.88
420.28	572.88
420.503	528.88
420.726	537.88
420.948	566.88
421.171	566.88
421.394	633.88
421.617	571.88
421.839	546.88
422.062	548.88
422.285	556.88
422.507	613.88
422.73	673.88
422.953	662.88
423.175	568.88
423.398	548.88
423.621	593.88
423.843	595.88
424.066	589.88
424.288	557.88
424.511	589.88
424.733	660.88
424.956	733.88
425.178	668.88
425.401	696.88
425.623	705.88
425.846	598.88
426.068	588.88
426.291	576.88
426.513	562.88
426.735	566.88
426.958	582.88
427.18	664.88
427.402	798.88
427.625	871.88
427.847	741.88
428.069	656.88
428.292	626.88
428.514	557.88
428.736	560.88
428.958	532.88
429.181	538.88
429.403	504.88
429.625	535.88
429.847	564.88
430.069	617.88
430.292	621.88
430.514	543.88
430.736	527.88
430.958	515.88
431.18	521.88
431.402	511.88
431.624	509.88
431.846	484.88
432.068	501.88
432.29	496.88
432.512	518.88
432.734	548.88
432.956	505.88
433.178	537.88
433.4	532.88
433.622	497.88
433.844	497.88
434.066	500.88
434.287	516.88
434.509	498.88
434.731	525.88
434.953	547.88
435.175	546.88
435.397	577.88
435.618	563.88
435.84	593.88
436.062	678.88
436.284	741.88
436.505	598.88
436.727	588.88
436.949	554.88
437.17	538.88
437.392	523.88
437.614	548.88
437.835	546.88
438.057	652.88
438.278	733.88
438.5	730.88
438.721	780.88
438.943	757.88
439.165	614.88
439.386	578.88
439.608	596.88
439.829	552.88
440.05	586.88
440.272	629.88
440.493	621.88
440.715	540.88
440.936	549.88
441.158	519.88
441.379	541.88
441.6	553.88
441.822	588.88
442.043	621.88
442.264	662.88
442.486	715.88
442.707	609.88
442.928	577.88
443.149	589.88
443.371	605.88
443.592	622.88
443.813	725.88
444.034	783.88
444.255	637.88
444.476	602.88
444.698	579.88
444.919	597.88
445.14	706.88
445.361	647.88
445.582	622.88
445.803	644.88
446.024	747.88
446.245	736.88
446.466	685.88
446.687	591.88
446.908	582.88
447.129	553.88
447.35	535.88
447.571	547.88
447.792	519.88
448.013	523.88
448.234	551.88
448.455	593.88
448.675	659.88
448.896	778.88
449.117	668.88
449.338	633.88
449.559	735.88
449.779	810.88
450	633.88
450.221	548.88
450.442	522.88
450.662	521.88
450.883	501.88
451.104	517.88
451.324	525.88
451.545	498.88
451.766	504.88
451.986	465.88
452.207	457.88
452.428	468.88
452.648	484.88
452.869	485.88
453.089	476.88
453.31	493.88
453.53	465.88
453.751	479.88
453.971	479.88
454.192	483.88
454.412	463.88
454.633	479.88
454.853	481.88
455.073	471.88
455.294	474.88
455.514	562.88
455.734	533.88
455.955	467.88
456.175	469.88
456.395	470.88
456.616	455.88
456.836	458.88
457.056	460.88
457.276	436.88
457.497	456.88
457.717	462.88
457.937	448.88
458.157	469.88
458.377	466.88
458.598	497.88
458.818	541.88
459.038	590.88
459.258	595.88
459.478	545.88
459.698	528.88
459.918	526.88
460.138	518.88
460.358	517.88
460.578	546.88
460.798	535.88
461.018	530.88
461.238	532.88
461.458	556.88
461.678	522.88
461.898	544.88
462.118	554.88
462.338	568.88
462.558	554.88
462.777	545.88
462.997	634.88
463.217	610.88
463.437	619.88
463.657	606.88
463.876	602.88
464.096	586.88
464.316	587.88
464.536	584.88
464.755	583.88
464.975	563.88
465.195	601.88
465.414	638.88
465.634	589.88
465.854	561.88
466.073	537.88
466.293	520.88
466.512	501.88
466.732	497.88
466.951	499.88
467.171	524.88
467.391	496.88
467.61	483.88
467.829	497.88
468.049	506.88
468.268	489.88
468.488	490.88
468.707	482.88
468.927	490.88
469.146	515.88
469.365	485.88
469.585	485.88
469.804	500.88
470.023	506.88
470.243	487.88
470.462	503.88
470.681	522.88
470.901	539.88
471.12	508.88
471.339	481.88
471.558	501.88
471.777	490.88
471.997	514.88
472.216	512.88
472.435	527.88
472.654	516.88
472.873	498.88
473.092	506.88
473.311	490.88
473.53	510.88
473.749	516.88
473.968	530.88
474.187	620.88
474.406	645.88
474.625	542.88
474.844	518.88
475.063	506.88
475.282	507.88
475.501	496.88
475.72	520.88
475.939	520.88
476.158	499.88
476.377	493.88
476.596	508.88
476.814	493.88
477.033	542.88
477.252	526.88
477.471	564.88
477.69	525.88
477.908	526.88
478.127	556.88
478.346	554.88
478.564	558.88
478.783	573.88
479.002	570.88
479.22	587.88
479.439	589.88
479.658	586.88
479.876	600.88
480.095	606.88
480.313	631.88
480.532	632.88
480.751	613.88
480.969	621.88
481.188	645.88
481.406	686.88
481.624	642.88
481.843	601.88
482.061	606.88
482.28	611.88
482.498	593.88
482.717	576.88
482.935	582.88
483.153	575.88
483.372	579.88
483.59	611.88
483.808	557.88
484.027	580.88
484.245	579.88
484.463	597.88
484.681	609.88
484.9	602.88
485.118	596.88
485.336	561.88
485.554	589.88
485.772	612.88
485.99	599.88
486.209	610.88
486.427	616.88
486.645	594.88
486.863	608.88
487.081	636.88
487.299	622.88
487.517	619.88
487.735	624.88
487.953	635.88
488.171	629.88
488.389	620.88
488.607	624.88
488.825	619.88
489.043	620.88
489.261	609.88
489.479	640.88
489.696	634.88
489.914	649.88
490.132	631.88
490.35	646.88
490.568	650.88
490.786	632.88
491.003	663.88
491.221	655.88
491.439	684.88
491.657	671.88
491.874	674.88
492.092	684.88
492.31	711.88
492.527	702.88
492.745	726.88
492.963	699.88
493.18	687.88
493.398	672.88
493.615	718.88
493.833	715.88
494.05	726.88
494.268	706.88
494.485	714.88
494.703	688.88
494.92	720.88
495.138	699.88
495.355	711.88
495.573	752.88
495.79	744.88
496.008	726.88
496.225	742.88
496.442	732.88
496.66	759.88
496.877	740.88
497.094	748.88
497.312	748.88
497.529	768.88
497.746	786.88
497.963	791.88
498.181	812.88
498.398	826.88
498.615	850.88
498.832	862.88
499.049	892.88
499.267	917.88
499.484	939.88
499.701	989.88
499.918	1048.88
500.135	1069.88
500.352	1117.88
500.569	1184.88
500.786	1208.88
501.003	1158.88
501.22	1111.88
501.437	1049.88
501.654	989.88
501.871	1005.88
