Data from 1979.PennyLincolnUp.Lamp.En5.5.200Scan.071719.P1_HRD10591_16-19-59-863.txt Node
Date: Thu Jul 18 16:19:59 EDT 2019
User: cochatt
Spectrometer: HR+D1059
Trigger mode: 1
Integration Time (sec): 1.000000E-1
Scans to average: 1
Electric dark correction enabled: true
Nonlinearity correction enabled: false
Boxcar width: 0
XAxis mode: Wavelengths
Number of Pixels in Spectrum: 2048
>>>>>Begin Spectral Data<<<<<
223.165	-4.94
223.4	-4.94
223.635	-4.94
223.869	-3.94
224.104	-16.94
224.338	-10.94
224.573	-16.94
224.808	-12.94
225.042	-14.94
225.277	-17.94
225.511	-8.94
225.746	3.06
225.98	9.06
226.215	9.06
226.449	16.06
226.683	24.06
226.918	27.06
227.152	20.06
227.387	32.06
227.621	37.06
227.856	46.06
228.09	44.06
228.324	58.06
228.559	53.06
228.793	53.06
229.027	101.06
229.262	103.06
229.496	126.06
229.73	132.06
229.964	143.06
230.199	129.06
230.433	108.06
230.667	116.06
230.901	120.06
231.136	119.06
231.37	107.06
231.604	120.06
231.838	115.06
232.072	107.06
232.306	108.06
232.541	127.06
232.775	119.06
233.009	120.06
233.243	109.06
233.477	117.06
233.711	113.06
233.945	120.06
234.179	113.06
234.413	129.06
234.647	117.06
234.881	116.06
235.115	102.06
235.349	123.06
235.583	137.06
235.817	119.06
236.051	137.06
236.285	127.06
236.519	120.06
236.753	133.06
236.987	138.06
237.221	161.06
237.455	221.06
237.689	183.06
237.922	144.06
238.156	131.06
238.39	125.06
238.624	138.06
238.858	139.06
239.091	121.06
239.325	131.06
239.559	135.06
239.793	131.06
240.027	142.06
240.26	131.06
240.494	159.06
240.728	154.06
240.961	158.06
241.195	136.06
241.429	127.06
241.662	149.06
241.896	133.06
242.13	127.06
242.363	131.06
242.597	135.06
242.83	142.06
243.064	147.06
243.298	155.06
243.531	127.06
243.765	150.06
243.998	147.06
244.232	143.06
244.465	144.06
244.699	133.06
244.932	155.06
245.166	140.06
245.399	152.06
245.633	150.06
245.866	156.06
246.099	141.06
246.333	158.06
246.566	149.06
246.8	151.06
247.033	149.06
247.266	156.06
247.5	147.06
247.733	163.06
247.966	165.06
248.2	177.06
248.433	173.06
248.666	138.06
248.899	183.06
249.133	196.06
249.366	204.06
249.599	192.06
249.832	181.06
250.066	181.06
250.299	181.06
250.532	184.06
250.765	195.06
250.998	220.06
251.231	206.06
251.465	195.06
251.698	195.06
251.931	185.06
252.164	192.06
252.397	198.06
252.63	185.06
252.863	201.06
253.096	200.06
253.329	215.06
253.562	227.06
253.795	220.06
254.028	221.06
254.261	210.06
254.494	224.06
254.727	245.06
254.96	262.06
255.193	249.06
255.426	232.06
255.659	234.06
255.892	215.06
256.124	221.06
256.357	231.06
256.59	225.06
256.823	209.06
257.056	200.06
257.289	208.06
257.521	214.06
257.754	203.06
257.987	199.06
258.22	203.06
258.452	201.06
258.685	211.06
258.918	213.06
259.151	196.06
259.383	215.06
259.616	216.06
259.849	226.06
260.081	231.06
260.314	234.06
260.547	245.06
260.779	239.06
261.012	222.06
261.244	218.06
261.477	237.06
261.71	223.06
261.942	222.06
262.175	224.06
262.407	224.06
262.64	224.06
262.872	223.06
263.105	221.06
263.337	209.06
263.57	217.06
263.802	216.06
264.035	205.06
264.267	197.06
264.499	221.06
264.732	209.06
264.964	219.06
265.197	204.06
265.429	216.06
265.661	220.06
265.894	210.06
266.126	221.06
266.358	205.06
266.591	218.06
266.823	222.06
267.055	228.06
267.287	215.06
267.52	221.06
267.752	228.06
267.984	217.06
268.216	243.06
268.448	227.06
268.681	238.06
268.913	229.06
269.145	259.06
269.377	259.06
269.609	255.06
269.841	245.06
270.073	266.06
270.306	283.06
270.538	289.06
270.77	288.06
271.002	308.06
271.234	279.06
271.466	288.06
271.698	279.06
271.93	276.06
272.162	291.06
272.394	298.06
272.626	301.06
272.858	277.06
273.09	267.06
273.322	259.06
273.553	266.06
273.785	277.06
274.017	251.06
274.249	266.06
274.481	256.06
274.713	265.06
274.945	260.06
275.176	259.06
275.408	247.06
275.64	268.06
275.872	248.06
276.104	254.06
276.335	252.06
276.567	269.06
276.799	267.06
277.031	293.06
277.262	301.06
277.494	307.06
277.726	277.06
277.957	277.06
278.189	273.06
278.421	271.06
278.652	254.06
278.884	269.06
279.115	267.06
279.347	251.06
279.579	257.06
279.81	261.06
280.042	260.06
280.273	265.06
280.505	273.06
280.736	279.06
280.968	264.06
281.199	261.06
281.431	267.06
281.662	269.06
281.894	260.06
282.125	275.06
282.356	285.06
282.588	311.06
282.819	315.06
283.051	265.06
283.282	257.06
283.513	289.06
283.745	275.06
283.976	292.06
284.207	291.06
284.439	276.06
284.67	277.06
284.901	269.06
285.132	259.06
285.364	274.06
285.595	253.06
285.826	281.06
286.057	268.06
286.288	271.06
286.52	272.06
286.751	278.06
286.982	291.06
287.213	268.06
287.444	279.06
287.675	276.06
287.906	293.06
288.138	304.06
288.369	298.06
288.6	303.06
288.831	311.06
289.062	293.06
289.293	289.06
289.524	279.06
289.755	284.06
289.986	293.06
290.217	289.06
290.448	290.06
290.679	292.06
290.91	292.06
291.141	283.06
291.371	295.06
291.602	296.06
291.833	312.06
292.064	291.06
292.295	293.06
292.526	313.06
292.757	312.06
292.987	298.06
293.218	279.06
293.449	283.06
293.68	295.06
293.91	297.06
294.141	273.06
294.372	295.06
294.603	304.06
294.833	282.06
295.064	304.06
295.295	302.06
295.525	308.06
295.756	313.06
295.987	315.06
296.217	317.06
296.448	330.06
296.679	316.06
296.909	310.06
297.14	314.06
297.37	303.06
297.601	309.06
297.831	291.06
298.062	312.06
298.292	310.06
298.523	322.06
298.753	301.06
298.984	321.06
299.214	289.06
299.445	334.06
299.675	327.06
299.905	320.06
300.136	323.06
300.366	308.06
300.597	306.06
300.827	338.06
301.057	348.06
301.288	330.06
301.518	292.06
301.748	323.06
301.979	341.06
302.209	332.06
302.439	323.06
302.669	328.06
302.9	336.06
303.13	314.06
303.36	336.06
303.59	333.06
303.82	355.06
304.051	334.06
304.281	352.06
304.511	344.06
304.741	331.06
304.971	331.06
305.201	313.06
305.431	343.06
305.661	342.06
305.891	324.06
306.121	341.06
306.352	332.06
306.582	347.06
306.812	335.06
307.042	348.06
307.272	359.06
307.502	339.06
307.731	329.06
307.961	330.06
308.191	332.06
308.421	342.06
308.651	335.06
308.881	320.06
309.111	347.06
309.341	357.06
309.571	358.06
309.8	349.06
310.03	365.06
310.26	393.06
310.49	371.06
310.72	379.06
310.949	393.06
311.179	397.06
311.409	382.06
311.639	368.06
311.868	374.06
312.098	374.06
312.328	388.06
312.557	402.06
312.787	407.06
313.017	408.06
313.246	372.06
313.476	378.06
313.706	385.06
313.935	369.06
314.165	399.06
314.394	387.06
314.624	391.06
314.853	376.06
315.083	392.06
315.312	383.06
315.542	372.06
315.771	374.06
316.001	358.06
316.23	381.06
316.46	378.06
316.689	373.06
316.919	367.06
317.148	397.06
317.377	394.06
317.607	380.06
317.836	395.06
318.065	381.06
318.295	388.06
318.524	392.06
318.753	360.06
318.983	371.06
319.212	376.06
319.441	386.06
319.67	395.06
319.9	394.06
320.129	388.06
320.358	373.06
320.587	390.06
320.816	391.06
321.046	398.06
321.275	405.06
321.504	385.06
321.733	399.06
321.962	428.06
322.191	443.06
322.42	400.06
322.649	432.06
322.878	432.06
323.108	440.06
323.337	474.06
323.566	476.06
323.795	528.06
324.024	548.06
324.253	653.06
324.482	924.06
324.71	1445.06
324.939	2127.06
325.168	1845.06
325.397	903.06
325.626	620.06
325.855	528.06
326.084	485.06
326.313	501.06
326.542	495.06
326.77	549.06
326.999	637.06
327.228	845.06
327.457	1313.06
327.686	1608.06
327.914	1031.06
328.143	685.06
328.372	588.06
328.6	556.06
328.829	551.06
329.058	550.06
329.287	559.06
329.515	528.06
329.744	492.06
329.972	490.06
330.201	529.06
330.43	564.06
330.658	576.06
330.887	576.06
331.115	576.06
331.344	504.06
331.572	477.06
331.801	488.06
332.03	489.06
332.258	467.06
332.486	457.06
332.715	443.06
332.943	473.06
333.172	474.06
333.4	478.06
333.629	484.06
333.857	520.06
334.085	499.06
334.314	516.06
334.542	549.06
334.771	576.06
334.999	527.06
335.227	499.06
335.455	456.06
335.684	478.06
335.912	470.06
336.14	478.06
336.369	458.06
336.597	458.06
336.825	471.06
337.053	470.06
337.281	443.06
337.51	428.06
337.738	446.06
337.966	457.06
338.194	457.06
338.422	452.06
338.65	446.06
338.878	446.06
339.106	433.06
339.334	453.06
339.562	444.06
339.79	422.06
340.018	445.06
340.246	418.06
340.474	447.06
340.702	460.06
340.93	445.06
341.158	460.06
341.386	436.06
341.614	463.06
341.842	453.06
342.07	479.06
342.298	442.06
342.526	447.06
342.754	456.06
342.981	422.06
343.209	402.06
343.437	414.06
343.665	451.06
343.893	474.06
344.12	472.06
344.348	469.06
344.576	446.06
344.804	441.06
345.031	482.06
345.259	453.06
345.487	453.06
345.714	444.06
345.942	437.06
346.17	439.06
346.397	440.06
346.625	418.06
346.853	415.06
347.08	425.06
347.308	443.06
347.535	429.06
347.763	435.06
347.99	439.06
348.218	453.06
348.445	437.06
348.673	433.06
348.9	434.06
349.128	413.06
349.355	413.06
349.583	398.06
349.81	414.06
350.037	411.06
350.265	419.06
350.492	412.06
350.72	412.06
350.947	432.06
351.174	429.06
351.402	447.06
351.629	432.06
351.856	415.06
352.083	455.06
352.311	443.06
352.538	467.06
352.765	447.06
352.992	409.06
353.22	446.06
353.447	429.06
353.674	414.06
353.901	409.06
354.128	414.06
354.355	395.06
354.583	407.06
354.81	427.06
355.037	398.06
355.264	403.06
355.491	409.06
355.718	387.06
355.945	396.06
356.172	402.06
356.399	406.06
356.626	408.06
356.853	404.06
357.08	416.06
357.307	398.06
357.534	409.06
357.761	400.06
357.988	377.06
358.215	390.06
358.441	421.06
358.668	412.06
358.895	404.06
359.122	396.06
359.349	402.06
359.576	416.06
359.802	450.06
360.029	491.06
360.256	469.06
360.483	455.06
360.709	425.06
360.936	441.06
361.163	411.06
361.39	443.06
361.616	432.06
361.843	425.06
362.07	438.06
362.296	422.06
362.523	418.06
362.749	420.06
362.976	430.06
363.203	416.06
363.429	400.06
363.656	423.06
363.882	427.06
364.109	399.06
364.335	401.06
364.562	421.06
364.788	417.06
365.015	431.06
365.241	402.06
365.468	440.06
365.694	425.06
365.92	426.06
366.147	421.06
366.373	447.06
366.599	417.06
366.826	413.06
367.052	424.06
367.278	395.06
367.505	423.06
367.731	413.06
367.957	423.06
368.184	415.06
368.41	433.06
368.636	408.06
368.862	435.06
369.089	405.06
369.315	421.06
369.541	413.06
369.767	423.06
369.993	398.06
370.219	424.06
370.445	424.06
370.672	430.06
370.898	405.06
371.124	427.06
371.35	414.06
371.576	413.06
371.802	413.06
372.028	423.06
372.254	427.06
372.48	409.06
372.706	447.06
372.932	419.06
373.158	424.06
373.384	413.06
373.61	428.06
373.835	421.06
374.061	449.06
374.287	418.06
374.513	440.06
374.739	433.06
374.965	453.06
375.191	439.06
375.416	429.06
375.642	435.06
375.868	437.06
376.094	424.06
376.319	400.06
376.545	426.06
376.771	423.06
376.997	421.06
377.222	421.06
377.448	420.06
377.674	422.06
377.899	437.06
378.125	421.06
378.35	432.06
378.576	438.06
378.802	400.06
379.027	419.06
379.253	425.06
379.478	405.06
379.704	417.06
379.929	418.06
380.155	418.06
380.38	438.06
380.606	447.06
380.831	424.06
381.057	435.06
381.282	442.06
381.507	458.06
381.733	431.06
381.958	429.06
382.184	427.06
382.409	438.06
382.634	413.06
382.86	443.06
383.085	443.06
383.31	444.06
383.535	456.06
383.761	460.06
383.986	429.06
384.211	463.06
384.436	449.06
384.662	463.06
384.887	449.06
385.112	468.06
385.337	471.06
385.562	476.06
385.787	470.06
386.013	499.06
386.238	503.06
386.463	494.06
386.688	469.06
386.913	450.06
387.138	484.06
387.363	470.06
387.588	468.06
387.813	483.06
388.038	469.06
388.263	464.06
388.488	490.06
388.713	485.06
388.938	479.06
389.163	491.06
389.387	481.06
389.612	469.06
389.837	481.06
390.062	465.06
390.287	480.06
390.512	451.06
390.736	479.06
390.961	488.06
391.186	474.06
391.411	485.06
391.636	488.06
391.86	490.06
392.085	529.06
392.31	491.06
392.534	495.06
392.759	499.06
392.984	474.06
393.208	496.06
393.433	487.06
393.658	497.06
393.882	453.06
394.107	511.06
394.331	496.06
394.556	508.06
394.78	499.06
395.005	495.06
395.229	505.06
395.454	523.06
395.678	499.06
395.903	512.06
396.127	554.06
396.352	517.06
396.576	511.06
396.801	503.06
397.025	497.06
397.249	495.06
397.474	488.06
397.698	505.06
397.922	534.06
398.147	547.06
398.371	545.06
398.595	561.06
398.82	536.06
399.044	566.06
399.268	590.06
399.492	642.06
399.717	673.06
399.941	681.06
400.165	714.06
400.389	697.06
400.613	663.06
400.837	609.06
401.062	594.06
401.286	564.06
401.51	577.06
401.734	550.06
401.958	563.06
402.182	567.06
402.406	603.06
402.63	583.06
402.854	558.06
403.078	587.06
403.302	583.06
403.526	589.06
403.75	594.06
403.974	605.06
404.198	598.06
404.422	569.06
404.645	611.06
404.869	612.06
405.093	609.06
405.317	651.06
405.541	701.06
405.765	666.06
405.988	648.06
406.212	631.06
406.436	637.06
406.66	656.06
406.883	640.06
407.107	648.06
407.331	727.06
407.555	779.06
407.778	773.06
408.002	725.06
408.226	680.06
408.449	665.06
408.673	667.06
408.896	679.06
409.12	710.06
409.344	689.06
409.567	630.06
409.791	614.06
410.014	589.06
410.238	592.06
410.461	581.06
410.685	583.06
410.908	613.06
411.132	664.06
411.355	679.06
411.578	665.06
411.802	618.06
412.025	594.06
412.249	606.06
412.472	653.06
412.695	655.06
412.919	644.06
413.142	623.06
413.365	579.06
413.589	575.06
413.812	575.06
414.035	580.06
414.258	570.06
414.482	575.06
414.705	556.06
414.928	566.06
415.151	551.06
415.374	569.06
415.597	576.06
415.821	574.06
416.044	563.06
416.267	567.06
416.49	583.06
416.713	544.06
416.936	562.06
417.159	570.06
417.382	564.06
417.605	580.06
417.828	575.06
418.051	579.06
418.274	576.06
418.497	535.06
418.72	551.06
418.943	565.06
419.166	596.06
419.389	635.06
419.611	614.06
419.834	613.06
420.057	580.06
420.28	590.06
420.503	579.06
420.726	568.06
420.948	582.06
421.171	649.06
421.394	676.06
421.617	592.06
421.839	592.06
422.062	570.06
422.285	617.06
422.507	661.06
422.73	735.06
422.953	685.06
423.175	628.06
423.398	617.06
423.621	608.06
423.843	619.06
424.066	623.06
424.288	636.06
424.511	650.06
424.733	693.06
424.956	800.06
425.178	736.06
425.401	736.06
425.623	770.06
425.846	641.06
426.068	628.06
426.291	605.06
426.513	612.06
426.735	625.06
426.958	668.06
427.18	736.06
427.402	889.06
427.625	974.06
427.847	848.06
428.069	742.06
428.292	649.06
428.514	611.06
428.736	587.06
428.958	606.06
429.181	552.06
429.403	540.06
429.625	602.06
429.847	604.06
430.069	664.06
430.292	671.06
430.514	583.06
430.736	574.06
430.958	532.06
431.18	577.06
431.402	555.06
431.624	555.06
431.846	524.06
432.068	558.06
432.29	566.06
432.512	555.06
432.734	559.06
432.956	552.06
433.178	556.06
433.4	574.06
433.622	559.06
433.844	539.06
434.066	560.06
434.287	561.06
434.509	574.06
434.731	569.06
434.953	596.06
435.175	580.06
435.397	607.06
435.618	595.06
435.84	663.06
436.062	759.06
436.284	820.06
436.505	675.06
436.727	635.06
436.949	557.06
437.17	567.06
437.392	593.06
437.614	594.06
437.835	629.06
438.057	682.06
438.278	821.06
438.5	787.06
438.721	916.06
438.943	848.06
439.165	671.06
439.386	622.06
439.608	619.06
439.829	626.06
440.05	629.06
440.272	712.06
440.493	673.06
440.715	604.06
440.936	593.06
441.158	596.06
441.379	595.06
441.6	602.06
441.822	624.06
442.043	678.06
442.264	761.06
442.486	798.06
442.707	695.06
442.928	642.06
443.149	638.06
443.371	669.06
443.592	681.06
443.813	811.06
444.034	880.06
444.255	723.06
444.476	655.06
444.698	632.06
444.919	655.06
445.14	733.06
445.361	702.06
445.582	673.06
445.803	715.06
446.024	811.06
446.245	847.06
446.466	756.06
446.687	645.06
446.908	604.06
447.129	580.06
447.35	577.06
447.571	580.06
447.792	571.06
448.013	550.06
448.234	583.06
448.455	647.06
448.675	744.06
448.896	857.06
449.117	729.06
449.338	686.06
449.559	815.06
449.779	894.06
450	737.06
450.221	607.06
450.442	567.06
450.662	563.06
450.883	555.06
451.104	549.06
451.324	551.06
451.545	544.06
451.766	527.06
451.986	504.06
452.207	514.06
452.428	515.06
452.648	500.06
452.869	501.06
453.089	521.06
453.31	506.06
453.53	526.06
453.751	518.06
453.971	521.06
454.192	525.06
454.412	517.06
454.633	526.06
454.853	501.06
455.073	481.06
455.294	526.06
455.514	603.06
455.734	588.06
455.955	516.06
456.175	487.06
456.395	477.06
456.616	494.06
456.836	492.06
457.056	492.06
457.276	472.06
457.497	477.06
457.717	495.06
457.937	487.06
458.157	518.06
458.377	489.06
458.598	516.06
458.818	574.06
459.038	663.06
459.258	692.06
459.478	597.06
459.698	567.06
459.918	568.06
460.138	556.06
460.358	558.06
460.578	567.06
460.798	578.06
461.018	582.06
461.238	588.06
461.458	560.06
461.678	555.06
461.898	575.06
462.118	573.06
462.338	599.06
462.558	599.06
462.777	613.06
462.997	616.06
463.217	647.06
463.437	656.06
463.657	653.06
463.876	635.06
464.096	635.06
464.316	629.06
464.536	635.06
464.755	621.06
464.975	636.06
465.195	655.06
465.414	708.06
465.634	638.06
465.854	578.06
466.073	566.06
466.293	573.06
466.512	525.06
466.732	534.06
466.951	529.06
467.171	523.06
467.391	546.06
467.61	530.06
467.829	557.06
468.049	543.06
468.268	552.06
468.488	505.06
468.707	527.06
468.927	525.06
469.146	502.06
469.365	533.06
469.585	517.06
469.804	540.06
470.023	556.06
470.243	548.06
470.462	529.06
470.681	556.06
470.901	555.06
471.12	551.06
471.339	544.06
471.558	533.06
471.777	530.06
471.997	527.06
472.216	520.06
472.435	572.06
472.654	562.06
472.873	545.06
473.092	525.06
473.311	520.06
473.53	528.06
473.749	543.06
473.968	574.06
474.187	675.06
474.406	703.06
474.625	593.06
474.844	556.06
475.063	543.06
475.282	547.06
475.501	551.06
475.72	536.06
475.939	568.06
476.158	548.06
476.377	551.06
476.596	566.06
476.814	565.06
477.033	549.06
477.252	564.06
477.471	563.06
477.69	569.06
477.908	581.06
478.127	598.06
478.346	591.06
478.564	611.06
478.783	616.06
479.002	607.06
479.22	651.06
479.439	643.06
479.658	642.06
479.876	645.06
480.095	665.06
480.313	691.06
480.532	701.06
480.751	673.06
480.969	664.06
481.188	720.06
481.406	773.06
481.624	689.06
481.843	640.06
482.061	619.06
482.28	621.06
482.498	647.06
482.717	638.06
482.935	595.06
483.153	600.06
483.372	619.06
483.59	622.06
483.808	590.06
484.027	617.06
484.245	630.06
484.463	632.06
484.681	632.06
484.9	641.06
485.118	652.06
485.336	625.06
485.554	647.06
485.772	664.06
485.99	652.06
486.209	641.06
486.427	630.06
486.645	685.06
486.863	658.06
487.081	681.06
487.299	671.06
487.517	650.06
487.735	670.06
487.953	661.06
488.171	675.06
488.389	671.06
488.607	655.06
488.825	656.06
489.043	653.06
489.261	669.06
489.479	687.06
489.696	684.06
489.914	701.06
490.132	692.06
490.35	701.06
490.568	710.06
490.786	701.06
491.003	699.06
491.221	740.06
491.439	736.06
491.657	732.06
491.874	737.06
492.092	770.06
492.31	745.06
492.527	768.06
492.745	782.06
492.963	792.06
493.18	777.06
493.398	757.06
493.615	794.06
493.833	787.06
494.05	804.06
494.268	804.06
494.485	785.06
494.703	779.06
494.92	790.06
495.138	760.06
495.355	783.06
495.573	801.06
495.79	809.06
496.008	791.06
496.225	800.06
496.442	790.06
496.66	791.06
496.877	812.06
497.094	799.06
497.312	810.06
497.529	834.06
497.746	848.06
497.963	863.06
498.181	889.06
498.398	886.06
498.615	899.06
498.832	935.06
499.049	951.06
499.267	964.06
499.484	1016.06
499.701	1028.06
499.918	1128.06
500.135	1164.06
500.352	1244.06
500.569	1247.06
500.786	1287.06
501.003	1227.06
501.22	1178.06
501.437	1120.06
501.654	1074.06
501.871	1053.06
