Data from 1979.PennyLincolnUp.Lamp.En5.5.200Scan.071719.P1_HRD10591_16-19-56-863.txt Node
Date: Thu Jul 18 16:19:56 EDT 2019
User: cochatt
Spectrometer: HR+D1059
Trigger mode: 1
Integration Time (sec): 1.000000E-1
Scans to average: 1
Electric dark correction enabled: true
Nonlinearity correction enabled: false
Boxcar width: 0
XAxis mode: Wavelengths
Number of Pixels in Spectrum: 2048
>>>>>Begin Spectral Data<<<<<
223.165	-4.56
223.4	-4.56
223.635	-4.56
223.869	-13.56
224.104	-21.56
224.338	-8.56
224.573	-26.56
224.808	-8.56
225.042	-15.56
225.277	-7.56
225.511	-7.56
225.746	6.44
225.98	6.44
226.215	14.44
226.449	14.44
226.683	18.44
226.918	30.44
227.152	23.44
227.387	23.44
227.621	40.44
227.856	39.44
228.09	40.44
228.324	52.44
228.559	65.44
228.793	56.44
229.027	99.44
229.262	96.44
229.496	108.44
229.73	138.44
229.964	143.44
230.199	132.44
230.433	107.44
230.667	110.44
230.901	111.44
231.136	119.44
231.37	107.44
231.604	105.44
231.838	108.44
232.072	117.44
232.306	121.44
232.541	112.44
232.775	100.44
233.009	122.44
233.243	119.44
233.477	104.44
233.711	113.44
233.945	118.44
234.179	111.44
234.413	114.44
234.647	122.44
234.881	123.44
235.115	123.44
235.349	125.44
235.583	120.44
235.817	131.44
236.051	109.44
236.285	117.44
236.519	127.44
236.753	133.44
236.987	130.44
237.221	192.44
237.455	214.44
237.689	169.44
237.922	144.44
238.156	137.44
238.39	128.44
238.624	126.44
238.858	118.44
239.091	124.44
239.325	126.44
239.559	132.44
239.793	134.44
240.027	137.44
240.26	151.44
240.494	157.44
240.728	144.44
240.961	145.44
241.195	141.44
241.429	137.44
241.662	140.44
241.896	130.44
242.13	122.44
242.363	126.44
242.597	136.44
242.83	134.44
243.064	136.44
243.298	128.44
243.531	137.44
243.765	135.44
243.998	142.44
244.232	140.44
244.465	162.44
244.699	142.44
244.932	141.44
245.166	147.44
245.399	142.44
245.633	148.44
245.866	137.44
246.099	126.44
246.333	148.44
246.566	142.44
246.8	137.44
247.033	157.44
247.266	155.44
247.5	155.44
247.733	152.44
247.966	159.44
248.2	178.44
248.433	178.44
248.666	168.44
248.899	187.44
249.133	205.44
249.366	194.44
249.599	206.44
249.832	179.44
250.066	180.44
250.299	165.44
250.532	185.44
250.765	198.44
250.998	213.44
251.231	221.44
251.465	204.44
251.698	191.44
251.931	183.44
252.164	180.44
252.397	186.44
252.63	179.44
252.863	195.44
253.096	233.44
253.329	221.44
253.562	228.44
253.795	209.44
254.028	208.44
254.261	215.44
254.494	224.44
254.727	224.44
254.96	263.44
255.193	231.44
255.426	221.44
255.659	219.44
255.892	223.44
256.124	232.44
256.357	224.44
256.59	205.44
256.823	209.44
257.056	214.44
257.289	206.44
257.521	206.44
257.754	201.44
257.987	216.44
258.22	189.44
258.452	214.44
258.685	212.44
258.918	205.44
259.151	183.44
259.383	215.44
259.616	209.44
259.849	214.44
260.081	229.44
260.314	250.44
260.547	248.44
260.779	221.44
261.012	221.44
261.244	194.44
261.477	218.44
261.71	221.44
261.942	224.44
262.175	234.44
262.407	214.44
262.64	209.44
262.872	218.44
263.105	206.44
263.337	207.44
263.57	204.44
263.802	217.44
264.035	206.44
264.267	215.44
264.499	211.44
264.732	219.44
264.964	211.44
265.197	213.44
265.429	217.44
265.661	226.44
265.894	216.44
266.126	197.44
266.358	208.44
266.591	208.44
266.823	229.44
267.055	226.44
267.287	216.44
267.52	205.44
267.752	229.44
267.984	223.44
268.216	221.44
268.448	218.44
268.681	216.44
268.913	223.44
269.145	258.44
269.377	270.44
269.609	258.44
269.841	267.44
270.073	256.44
270.306	273.44
270.538	310.44
270.77	288.44
271.002	283.44
271.234	277.44
271.466	281.44
271.698	293.44
271.93	292.44
272.162	295.44
272.394	299.44
272.626	276.44
272.858	277.44
273.09	272.44
273.322	250.44
273.553	278.44
273.785	273.44
274.017	250.44
274.249	258.44
274.481	264.44
274.713	248.44
274.945	247.44
275.176	267.44
275.408	235.44
275.64	252.44
275.872	248.44
276.104	237.44
276.335	256.44
276.567	273.44
276.799	267.44
277.031	296.44
277.262	320.44
277.494	287.44
277.726	299.44
277.957	289.44
278.189	269.44
278.421	286.44
278.652	274.44
278.884	266.44
279.115	255.44
279.347	254.44
279.579	266.44
279.81	255.44
280.042	258.44
280.273	258.44
280.505	237.44
280.736	272.44
280.968	270.44
281.199	255.44
281.431	257.44
281.662	272.44
281.894	257.44
282.125	270.44
282.356	286.44
282.588	294.44
282.819	295.44
283.051	277.44
283.282	274.44
283.513	276.44
283.745	275.44
283.976	277.44
284.207	281.44
284.439	281.44
284.67	278.44
284.901	271.44
285.132	287.44
285.364	261.44
285.595	276.44
285.826	262.44
286.057	274.44
286.288	276.44
286.52	280.44
286.751	288.44
286.982	262.44
287.213	294.44
287.444	265.44
287.675	292.44
287.906	286.44
288.138	304.44
288.369	315.44
288.6	297.44
288.831	276.44
289.062	268.44
289.293	297.44
289.524	295.44
289.755	296.44
289.986	277.44
290.217	273.44
290.448	285.44
290.679	287.44
290.91	284.44
291.141	297.44
291.371	275.44
291.602	300.44
291.833	270.44
292.064	287.44
292.295	298.44
292.526	289.44
292.757	292.44
292.987	286.44
293.218	286.44
293.449	295.44
293.68	283.44
293.91	292.44
294.141	277.44
294.372	284.44
294.603	292.44
294.833	301.44
295.064	300.44
295.295	293.44
295.525	284.44
295.756	319.44
295.987	292.44
296.217	313.44
296.448	332.44
296.679	302.44
296.909	319.44
297.14	314.44
297.37	296.44
297.601	312.44
297.831	300.44
298.062	302.44
298.292	306.44
298.523	320.44
298.753	312.44
298.984	326.44
299.214	308.44
299.445	307.44
299.675	297.44
299.905	324.44
300.136	316.44
300.366	298.44
300.597	327.44
300.827	307.44
301.057	313.44
301.288	315.44
301.518	342.44
301.748	322.44
301.979	322.44
302.209	348.44
302.439	339.44
302.669	328.44
302.9	318.44
303.13	322.44
303.36	339.44
303.59	336.44
303.82	326.44
304.051	339.44
304.281	327.44
304.511	318.44
304.741	318.44
304.971	324.44
305.201	332.44
305.431	345.44
305.661	325.44
305.891	322.44
306.121	327.44
306.352	332.44
306.582	322.44
306.812	343.44
307.042	351.44
307.272	339.44
307.502	330.44
307.731	338.44
307.961	327.44
308.191	329.44
308.421	340.44
308.651	347.44
308.881	346.44
309.111	351.44
309.341	344.44
309.571	339.44
309.8	342.44
310.03	365.44
310.26	384.44
310.49	370.44
310.72	362.44
310.949	376.44
311.179	366.44
311.409	386.44
311.639	362.44
311.868	359.44
312.098	376.44
312.328	381.44
312.557	376.44
312.787	412.44
313.017	406.44
313.246	386.44
313.476	390.44
313.706	384.44
313.935	387.44
314.165	371.44
314.394	404.44
314.624	387.44
314.853	401.44
315.083	376.44
315.312	400.44
315.542	371.44
315.771	366.44
316.001	367.44
316.23	367.44
316.46	367.44
316.689	377.44
316.919	370.44
317.148	383.44
317.377	388.44
317.607	390.44
317.836	391.44
318.065	376.44
318.295	389.44
318.524	380.44
318.753	384.44
318.983	367.44
319.212	390.44
319.441	377.44
319.67	381.44
319.9	388.44
320.129	372.44
320.358	382.44
320.587	376.44
320.816	390.44
321.046	378.44
321.275	416.44
321.504	392.44
321.733	413.44
321.962	426.44
322.191	403.44
322.42	431.44
322.649	450.44
322.878	447.44
323.108	450.44
323.337	444.44
323.566	466.44
323.795	523.44
324.024	552.44
324.253	657.44
324.482	963.44
324.71	1454.44
324.939	2164.44
325.168	1884.44
325.397	900.44
325.626	618.44
325.855	553.44
326.084	502.44
326.313	498.44
326.542	500.44
326.77	546.44
326.999	642.44
327.228	859.44
327.457	1348.44
327.686	1656.44
327.914	1063.44
328.143	703.44
328.372	607.44
328.6	563.44
328.829	544.44
329.058	562.44
329.287	570.44
329.515	544.44
329.744	500.44
329.972	482.44
330.201	518.44
330.43	546.44
330.658	575.44
330.887	578.44
331.115	585.44
331.344	525.44
331.572	482.44
331.801	506.44
332.03	470.44
332.258	472.44
332.486	455.44
332.715	440.44
332.943	438.44
333.172	464.44
333.4	476.44
333.629	478.44
333.857	486.44
334.085	518.44
334.314	503.44
334.542	543.44
334.771	548.44
334.999	501.44
335.227	484.44
335.455	452.44
335.684	475.44
335.912	492.44
336.14	469.44
336.369	470.44
336.597	456.44
336.825	480.44
337.053	459.44
337.281	450.44
337.51	477.44
337.738	449.44
337.966	441.44
338.194	446.44
338.422	462.44
338.65	453.44
338.878	419.44
339.106	440.44
339.334	431.44
339.562	436.44
339.79	434.44
340.018	459.44
340.246	438.44
340.474	439.44
340.702	449.44
340.93	446.44
341.158	425.44
341.386	436.44
341.614	436.44
341.842	425.44
342.07	425.44
342.298	447.44
342.526	422.44
342.754	405.44
342.981	429.44
343.209	433.44
343.437	444.44
343.665	440.44
343.893	455.44
344.12	462.44
344.348	450.44
344.576	451.44
344.804	465.44
345.031	472.44
345.259	465.44
345.487	464.44
345.714	450.44
345.942	432.44
346.17	446.44
346.397	423.44
346.625	439.44
346.853	418.44
347.08	421.44
347.308	425.44
347.535	419.44
347.763	416.44
347.99	458.44
348.218	441.44
348.445	442.44
348.673	424.44
348.9	421.44
349.128	421.44
349.355	421.44
349.583	400.44
349.81	414.44
350.037	415.44
350.265	406.44
350.492	412.44
350.72	416.44
350.947	411.44
351.174	442.44
351.402	440.44
351.629	424.44
351.856	436.44
352.083	430.44
352.311	429.44
352.538	441.44
352.765	442.44
352.992	423.44
353.22	440.44
353.447	406.44
353.674	421.44
353.901	422.44
354.128	424.44
354.355	400.44
354.583	414.44
354.81	409.44
355.037	428.44
355.264	412.44
355.491	402.44
355.718	391.44
355.945	404.44
356.172	396.44
356.399	396.44
356.626	404.44
356.853	388.44
357.08	408.44
357.307	385.44
357.534	418.44
357.761	413.44
357.988	412.44
358.215	395.44
358.441	422.44
358.668	404.44
358.895	403.44
359.122	423.44
359.349	419.44
359.576	433.44
359.802	445.44
360.029	454.44
360.256	494.44
360.483	450.44
360.709	437.44
360.936	439.44
361.163	424.44
361.39	425.44
361.616	447.44
361.843	424.44
362.07	428.44
362.296	442.44
362.523	431.44
362.749	425.44
362.976	426.44
363.203	419.44
363.429	428.44
363.656	415.44
363.882	419.44
364.109	402.44
364.335	411.44
364.562	414.44
364.788	412.44
365.015	426.44
365.241	415.44
365.468	402.44
365.694	412.44
365.92	426.44
366.147	391.44
366.373	407.44
366.599	401.44
366.826	418.44
367.052	401.44
367.278	373.44
367.505	421.44
367.731	403.44
367.957	418.44
368.184	436.44
368.41	429.44
368.636	429.44
368.862	417.44
369.089	410.44
369.315	410.44
369.541	408.44
369.767	421.44
369.993	414.44
370.219	424.44
370.445	438.44
370.672	424.44
370.898	432.44
371.124	405.44
371.35	416.44
371.576	396.44
371.802	417.44
372.028	431.44
372.254	417.44
372.48	408.44
372.706	425.44
372.932	422.44
373.158	432.44
373.384	416.44
373.61	442.44
373.835	446.44
374.061	440.44
374.287	440.44
374.513	436.44
374.739	455.44
374.965	443.44
375.191	458.44
375.416	445.44
375.642	424.44
375.868	445.44
376.094	420.44
376.319	422.44
376.545	438.44
376.771	418.44
376.997	428.44
377.222	432.44
377.448	421.44
377.674	432.44
377.899	424.44
378.125	419.44
378.35	418.44
378.576	415.44
378.802	438.44
379.027	412.44
379.253	431.44
379.478	398.44
379.704	417.44
379.929	427.44
380.155	426.44
380.38	429.44
380.606	427.44
380.831	437.44
381.057	436.44
381.282	417.44
381.507	412.44
381.733	434.44
381.958	448.44
382.184	424.44
382.409	428.44
382.634	430.44
382.86	444.44
383.085	427.44
383.31	461.44
383.535	448.44
383.761	433.44
383.986	440.44
384.211	448.44
384.436	449.44
384.662	434.44
384.887	467.44
385.112	469.44
385.337	471.44
385.562	469.44
385.787	467.44
386.013	482.44
386.238	481.44
386.463	477.44
386.688	479.44
386.913	478.44
387.138	459.44
387.363	466.44
387.588	486.44
387.813	487.44
388.038	478.44
388.263	489.44
388.488	488.44
388.713	472.44
388.938	487.44
389.163	458.44
389.387	486.44
389.612	483.44
389.837	459.44
390.062	479.44
390.287	478.44
390.512	459.44
390.736	484.44
390.961	466.44
391.186	482.44
391.411	479.44
391.636	489.44
391.86	499.44
392.085	506.44
392.31	501.44
392.534	514.44
392.759	482.44
392.984	492.44
393.208	508.44
393.433	484.44
393.658	503.44
393.882	472.44
394.107	469.44
394.331	502.44
394.556	479.44
394.78	501.44
395.005	514.44
395.229	496.44
395.454	498.44
395.678	514.44
395.903	513.44
396.127	503.44
396.352	544.44
396.576	504.44
396.801	534.44
397.025	504.44
397.249	513.44
397.474	503.44
397.698	519.44
397.922	531.44
398.147	529.44
398.371	539.44
398.595	543.44
398.82	542.44
399.044	558.44
399.268	605.44
399.492	611.44
399.717	658.44
399.941	708.44
400.165	714.44
400.389	711.44
400.613	644.44
400.837	588.44
401.062	578.44
401.286	584.44
401.51	573.44
401.734	580.44
401.958	579.44
402.182	542.44
402.406	592.44
402.63	581.44
402.854	575.44
403.078	573.44
403.302	570.44
403.526	590.44
403.75	585.44
403.974	609.44
404.198	584.44
404.422	593.44
404.645	580.44
404.869	583.44
405.093	630.44
405.317	692.44
405.541	701.44
405.765	660.44
405.988	642.44
406.212	644.44
406.436	636.44
406.66	668.44
406.883	636.44
407.107	661.44
407.331	717.44
407.555	775.44
407.778	760.44
408.002	720.44
408.226	660.44
408.449	646.44
408.673	648.44
408.896	672.44
409.12	696.44
409.344	691.44
409.567	610.44
409.791	604.44
410.014	598.44
410.238	605.44
410.461	602.44
410.685	629.44
410.908	624.44
411.132	655.44
411.355	671.44
411.578	657.44
411.802	596.44
412.025	581.44
412.249	593.44
412.472	638.44
412.695	643.44
412.919	658.44
413.142	623.44
413.365	580.44
413.589	594.44
413.812	566.44
414.035	560.44
414.258	564.44
414.482	556.44
414.705	559.44
414.928	573.44
415.151	586.44
415.374	568.44
415.597	558.44
415.821	539.44
416.044	542.44
416.267	543.44
416.49	549.44
416.713	538.44
416.936	568.44
417.159	559.44
417.382	560.44
417.605	563.44
417.828	578.44
418.051	582.44
418.274	581.44
418.497	583.44
418.72	570.44
418.943	577.44
419.166	585.44
419.389	616.44
419.611	599.44
419.834	592.44
420.057	592.44
420.28	583.44
420.503	596.44
420.726	588.44
420.948	592.44
421.171	651.44
421.394	656.44
421.617	603.44
421.839	577.44
422.062	571.44
422.285	605.44
422.507	645.44
422.73	756.44
422.953	711.44
423.175	638.44
423.398	604.44
423.621	615.44
423.843	616.44
424.066	606.44
424.288	619.44
424.511	641.44
424.733	703.44
424.956	785.44
425.178	746.44
425.401	734.44
425.623	797.44
425.846	679.44
426.068	633.44
426.291	619.44
426.513	613.44
426.735	637.44
426.958	651.44
427.18	740.44
427.402	873.44
427.625	968.44
427.847	836.44
428.069	751.44
428.292	664.44
428.514	603.44
428.736	607.44
428.958	588.44
429.181	591.44
429.403	554.44
429.625	600.44
429.847	616.44
430.069	683.44
430.292	695.44
430.514	600.44
430.736	568.44
430.958	572.44
431.18	564.44
431.402	568.44
431.624	525.44
431.846	547.44
432.068	549.44
432.29	543.44
432.512	550.44
432.734	575.44
432.956	546.44
433.178	558.44
433.4	583.44
433.622	577.44
433.844	542.44
434.066	535.44
434.287	528.44
434.509	559.44
434.731	553.44
434.953	574.44
435.175	595.44
435.397	616.44
435.618	602.44
435.84	647.44
436.062	767.44
436.284	850.44
436.505	684.44
436.727	607.44
436.949	582.44
437.17	556.44
437.392	562.44
437.614	605.44
437.835	616.44
438.057	711.44
438.278	803.44
438.5	800.44
438.721	865.44
438.943	857.44
439.165	683.44
439.386	623.44
439.608	633.44
439.829	615.44
440.05	630.44
440.272	692.44
440.493	647.44
440.715	601.44
440.936	605.44
441.158	581.44
441.379	571.44
441.6	611.44
441.822	617.44
442.043	648.44
442.264	739.44
442.486	786.44
442.707	679.44
442.928	624.44
443.149	643.44
443.371	662.44
443.592	682.44
443.813	779.44
444.034	840.44
444.255	716.44
444.476	660.44
444.698	626.44
444.919	629.44
445.14	745.44
445.361	679.44
445.582	668.44
445.803	718.44
446.024	813.44
446.245	826.44
446.466	750.44
446.687	648.44
446.908	631.44
447.129	586.44
447.35	569.44
447.571	551.44
447.792	552.44
448.013	564.44
448.234	586.44
448.455	630.44
448.675	751.44
448.896	842.44
449.117	702.44
449.338	693.44
449.559	818.44
449.779	904.44
450	738.44
450.221	601.44
450.442	559.44
450.662	550.44
450.883	578.44
451.104	567.44
451.324	571.44
451.545	542.44
451.766	525.44
451.986	527.44
452.207	496.44
452.428	495.44
452.648	507.44
452.869	498.44
453.089	529.44
453.31	537.44
453.53	520.44
453.751	533.44
453.971	504.44
454.192	527.44
454.412	518.44
454.633	487.44
454.853	502.44
455.073	502.44
455.294	527.44
455.514	615.44
455.734	587.44
455.955	510.44
456.175	511.44
456.395	482.44
456.616	478.44
456.836	488.44
457.056	486.44
457.276	459.44
457.497	476.44
457.717	498.44
457.937	503.44
458.157	472.44
458.377	503.44
458.598	512.44
458.818	584.44
459.038	660.44
459.258	684.44
459.478	612.44
459.698	565.44
459.918	542.44
460.138	555.44
460.358	567.44
460.578	589.44
460.798	568.44
461.018	587.44
461.238	579.44
461.458	593.44
461.678	567.44
461.898	573.44
462.118	571.44
462.338	586.44
462.558	595.44
462.777	598.44
462.997	623.44
463.217	644.44
463.437	658.44
463.657	600.44
463.876	633.44
464.096	620.44
464.316	610.44
464.536	629.44
464.755	636.44
464.975	621.44
465.195	672.44
465.414	700.44
465.634	654.44
465.854	580.44
466.073	557.44
466.293	559.44
466.512	524.44
466.732	512.44
466.951	542.44
467.171	541.44
467.391	535.44
467.61	555.44
467.829	568.44
468.049	530.44
468.268	552.44
468.488	528.44
468.707	525.44
468.927	501.44
469.146	490.44
469.365	527.44
469.585	531.44
469.804	523.44
470.023	557.44
470.243	554.44
470.462	527.44
470.681	557.44
470.901	549.44
471.12	536.44
471.339	555.44
471.558	539.44
471.777	553.44
471.997	542.44
472.216	540.44
472.435	572.44
472.654	579.44
472.873	540.44
473.092	552.44
473.311	545.44
473.53	532.44
473.749	523.44
473.968	578.44
474.187	682.44
474.406	684.44
474.625	564.44
474.844	559.44
475.063	524.44
475.282	536.44
475.501	540.44
475.72	550.44
475.939	568.44
476.158	558.44
476.377	543.44
476.596	544.44
476.814	539.44
477.033	570.44
477.252	573.44
477.471	581.44
477.69	593.44
477.908	578.44
478.127	595.44
478.346	591.44
478.564	586.44
478.783	613.44
479.002	615.44
479.22	614.44
479.439	654.44
479.658	640.44
479.876	654.44
480.095	637.44
480.313	681.44
480.532	684.44
480.751	650.44
480.969	690.44
481.188	721.44
481.406	751.44
481.624	701.44
481.843	668.44
482.061	640.44
482.28	642.44
482.498	616.44
482.717	620.44
482.935	628.44
483.153	628.44
483.372	646.44
483.59	608.44
483.808	608.44
484.027	617.44
484.245	648.44
484.463	618.44
484.681	623.44
484.9	631.44
485.118	648.44
485.336	639.44
485.554	630.44
485.772	650.44
485.99	617.44
486.209	638.44
486.427	659.44
486.645	662.44
486.863	686.44
487.081	657.44
487.299	688.44
487.517	676.44
487.735	661.44
487.953	701.44
488.171	664.44
488.389	647.44
488.607	693.44
488.825	669.44
489.043	682.44
489.261	699.44
489.479	695.44
489.696	687.44
489.914	687.44
490.132	707.44
490.35	704.44
490.568	682.44
490.786	722.44
491.003	723.44
491.221	702.44
491.439	736.44
491.657	718.44
491.874	757.44
492.092	744.44
492.31	770.44
492.527	732.44
492.745	763.44
492.963	746.44
493.18	773.44
493.398	758.44
493.615	777.44
493.833	792.44
494.05	810.44
494.268	766.44
494.485	785.44
494.703	783.44
494.92	804.44
495.138	799.44
495.355	811.44
495.573	805.44
495.79	762.44
496.008	800.44
496.225	783.44
496.442	774.44
496.66	813.44
496.877	806.44
497.094	827.44
497.312	802.44
497.529	802.44
497.746	824.44
497.963	853.44
498.181	858.44
498.398	895.44
498.615	910.44
498.832	942.44
499.049	957.44
499.267	977.44
499.484	1032.44
499.701	1086.44
499.918	1084.44
500.135	1138.44
500.352	1220.44
500.569	1208.44
500.786	1247.44
501.003	1208.44
501.22	1184.44
501.437	1097.44
501.654	1037.44
501.871	1023.44
