Data from 1979.PennyLincolnUp.Lamp.En5.5.200Scan.071719.P1_HRD10591_16-17-51-863.txt Node
Date: Thu Jul 18 16:17:51 EDT 2019
User: cochatt
Spectrometer: HR+D1059
Trigger mode: 1
Integration Time (sec): 1.000000E-1
Scans to average: 1
Electric dark correction enabled: true
Nonlinearity correction enabled: false
Boxcar width: 0
XAxis mode: Wavelengths
Number of Pixels in Spectrum: 2048
>>>>>Begin Spectral Data<<<<<
223.165	-5.69
223.4	-5.69
223.635	-5.69
223.869	-8.69
224.104	-23.69
224.338	-21.69
224.573	-15.69
224.808	-15.69
225.042	-15.69
225.277	-6.69
225.511	2.31
225.746	1.31
225.98	2.31
226.215	8.31
226.449	21.31
226.683	18.31
226.918	26.31
227.152	33.31
227.387	35.31
227.621	36.31
227.856	31.31
228.09	48.31
228.324	53.31
228.559	63.31
228.793	69.31
229.027	83.31
229.262	106.31
229.496	107.31
229.73	105.31
229.964	125.31
230.199	123.31
230.433	104.31
230.667	102.31
230.901	109.31
231.136	117.31
231.37	110.31
231.604	95.31
231.838	101.31
232.072	105.31
232.306	112.31
232.541	108.31
232.775	110.31
233.009	128.31
233.243	112.31
233.477	100.31
233.711	103.31
233.945	108.31
234.179	104.31
234.413	105.31
234.647	106.31
234.881	110.31
235.115	119.31
235.349	120.31
235.583	124.31
235.817	107.31
236.051	120.31
236.285	120.31
236.519	113.31
236.753	130.31
236.987	127.31
237.221	159.31
237.455	184.31
237.689	168.31
237.922	126.31
238.156	126.31
238.39	112.31
238.624	124.31
238.858	124.31
239.091	122.31
239.325	118.31
239.559	130.31
239.793	133.31
240.027	122.31
240.26	134.31
240.494	153.31
240.728	136.31
240.961	130.31
241.195	138.31
241.429	133.31
241.662	109.31
241.896	142.31
242.13	123.31
242.363	138.31
242.597	139.31
242.83	140.31
243.064	142.31
243.298	124.31
243.531	132.31
243.765	142.31
243.998	140.31
244.232	127.31
244.465	144.31
244.699	141.31
244.932	137.31
245.166	158.31
245.399	137.31
245.633	142.31
245.866	125.31
246.099	137.31
246.333	143.31
246.566	137.31
246.8	138.31
247.033	141.31
247.266	140.31
247.5	154.31
247.733	161.31
247.966	166.31
248.2	159.31
248.433	162.31
248.666	161.31
248.899	146.31
249.133	183.31
249.366	175.31
249.599	167.31
249.832	158.31
250.066	170.31
250.299	152.31
250.532	145.31
250.765	188.31
250.998	188.31
251.231	192.31
251.465	186.31
251.698	187.31
251.931	192.31
252.164	177.31
252.397	170.31
252.63	186.31
252.863	183.31
253.096	191.31
253.329	199.31
253.562	216.31
253.795	184.31
254.028	212.31
254.261	182.31
254.494	188.31
254.727	221.31
254.96	228.31
255.193	221.31
255.426	217.31
255.659	189.31
255.892	197.31
256.124	196.31
256.357	203.31
256.59	183.31
256.823	188.31
257.056	176.31
257.289	190.31
257.521	197.31
257.754	194.31
257.987	200.31
258.22	173.31
258.452	214.31
258.685	184.31
258.918	189.31
259.151	212.31
259.383	208.31
259.616	210.31
259.849	205.31
260.081	210.31
260.314	209.31
260.547	202.31
260.779	197.31
261.012	215.31
261.244	216.31
261.477	210.31
261.71	194.31
261.942	188.31
262.175	215.31
262.407	205.31
262.64	198.31
262.872	206.31
263.105	182.31
263.337	198.31
263.57	192.31
263.802	171.31
264.035	209.31
264.267	199.31
264.499	190.31
264.732	186.31
264.964	183.31
265.197	201.31
265.429	192.31
265.661	200.31
265.894	208.31
266.126	194.31
266.358	201.31
266.591	205.31
266.823	206.31
267.055	206.31
267.287	191.31
267.52	201.31
267.752	198.31
267.984	195.31
268.216	197.31
268.448	205.31
268.681	221.31
268.913	213.31
269.145	249.31
269.377	242.31
269.609	236.31
269.841	230.31
270.073	231.31
270.306	241.31
270.538	239.31
270.77	265.31
271.002	252.31
271.234	260.31
271.466	249.31
271.698	260.31
271.93	250.31
272.162	266.31
272.394	264.31
272.626	253.31
272.858	249.31
273.09	234.31
273.322	240.31
273.553	242.31
273.785	240.31
274.017	223.31
274.249	228.31
274.481	230.31
274.713	229.31
274.945	239.31
275.176	238.31
275.408	254.31
275.64	228.31
275.872	233.31
276.104	225.31
276.335	235.31
276.567	240.31
276.799	233.31
277.031	272.31
277.262	268.31
277.494	276.31
277.726	260.31
277.957	245.31
278.189	253.31
278.421	232.31
278.652	235.31
278.884	253.31
279.115	250.31
279.347	238.31
279.579	238.31
279.81	254.31
280.042	259.31
280.273	232.31
280.505	234.31
280.736	251.31
280.968	240.31
281.199	247.31
281.431	243.31
281.662	246.31
281.894	229.31
282.125	245.31
282.356	239.31
282.588	267.31
282.819	273.31
283.051	264.31
283.282	252.31
283.513	232.31
283.745	260.31
283.976	239.31
284.207	272.31
284.439	245.31
284.67	264.31
284.901	263.31
285.132	251.31
285.364	231.31
285.595	246.31
285.826	253.31
286.057	266.31
286.288	237.31
286.52	253.31
286.751	262.31
286.982	253.31
287.213	250.31
287.444	241.31
287.675	245.31
287.906	257.31
288.138	272.31
288.369	279.31
288.6	280.31
288.831	249.31
289.062	263.31
289.293	266.31
289.524	270.31
289.755	270.31
289.986	274.31
290.217	260.31
290.448	253.31
290.679	272.31
290.91	260.31
291.141	249.31
291.371	288.31
291.602	258.31
291.833	266.31
292.064	268.31
292.295	266.31
292.526	270.31
292.757	264.31
292.987	265.31
293.218	264.31
293.449	273.31
293.68	274.31
293.91	263.31
294.141	274.31
294.372	268.31
294.603	277.31
294.833	291.31
295.064	279.31
295.295	279.31
295.525	280.31
295.756	268.31
295.987	285.31
296.217	279.31
296.448	304.31
296.679	292.31
296.909	280.31
297.14	275.31
297.37	288.31
297.601	287.31
297.831	283.31
298.062	273.31
298.292	274.31
298.523	268.31
298.753	291.31
298.984	278.31
299.214	281.31
299.445	277.31
299.675	281.31
299.905	293.31
300.136	288.31
300.366	265.31
300.597	296.31
300.827	310.31
301.057	293.31
301.288	293.31
301.518	314.31
301.748	294.31
301.979	299.31
302.209	298.31
302.439	312.31
302.669	302.31
302.9	300.31
303.13	278.31
303.36	306.31
303.59	304.31
303.82	293.31
304.051	317.31
304.281	318.31
304.511	309.31
304.741	299.31
304.971	321.31
305.201	310.31
305.431	320.31
305.661	314.31
305.891	313.31
306.121	301.31
306.352	301.31
306.582	326.31
306.812	311.31
307.042	294.31
307.272	284.31
307.502	307.31
307.731	316.31
307.961	303.31
308.191	304.31
308.421	300.31
308.651	308.31
308.881	317.31
309.111	311.31
309.341	325.31
309.571	318.31
309.8	314.31
310.03	318.31
310.26	347.31
310.49	337.31
310.72	325.31
310.949	331.31
311.179	349.31
311.409	351.31
311.639	350.31
311.868	332.31
312.098	344.31
312.328	335.31
312.557	351.31
312.787	355.31
313.017	367.31
313.246	342.31
313.476	343.31
313.706	344.31
313.935	341.31
314.165	360.31
314.394	377.31
314.624	353.31
314.853	338.31
315.083	343.31
315.312	344.31
315.542	340.31
315.771	324.31
316.001	341.31
316.23	324.31
316.46	328.31
316.689	356.31
316.919	338.31
317.148	352.31
317.377	356.31
317.607	353.31
317.836	341.31
318.065	337.31
318.295	344.31
318.524	345.31
318.753	343.31
318.983	335.31
319.212	332.31
319.441	352.31
319.67	339.31
319.9	349.31
320.129	346.31
320.358	326.31
320.587	345.31
320.816	359.31
321.046	334.31
321.275	332.31
321.504	344.31
321.733	358.31
321.962	370.31
322.191	368.31
322.42	370.31
322.649	378.31
322.878	382.31
323.108	383.31
323.337	403.31
323.566	409.31
323.795	426.31
324.024	447.31
324.253	539.31
324.482	730.31
324.71	1116.31
324.939	1627.31
325.168	1405.31
325.397	714.31
325.626	506.31
325.855	445.31
326.084	417.31
326.313	409.31
326.542	430.31
326.77	449.31
326.999	532.31
327.228	682.31
327.457	1025.31
327.686	1277.31
327.914	831.31
328.143	545.31
328.372	507.31
328.6	478.31
328.829	451.31
329.058	450.31
329.287	471.31
329.515	432.31
329.744	440.31
329.972	438.31
330.201	450.31
330.43	455.31
330.658	478.31
330.887	493.31
331.115	477.31
331.344	453.31
331.572	428.31
331.801	437.31
332.03	432.31
332.258	438.31
332.486	407.31
332.715	395.31
332.943	416.31
333.172	414.31
333.4	405.31
333.629	418.31
333.857	429.31
334.085	464.31
334.314	453.31
334.542	488.31
334.771	471.31
334.999	459.31
335.227	450.31
335.455	427.31
335.684	417.31
335.912	429.31
336.14	395.31
336.369	423.31
336.597	405.31
336.825	408.31
337.053	409.31
337.281	409.31
337.51	382.31
337.738	414.31
337.966	414.31
338.194	399.31
338.422	403.31
338.65	398.31
338.878	408.31
339.106	385.31
339.334	394.31
339.562	386.31
339.79	391.31
340.018	406.31
340.246	391.31
340.474	414.31
340.702	392.31
340.93	381.31
341.158	382.31
341.386	373.31
341.614	402.31
341.842	383.31
342.07	393.31
342.298	399.31
342.526	400.31
342.754	390.31
342.981	394.31
343.209	378.31
343.437	386.31
343.665	383.31
343.893	417.31
344.12	417.31
344.348	431.31
344.576	397.31
344.804	424.31
345.031	388.31
345.259	405.31
345.487	399.31
345.714	390.31
345.942	380.31
346.17	394.31
346.397	397.31
346.625	374.31
346.853	385.31
347.08	385.31
347.308	382.31
347.535	372.31
347.763	366.31
347.99	384.31
348.218	388.31
348.445	384.31
348.673	380.31
348.9	392.31
349.128	385.31
349.355	369.31
349.583	380.31
349.81	378.31
350.037	381.31
350.265	382.31
350.492	366.31
350.72	376.31
350.947	382.31
351.174	391.31
351.402	376.31
351.629	386.31
351.856	387.31
352.083	408.31
352.311	417.31
352.538	374.31
352.765	392.31
352.992	390.31
353.22	381.31
353.447	378.31
353.674	373.31
353.901	350.31
354.128	368.31
354.355	382.31
354.583	371.31
354.81	357.31
355.037	365.31
355.264	364.31
355.491	388.31
355.718	361.31
355.945	362.31
356.172	350.31
356.399	369.31
356.626	388.31
356.853	354.31
357.08	364.31
357.307	378.31
357.534	370.31
357.761	384.31
357.988	365.31
358.215	376.31
358.441	364.31
358.668	380.31
358.895	386.31
359.122	382.31
359.349	386.31
359.576	379.31
359.802	392.31
360.029	393.31
360.256	429.31
360.483	414.31
360.709	406.31
360.936	381.31
361.163	375.31
361.39	380.31
361.616	389.31
361.843	394.31
362.07	392.31
362.296	387.31
362.523	367.31
362.749	380.31
362.976	391.31
363.203	388.31
363.429	391.31
363.656	370.31
363.882	390.31
364.109	390.31
364.335	397.31
364.562	367.31
364.788	361.31
365.015	396.31
365.241	396.31
365.468	385.31
365.694	376.31
365.92	402.31
366.147	350.31
366.373	368.31
366.599	379.31
366.826	393.31
367.052	381.31
367.278	388.31
367.505	384.31
367.731	382.31
367.957	386.31
368.184	397.31
368.41	397.31
368.636	394.31
368.862	399.31
369.089	420.31
369.315	386.31
369.541	406.31
369.767	399.31
369.993	390.31
370.219	402.31
370.445	388.31
370.672	361.31
370.898	384.31
371.124	392.31
371.35	393.31
371.576	377.31
371.802	373.31
372.028	397.31
372.254	388.31
372.48	370.31
372.706	384.31
372.932	388.31
373.158	392.31
373.384	374.31
373.61	398.31
373.835	396.31
374.061	385.31
374.287	415.31
374.513	399.31
374.739	403.31
374.965	411.31
375.191	407.31
375.416	417.31
375.642	402.31
375.868	380.31
376.094	385.31
376.319	403.31
376.545	392.31
376.771	402.31
376.997	400.31
377.222	375.31
377.448	366.31
377.674	390.31
377.899	384.31
378.125	384.31
378.35	385.31
378.576	405.31
378.802	398.31
379.027	394.31
379.253	421.31
379.478	399.31
379.704	402.31
379.929	402.31
380.155	395.31
380.38	390.31
380.606	388.31
380.831	380.31
381.057	392.31
381.282	416.31
381.507	405.31
381.733	411.31
381.958	417.31
382.184	420.31
382.409	402.31
382.634	409.31
382.86	394.31
383.085	393.31
383.31	403.31
383.535	415.31
383.761	422.31
383.986	404.31
384.211	431.31
384.436	434.31
384.662	433.31
384.887	425.31
385.112	428.31
385.337	441.31
385.562	428.31
385.787	438.31
386.013	466.31
386.238	434.31
386.463	445.31
386.688	438.31
386.913	429.31
387.138	431.31
387.363	452.31
387.588	442.31
387.813	448.31
388.038	452.31
388.263	424.31
388.488	455.31
388.713	446.31
388.938	455.31
389.163	441.31
389.387	466.31
389.612	431.31
389.837	432.31
390.062	430.31
390.287	442.31
390.512	438.31
390.736	417.31
390.961	457.31
391.186	461.31
391.411	445.31
391.636	455.31
391.86	456.31
392.085	469.31
392.31	436.31
392.534	445.31
392.759	456.31
392.984	470.31
393.208	461.31
393.433	492.31
393.658	481.31
393.882	457.31
394.107	460.31
394.331	451.31
394.556	440.31
394.78	468.31
395.005	474.31
395.229	455.31
395.454	447.31
395.678	470.31
395.903	463.31
396.127	483.31
396.352	503.31
396.576	469.31
396.801	478.31
397.025	471.31
397.249	480.31
397.474	485.31
397.698	470.31
397.922	495.31
398.147	484.31
398.371	490.31
398.595	501.31
398.82	502.31
399.044	521.31
399.268	564.31
399.492	561.31
399.717	605.31
399.941	627.31
400.165	649.31
400.389	634.31
400.613	598.31
400.837	557.31
401.062	549.31
401.286	509.31
401.51	522.31
401.734	530.31
401.958	523.31
402.182	520.31
402.406	545.31
402.63	530.31
402.854	546.31
403.078	522.31
403.302	551.31
403.526	513.31
403.75	530.31
403.974	559.31
404.198	555.31
404.422	557.31
404.645	573.31
404.869	561.31
405.093	562.31
405.317	606.31
405.541	630.31
405.765	588.31
405.988	570.31
406.212	561.31
406.436	581.31
406.66	617.31
406.883	592.31
407.107	622.31
407.331	621.31
407.555	686.31
407.778	682.31
408.002	640.31
408.226	604.31
408.449	598.31
408.673	601.31
408.896	623.31
409.12	664.31
409.344	625.31
409.567	568.31
409.791	576.31
410.014	551.31
410.238	537.31
410.461	553.31
410.685	567.31
410.908	585.31
411.132	573.31
411.355	629.31
411.578	589.31
411.802	548.31
412.025	538.31
412.249	553.31
412.472	574.31
412.695	605.31
412.919	592.31
413.142	546.31
413.365	520.31
413.589	540.31
413.812	534.31
414.035	512.31
414.258	542.31
414.482	531.31
414.705	524.31
414.928	544.31
415.151	532.31
415.374	514.31
415.597	516.31
415.821	519.31
416.044	518.31
416.267	529.31
416.49	525.31
416.713	492.31
416.936	504.31
417.159	515.31
417.382	522.31
417.605	513.31
417.828	525.31
418.051	534.31
418.274	528.31
418.497	489.31
418.72	516.31
418.943	506.31
419.166	524.31
419.389	580.31
419.611	568.31
419.834	533.31
420.057	550.31
420.28	557.31
420.503	529.31
420.726	521.31
420.948	553.31
421.171	569.31
421.394	580.31
421.617	545.31
421.839	542.31
422.062	518.31
422.285	546.31
422.507	589.31
422.73	638.31
422.953	649.31
423.175	555.31
423.398	557.31
423.621	552.31
423.843	569.31
424.066	561.31
424.288	553.31
424.511	580.31
424.733	631.31
424.956	676.31
425.178	666.31
425.401	650.31
425.623	693.31
425.846	595.31
426.068	566.31
426.291	549.31
426.513	556.31
426.735	572.31
426.958	589.31
427.18	656.31
427.402	770.31
427.625	834.31
427.847	737.31
428.069	631.31
428.292	596.31
428.514	550.31
428.736	530.31
428.958	525.31
429.181	517.31
429.403	490.31
429.625	508.31
429.847	541.31
430.069	604.31
430.292	577.31
430.514	510.31
430.736	528.31
430.958	531.31
431.18	516.31
431.402	521.31
431.624	474.31
431.846	485.31
432.068	498.31
432.29	494.31
432.512	488.31
432.734	528.31
432.956	514.31
433.178	516.31
433.4	523.31
433.622	506.31
433.844	495.31
434.066	504.31
434.287	487.31
434.509	518.31
434.731	505.31
434.953	530.31
435.175	539.31
435.397	553.31
435.618	549.31
435.84	613.31
436.062	660.31
436.284	709.31
436.505	606.31
436.727	569.31
436.949	516.31
437.17	540.31
437.392	515.31
437.614	505.31
437.835	550.31
438.057	606.31
438.278	700.31
438.5	679.31
438.721	758.31
438.943	724.31
439.165	599.31
439.386	536.31
439.608	545.31
439.829	564.31
440.05	545.31
440.272	623.31
440.493	585.31
440.715	570.31
440.936	521.31
441.158	525.31
441.379	539.31
441.6	540.31
441.822	575.31
442.043	598.31
442.264	661.31
442.486	710.31
442.707	617.31
442.928	560.31
443.149	569.31
443.371	600.31
443.592	611.31
443.813	693.31
444.034	749.31
444.255	606.31
444.476	579.31
444.698	596.31
444.919	559.31
445.14	715.31
445.361	645.31
445.582	573.31
445.803	626.31
446.024	708.31
446.245	734.31
446.466	656.31
446.687	576.31
446.908	546.31
447.129	523.31
447.35	500.31
447.571	515.31
447.792	502.31
448.013	521.31
448.234	530.31
448.455	562.31
448.675	639.31
448.896	751.31
449.117	617.31
449.338	612.31
449.559	704.31
449.779	779.31
450	636.31
450.221	556.31
450.442	522.31
450.662	487.31
450.883	492.31
451.104	484.31
451.324	500.31
451.545	486.31
451.766	465.31
451.986	460.31
452.207	468.31
452.428	467.31
452.648	469.31
452.869	451.31
453.089	476.31
453.31	479.31
453.53	452.31
453.751	461.31
453.971	450.31
454.192	466.31
454.412	481.31
454.633	463.31
454.853	453.31
455.073	455.31
455.294	469.31
455.514	532.31
455.734	516.31
455.955	452.31
456.175	434.31
456.395	445.31
456.616	425.31
456.836	442.31
457.056	437.31
457.276	420.31
457.497	452.31
457.717	446.31
457.937	470.31
458.157	451.31
458.377	494.31
458.598	479.31
458.818	496.31
459.038	563.31
459.258	590.31
459.478	542.31
459.698	500.31
459.918	497.31
460.138	516.31
460.358	532.31
460.578	542.31
460.798	530.31
461.018	537.31
461.238	536.31
461.458	529.31
461.678	518.31
461.898	526.31
462.118	522.31
462.338	531.31
462.558	544.31
462.777	558.31
462.997	586.31
463.217	603.31
463.437	606.31
463.657	570.31
463.876	593.31
464.096	548.31
464.316	583.31
464.536	565.31
464.755	553.31
464.975	568.31
465.195	600.31
465.414	626.31
465.634	569.31
465.854	538.31
466.073	525.31
466.293	494.31
466.512	498.31
466.732	486.31
466.951	489.31
467.171	490.31
467.391	484.31
467.61	475.31
467.829	501.31
468.049	490.31
468.268	483.31
468.488	482.31
468.707	484.31
468.927	468.31
469.146	487.31
469.365	470.31
469.585	480.31
469.804	509.31
470.023	495.31
470.243	490.31
470.462	500.31
470.681	489.31
470.901	486.31
471.12	492.31
471.339	480.31
471.558	478.31
471.777	495.31
471.997	501.31
472.216	484.31
472.435	507.31
472.654	503.31
472.873	506.31
473.092	492.31
473.311	484.31
473.53	474.31
473.749	490.31
473.968	528.31
474.187	606.31
474.406	631.31
474.625	520.31
474.844	505.31
475.063	495.31
475.282	487.31
475.501	489.31
475.72	503.31
475.939	501.31
476.158	511.31
476.377	526.31
476.596	489.31
476.814	520.31
477.033	517.31
477.252	524.31
477.471	525.31
477.69	513.31
477.908	541.31
478.127	566.31
478.346	568.31
478.564	549.31
478.783	548.31
479.002	562.31
479.22	552.31
479.439	574.31
479.658	561.31
479.876	592.31
480.095	618.31
480.313	623.31
480.532	632.31
480.751	628.31
480.969	613.31
481.188	626.31
481.406	641.31
481.624	595.31
481.843	580.31
482.061	589.31
482.28	569.31
482.498	550.31
482.717	554.31
482.935	576.31
483.153	580.31
483.372	586.31
483.59	609.31
483.808	604.31
484.027	577.31
484.245	560.31
484.463	589.31
484.681	577.31
484.9	575.31
485.118	584.31
485.336	584.31
485.554	593.31
485.772	594.31
485.99	599.31
486.209	608.31
486.427	604.31
486.645	588.31
486.863	631.31
487.081	588.31
487.299	628.31
487.517	598.31
487.735	607.31
487.953	612.31
488.171	623.31
488.389	610.31
488.607	604.31
488.825	621.31
489.043	612.31
489.261	623.31
489.479	636.31
489.696	596.31
489.914	642.31
490.132	632.31
490.35	623.31
490.568	644.31
490.786	647.31
491.003	637.31
491.221	667.31
491.439	649.31
491.657	664.31
491.874	649.31
492.092	665.31
492.31	677.31
492.527	684.31
492.745	695.31
492.963	711.31
493.18	689.31
493.398	700.31
493.615	697.31
493.833	721.31
494.05	702.31
494.268	713.31
494.485	714.31
494.703	698.31
494.92	701.31
495.138	712.31
495.355	703.31
495.573	726.31
495.79	707.31
496.008	702.31
496.225	735.31
496.442	711.31
496.66	706.31
496.877	727.31
497.094	714.31
497.312	750.31
497.529	741.31
497.746	768.31
497.963	782.31
498.181	799.31
498.398	806.31
498.615	842.31
498.832	846.31
499.049	880.31
499.267	897.31
499.484	921.31
499.701	997.31
499.918	1005.31
500.135	1079.31
500.352	1132.31
500.569	1147.31
500.786	1171.31
501.003	1107.31
501.22	1107.31
501.437	1047.31
501.654	992.31
501.871	985.31
