Data from 1979.PennyLincolnUp.Lamp.En5.5.200Scan.071719.P1_HRD10591_16-20-02-863.txt Node
Date: Thu Jul 18 16:20:02 EDT 2019
User: cochatt
Spectrometer: HR+D1059
Trigger mode: 1
Integration Time (sec): 1.000000E-1
Scans to average: 1
Electric dark correction enabled: true
Nonlinearity correction enabled: false
Boxcar width: 0
XAxis mode: Wavelengths
Number of Pixels in Spectrum: 2048
>>>>>Begin Spectral Data<<<<<
223.165	-14.38
223.4	-14.38
223.635	-14.38
223.869	-33.38
224.104	-11.38
224.338	-10.38
224.573	-9.38
224.808	-22.38
225.042	-15.38
225.277	0.62
225.511	-16.38
225.746	6.62
225.98	15.62
226.215	6.62
226.449	18.62
226.683	26.62
226.918	36.62
227.152	21.62
227.387	29.62
227.621	36.62
227.856	46.62
228.09	53.62
228.324	49.62
228.559	61.62
228.793	62.62
229.027	101.62
229.262	121.62
229.496	108.62
229.73	132.62
229.964	142.62
230.199	125.62
230.433	114.62
230.667	120.62
230.901	111.62
231.136	106.62
231.37	114.62
231.604	112.62
231.838	95.62
232.072	122.62
232.306	113.62
232.541	111.62
232.775	102.62
233.009	127.62
233.243	113.62
233.477	121.62
233.711	117.62
233.945	116.62
234.179	125.62
234.413	117.62
234.647	106.62
234.881	120.62
235.115	121.62
235.349	138.62
235.583	123.62
235.817	123.62
236.051	125.62
236.285	129.62
236.519	130.62
236.753	127.62
236.987	137.62
237.221	168.62
237.455	229.62
237.689	206.62
237.922	152.62
238.156	125.62
238.39	127.62
238.624	116.62
238.858	115.62
239.091	119.62
239.325	113.62
239.559	131.62
239.793	128.62
240.027	143.62
240.26	141.62
240.494	163.62
240.728	146.62
240.961	145.62
241.195	141.62
241.429	129.62
241.662	140.62
241.896	142.62
242.13	135.62
242.363	148.62
242.597	142.62
242.83	122.62
243.064	136.62
243.298	150.62
243.531	141.62
243.765	143.62
243.998	141.62
244.232	130.62
244.465	145.62
244.699	139.62
244.932	135.62
245.166	136.62
245.399	151.62
245.633	151.62
245.866	169.62
246.099	151.62
246.333	152.62
246.566	151.62
246.8	136.62
247.033	144.62
247.266	154.62
247.5	190.62
247.733	175.62
247.966	179.62
248.2	165.62
248.433	162.62
248.666	152.62
248.899	181.62
249.133	206.62
249.366	195.62
249.599	197.62
249.832	183.62
250.066	188.62
250.299	187.62
250.532	184.62
250.765	201.62
250.998	220.62
251.231	206.62
251.465	197.62
251.698	197.62
251.931	209.62
252.164	214.62
252.397	202.62
252.63	203.62
252.863	210.62
253.096	209.62
253.329	219.62
253.562	224.62
253.795	213.62
254.028	236.62
254.261	216.62
254.494	203.62
254.727	243.62
254.96	268.62
255.193	263.62
255.426	227.62
255.659	201.62
255.892	214.62
256.124	223.62
256.357	224.62
256.59	215.62
256.823	213.62
257.056	202.62
257.289	204.62
257.521	209.62
257.754	205.62
257.987	203.62
258.22	206.62
258.452	196.62
258.685	212.62
258.918	203.62
259.151	190.62
259.383	218.62
259.616	224.62
259.849	202.62
260.081	230.62
260.314	250.62
260.547	254.62
260.779	236.62
261.012	238.62
261.244	216.62
261.477	237.62
261.71	220.62
261.942	219.62
262.175	241.62
262.407	227.62
262.64	214.62
262.872	222.62
263.105	206.62
263.337	219.62
263.57	209.62
263.802	215.62
264.035	200.62
264.267	217.62
264.499	196.62
264.732	216.62
264.964	203.62
265.197	214.62
265.429	220.62
265.661	212.62
265.894	228.62
266.126	214.62
266.358	215.62
266.591	206.62
266.823	207.62
267.055	222.62
267.287	232.62
267.52	222.62
267.752	232.62
267.984	232.62
268.216	219.62
268.448	222.62
268.681	219.62
268.913	232.62
269.145	247.62
269.377	248.62
269.609	261.62
269.841	235.62
270.073	251.62
270.306	272.62
270.538	285.62
270.77	296.62
271.002	280.62
271.234	294.62
271.466	284.62
271.698	280.62
271.93	292.62
272.162	298.62
272.394	302.62
272.626	283.62
272.858	273.62
273.09	280.62
273.322	250.62
273.553	264.62
273.785	261.62
274.017	267.62
274.249	257.62
274.481	250.62
274.713	274.62
274.945	268.62
275.176	264.62
275.408	277.62
275.64	271.62
275.872	265.62
276.104	247.62
276.335	257.62
276.567	268.62
276.799	295.62
277.031	298.62
277.262	304.62
277.494	314.62
277.726	291.62
277.957	295.62
278.189	283.62
278.421	267.62
278.652	267.62
278.884	279.62
279.115	262.62
279.347	261.62
279.579	256.62
279.81	268.62
280.042	265.62
280.273	279.62
280.505	279.62
280.736	260.62
280.968	247.62
281.199	285.62
281.431	266.62
281.662	264.62
281.894	275.62
282.125	256.62
282.356	287.62
282.588	296.62
282.819	311.62
283.051	280.62
283.282	262.62
283.513	281.62
283.745	263.62
283.976	286.62
284.207	275.62
284.439	284.62
284.67	282.62
284.901	293.62
285.132	283.62
285.364	283.62
285.595	284.62
285.826	268.62
286.057	283.62
286.288	270.62
286.52	269.62
286.751	300.62
286.982	283.62
287.213	279.62
287.444	278.62
287.675	272.62
287.906	300.62
288.138	299.62
288.369	279.62
288.6	295.62
288.831	290.62
289.062	302.62
289.293	292.62
289.524	298.62
289.755	288.62
289.986	280.62
290.217	295.62
290.448	299.62
290.679	289.62
290.91	288.62
291.141	307.62
291.371	288.62
291.602	297.62
291.833	287.62
292.064	293.62
292.295	289.62
292.526	281.62
292.757	301.62
292.987	292.62
293.218	275.62
293.449	303.62
293.68	302.62
293.91	314.62
294.141	300.62
294.372	280.62
294.603	285.62
294.833	286.62
295.064	295.62
295.295	312.62
295.525	311.62
295.756	286.62
295.987	317.62
296.217	328.62
296.448	327.62
296.679	310.62
296.909	308.62
297.14	315.62
297.37	320.62
297.601	294.62
297.831	301.62
298.062	299.62
298.292	308.62
298.523	313.62
298.753	321.62
298.984	321.62
299.214	323.62
299.445	315.62
299.675	316.62
299.905	339.62
300.136	315.62
300.366	300.62
300.597	316.62
300.827	340.62
301.057	329.62
301.288	331.62
301.518	332.62
301.748	335.62
301.979	325.62
302.209	348.62
302.439	341.62
302.669	343.62
302.9	329.62
303.13	332.62
303.36	335.62
303.59	327.62
303.82	346.62
304.051	343.62
304.281	324.62
304.511	348.62
304.741	333.62
304.971	332.62
305.201	309.62
305.431	333.62
305.661	332.62
305.891	343.62
306.121	334.62
306.352	318.62
306.582	328.62
306.812	315.62
307.042	333.62
307.272	356.62
307.502	339.62
307.731	325.62
307.961	328.62
308.191	334.62
308.421	333.62
308.651	335.62
308.881	356.62
309.111	350.62
309.341	353.62
309.571	358.62
309.8	360.62
310.03	360.62
310.26	359.62
310.49	352.62
310.72	375.62
310.949	399.62
311.179	380.62
311.409	378.62
311.639	373.62
311.868	394.62
312.098	391.62
312.328	361.62
312.557	393.62
312.787	391.62
313.017	384.62
313.246	392.62
313.476	385.62
313.706	400.62
313.935	387.62
314.165	395.62
314.394	390.62
314.624	389.62
314.853	388.62
315.083	375.62
315.312	397.62
315.542	362.62
315.771	367.62
316.001	366.62
316.23	368.62
316.46	391.62
316.689	381.62
316.919	377.62
317.148	383.62
317.377	390.62
317.607	390.62
317.836	404.62
318.065	367.62
318.295	387.62
318.524	385.62
318.753	372.62
318.983	397.62
319.212	385.62
319.441	393.62
319.67	394.62
319.9	369.62
320.129	369.62
320.358	387.62
320.587	402.62
320.816	396.62
321.046	402.62
321.275	399.62
321.504	402.62
321.733	413.62
321.962	391.62
322.191	401.62
322.42	432.62
322.649	458.62
322.878	449.62
323.108	445.62
323.337	484.62
323.566	483.62
323.795	516.62
324.024	546.62
324.253	661.62
324.482	928.62
324.71	1426.62
324.939	2208.62
325.168	1868.62
325.397	894.62
325.626	637.62
325.855	548.62
326.084	481.62
326.313	487.62
326.542	512.62
326.77	543.62
326.999	641.62
327.228	856.62
327.457	1323.62
327.686	1673.62
327.914	1061.62
328.143	675.62
328.372	618.62
328.6	560.62
328.829	531.62
329.058	553.62
329.287	567.62
329.515	544.62
329.744	485.62
329.972	507.62
330.201	519.62
330.43	556.62
330.658	572.62
330.887	601.62
331.115	595.62
331.344	517.62
331.572	495.62
331.801	480.62
332.03	490.62
332.258	493.62
332.486	477.62
332.715	461.62
332.943	472.62
333.172	483.62
333.4	473.62
333.629	496.62
333.857	473.62
334.085	496.62
334.314	514.62
334.542	533.62
334.771	569.62
334.999	529.62
335.227	499.62
335.455	482.62
335.684	497.62
335.912	457.62
336.14	462.62
336.369	472.62
336.597	471.62
336.825	458.62
337.053	462.62
337.281	466.62
337.51	468.62
337.738	459.62
337.966	458.62
338.194	465.62
338.422	446.62
338.65	439.62
338.878	433.62
339.106	447.62
339.334	485.62
339.562	440.62
339.79	431.62
340.018	437.62
340.246	453.62
340.474	435.62
340.702	456.62
340.93	451.62
341.158	439.62
341.386	436.62
341.614	428.62
341.842	441.62
342.07	410.62
342.298	424.62
342.526	431.62
342.754	427.62
342.981	439.62
343.209	452.62
343.437	451.62
343.665	425.62
343.893	460.62
344.12	470.62
344.348	464.62
344.576	456.62
344.804	463.62
345.031	464.62
345.259	473.62
345.487	469.62
345.714	444.62
345.942	426.62
346.17	430.62
346.397	431.62
346.625	425.62
346.853	426.62
347.08	419.62
347.308	430.62
347.535	441.62
347.763	444.62
347.99	447.62
348.218	445.62
348.445	421.62
348.673	422.62
348.9	442.62
349.128	401.62
349.355	430.62
349.583	398.62
349.81	404.62
350.037	434.62
350.265	427.62
350.492	416.62
350.72	411.62
350.947	420.62
351.174	410.62
351.402	439.62
351.629	451.62
351.856	425.62
352.083	449.62
352.311	456.62
352.538	444.62
352.765	430.62
352.992	429.62
353.22	426.62
353.447	451.62
353.674	424.62
353.901	432.62
354.128	426.62
354.355	407.62
354.583	427.62
354.81	406.62
355.037	398.62
355.264	427.62
355.491	397.62
355.718	409.62
355.945	403.62
356.172	400.62
356.399	411.62
356.626	403.62
356.853	408.62
357.08	415.62
357.307	400.62
357.534	387.62
357.761	378.62
357.988	411.62
358.215	397.62
358.441	420.62
358.668	381.62
358.895	411.62
359.122	405.62
359.349	402.62
359.576	437.62
359.802	459.62
360.029	471.62
360.256	487.62
360.483	454.62
360.709	429.62
360.936	437.62
361.163	459.62
361.39	418.62
361.616	439.62
361.843	422.62
362.07	420.62
362.296	424.62
362.523	446.62
362.749	425.62
362.976	413.62
363.203	417.62
363.429	413.62
363.656	442.62
363.882	434.62
364.109	412.62
364.335	426.62
364.562	419.62
364.788	404.62
365.015	429.62
365.241	417.62
365.468	412.62
365.694	418.62
365.92	416.62
366.147	406.62
366.373	423.62
366.599	408.62
366.826	411.62
367.052	425.62
367.278	411.62
367.505	416.62
367.731	410.62
367.957	419.62
368.184	407.62
368.41	437.62
368.636	432.62
368.862	425.62
369.089	436.62
369.315	417.62
369.541	441.62
369.767	417.62
369.993	435.62
370.219	421.62
370.445	418.62
370.672	417.62
370.898	409.62
371.124	423.62
371.35	421.62
371.576	429.62
371.802	445.62
372.028	426.62
372.254	429.62
372.48	436.62
372.706	415.62
372.932	431.62
373.158	420.62
373.384	439.62
373.61	410.62
373.835	455.62
374.061	457.62
374.287	443.62
374.513	431.62
374.739	448.62
374.965	457.62
375.191	461.62
375.416	439.62
375.642	436.62
375.868	445.62
376.094	440.62
376.319	435.62
376.545	448.62
376.771	423.62
376.997	411.62
377.222	426.62
377.448	424.62
377.674	432.62
377.899	440.62
378.125	429.62
378.35	403.62
378.576	424.62
378.802	397.62
379.027	420.62
379.253	430.62
379.478	421.62
379.704	421.62
379.929	433.62
380.155	424.62
380.38	450.62
380.606	435.62
380.831	438.62
381.057	430.62
381.282	421.62
381.507	437.62
381.733	438.62
381.958	435.62
382.184	411.62
382.409	445.62
382.634	447.62
382.86	437.62
383.085	442.62
383.31	443.62
383.535	434.62
383.761	425.62
383.986	434.62
384.211	446.62
384.436	461.62
384.662	450.62
384.887	455.62
385.112	465.62
385.337	456.62
385.562	470.62
385.787	499.62
386.013	496.62
386.238	476.62
386.463	484.62
386.688	484.62
386.913	482.62
387.138	466.62
387.363	484.62
387.588	493.62
387.813	487.62
388.038	501.62
388.263	484.62
388.488	480.62
388.713	480.62
388.938	470.62
389.163	468.62
389.387	478.62
389.612	464.62
389.837	484.62
390.062	493.62
390.287	462.62
390.512	457.62
390.736	493.62
390.961	473.62
391.186	484.62
391.411	493.62
391.636	491.62
391.86	489.62
392.085	497.62
392.31	503.62
392.534	488.62
392.759	508.62
392.984	511.62
393.208	481.62
393.433	490.62
393.658	484.62
393.882	498.62
394.107	497.62
394.331	488.62
394.556	488.62
394.78	491.62
395.005	499.62
395.229	485.62
395.454	499.62
395.678	531.62
395.903	535.62
396.127	535.62
396.352	552.62
396.576	537.62
396.801	522.62
397.025	517.62
397.249	515.62
397.474	531.62
397.698	511.62
397.922	552.62
398.147	547.62
398.371	564.62
398.595	541.62
398.82	532.62
399.044	574.62
399.268	592.62
399.492	632.62
399.717	682.62
399.941	693.62
400.165	693.62
400.389	728.62
400.613	637.62
400.837	593.62
401.062	592.62
401.286	555.62
401.51	580.62
401.734	566.62
401.958	592.62
402.182	567.62
402.406	598.62
402.63	578.62
402.854	591.62
403.078	584.62
403.302	592.62
403.526	601.62
403.75	606.62
403.974	589.62
404.198	589.62
404.422	605.62
404.645	602.62
404.869	620.62
405.093	633.62
405.317	679.62
405.541	716.62
405.765	661.62
405.988	620.62
406.212	636.62
406.436	641.62
406.66	651.62
406.883	641.62
407.107	678.62
407.331	703.62
407.555	791.62
407.778	779.62
408.002	731.62
408.226	685.62
408.449	679.62
408.673	663.62
408.896	675.62
409.12	729.62
409.344	681.62
409.567	623.62
409.791	621.62
410.014	601.62
410.238	595.62
410.461	589.62
410.685	609.62
410.908	621.62
411.132	631.62
411.355	699.62
411.578	665.62
411.802	597.62
412.025	606.62
412.249	611.62
412.472	623.62
412.695	668.62
412.919	665.62
413.142	612.62
413.365	609.62
413.589	588.62
413.812	599.62
414.035	576.62
414.258	574.62
414.482	569.62
414.705	574.62
414.928	590.62
415.151	564.62
415.374	589.62
415.597	584.62
415.821	575.62
416.044	569.62
416.267	558.62
416.49	562.62
416.713	553.62
416.936	571.62
417.159	549.62
417.382	552.62
417.605	585.62
417.828	579.62
418.051	604.62
418.274	584.62
418.497	588.62
418.72	596.62
418.943	570.62
419.166	588.62
419.389	623.62
419.611	637.62
419.834	606.62
420.057	597.62
420.28	601.62
420.503	596.62
420.726	583.62
420.948	600.62
421.171	643.62
421.394	657.62
421.617	607.62
421.839	592.62
422.062	592.62
422.285	597.62
422.507	651.62
422.73	741.62
422.953	709.62
423.175	624.62
423.398	596.62
423.621	608.62
423.843	624.62
424.066	634.62
424.288	635.62
424.511	631.62
424.733	681.62
424.956	766.62
425.178	761.62
425.401	738.62
425.623	775.62
425.846	670.62
426.068	638.62
426.291	616.62
426.513	639.62
426.735	625.62
426.958	661.62
427.18	751.62
427.402	910.62
427.625	956.62
427.847	840.62
428.069	712.62
428.292	665.62
428.514	623.62
428.736	604.62
428.958	581.62
429.181	566.62
429.403	571.62
429.625	593.62
429.847	630.62
430.069	695.62
430.292	686.62
430.514	589.62
430.736	567.62
430.958	555.62
431.18	566.62
431.402	561.62
431.624	560.62
431.846	550.62
432.068	548.62
432.29	564.62
432.512	561.62
432.734	575.62
432.956	567.62
433.178	584.62
433.4	572.62
433.622	567.62
433.844	553.62
434.066	550.62
434.287	545.62
434.509	598.62
434.731	582.62
434.953	596.62
435.175	612.62
435.397	616.62
435.618	624.62
435.84	646.62
436.062	761.62
436.284	846.62
436.505	688.62
436.727	641.62
436.949	591.62
437.17	565.62
437.392	571.62
437.614	595.62
437.835	620.62
438.057	711.62
438.278	811.62
438.5	805.62
438.721	917.62
438.943	875.62
439.165	677.62
439.386	637.62
439.608	627.62
439.829	641.62
440.05	657.62
440.272	692.62
440.493	667.62
440.715	620.62
440.936	588.62
441.158	587.62
441.379	579.62
441.6	611.62
441.822	630.62
442.043	656.62
442.264	738.62
442.486	792.62
442.707	680.62
442.928	641.62
443.149	646.62
443.371	668.62
443.592	707.62
443.813	796.62
444.034	887.62
444.255	715.62
444.476	647.62
444.698	647.62
444.919	665.62
445.14	736.62
445.361	700.62
445.582	684.62
445.803	724.62
446.024	834.62
446.245	847.62
446.466	795.62
446.687	659.62
446.908	580.62
447.129	583.62
447.35	566.62
447.571	575.62
447.792	569.62
448.013	567.62
448.234	583.62
448.455	624.62
448.675	750.62
448.896	856.62
449.117	747.62
449.338	701.62
449.559	792.62
449.779	938.62
450	750.62
450.221	612.62
450.442	573.62
450.662	575.62
450.883	575.62
451.104	572.62
451.324	561.62
451.545	531.62
451.766	535.62
451.986	504.62
452.207	502.62
452.428	537.62
452.648	512.62
452.869	522.62
453.089	533.62
453.31	536.62
453.53	517.62
453.751	523.62
453.971	537.62
454.192	516.62
454.412	527.62
454.633	509.62
454.853	524.62
455.073	507.62
455.294	553.62
455.514	606.62
455.734	592.62
455.955	509.62
456.175	497.62
456.395	505.62
456.616	501.62
456.836	487.62
457.056	493.62
457.276	499.62
457.497	491.62
457.717	511.62
457.937	493.62
458.157	508.62
458.377	503.62
458.598	536.62
458.818	583.62
459.038	668.62
459.258	693.62
459.478	607.62
459.698	591.62
459.918	548.62
460.138	553.62
460.358	567.62
460.578	569.62
460.798	573.62
461.018	575.62
461.238	570.62
461.458	578.62
461.678	554.62
461.898	577.62
462.118	596.62
462.338	584.62
462.558	614.62
462.777	604.62
462.997	640.62
463.217	658.62
463.437	641.62
463.657	630.62
463.876	640.62
464.096	633.62
464.316	608.62
464.536	622.62
464.755	599.62
464.975	625.62
465.195	638.62
465.414	725.62
465.634	647.62
465.854	611.62
466.073	581.62
466.293	572.62
466.512	558.62
466.732	546.62
466.951	542.62
467.171	531.62
467.391	561.62
467.61	543.62
467.829	563.62
468.049	537.62
468.268	549.62
468.488	534.62
468.707	521.62
468.927	520.62
469.146	511.62
469.365	497.62
469.585	517.62
469.804	527.62
470.023	538.62
470.243	553.62
470.462	551.62
470.681	581.62
470.901	555.62
471.12	552.62
471.339	525.62
471.558	541.62
471.777	557.62
471.997	553.62
472.216	545.62
472.435	586.62
472.654	574.62
472.873	561.62
473.092	541.62
473.311	529.62
473.53	525.62
473.749	545.62
473.968	586.62
474.187	694.62
474.406	707.62
474.625	605.62
474.844	565.62
475.063	541.62
475.282	544.62
475.501	547.62
475.72	527.62
475.939	552.62
476.158	530.62
476.377	548.62
476.596	548.62
476.814	574.62
477.033	594.62
477.252	575.62
477.471	571.62
477.69	557.62
477.908	584.62
478.127	600.62
478.346	588.62
478.564	599.62
478.783	618.62
479.002	623.62
479.22	605.62
479.439	630.62
479.658	645.62
479.876	666.62
480.095	667.62
480.313	699.62
480.532	698.62
480.751	647.62
480.969	679.62
481.188	740.62
481.406	775.62
481.624	710.62
481.843	648.62
482.061	640.62
482.28	621.62
482.498	633.62
482.717	633.62
482.935	649.62
483.153	645.62
483.372	612.62
483.59	645.62
483.808	631.62
484.027	621.62
484.245	635.62
484.463	640.62
484.681	641.62
484.9	645.62
485.118	630.62
485.336	647.62
485.554	660.62
485.772	663.62
485.99	644.62
486.209	687.62
486.427	641.62
486.645	672.62
486.863	666.62
487.081	691.62
487.299	676.62
487.517	667.62
487.735	703.62
487.953	684.62
488.171	703.62
488.389	681.62
488.607	677.62
488.825	688.62
489.043	686.62
489.261	670.62
489.479	689.62
489.696	700.62
489.914	662.62
490.132	704.62
490.35	729.62
490.568	712.62
490.786	704.62
491.003	705.62
491.221	732.62
491.439	734.62
491.657	744.62
491.874	736.62
492.092	759.62
492.31	767.62
492.527	775.62
492.745	765.62
492.963	777.62
493.18	778.62
493.398	795.62
493.615	787.62
493.833	804.62
494.05	785.62
494.268	798.62
494.485	799.62
494.703	782.62
494.92	775.62
495.138	771.62
495.355	808.62
495.573	808.62
495.79	797.62
496.008	797.62
496.225	765.62
496.442	783.62
496.66	810.62
496.877	784.62
497.094	820.62
497.312	845.62
497.529	793.62
497.746	848.62
497.963	825.62
498.181	864.62
498.398	903.62
498.615	941.62
498.832	915.62
499.049	942.62
499.267	996.62
499.484	1015.62
499.701	1057.62
499.918	1124.62
500.135	1139.62
500.352	1220.62
500.569	1242.62
500.786	1255.62
501.003	1253.62
501.22	1187.62
501.437	1139.62
501.654	1065.62
501.871	1070.62
