Data from 1979.PennyLincolnUp.Lamp.En5.5.200Scan.071719.P1_HRD10591_16-19-19-863.txt Node
Date: Thu Jul 18 16:19:19 EDT 2019
User: cochatt
Spectrometer: HR+D1059
Trigger mode: 1
Integration Time (sec): 1.000000E-1
Scans to average: 1
Electric dark correction enabled: true
Nonlinearity correction enabled: false
Boxcar width: 0
XAxis mode: Wavelengths
Number of Pixels in Spectrum: 2048
>>>>>Begin Spectral Data<<<<<
223.165	-7.94
223.4	-7.94
223.635	-7.94
223.869	-9.94
224.104	-23.94
224.338	-12.94
224.573	-11.94
224.808	-6.94
225.042	-4.94
225.277	-4.94
225.511	-11.94
225.746	1.06
225.98	-2.94
226.215	15.06
226.449	22.06
226.683	10.06
226.918	27.06
227.152	23.06
227.387	41.06
227.621	45.06
227.856	44.06
228.09	52.06
228.324	49.06
228.559	62.06
228.793	61.06
229.027	96.06
229.262	114.06
229.496	120.06
229.73	127.06
229.964	138.06
230.199	109.06
230.433	115.06
230.667	102.06
230.901	103.06
231.136	107.06
231.37	107.06
231.604	114.06
231.838	95.06
232.072	107.06
232.306	117.06
232.541	112.06
232.775	116.06
233.009	112.06
233.243	117.06
233.477	115.06
233.711	122.06
233.945	122.06
234.179	118.06
234.413	112.06
234.647	123.06
234.881	110.06
235.115	117.06
235.349	122.06
235.583	131.06
235.817	140.06
236.051	128.06
236.285	126.06
236.519	135.06
236.753	130.06
236.987	150.06
237.221	189.06
237.455	215.06
237.689	167.06
237.922	154.06
238.156	127.06
238.39	122.06
238.624	134.06
238.858	129.06
239.091	118.06
239.325	111.06
239.559	138.06
239.793	125.06
240.027	132.06
240.26	131.06
240.494	174.06
240.728	142.06
240.961	125.06
241.195	140.06
241.429	142.06
241.662	137.06
241.896	134.06
242.13	131.06
242.363	140.06
242.597	134.06
242.83	153.06
243.064	147.06
243.298	139.06
243.531	147.06
243.765	124.06
243.998	126.06
244.232	132.06
244.465	130.06
244.699	128.06
244.932	144.06
245.166	139.06
245.399	125.06
245.633	158.06
245.866	149.06
246.099	138.06
246.333	154.06
246.566	144.06
246.8	147.06
247.033	152.06
247.266	169.06
247.5	169.06
247.733	164.06
247.966	157.06
248.2	157.06
248.433	175.06
248.666	167.06
248.899	153.06
249.133	188.06
249.366	199.06
249.599	206.06
249.832	184.06
250.066	166.06
250.299	170.06
250.532	180.06
250.765	196.06
250.998	211.06
251.231	213.06
251.465	199.06
251.698	198.06
251.931	186.06
252.164	188.06
252.397	190.06
252.63	183.06
252.863	188.06
253.096	203.06
253.329	211.06
253.562	228.06
253.795	211.06
254.028	208.06
254.261	210.06
254.494	214.06
254.727	228.06
254.96	258.06
255.193	261.06
255.426	213.06
255.659	229.06
255.892	197.06
256.124	226.06
256.357	208.06
256.59	213.06
256.823	198.06
257.056	206.06
257.289	210.06
257.521	206.06
257.754	180.06
257.987	200.06
258.22	199.06
258.452	187.06
258.685	203.06
258.918	192.06
259.151	210.06
259.383	217.06
259.616	203.06
259.849	208.06
260.081	224.06
260.314	248.06
260.547	249.06
260.779	230.06
261.012	212.06
261.244	216.06
261.477	231.06
261.71	218.06
261.942	229.06
262.175	226.06
262.407	208.06
262.64	204.06
262.872	204.06
263.105	194.06
263.337	211.06
263.57	215.06
263.802	216.06
264.035	216.06
264.267	214.06
264.499	193.06
264.732	218.06
264.964	206.06
265.197	213.06
265.429	200.06
265.661	203.06
265.894	209.06
266.126	203.06
266.358	220.06
266.591	211.06
266.823	213.06
267.055	223.06
267.287	225.06
267.52	216.06
267.752	222.06
267.984	243.06
268.216	227.06
268.448	221.06
268.681	227.06
268.913	237.06
269.145	235.06
269.377	275.06
269.609	260.06
269.841	240.06
270.073	256.06
270.306	282.06
270.538	283.06
270.77	295.06
271.002	284.06
271.234	276.06
271.466	290.06
271.698	294.06
271.93	286.06
272.162	291.06
272.394	288.06
272.626	285.06
272.858	267.06
273.09	262.06
273.322	272.06
273.553	264.06
273.785	256.06
274.017	248.06
274.249	245.06
274.481	251.06
274.713	248.06
274.945	264.06
275.176	266.06
275.408	262.06
275.64	256.06
275.872	257.06
276.104	250.06
276.335	261.06
276.567	266.06
276.799	276.06
277.031	282.06
277.262	299.06
277.494	304.06
277.726	289.06
277.957	271.06
278.189	255.06
278.421	273.06
278.652	265.06
278.884	271.06
279.115	263.06
279.347	264.06
279.579	274.06
279.81	272.06
280.042	274.06
280.273	274.06
280.505	283.06
280.736	251.06
280.968	277.06
281.199	259.06
281.431	260.06
281.662	256.06
281.894	258.06
282.125	281.06
282.356	284.06
282.588	298.06
282.819	286.06
283.051	274.06
283.282	260.06
283.513	277.06
283.745	278.06
283.976	277.06
284.207	275.06
284.439	277.06
284.67	274.06
284.901	261.06
285.132	272.06
285.364	270.06
285.595	258.06
285.826	271.06
286.057	292.06
286.288	270.06
286.52	297.06
286.751	293.06
286.982	276.06
287.213	287.06
287.444	298.06
287.675	290.06
287.906	279.06
288.138	310.06
288.369	318.06
288.6	291.06
288.831	312.06
289.062	298.06
289.293	291.06
289.524	271.06
289.755	303.06
289.986	278.06
290.217	280.06
290.448	275.06
290.679	297.06
290.91	290.06
291.141	287.06
291.371	293.06
291.602	283.06
291.833	287.06
292.064	286.06
292.295	286.06
292.526	315.06
292.757	287.06
292.987	297.06
293.218	288.06
293.449	282.06
293.68	298.06
293.91	291.06
294.141	290.06
294.372	285.06
294.603	284.06
294.833	299.06
295.064	301.06
295.295	308.06
295.525	291.06
295.756	295.06
295.987	319.06
296.217	316.06
296.448	329.06
296.679	316.06
296.909	304.06
297.14	312.06
297.37	326.06
297.601	307.06
297.831	295.06
298.062	301.06
298.292	296.06
298.523	294.06
298.753	308.06
298.984	309.06
299.214	314.06
299.445	320.06
299.675	324.06
299.905	315.06
300.136	319.06
300.366	321.06
300.597	311.06
300.827	328.06
301.057	331.06
301.288	333.06
301.518	322.06
301.748	325.06
301.979	335.06
302.209	332.06
302.439	335.06
302.669	332.06
302.9	325.06
303.13	326.06
303.36	325.06
303.59	341.06
303.82	335.06
304.051	320.06
304.281	354.06
304.511	351.06
304.741	339.06
304.971	316.06
305.201	331.06
305.431	329.06
305.661	327.06
305.891	329.06
306.121	327.06
306.352	354.06
306.582	326.06
306.812	344.06
307.042	324.06
307.272	333.06
307.502	329.06
307.731	345.06
307.961	330.06
308.191	322.06
308.421	317.06
308.651	344.06
308.881	336.06
309.111	366.06
309.341	343.06
309.571	364.06
309.8	320.06
310.03	354.06
310.26	354.06
310.49	355.06
310.72	384.06
310.949	386.06
311.179	378.06
311.409	364.06
311.639	383.06
311.868	377.06
312.098	374.06
312.328	390.06
312.557	398.06
312.787	391.06
313.017	384.06
313.246	397.06
313.476	377.06
313.706	373.06
313.935	367.06
314.165	390.06
314.394	390.06
314.624	388.06
314.853	372.06
315.083	376.06
315.312	378.06
315.542	376.06
315.771	372.06
316.001	375.06
316.23	374.06
316.46	358.06
316.689	370.06
316.919	379.06
317.148	386.06
317.377	389.06
317.607	388.06
317.836	371.06
318.065	373.06
318.295	384.06
318.524	365.06
318.753	392.06
318.983	396.06
319.212	382.06
319.441	376.06
319.67	395.06
319.9	386.06
320.129	364.06
320.358	388.06
320.587	392.06
320.816	393.06
321.046	385.06
321.275	382.06
321.504	388.06
321.733	410.06
321.962	404.06
322.191	421.06
322.42	411.06
322.649	440.06
322.878	414.06
323.108	424.06
323.337	467.06
323.566	459.06
323.795	487.06
324.024	553.06
324.253	646.06
324.482	870.06
324.71	1362.06
324.939	2065.06
325.168	1779.06
325.397	896.06
325.626	608.06
325.855	506.06
326.084	462.06
326.313	491.06
326.542	478.06
326.77	538.06
326.999	612.06
327.228	836.06
327.457	1255.06
327.686	1574.06
327.914	1018.06
328.143	661.06
328.372	589.06
328.6	555.06
328.829	534.06
329.058	545.06
329.287	552.06
329.515	522.06
329.744	474.06
329.972	472.06
330.201	504.06
330.43	538.06
330.658	543.06
330.887	598.06
331.115	552.06
331.344	505.06
331.572	456.06
331.801	477.06
332.03	464.06
332.258	457.06
332.486	468.06
332.715	462.06
332.943	446.06
333.172	471.06
333.4	458.06
333.629	493.06
333.857	469.06
334.085	478.06
334.314	515.06
334.542	542.06
334.771	558.06
334.999	488.06
335.227	477.06
335.455	448.06
335.684	462.06
335.912	487.06
336.14	437.06
336.369	440.06
336.597	457.06
336.825	465.06
337.053	447.06
337.281	479.06
337.51	454.06
337.738	450.06
337.966	449.06
338.194	461.06
338.422	438.06
338.65	446.06
338.878	444.06
339.106	445.06
339.334	419.06
339.562	416.06
339.79	412.06
340.018	427.06
340.246	420.06
340.474	449.06
340.702	436.06
340.93	435.06
341.158	436.06
341.386	434.06
341.614	431.06
341.842	429.06
342.07	419.06
342.298	450.06
342.526	441.06
342.754	424.06
342.981	415.06
343.209	416.06
343.437	443.06
343.665	455.06
343.893	460.06
344.12	447.06
344.348	453.06
344.576	430.06
344.804	442.06
345.031	445.06
345.259	450.06
345.487	456.06
345.714	432.06
345.942	440.06
346.17	429.06
346.397	428.06
346.625	446.06
346.853	435.06
347.08	428.06
347.308	399.06
347.535	423.06
347.763	439.06
347.99	421.06
348.218	430.06
348.445	432.06
348.673	443.06
348.9	401.06
349.128	424.06
349.355	416.06
349.583	403.06
349.81	418.06
350.037	388.06
350.265	408.06
350.492	418.06
350.72	383.06
350.947	408.06
351.174	444.06
351.402	429.06
351.629	416.06
351.856	391.06
352.083	417.06
352.311	445.06
352.538	449.06
352.765	451.06
352.992	421.06
353.22	426.06
353.447	391.06
353.674	392.06
353.901	398.06
354.128	415.06
354.355	415.06
354.583	394.06
354.81	420.06
355.037	418.06
355.264	392.06
355.491	401.06
355.718	409.06
355.945	394.06
356.172	411.06
356.399	406.06
356.626	388.06
356.853	417.06
357.08	414.06
357.307	393.06
357.534	409.06
357.761	393.06
357.988	409.06
358.215	413.06
358.441	390.06
358.668	390.06
358.895	429.06
359.122	394.06
359.349	418.06
359.576	413.06
359.802	414.06
360.029	472.06
360.256	477.06
360.483	471.06
360.709	439.06
360.936	428.06
361.163	420.06
361.39	428.06
361.616	416.06
361.843	444.06
362.07	403.06
362.296	412.06
362.523	422.06
362.749	418.06
362.976	435.06
363.203	427.06
363.429	416.06
363.656	414.06
363.882	379.06
364.109	416.06
364.335	402.06
364.562	414.06
364.788	435.06
365.015	436.06
365.241	409.06
365.468	430.06
365.694	425.06
365.92	447.06
366.147	406.06
366.373	402.06
366.599	381.06
366.826	407.06
367.052	403.06
367.278	418.06
367.505	413.06
367.731	424.06
367.957	415.06
368.184	411.06
368.41	422.06
368.636	429.06
368.862	417.06
369.089	423.06
369.315	421.06
369.541	410.06
369.767	416.06
369.993	420.06
370.219	414.06
370.445	411.06
370.672	413.06
370.898	424.06
371.124	408.06
371.35	422.06
371.576	436.06
371.802	424.06
372.028	415.06
372.254	411.06
372.48	428.06
372.706	434.06
372.932	419.06
373.158	438.06
373.384	408.06
373.61	415.06
373.835	431.06
374.061	414.06
374.287	423.06
374.513	439.06
374.739	456.06
374.965	441.06
375.191	425.06
375.416	421.06
375.642	422.06
375.868	451.06
376.094	446.06
376.319	427.06
376.545	422.06
376.771	441.06
376.997	413.06
377.222	427.06
377.448	418.06
377.674	420.06
377.899	426.06
378.125	423.06
378.35	412.06
378.576	438.06
378.802	408.06
379.027	408.06
379.253	422.06
379.478	430.06
379.704	424.06
379.929	416.06
380.155	422.06
380.38	441.06
380.606	427.06
380.831	439.06
381.057	420.06
381.282	422.06
381.507	436.06
381.733	450.06
381.958	421.06
382.184	440.06
382.409	409.06
382.634	438.06
382.86	432.06
383.085	447.06
383.31	446.06
383.535	456.06
383.761	450.06
383.986	461.06
384.211	443.06
384.436	422.06
384.662	444.06
384.887	476.06
385.112	453.06
385.337	457.06
385.562	468.06
385.787	471.06
386.013	464.06
386.238	484.06
386.463	490.06
386.688	486.06
386.913	461.06
387.138	476.06
387.363	476.06
387.588	481.06
387.813	454.06
388.038	470.06
388.263	459.06
388.488	473.06
388.713	464.06
388.938	489.06
389.163	488.06
389.387	486.06
389.612	474.06
389.837	475.06
390.062	474.06
390.287	461.06
390.512	482.06
390.736	471.06
390.961	482.06
391.186	471.06
391.411	467.06
391.636	488.06
391.86	498.06
392.085	493.06
392.31	493.06
392.534	500.06
392.759	470.06
392.984	492.06
393.208	468.06
393.433	487.06
393.658	483.06
393.882	484.06
394.107	484.06
394.331	479.06
394.556	495.06
394.78	483.06
395.005	485.06
395.229	488.06
395.454	515.06
395.678	515.06
395.903	509.06
396.127	533.06
396.352	513.06
396.576	495.06
396.801	496.06
397.025	507.06
397.249	508.06
397.474	511.06
397.698	490.06
397.922	529.06
398.147	514.06
398.371	560.06
398.595	537.06
398.82	547.06
399.044	576.06
399.268	592.06
399.492	612.06
399.717	687.06
399.941	704.06
400.165	696.06
400.389	714.06
400.613	646.06
400.837	600.06
401.062	592.06
401.286	581.06
401.51	589.06
401.734	567.06
401.958	601.06
402.182	585.06
402.406	586.06
402.63	622.06
402.854	555.06
403.078	588.06
403.302	584.06
403.526	608.06
403.75	615.06
403.974	602.06
404.198	605.06
404.422	601.06
404.645	609.06
404.869	611.06
405.093	623.06
405.317	669.06
405.541	691.06
405.765	655.06
405.988	613.06
406.212	616.06
406.436	637.06
406.66	648.06
406.883	650.06
407.107	678.06
407.331	693.06
407.555	783.06
407.778	749.06
408.002	698.06
408.226	667.06
408.449	664.06
408.673	662.06
408.896	649.06
409.12	714.06
409.344	681.06
409.567	648.06
409.791	623.06
410.014	593.06
410.238	583.06
410.461	589.06
410.685	598.06
410.908	619.06
411.132	638.06
411.355	663.06
411.578	634.06
411.802	591.06
412.025	574.06
412.249	612.06
412.472	652.06
412.695	634.06
412.919	636.06
413.142	584.06
413.365	596.06
413.589	574.06
413.812	560.06
414.035	557.06
414.258	552.06
414.482	553.06
414.705	544.06
414.928	581.06
415.151	570.06
415.374	566.06
415.597	567.06
415.821	564.06
416.044	582.06
416.267	553.06
416.49	566.06
416.713	570.06
416.936	562.06
417.159	581.06
417.382	563.06
417.605	566.06
417.828	569.06
418.051	584.06
418.274	569.06
418.497	566.06
418.72	574.06
418.943	555.06
419.166	572.06
419.389	622.06
419.611	611.06
419.834	607.06
420.057	598.06
420.28	580.06
420.503	568.06
420.726	578.06
420.948	611.06
421.171	608.06
421.394	669.06
421.617	603.06
421.839	552.06
422.062	593.06
422.285	590.06
422.507	638.06
422.73	743.06
422.953	696.06
423.175	609.06
423.398	600.06
423.621	606.06
423.843	612.06
424.066	626.06
424.288	617.06
424.511	642.06
424.733	682.06
424.956	756.06
425.178	724.06
425.401	721.06
425.623	769.06
425.846	659.06
426.068	631.06
426.291	601.06
426.513	610.06
426.735	614.06
426.958	643.06
427.18	715.06
427.402	861.06
427.625	932.06
427.847	815.06
428.069	702.06
428.292	656.06
428.514	610.06
428.736	582.06
428.958	578.06
429.181	553.06
429.403	559.06
429.625	585.06
429.847	600.06
430.069	682.06
430.292	652.06
430.514	596.06
430.736	538.06
430.958	570.06
431.18	541.06
431.402	542.06
431.624	544.06
431.846	541.06
432.068	556.06
432.29	546.06
432.512	531.06
432.734	557.06
432.956	546.06
433.178	545.06
433.4	548.06
433.622	549.06
433.844	563.06
434.066	564.06
434.287	569.06
434.509	555.06
434.731	569.06
434.953	555.06
435.175	570.06
435.397	598.06
435.618	619.06
435.84	666.06
436.062	759.06
436.284	815.06
436.505	679.06
436.727	643.06
436.949	585.06
437.17	564.06
437.392	562.06
437.614	589.06
437.835	613.06
438.057	707.06
438.278	790.06
438.5	782.06
438.721	870.06
438.943	831.06
439.165	668.06
439.386	617.06
439.608	618.06
439.829	629.06
440.05	632.06
440.272	660.06
440.493	639.06
440.715	617.06
440.936	578.06
441.158	583.06
441.379	563.06
441.6	584.06
441.822	628.06
442.043	654.06
442.264	750.06
442.486	763.06
442.707	652.06
442.928	642.06
443.149	632.06
443.371	645.06
443.592	670.06
443.813	799.06
444.034	827.06
444.255	707.06
444.476	670.06
444.698	629.06
444.919	628.06
445.14	731.06
445.361	680.06
445.582	690.06
445.803	711.06
446.024	833.06
446.245	822.06
446.466	756.06
446.687	664.06
446.908	602.06
447.129	573.06
447.35	566.06
447.571	552.06
447.792	539.06
448.013	575.06
448.234	568.06
448.455	627.06
448.675	735.06
448.896	852.06
449.117	734.06
449.338	683.06
449.559	783.06
449.779	901.06
450	724.06
450.221	610.06
450.442	574.06
450.662	552.06
450.883	566.06
451.104	567.06
451.324	566.06
451.545	537.06
451.766	527.06
451.986	522.06
452.207	508.06
452.428	496.06
452.648	508.06
452.869	505.06
453.089	513.06
453.31	538.06
453.53	511.06
453.751	495.06
453.971	523.06
454.192	557.06
454.412	526.06
454.633	483.06
454.853	500.06
455.073	498.06
455.294	538.06
455.514	577.06
455.734	576.06
455.955	510.06
456.175	485.06
456.395	488.06
456.616	491.06
456.836	468.06
457.056	464.06
457.276	462.06
457.497	486.06
457.717	485.06
457.937	478.06
458.157	489.06
458.377	492.06
458.598	528.06
458.818	580.06
459.038	630.06
459.258	681.06
459.478	578.06
459.698	554.06
459.918	570.06
460.138	555.06
460.358	543.06
460.578	578.06
460.798	612.06
461.018	596.06
461.238	580.06
461.458	559.06
461.678	558.06
461.898	580.06
462.118	572.06
462.338	602.06
462.558	583.06
462.777	630.06
462.997	629.06
463.217	658.06
463.437	630.06
463.657	600.06
463.876	626.06
464.096	624.06
464.316	611.06
464.536	632.06
464.755	662.06
464.975	605.06
465.195	615.06
465.414	712.06
465.634	633.06
465.854	580.06
466.073	569.06
466.293	539.06
466.512	536.06
466.732	529.06
466.951	525.06
467.171	530.06
467.391	536.06
467.61	540.06
467.829	560.06
468.049	552.06
468.268	542.06
468.488	524.06
468.707	539.06
468.927	540.06
469.146	496.06
469.365	511.06
469.585	506.06
469.804	546.06
470.023	535.06
470.243	527.06
470.462	539.06
470.681	579.06
470.901	588.06
471.12	534.06
471.339	522.06
471.558	549.06
471.777	523.06
471.997	547.06
472.216	552.06
472.435	568.06
472.654	580.06
472.873	520.06
473.092	534.06
473.311	527.06
473.53	544.06
473.749	550.06
473.968	574.06
474.187	668.06
474.406	670.06
474.625	584.06
474.844	552.06
475.063	530.06
475.282	552.06
475.501	549.06
475.72	554.06
475.939	538.06
476.158	553.06
476.377	551.06
476.596	557.06
476.814	578.06
477.033	572.06
477.252	562.06
477.471	589.06
477.69	572.06
477.908	603.06
478.127	599.06
478.346	596.06
478.564	598.06
478.783	608.06
479.002	616.06
479.22	628.06
479.439	650.06
479.658	642.06
479.876	639.06
480.095	653.06
480.313	668.06
480.532	648.06
480.751	665.06
480.969	668.06
481.188	690.06
481.406	738.06
481.624	680.06
481.843	651.06
482.061	622.06
482.28	617.06
482.498	618.06
482.717	619.06
482.935	629.06
483.153	637.06
483.372	616.06
483.59	616.06
483.808	649.06
484.027	620.06
484.245	638.06
484.463	614.06
484.681	664.06
484.9	644.06
485.118	643.06
485.336	635.06
485.554	646.06
485.772	644.06
485.99	650.06
486.209	669.06
486.427	638.06
486.645	642.06
486.863	647.06
487.081	670.06
487.299	678.06
487.517	692.06
487.735	692.06
487.953	664.06
488.171	684.06
488.389	655.06
488.607	661.06
488.825	661.06
489.043	680.06
489.261	687.06
489.479	679.06
489.696	674.06
489.914	666.06
490.132	703.06
490.35	692.06
490.568	697.06
490.786	690.06
491.003	696.06
491.221	721.06
491.439	718.06
491.657	739.06
491.874	749.06
492.092	758.06
492.31	754.06
492.527	749.06
492.745	734.06
492.963	772.06
493.18	747.06
493.398	781.06
493.615	771.06
493.833	780.06
494.05	783.06
494.268	780.06
494.485	752.06
494.703	774.06
494.92	771.06
495.138	762.06
495.355	780.06
495.573	779.06
495.79	789.06
496.008	812.06
496.225	779.06
496.442	779.06
496.66	775.06
496.877	794.06
497.094	821.06
497.312	811.06
497.529	816.06
497.746	832.06
497.963	863.06
498.181	887.06
498.398	877.06
498.615	890.06
498.832	936.06
499.049	940.06
499.267	985.06
499.484	1013.06
499.701	1019.06
499.918	1083.06
500.135	1149.06
500.352	1231.06
500.569	1257.06
500.786	1271.06
501.003	1204.06
501.22	1150.06
501.437	1126.06
501.654	1075.06
501.871	1052.06
