Data from 1979.PennyLincolnUp.Lamp.En5.5.200Scan.071719.P1_HRD10591_16-20-08-863.txt Node
Date: Thu Jul 18 16:20:08 EDT 2019
User: cochatt
Spectrometer: HR+D1059
Trigger mode: 1
Integration Time (sec): 1.000000E-1
Scans to average: 1
Electric dark correction enabled: true
Nonlinearity correction enabled: false
Boxcar width: 0
XAxis mode: Wavelengths
Number of Pixels in Spectrum: 2048
>>>>>Begin Spectral Data<<<<<
223.165	-19.38
223.4	-19.38
223.635	-19.38
223.869	-22.38
224.104	-31.38
224.338	4.62
224.573	-17.38
224.808	-20.38
225.042	-8.38
225.277	-3.38
225.511	10.62
225.746	-0.38
225.98	2.62
226.215	8.62
226.449	11.62
226.683	25.62
226.918	19.62
227.152	39.62
227.387	32.62
227.621	54.62
227.856	47.62
228.09	47.62
228.324	47.62
228.559	64.62
228.793	62.62
229.027	89.62
229.262	111.62
229.496	111.62
229.73	129.62
229.964	157.62
230.199	123.62
230.433	109.62
230.667	122.62
230.901	115.62
231.136	110.62
231.37	106.62
231.604	124.62
231.838	118.62
232.072	115.62
232.306	112.62
232.541	108.62
232.775	109.62
233.009	123.62
233.243	120.62
233.477	116.62
233.711	109.62
233.945	116.62
234.179	118.62
234.413	117.62
234.647	123.62
234.881	135.62
235.115	124.62
235.349	118.62
235.583	120.62
235.817	117.62
236.051	118.62
236.285	106.62
236.519	127.62
236.753	136.62
236.987	144.62
237.221	171.62
237.455	226.62
237.689	181.62
237.922	141.62
238.156	131.62
238.39	126.62
238.624	125.62
238.858	133.62
239.091	117.62
239.325	130.62
239.559	129.62
239.793	131.62
240.027	140.62
240.26	147.62
240.494	162.62
240.728	155.62
240.961	140.62
241.195	141.62
241.429	140.62
241.662	140.62
241.896	131.62
242.13	141.62
242.363	130.62
242.597	136.62
242.83	147.62
243.064	143.62
243.298	136.62
243.531	143.62
243.765	127.62
243.998	151.62
244.232	136.62
244.465	141.62
244.699	146.62
244.932	134.62
245.166	141.62
245.399	154.62
245.633	147.62
245.866	153.62
246.099	152.62
246.333	150.62
246.566	155.62
246.8	143.62
247.033	145.62
247.266	156.62
247.5	160.62
247.733	158.62
247.966	158.62
248.2	168.62
248.433	179.62
248.666	172.62
248.899	198.62
249.133	194.62
249.366	206.62
249.599	184.62
249.832	188.62
250.066	181.62
250.299	181.62
250.532	191.62
250.765	214.62
250.998	222.62
251.231	222.62
251.465	194.62
251.698	200.62
251.931	198.62
252.164	190.62
252.397	183.62
252.63	205.62
252.863	201.62
253.096	212.62
253.329	216.62
253.562	203.62
253.795	221.62
254.028	215.62
254.261	191.62
254.494	206.62
254.727	246.62
254.96	276.62
255.193	252.62
255.426	230.62
255.659	217.62
255.892	248.62
256.124	232.62
256.357	238.62
256.59	225.62
256.823	220.62
257.056	196.62
257.289	210.62
257.521	197.62
257.754	193.62
257.987	207.62
258.22	204.62
258.452	191.62
258.685	203.62
258.918	211.62
259.151	217.62
259.383	224.62
259.616	225.62
259.849	208.62
260.081	216.62
260.314	257.62
260.547	247.62
260.779	218.62
261.012	250.62
261.244	213.62
261.477	224.62
261.71	212.62
261.942	225.62
262.175	237.62
262.407	207.62
262.64	215.62
262.872	215.62
263.105	203.62
263.337	211.62
263.57	231.62
263.802	204.62
264.035	202.62
264.267	205.62
264.499	207.62
264.732	208.62
264.964	194.62
265.197	211.62
265.429	230.62
265.661	223.62
265.894	204.62
266.126	214.62
266.358	223.62
266.591	229.62
266.823	235.62
267.055	235.62
267.287	217.62
267.52	215.62
267.752	217.62
267.984	218.62
268.216	216.62
268.448	231.62
268.681	237.62
268.913	234.62
269.145	261.62
269.377	268.62
269.609	267.62
269.841	270.62
270.073	260.62
270.306	287.62
270.538	303.62
270.77	303.62
271.002	299.62
271.234	278.62
271.466	286.62
271.698	291.62
271.93	297.62
272.162	300.62
272.394	297.62
272.626	287.62
272.858	276.62
273.09	267.62
273.322	267.62
273.553	265.62
273.785	268.62
274.017	259.62
274.249	258.62
274.481	257.62
274.713	265.62
274.945	261.62
275.176	256.62
275.408	260.62
275.64	270.62
275.872	261.62
276.104	272.62
276.335	283.62
276.567	253.62
276.799	293.62
277.031	284.62
277.262	312.62
277.494	313.62
277.726	308.62
277.957	293.62
278.189	270.62
278.421	292.62
278.652	262.62
278.884	275.62
279.115	263.62
279.347	267.62
279.579	254.62
279.81	269.62
280.042	265.62
280.273	276.62
280.505	269.62
280.736	283.62
280.968	268.62
281.199	268.62
281.431	276.62
281.662	262.62
281.894	259.62
282.125	275.62
282.356	289.62
282.588	304.62
282.819	294.62
283.051	270.62
283.282	271.62
283.513	280.62
283.745	288.62
283.976	282.62
284.207	301.62
284.439	267.62
284.67	284.62
284.901	278.62
285.132	278.62
285.364	275.62
285.595	278.62
285.826	287.62
286.057	266.62
286.288	270.62
286.52	283.62
286.751	286.62
286.982	289.62
287.213	290.62
287.444	269.62
287.675	283.62
287.906	300.62
288.138	299.62
288.369	296.62
288.6	307.62
288.831	310.62
289.062	285.62
289.293	302.62
289.524	292.62
289.755	294.62
289.986	311.62
290.217	298.62
290.448	268.62
290.679	276.62
290.91	295.62
291.141	306.62
291.371	287.62
291.602	297.62
291.833	277.62
292.064	295.62
292.295	274.62
292.526	297.62
292.757	298.62
292.987	294.62
293.218	305.62
293.449	276.62
293.68	288.62
293.91	317.62
294.141	300.62
294.372	284.62
294.603	295.62
294.833	280.62
295.064	296.62
295.295	294.62
295.525	289.62
295.756	308.62
295.987	315.62
296.217	349.62
296.448	350.62
296.679	311.62
296.909	312.62
297.14	286.62
297.37	309.62
297.601	313.62
297.831	308.62
298.062	309.62
298.292	306.62
298.523	309.62
298.753	317.62
298.984	318.62
299.214	325.62
299.445	326.62
299.675	327.62
299.905	335.62
300.136	309.62
300.366	315.62
300.597	312.62
300.827	333.62
301.057	314.62
301.288	321.62
301.518	313.62
301.748	328.62
301.979	331.62
302.209	316.62
302.439	325.62
302.669	323.62
302.9	324.62
303.13	322.62
303.36	331.62
303.59	332.62
303.82	363.62
304.051	330.62
304.281	327.62
304.511	330.62
304.741	330.62
304.971	342.62
305.201	311.62
305.431	336.62
305.661	318.62
305.891	327.62
306.121	330.62
306.352	359.62
306.582	347.62
306.812	332.62
307.042	332.62
307.272	338.62
307.502	345.62
307.731	350.62
307.961	340.62
308.191	332.62
308.421	361.62
308.651	352.62
308.881	353.62
309.111	334.62
309.341	372.62
309.571	374.62
309.8	354.62
310.03	361.62
310.26	362.62
310.49	378.62
310.72	387.62
310.949	393.62
311.179	391.62
311.409	372.62
311.639	363.62
311.868	366.62
312.098	374.62
312.328	375.62
312.557	400.62
312.787	386.62
313.017	416.62
313.246	379.62
313.476	378.62
313.706	377.62
313.935	388.62
314.165	392.62
314.394	381.62
314.624	404.62
314.853	389.62
315.083	394.62
315.312	396.62
315.542	389.62
315.771	373.62
316.001	358.62
316.23	377.62
316.46	380.62
316.689	383.62
316.919	383.62
317.148	366.62
317.377	377.62
317.607	383.62
317.836	400.62
318.065	367.62
318.295	378.62
318.524	372.62
318.753	405.62
318.983	391.62
319.212	386.62
319.441	388.62
319.67	389.62
319.9	384.62
320.129	391.62
320.358	405.62
320.587	398.62
320.816	401.62
321.046	401.62
321.275	386.62
321.504	396.62
321.733	399.62
321.962	419.62
322.191	432.62
322.42	417.62
322.649	456.62
322.878	441.62
323.108	460.62
323.337	475.62
323.566	493.62
323.795	523.62
324.024	570.62
324.253	670.62
324.482	946.62
324.71	1477.62
324.939	2255.62
325.168	1883.62
325.397	936.62
325.626	651.62
325.855	546.62
326.084	503.62
326.313	485.62
326.542	498.62
326.77	518.62
326.999	634.62
327.228	870.62
327.457	1369.62
327.686	1674.62
327.914	1050.62
328.143	677.62
328.372	631.62
328.6	592.62
328.829	556.62
329.058	562.62
329.287	595.62
329.515	539.62
329.744	517.62
329.972	526.62
330.201	494.62
330.43	570.62
330.658	602.62
330.887	602.62
331.115	606.62
331.344	531.62
331.572	502.62
331.801	489.62
332.03	500.62
332.258	484.62
332.486	446.62
332.715	456.62
332.943	465.62
333.172	494.62
333.4	504.62
333.629	461.62
333.857	502.62
334.085	522.62
334.314	523.62
334.542	559.62
334.771	575.62
334.999	533.62
335.227	498.62
335.455	479.62
335.684	490.62
335.912	486.62
336.14	462.62
336.369	474.62
336.597	459.62
336.825	485.62
337.053	474.62
337.281	456.62
337.51	446.62
337.738	461.62
337.966	481.62
338.194	463.62
338.422	445.62
338.65	441.62
338.878	445.62
339.106	449.62
339.334	430.62
339.562	441.62
339.79	466.62
340.018	436.62
340.246	434.62
340.474	447.62
340.702	437.62
340.93	447.62
341.158	431.62
341.386	434.62
341.614	450.62
341.842	443.62
342.07	453.62
342.298	418.62
342.526	442.62
342.754	426.62
342.981	429.62
343.209	419.62
343.437	438.62
343.665	437.62
343.893	483.62
344.12	466.62
344.348	450.62
344.576	463.62
344.804	463.62
345.031	488.62
345.259	476.62
345.487	457.62
345.714	432.62
345.942	460.62
346.17	443.62
346.397	445.62
346.625	429.62
346.853	443.62
347.08	428.62
347.308	437.62
347.535	459.62
347.763	468.62
347.99	421.62
348.218	443.62
348.445	447.62
348.673	459.62
348.9	430.62
349.128	423.62
349.355	407.62
349.583	413.62
349.81	425.62
350.037	405.62
350.265	427.62
350.492	407.62
350.72	403.62
350.947	409.62
351.174	442.62
351.402	427.62
351.629	442.62
351.856	437.62
352.083	438.62
352.311	447.62
352.538	444.62
352.765	447.62
352.992	438.62
353.22	428.62
353.447	424.62
353.674	403.62
353.901	419.62
354.128	426.62
354.355	398.62
354.583	400.62
354.81	408.62
355.037	417.62
355.264	409.62
355.491	400.62
355.718	417.62
355.945	398.62
356.172	395.62
356.399	401.62
356.626	384.62
356.853	396.62
357.08	412.62
357.307	410.62
357.534	399.62
357.761	428.62
357.988	407.62
358.215	415.62
358.441	400.62
358.668	393.62
358.895	399.62
359.122	418.62
359.349	427.62
359.576	406.62
359.802	449.62
360.029	468.62
360.256	495.62
360.483	464.62
360.709	421.62
360.936	431.62
361.163	426.62
361.39	425.62
361.616	421.62
361.843	426.62
362.07	407.62
362.296	434.62
362.523	431.62
362.749	436.62
362.976	415.62
363.203	413.62
363.429	388.62
363.656	409.62
363.882	406.62
364.109	410.62
364.335	403.62
364.562	396.62
364.788	409.62
365.015	408.62
365.241	409.62
365.468	431.62
365.694	431.62
365.92	394.62
366.147	403.62
366.373	418.62
366.599	447.62
366.826	426.62
367.052	407.62
367.278	438.62
367.505	424.62
367.731	426.62
367.957	408.62
368.184	424.62
368.41	431.62
368.636	448.62
368.862	446.62
369.089	436.62
369.315	451.62
369.541	440.62
369.767	432.62
369.993	429.62
370.219	411.62
370.445	444.62
370.672	423.62
370.898	418.62
371.124	441.62
371.35	441.62
371.576	423.62
371.802	429.62
372.028	428.62
372.254	452.62
372.48	421.62
372.706	435.62
372.932	439.62
373.158	422.62
373.384	429.62
373.61	456.62
373.835	432.62
374.061	445.62
374.287	436.62
374.513	437.62
374.739	443.62
374.965	435.62
375.191	452.62
375.416	438.62
375.642	428.62
375.868	443.62
376.094	429.62
376.319	424.62
376.545	418.62
376.771	449.62
376.997	429.62
377.222	424.62
377.448	422.62
377.674	420.62
377.899	410.62
378.125	439.62
378.35	446.62
378.576	404.62
378.802	404.62
379.027	422.62
379.253	426.62
379.478	427.62
379.704	409.62
379.929	439.62
380.155	410.62
380.38	450.62
380.606	434.62
380.831	416.62
381.057	438.62
381.282	434.62
381.507	429.62
381.733	429.62
381.958	422.62
382.184	421.62
382.409	444.62
382.634	450.62
382.86	453.62
383.085	457.62
383.31	448.62
383.535	461.62
383.761	448.62
383.986	456.62
384.211	457.62
384.436	443.62
384.662	470.62
384.887	453.62
385.112	461.62
385.337	491.62
385.562	491.62
385.787	484.62
386.013	489.62
386.238	487.62
386.463	488.62
386.688	486.62
386.913	469.62
387.138	452.62
387.363	498.62
387.588	470.62
387.813	474.62
388.038	490.62
388.263	483.62
388.488	472.62
388.713	477.62
388.938	464.62
389.163	477.62
389.387	469.62
389.612	483.62
389.837	477.62
390.062	480.62
390.287	478.62
390.512	484.62
390.736	482.62
390.961	496.62
391.186	476.62
391.411	494.62
391.636	501.62
391.86	509.62
392.085	523.62
392.31	516.62
392.534	505.62
392.759	506.62
392.984	518.62
393.208	504.62
393.433	493.62
393.658	484.62
393.882	500.62
394.107	500.62
394.331	481.62
394.556	487.62
394.78	485.62
395.005	499.62
395.229	515.62
395.454	502.62
395.678	504.62
395.903	531.62
396.127	543.62
396.352	526.62
396.576	533.62
396.801	515.62
397.025	508.62
397.249	513.62
397.474	506.62
397.698	519.62
397.922	544.62
398.147	551.62
398.371	549.62
398.595	550.62
398.82	571.62
399.044	584.62
399.268	607.62
399.492	637.62
399.717	683.62
399.941	707.62
400.165	706.62
400.389	701.62
400.613	662.62
400.837	590.62
401.062	590.62
401.286	574.62
401.51	596.62
401.734	586.62
401.958	592.62
402.182	584.62
402.406	602.62
402.63	604.62
402.854	585.62
403.078	576.62
403.302	604.62
403.526	599.62
403.75	604.62
403.974	598.62
404.198	604.62
404.422	600.62
404.645	606.62
404.869	610.62
405.093	638.62
405.317	660.62
405.541	722.62
405.765	638.62
405.988	644.62
406.212	626.62
406.436	633.62
406.66	658.62
406.883	659.62
407.107	674.62
407.331	747.62
407.555	802.62
407.778	785.62
408.002	721.62
408.226	674.62
408.449	659.62
408.673	676.62
408.896	693.62
409.12	754.62
409.344	683.62
409.567	642.62
409.791	637.62
410.014	589.62
410.238	588.62
410.461	616.62
410.685	620.62
410.908	621.62
411.132	649.62
411.355	688.62
411.578	656.62
411.802	613.62
412.025	590.62
412.249	604.62
412.472	635.62
412.695	676.62
412.919	650.62
413.142	626.62
413.365	600.62
413.589	591.62
413.812	592.62
414.035	580.62
414.258	589.62
414.482	584.62
414.705	571.62
414.928	591.62
415.151	587.62
415.374	568.62
415.597	564.62
415.821	575.62
416.044	564.62
416.267	564.62
416.49	578.62
416.713	535.62
416.936	555.62
417.159	582.62
417.382	570.62
417.605	576.62
417.828	586.62
418.051	600.62
418.274	583.62
418.497	556.62
418.72	560.62
418.943	558.62
419.166	595.62
419.389	615.62
419.611	616.62
419.834	601.62
420.057	591.62
420.28	604.62
420.503	558.62
420.726	608.62
420.948	629.62
421.171	666.62
421.394	684.62
421.617	630.62
421.839	572.62
422.062	600.62
422.285	586.62
422.507	657.62
422.73	758.62
422.953	723.62
423.175	636.62
423.398	627.62
423.621	625.62
423.843	625.62
424.066	623.62
424.288	639.62
424.511	643.62
424.733	702.62
424.956	775.62
425.178	737.62
425.401	740.62
425.623	791.62
425.846	681.62
426.068	642.62
426.291	609.62
426.513	648.62
426.735	626.62
426.958	668.62
427.18	771.62
427.402	883.62
427.625	946.62
427.847	884.62
428.069	758.62
428.292	676.62
428.514	623.62
428.736	588.62
428.958	594.62
429.181	579.62
429.403	588.62
429.625	584.62
429.847	635.62
430.069	682.62
430.292	688.62
430.514	591.62
430.736	567.62
430.958	572.62
431.18	563.62
431.402	554.62
431.624	571.62
431.846	560.62
432.068	541.62
432.29	540.62
432.512	554.62
432.734	576.62
432.956	563.62
433.178	573.62
433.4	579.62
433.622	551.62
433.844	555.62
434.066	568.62
434.287	523.62
434.509	546.62
434.731	581.62
434.953	583.62
435.175	579.62
435.397	635.62
435.618	632.62
435.84	647.62
436.062	745.62
436.284	840.62
436.505	704.62
436.727	622.62
436.949	589.62
437.17	597.62
437.392	587.62
437.614	590.62
437.835	620.62
438.057	712.62
438.278	820.62
438.5	819.62
438.721	900.62
438.943	854.62
439.165	678.62
439.386	672.62
439.608	640.62
439.829	631.62
440.05	655.62
440.272	698.62
440.493	671.62
440.715	606.62
440.936	602.62
441.158	589.62
441.379	572.62
441.6	592.62
441.822	590.62
442.043	655.62
442.264	739.62
442.486	793.62
442.707	671.62
442.928	642.62
443.149	668.62
443.371	672.62
443.592	711.62
443.813	806.62
444.034	886.62
444.255	720.62
444.476	646.62
444.698	630.62
444.919	639.62
445.14	752.62
445.361	712.62
445.582	696.62
445.803	745.62
446.024	851.62
446.245	858.62
446.466	758.62
446.687	675.62
446.908	615.62
447.129	596.62
447.35	587.62
447.571	591.62
447.792	575.62
448.013	601.62
448.234	605.62
448.455	621.62
448.675	774.62
448.896	866.62
449.117	739.62
449.338	696.62
449.559	821.62
449.779	926.62
450	735.62
450.221	623.62
450.442	571.62
450.662	571.62
450.883	569.62
451.104	572.62
451.324	573.62
451.545	557.62
451.766	532.62
451.986	523.62
452.207	523.62
452.428	520.62
452.648	527.62
452.869	498.62
453.089	535.62
453.31	566.62
453.53	516.62
453.751	509.62
453.971	514.62
454.192	550.62
454.412	515.62
454.633	514.62
454.853	512.62
455.073	505.62
455.294	561.62
455.514	596.62
455.734	588.62
455.955	523.62
456.175	512.62
456.395	499.62
456.616	486.62
456.836	503.62
457.056	509.62
457.276	478.62
457.497	508.62
457.717	484.62
457.937	502.62
458.157	509.62
458.377	510.62
458.598	533.62
458.818	588.62
459.038	653.62
459.258	690.62
459.478	626.62
459.698	567.62
459.918	570.62
460.138	562.62
460.358	571.62
460.578	571.62
460.798	590.62
461.018	583.62
461.238	575.62
461.458	595.62
461.678	573.62
461.898	555.62
462.118	580.62
462.338	602.62
462.558	596.62
462.777	613.62
462.997	646.62
463.217	660.62
463.437	678.62
463.657	626.62
463.876	628.62
464.096	630.62
464.316	637.62
464.536	620.62
464.755	640.62
464.975	626.62
465.195	659.62
465.414	730.62
465.634	653.62
465.854	598.62
466.073	594.62
466.293	568.62
466.512	533.62
466.732	539.62
466.951	556.62
467.171	530.62
467.391	528.62
467.61	544.62
467.829	555.62
468.049	576.62
468.268	526.62
468.488	536.62
468.707	555.62
468.927	525.62
469.146	527.62
469.365	527.62
469.585	526.62
469.804	536.62
470.023	548.62
470.243	557.62
470.462	558.62
470.681	576.62
470.901	558.62
471.12	531.62
471.339	552.62
471.558	559.62
471.777	552.62
471.997	534.62
472.216	548.62
472.435	580.62
472.654	552.62
472.873	550.62
473.092	552.62
473.311	543.62
473.53	532.62
473.749	549.62
473.968	598.62
474.187	672.62
474.406	685.62
474.625	588.62
474.844	549.62
475.063	538.62
475.282	539.62
475.501	538.62
475.72	561.62
475.939	559.62
476.158	558.62
476.377	547.62
476.596	539.62
476.814	548.62
477.033	577.62
477.252	592.62
477.471	552.62
477.69	591.62
477.908	615.62
478.127	603.62
478.346	582.62
478.564	600.62
478.783	627.62
479.002	624.62
479.22	613.62
479.439	607.62
479.658	634.62
479.876	681.62
480.095	636.62
480.313	702.62
480.532	672.62
480.751	678.62
480.969	673.62
481.188	717.62
481.406	777.62
481.624	683.62
481.843	661.62
482.061	658.62
482.28	642.62
482.498	605.62
482.717	634.62
482.935	662.62
483.153	630.62
483.372	661.62
483.59	654.62
483.808	626.62
484.027	645.62
484.245	642.62
484.463	655.62
484.681	648.62
484.9	664.62
485.118	662.62
485.336	665.62
485.554	658.62
485.772	655.62
485.99	647.62
486.209	657.62
486.427	658.62
486.645	696.62
486.863	695.62
487.081	677.62
487.299	664.62
487.517	662.62
487.735	682.62
487.953	675.62
488.171	699.62
488.389	676.62
488.607	671.62
488.825	666.62
489.043	684.62
489.261	682.62
489.479	684.62
489.696	696.62
489.914	686.62
490.132	709.62
490.35	711.62
490.568	701.62
490.786	707.62
491.003	749.62
491.221	730.62
491.439	751.62
491.657	758.62
491.874	755.62
492.092	791.62
492.31	742.62
492.527	781.62
492.745	776.62
492.963	799.62
493.18	763.62
493.398	795.62
493.615	781.62
493.833	799.62
494.05	797.62
494.268	794.62
494.485	752.62
494.703	808.62
494.92	791.62
495.138	796.62
495.355	814.62
495.573	791.62
495.79	807.62
496.008	813.62
496.225	794.62
496.442	795.62
496.66	788.62
496.877	810.62
497.094	783.62
497.312	797.62
497.529	815.62
497.746	848.62
497.963	867.62
498.181	876.62
498.398	905.62
498.615	910.62
498.832	956.62
499.049	981.62
499.267	995.62
499.484	1003.62
499.701	1064.62
499.918	1130.62
500.135	1190.62
500.352	1229.62
500.569	1279.62
500.786	1275.62
501.003	1249.62
501.22	1186.62
501.437	1163.62
501.654	1096.62
501.871	1078.62
