Data from 1979.PennyLincolnUp.Lamp.En5.5.200Scan.071719.P1_HRD10591_16-20-10-863.txt Node
Date: Thu Jul 18 16:20:10 EDT 2019
User: cochatt
Spectrometer: HR+D1059
Trigger mode: 1
Integration Time (sec): 1.000000E-1
Scans to average: 1
Electric dark correction enabled: true
Nonlinearity correction enabled: false
Boxcar width: 0
XAxis mode: Wavelengths
Number of Pixels in Spectrum: 2048
>>>>>Begin Spectral Data<<<<<
223.165	-23.5
223.4	-23.5
223.635	-23.5
223.869	-23.5
224.104	-15.5
224.338	-13.5
224.573	-8.5
224.808	-19.5
225.042	-9.5
225.277	-16.5
225.511	-2.5
225.746	4.5
225.98	11.5
226.215	12.5
226.449	9.5
226.683	31.5
226.918	26.5
227.152	36.5
227.387	47.5
227.621	41.5
227.856	48.5
228.09	41.5
228.324	53.5
228.559	61.5
228.793	71.5
229.027	98.5
229.262	120.5
229.496	125.5
229.73	133.5
229.964	144.5
230.199	130.5
230.433	116.5
230.667	98.5
230.901	106.5
231.136	133.5
231.37	120.5
231.604	113.5
231.838	122.5
232.072	119.5
232.306	113.5
232.541	116.5
232.775	109.5
233.009	107.5
233.243	127.5
233.477	112.5
233.711	108.5
233.945	117.5
234.179	110.5
234.413	124.5
234.647	118.5
234.881	118.5
235.115	123.5
235.349	122.5
235.583	109.5
235.817	116.5
236.051	120.5
236.285	138.5
236.519	135.5
236.753	129.5
236.987	149.5
237.221	177.5
237.455	221.5
237.689	177.5
237.922	149.5
238.156	146.5
238.39	127.5
238.624	126.5
238.858	137.5
239.091	138.5
239.325	134.5
239.559	113.5
239.793	140.5
240.027	132.5
240.26	141.5
240.494	146.5
240.728	152.5
240.961	153.5
241.195	162.5
241.429	137.5
241.662	135.5
241.896	127.5
242.13	133.5
242.363	147.5
242.597	135.5
242.83	143.5
243.064	142.5
243.298	140.5
243.531	147.5
243.765	137.5
243.998	154.5
244.232	134.5
244.465	155.5
244.699	142.5
244.932	136.5
245.166	167.5
245.399	146.5
245.633	168.5
245.866	149.5
246.099	154.5
246.333	135.5
246.566	158.5
246.8	154.5
247.033	167.5
247.266	153.5
247.5	156.5
247.733	177.5
247.966	175.5
248.2	180.5
248.433	163.5
248.666	174.5
248.899	180.5
249.133	213.5
249.366	191.5
249.599	196.5
249.832	192.5
250.066	190.5
250.299	183.5
250.532	186.5
250.765	218.5
250.998	205.5
251.231	217.5
251.465	192.5
251.698	211.5
251.931	225.5
252.164	193.5
252.397	203.5
252.63	209.5
252.863	174.5
253.096	199.5
253.329	213.5
253.562	230.5
253.795	233.5
254.028	215.5
254.261	219.5
254.494	208.5
254.727	246.5
254.96	276.5
255.193	283.5
255.426	230.5
255.659	220.5
255.892	219.5
256.124	213.5
256.357	237.5
256.59	212.5
256.823	225.5
257.056	215.5
257.289	209.5
257.521	218.5
257.754	206.5
257.987	211.5
258.22	208.5
258.452	231.5
258.685	203.5
258.918	225.5
259.151	225.5
259.383	224.5
259.616	216.5
259.849	211.5
260.081	226.5
260.314	248.5
260.547	234.5
260.779	246.5
261.012	237.5
261.244	220.5
261.477	201.5
261.71	218.5
261.942	232.5
262.175	234.5
262.407	214.5
262.64	224.5
262.872	216.5
263.105	230.5
263.337	219.5
263.57	219.5
263.802	214.5
264.035	220.5
264.267	221.5
264.499	213.5
264.732	220.5
264.964	224.5
265.197	219.5
265.429	209.5
265.661	203.5
265.894	210.5
266.126	222.5
266.358	217.5
266.591	242.5
266.823	237.5
267.055	230.5
267.287	230.5
267.52	226.5
267.752	240.5
267.984	213.5
268.216	224.5
268.448	219.5
268.681	231.5
268.913	237.5
269.145	255.5
269.377	288.5
269.609	264.5
269.841	252.5
270.073	261.5
270.306	284.5
270.538	292.5
270.77	282.5
271.002	289.5
271.234	286.5
271.466	270.5
271.698	282.5
271.93	297.5
272.162	319.5
272.394	295.5
272.626	274.5
272.858	270.5
273.09	275.5
273.322	279.5
273.553	257.5
273.785	257.5
274.017	260.5
274.249	262.5
274.481	281.5
274.713	265.5
274.945	268.5
275.176	286.5
275.408	263.5
275.64	248.5
275.872	270.5
276.104	284.5
276.335	271.5
276.567	284.5
276.799	280.5
277.031	316.5
277.262	301.5
277.494	334.5
277.726	296.5
277.957	280.5
278.189	262.5
278.421	265.5
278.652	286.5
278.884	271.5
279.115	278.5
279.347	267.5
279.579	253.5
279.81	271.5
280.042	269.5
280.273	272.5
280.505	261.5
280.736	278.5
280.968	271.5
281.199	283.5
281.431	267.5
281.662	289.5
281.894	262.5
282.125	284.5
282.356	286.5
282.588	318.5
282.819	319.5
283.051	281.5
283.282	263.5
283.513	269.5
283.745	274.5
283.976	291.5
284.207	294.5
284.439	311.5
284.67	276.5
284.901	259.5
285.132	274.5
285.364	297.5
285.595	282.5
285.826	292.5
286.057	282.5
286.288	296.5
286.52	299.5
286.751	285.5
286.982	289.5
287.213	276.5
287.444	292.5
287.675	305.5
287.906	301.5
288.138	319.5
288.369	317.5
288.6	310.5
288.831	311.5
289.062	299.5
289.293	299.5
289.524	300.5
289.755	294.5
289.986	287.5
290.217	293.5
290.448	303.5
290.679	299.5
290.91	304.5
291.141	302.5
291.371	295.5
291.602	295.5
291.833	305.5
292.064	303.5
292.295	279.5
292.526	296.5
292.757	305.5
292.987	295.5
293.218	317.5
293.449	288.5
293.68	278.5
293.91	300.5
294.141	302.5
294.372	293.5
294.603	287.5
294.833	283.5
295.064	305.5
295.295	281.5
295.525	309.5
295.756	305.5
295.987	316.5
296.217	322.5
296.448	325.5
296.679	335.5
296.909	281.5
297.14	326.5
297.37	319.5
297.601	317.5
297.831	308.5
298.062	301.5
298.292	316.5
298.523	330.5
298.753	327.5
298.984	324.5
299.214	317.5
299.445	333.5
299.675	314.5
299.905	316.5
300.136	320.5
300.366	329.5
300.597	320.5
300.827	335.5
301.057	334.5
301.288	331.5
301.518	338.5
301.748	345.5
301.979	328.5
302.209	338.5
302.439	344.5
302.669	329.5
302.9	351.5
303.13	320.5
303.36	347.5
303.59	336.5
303.82	336.5
304.051	358.5
304.281	332.5
304.511	329.5
304.741	333.5
304.971	341.5
305.201	327.5
305.431	349.5
305.661	336.5
305.891	348.5
306.121	333.5
306.352	357.5
306.582	335.5
306.812	342.5
307.042	346.5
307.272	341.5
307.502	356.5
307.731	344.5
307.961	342.5
308.191	341.5
308.421	346.5
308.651	332.5
308.881	346.5
309.111	364.5
309.341	339.5
309.571	358.5
309.8	364.5
310.03	366.5
310.26	365.5
310.49	365.5
310.72	385.5
310.949	390.5
311.179	420.5
311.409	378.5
311.639	386.5
311.868	374.5
312.098	404.5
312.328	392.5
312.557	397.5
312.787	432.5
313.017	405.5
313.246	419.5
313.476	369.5
313.706	364.5
313.935	386.5
314.165	409.5
314.394	383.5
314.624	408.5
314.853	389.5
315.083	403.5
315.312	368.5
315.542	377.5
315.771	390.5
316.001	366.5
316.23	384.5
316.46	384.5
316.689	389.5
316.919	404.5
317.148	378.5
317.377	385.5
317.607	390.5
317.836	385.5
318.065	393.5
318.295	367.5
318.524	379.5
318.753	379.5
318.983	383.5
319.212	396.5
319.441	392.5
319.67	393.5
319.9	386.5
320.129	384.5
320.358	393.5
320.587	372.5
320.816	391.5
321.046	411.5
321.275	410.5
321.504	394.5
321.733	432.5
321.962	420.5
322.191	412.5
322.42	428.5
322.649	433.5
322.878	458.5
323.108	486.5
323.337	474.5
323.566	505.5
323.795	504.5
324.024	546.5
324.253	683.5
324.482	981.5
324.71	1465.5
324.939	2175.5
325.168	1880.5
325.397	960.5
325.626	663.5
325.855	545.5
326.084	506.5
326.313	502.5
326.542	502.5
326.77	540.5
326.999	612.5
327.228	861.5
327.457	1332.5
327.686	1665.5
327.914	1060.5
328.143	716.5
328.372	619.5
328.6	577.5
328.829	560.5
329.058	561.5
329.287	581.5
329.515	547.5
329.744	524.5
329.972	530.5
330.201	534.5
330.43	560.5
330.658	600.5
330.887	584.5
331.115	585.5
331.344	535.5
331.572	514.5
331.801	492.5
332.03	511.5
332.258	487.5
332.486	488.5
332.715	463.5
332.943	459.5
333.172	483.5
333.4	473.5
333.629	493.5
333.857	501.5
334.085	508.5
334.314	535.5
334.542	562.5
334.771	589.5
334.999	505.5
335.227	470.5
335.455	472.5
335.684	482.5
335.912	485.5
336.14	461.5
336.369	465.5
336.597	474.5
336.825	467.5
337.053	464.5
337.281	469.5
337.51	466.5
337.738	449.5
337.966	458.5
338.194	466.5
338.422	455.5
338.65	457.5
338.878	456.5
339.106	442.5
339.334	455.5
339.562	449.5
339.79	440.5
340.018	473.5
340.246	442.5
340.474	437.5
340.702	445.5
340.93	437.5
341.158	441.5
341.386	442.5
341.614	437.5
341.842	456.5
342.07	442.5
342.298	444.5
342.526	453.5
342.754	416.5
342.981	429.5
343.209	415.5
343.437	428.5
343.665	465.5
343.893	437.5
344.12	470.5
344.348	465.5
344.576	459.5
344.804	459.5
345.031	470.5
345.259	454.5
345.487	459.5
345.714	440.5
345.942	432.5
346.17	445.5
346.397	446.5
346.625	430.5
346.853	434.5
347.08	438.5
347.308	441.5
347.535	463.5
347.763	458.5
347.99	445.5
348.218	449.5
348.445	467.5
348.673	463.5
348.9	426.5
349.128	422.5
349.355	432.5
349.583	430.5
349.81	406.5
350.037	425.5
350.265	427.5
350.492	411.5
350.72	431.5
350.947	433.5
351.174	453.5
351.402	456.5
351.629	428.5
351.856	412.5
352.083	439.5
352.311	442.5
352.538	455.5
352.765	447.5
352.992	449.5
353.22	424.5
353.447	420.5
353.674	421.5
353.901	421.5
354.128	408.5
354.355	417.5
354.583	397.5
354.81	420.5
355.037	420.5
355.264	393.5
355.491	402.5
355.718	399.5
355.945	415.5
356.172	425.5
356.399	424.5
356.626	406.5
356.853	414.5
357.08	416.5
357.307	412.5
357.534	423.5
357.761	428.5
357.988	428.5
358.215	422.5
358.441	414.5
358.668	430.5
358.895	421.5
359.122	393.5
359.349	429.5
359.576	432.5
359.802	445.5
360.029	477.5
360.256	506.5
360.483	460.5
360.709	448.5
360.936	442.5
361.163	441.5
361.39	456.5
361.616	446.5
361.843	442.5
362.07	428.5
362.296	451.5
362.523	425.5
362.749	447.5
362.976	422.5
363.203	429.5
363.429	432.5
363.656	411.5
363.882	424.5
364.109	416.5
364.335	432.5
364.562	441.5
364.788	411.5
365.015	439.5
365.241	429.5
365.468	428.5
365.694	440.5
365.92	441.5
366.147	423.5
366.373	412.5
366.599	424.5
366.826	424.5
367.052	434.5
367.278	427.5
367.505	410.5
367.731	424.5
367.957	414.5
368.184	426.5
368.41	420.5
368.636	435.5
368.862	446.5
369.089	442.5
369.315	443.5
369.541	432.5
369.767	444.5
369.993	428.5
370.219	446.5
370.445	412.5
370.672	416.5
370.898	430.5
371.124	440.5
371.35	456.5
371.576	434.5
371.802	424.5
372.028	432.5
372.254	431.5
372.48	440.5
372.706	429.5
372.932	448.5
373.158	433.5
373.384	461.5
373.61	428.5
373.835	436.5
374.061	436.5
374.287	439.5
374.513	441.5
374.739	446.5
374.965	455.5
375.191	431.5
375.416	433.5
375.642	413.5
375.868	455.5
376.094	422.5
376.319	428.5
376.545	423.5
376.771	433.5
376.997	430.5
377.222	440.5
377.448	438.5
377.674	437.5
377.899	424.5
378.125	440.5
378.35	437.5
378.576	424.5
378.802	418.5
379.027	425.5
379.253	430.5
379.478	451.5
379.704	452.5
379.929	434.5
380.155	416.5
380.38	420.5
380.606	439.5
380.831	440.5
381.057	428.5
381.282	443.5
381.507	444.5
381.733	436.5
381.958	431.5
382.184	440.5
382.409	441.5
382.634	456.5
382.86	448.5
383.085	463.5
383.31	457.5
383.535	455.5
383.761	445.5
383.986	463.5
384.211	472.5
384.436	469.5
384.662	483.5
384.887	475.5
385.112	481.5
385.337	474.5
385.562	452.5
385.787	477.5
386.013	492.5
386.238	492.5
386.463	497.5
386.688	501.5
386.913	494.5
387.138	495.5
387.363	493.5
387.588	503.5
387.813	475.5
388.038	484.5
388.263	483.5
388.488	504.5
388.713	474.5
388.938	480.5
389.163	482.5
389.387	495.5
389.612	469.5
389.837	510.5
390.062	489.5
390.287	504.5
390.512	464.5
390.736	478.5
390.961	499.5
391.186	486.5
391.411	498.5
391.636	520.5
391.86	500.5
392.085	516.5
392.31	522.5
392.534	498.5
392.759	500.5
392.984	520.5
393.208	486.5
393.433	480.5
393.658	486.5
393.882	508.5
394.107	532.5
394.331	508.5
394.556	502.5
394.78	503.5
395.005	484.5
395.229	513.5
395.454	521.5
395.678	536.5
395.903	532.5
396.127	524.5
396.352	538.5
396.576	534.5
396.801	502.5
397.025	513.5
397.249	505.5
397.474	526.5
397.698	523.5
397.922	551.5
398.147	580.5
398.371	546.5
398.595	564.5
398.82	549.5
399.044	582.5
399.268	583.5
399.492	618.5
399.717	655.5
399.941	694.5
400.165	718.5
400.389	716.5
400.613	646.5
400.837	615.5
401.062	590.5
401.286	571.5
401.51	560.5
401.734	572.5
401.958	586.5
402.182	576.5
402.406	604.5
402.63	609.5
402.854	592.5
403.078	613.5
403.302	604.5
403.526	604.5
403.75	599.5
403.974	616.5
404.198	598.5
404.422	594.5
404.645	623.5
404.869	617.5
405.093	640.5
405.317	712.5
405.541	732.5
405.765	669.5
405.988	630.5
406.212	628.5
406.436	665.5
406.66	673.5
406.883	657.5
407.107	687.5
407.331	727.5
407.555	807.5
407.778	796.5
408.002	742.5
408.226	676.5
408.449	701.5
408.673	680.5
408.896	680.5
409.12	728.5
409.344	682.5
409.567	643.5
409.791	643.5
410.014	615.5
410.238	616.5
410.461	620.5
410.685	644.5
410.908	635.5
411.132	646.5
411.355	683.5
411.578	665.5
411.802	605.5
412.025	622.5
412.249	640.5
412.472	638.5
412.695	698.5
412.919	668.5
413.142	636.5
413.365	608.5
413.589	622.5
413.812	576.5
414.035	570.5
414.258	583.5
414.482	580.5
414.705	575.5
414.928	557.5
415.151	588.5
415.374	578.5
415.597	565.5
415.821	577.5
416.044	555.5
416.267	564.5
416.49	580.5
416.713	601.5
416.936	561.5
417.159	575.5
417.382	599.5
417.605	555.5
417.828	600.5
418.051	589.5
418.274	590.5
418.497	536.5
418.72	564.5
418.943	588.5
419.166	604.5
419.389	640.5
419.611	602.5
419.834	604.5
420.057	607.5
420.28	600.5
420.503	601.5
420.726	598.5
420.948	597.5
421.171	668.5
421.394	694.5
421.617	627.5
421.839	582.5
422.062	582.5
422.285	617.5
422.507	668.5
422.73	775.5
422.953	706.5
423.175	658.5
423.398	620.5
423.621	630.5
423.843	625.5
424.066	654.5
424.288	640.5
424.511	641.5
424.733	710.5
424.956	785.5
425.178	738.5
425.401	738.5
425.623	788.5
425.846	672.5
426.068	638.5
426.291	630.5
426.513	619.5
426.735	620.5
426.958	687.5
427.18	776.5
427.402	914.5
427.625	959.5
427.847	831.5
428.069	737.5
428.292	673.5
428.514	625.5
428.736	577.5
428.958	597.5
429.181	562.5
429.403	583.5
429.625	594.5
429.847	603.5
430.069	677.5
430.292	684.5
430.514	595.5
430.736	571.5
430.958	554.5
431.18	562.5
431.402	555.5
431.624	561.5
431.846	572.5
432.068	555.5
432.29	571.5
432.512	539.5
432.734	581.5
432.956	586.5
433.178	588.5
433.4	568.5
433.622	577.5
433.844	574.5
434.066	566.5
434.287	535.5
434.509	582.5
434.731	576.5
434.953	600.5
435.175	621.5
435.397	638.5
435.618	621.5
435.84	664.5
436.062	753.5
436.284	834.5
436.505	714.5
436.727	622.5
436.949	573.5
437.17	580.5
437.392	612.5
437.614	609.5
437.835	645.5
438.057	721.5
438.278	826.5
438.5	824.5
438.721	900.5
438.943	861.5
439.165	682.5
439.386	625.5
439.608	634.5
439.829	620.5
440.05	655.5
440.272	693.5
440.493	665.5
440.715	634.5
440.936	598.5
441.158	588.5
441.379	603.5
441.6	613.5
441.822	639.5
442.043	684.5
442.264	746.5
442.486	784.5
442.707	676.5
442.928	650.5
443.149	639.5
443.371	661.5
443.592	706.5
443.813	809.5
444.034	881.5
444.255	722.5
444.476	649.5
444.698	680.5
444.919	652.5
445.14	757.5
445.361	694.5
445.582	691.5
445.803	746.5
446.024	842.5
446.245	863.5
446.466	778.5
446.687	655.5
446.908	642.5
447.129	613.5
447.35	594.5
447.571	567.5
447.792	554.5
448.013	591.5
448.234	589.5
448.455	638.5
448.675	787.5
448.896	889.5
449.117	739.5
449.338	698.5
449.559	819.5
449.779	919.5
450	742.5
450.221	637.5
450.442	574.5
450.662	572.5
450.883	589.5
451.104	609.5
451.324	582.5
451.545	555.5
451.766	552.5
451.986	521.5
452.207	509.5
452.428	518.5
452.648	506.5
452.869	531.5
453.089	530.5
453.31	551.5
453.53	527.5
453.751	545.5
453.971	526.5
454.192	544.5
454.412	522.5
454.633	551.5
454.853	512.5
455.073	521.5
455.294	555.5
455.514	598.5
455.734	598.5
455.955	500.5
456.175	510.5
456.395	496.5
456.616	471.5
456.836	504.5
457.056	486.5
457.276	485.5
457.497	505.5
457.717	501.5
457.937	480.5
458.157	500.5
458.377	503.5
458.598	548.5
458.818	592.5
459.038	694.5
459.258	684.5
459.478	609.5
459.698	576.5
459.918	567.5
460.138	599.5
460.358	570.5
460.578	597.5
460.798	594.5
461.018	593.5
461.238	584.5
461.458	594.5
461.678	566.5
461.898	590.5
462.118	592.5
462.338	597.5
462.558	609.5
462.777	602.5
462.997	632.5
463.217	658.5
463.437	654.5
463.657	654.5
463.876	632.5
464.096	635.5
464.316	590.5
464.536	642.5
464.755	639.5
464.975	638.5
465.195	680.5
465.414	728.5
465.634	636.5
465.854	610.5
466.073	599.5
466.293	576.5
466.512	545.5
466.732	543.5
466.951	551.5
467.171	531.5
467.391	537.5
467.61	555.5
467.829	583.5
468.049	562.5
468.268	566.5
468.488	540.5
468.707	521.5
468.927	539.5
469.146	512.5
469.365	532.5
469.585	541.5
469.804	528.5
470.023	539.5
470.243	542.5
470.462	556.5
470.681	585.5
470.901	553.5
471.12	584.5
471.339	546.5
471.558	566.5
471.777	534.5
471.997	536.5
472.216	554.5
472.435	610.5
472.654	608.5
472.873	558.5
473.092	532.5
473.311	543.5
473.53	542.5
473.749	560.5
473.968	590.5
474.187	684.5
474.406	684.5
474.625	591.5
474.844	555.5
475.063	565.5
475.282	544.5
475.501	555.5
475.72	553.5
475.939	571.5
476.158	568.5
476.377	579.5
476.596	584.5
476.814	570.5
477.033	565.5
477.252	552.5
477.471	576.5
477.69	580.5
477.908	601.5
478.127	594.5
478.346	585.5
478.564	619.5
478.783	638.5
479.002	635.5
479.22	626.5
479.439	628.5
479.658	656.5
479.876	662.5
480.095	684.5
480.313	690.5
480.532	699.5
480.751	671.5
480.969	675.5
481.188	730.5
481.406	788.5
481.624	692.5
481.843	656.5
482.061	650.5
482.28	627.5
482.498	630.5
482.717	613.5
482.935	632.5
483.153	642.5
483.372	613.5
483.59	621.5
483.808	635.5
484.027	646.5
484.245	648.5
484.463	634.5
484.681	644.5
484.9	659.5
485.118	656.5
485.336	678.5
485.554	658.5
485.772	653.5
485.99	654.5
486.209	663.5
486.427	682.5
486.645	683.5
486.863	680.5
487.081	686.5
487.299	684.5
487.517	669.5
487.735	660.5
487.953	684.5
488.171	662.5
488.389	670.5
488.607	677.5
488.825	658.5
489.043	675.5
489.261	711.5
489.479	687.5
489.696	701.5
489.914	673.5
490.132	704.5
490.35	712.5
490.568	720.5
490.786	711.5
491.003	725.5
491.221	723.5
491.439	804.5
491.657	769.5
491.874	780.5
492.092	781.5
492.31	780.5
492.527	763.5
492.745	785.5
492.963	785.5
493.18	767.5
493.398	774.5
493.615	804.5
493.833	783.5
494.05	800.5
494.268	783.5
494.485	797.5
494.703	837.5
494.92	791.5
495.138	823.5
495.355	790.5
495.573	813.5
495.79	795.5
496.008	829.5
496.225	776.5
496.442	804.5
496.66	798.5
496.877	838.5
497.094	828.5
497.312	822.5
497.529	836.5
497.746	816.5
497.963	874.5
498.181	891.5
498.398	890.5
498.615	936.5
498.832	975.5
499.049	969.5
499.267	1012.5
499.484	1026.5
499.701	1092.5
499.918	1117.5
500.135	1193.5
500.352	1277.5
500.569	1280.5
500.786	1299.5
501.003	1258.5
501.22	1218.5
501.437	1138.5
501.654	1121.5
501.871	1086.5
502.088	1034.5
502.305	955.5
502.522	973.5
502.739	928.5
502.956	904.5
503.172	873.5
503.389	886.5
503.606	888.5
503.823	849.5
504.04	857.5
504.256	816.5
504.473	861.5
504.69	820.5
504.907	810.5
505.123	813.5
505.34	787.5
505.557	808.5
505.773	791.5
505.99	796.5
506.207	771.5
506.423	765.5
506.64	731.5
506.856	774.5
507.073	764.5
507.289	743.5
507.506	740.5
507.722	743.5
507.939	780.5
508.155	744.5
508.372	704.5
508.588	722.5
508.805	714.5
509.021	732.5
509.238	726.5
509.454	757.5
509.67	713.5
509.887	708.5
510.103	732.5
510.319	715.5
510.536	798.5
510.752	1312.5
510.968	1099.5
511.184	730.5
511.401	698.5
511.617	716.5
511.833	680.5
512.049	684.5
512.265	688.5
512.481	685.5
512.698	699.5
512.914	682.5
513.13	683.5
513.346	676.5
513.562	658.5
513.778	694.5
513.994	709.5
514.21	695.5
514.426	723.5
514.642	742.5
514.858	774.5
515.074	824.5
515.29	940.5
515.506	1327.5
515.721	1157.5
515.937	824.5
516.153	756.5
516.369	741.5
516.585	737.5
516.801	710.5
517.016	724.5
517.232	746.5
517.448	728.5
517.664	777.5
517.879	743.5
518.095	740.5
518.311	733.5
518.527	734.5
518.742	728.5
518.958	690.5
519.173	690.5
519.389	706.5
519.605	688.5
