Data from 1979.PennyLincolnUp.Lamp.En5.5.200Scan.071719.P1_HRD10591_16-20-07-863.txt Node
Date: Thu Jul 18 16:20:07 EDT 2019
User: cochatt
Spectrometer: HR+D1059
Trigger mode: 1
Integration Time (sec): 1.000000E-1
Scans to average: 1
Electric dark correction enabled: true
Nonlinearity correction enabled: false
Boxcar width: 0
XAxis mode: Wavelengths
Number of Pixels in Spectrum: 2048
>>>>>Begin Spectral Data<<<<<
223.165	-3.88
223.4	-3.88
223.635	-3.88
223.869	-9.88
224.104	-26.88
224.338	-13.88
224.573	-4.88
224.808	-18.88
225.042	-17.88
225.277	-3.88
225.511	-12.88
225.746	1.12
225.98	10.12
226.215	15.12
226.449	6.12
226.683	8.12
226.918	32.12
227.152	40.12
227.387	47.12
227.621	50.12
227.856	23.12
228.09	53.12
228.324	46.12
228.559	49.12
228.793	64.12
229.027	85.12
229.262	95.12
229.496	110.12
229.73	116.12
229.964	147.12
230.199	128.12
230.433	106.12
230.667	102.12
230.901	122.12
231.136	105.12
231.37	117.12
231.604	107.12
231.838	104.12
232.072	102.12
232.306	120.12
232.541	105.12
232.775	99.12
233.009	120.12
233.243	121.12
233.477	118.12
233.711	116.12
233.945	114.12
234.179	116.12
234.413	118.12
234.647	115.12
234.881	103.12
235.115	107.12
235.349	112.12
235.583	127.12
235.817	121.12
236.051	126.12
236.285	119.12
236.519	119.12
236.753	131.12
236.987	130.12
237.221	184.12
237.455	217.12
237.689	175.12
237.922	131.12
238.156	126.12
238.39	121.12
238.624	129.12
238.858	109.12
239.091	111.12
239.325	111.12
239.559	125.12
239.793	105.12
240.027	119.12
240.26	135.12
240.494	141.12
240.728	166.12
240.961	143.12
241.195	145.12
241.429	123.12
241.662	132.12
241.896	125.12
242.13	131.12
242.363	125.12
242.597	128.12
242.83	135.12
243.064	142.12
243.298	142.12
243.531	144.12
243.765	124.12
243.998	135.12
244.232	133.12
244.465	136.12
244.699	137.12
244.932	136.12
245.166	155.12
245.399	151.12
245.633	124.12
245.866	139.12
246.099	139.12
246.333	137.12
246.566	167.12
246.8	155.12
247.033	158.12
247.266	152.12
247.5	164.12
247.733	153.12
247.966	152.12
248.2	169.12
248.433	157.12
248.666	166.12
248.899	175.12
249.133	185.12
249.366	189.12
249.599	187.12
249.832	185.12
250.066	178.12
250.299	167.12
250.532	187.12
250.765	189.12
250.998	194.12
251.231	195.12
251.465	196.12
251.698	194.12
251.931	182.12
252.164	166.12
252.397	165.12
252.63	179.12
252.863	178.12
253.096	200.12
253.329	210.12
253.562	204.12
253.795	193.12
254.028	201.12
254.261	195.12
254.494	200.12
254.727	239.12
254.96	244.12
255.193	236.12
255.426	215.12
255.659	228.12
255.892	205.12
256.124	221.12
256.357	214.12
256.59	186.12
256.823	208.12
257.056	203.12
257.289	202.12
257.521	203.12
257.754	194.12
257.987	206.12
258.22	196.12
258.452	203.12
258.685	191.12
258.918	188.12
259.151	205.12
259.383	219.12
259.616	208.12
259.849	208.12
260.081	206.12
260.314	230.12
260.547	216.12
260.779	199.12
261.012	216.12
261.244	220.12
261.477	209.12
261.71	227.12
261.942	227.12
262.175	219.12
262.407	214.12
262.64	197.12
262.872	207.12
263.105	195.12
263.337	203.12
263.57	200.12
263.802	205.12
264.035	186.12
264.267	189.12
264.499	203.12
264.732	211.12
264.964	210.12
265.197	210.12
265.429	211.12
265.661	200.12
265.894	205.12
266.126	201.12
266.358	207.12
266.591	206.12
266.823	203.12
267.055	207.12
267.287	208.12
267.52	226.12
267.752	220.12
267.984	218.12
268.216	223.12
268.448	227.12
268.681	242.12
268.913	235.12
269.145	235.12
269.377	257.12
269.609	250.12
269.841	242.12
270.073	266.12
270.306	268.12
270.538	288.12
270.77	274.12
271.002	266.12
271.234	277.12
271.466	275.12
271.698	287.12
271.93	280.12
272.162	283.12
272.394	281.12
272.626	285.12
272.858	266.12
273.09	266.12
273.322	259.12
273.553	249.12
273.785	245.12
274.017	247.12
274.249	243.12
274.481	241.12
274.713	244.12
274.945	230.12
275.176	258.12
275.408	266.12
275.64	253.12
275.872	244.12
276.104	241.12
276.335	238.12
276.567	249.12
276.799	275.12
277.031	284.12
277.262	287.12
277.494	283.12
277.726	264.12
277.957	282.12
278.189	264.12
278.421	250.12
278.652	257.12
278.884	248.12
279.115	263.12
279.347	241.12
279.579	242.12
279.81	241.12
280.042	243.12
280.273	241.12
280.505	259.12
280.736	249.12
280.968	251.12
281.199	247.12
281.431	256.12
281.662	265.12
281.894	272.12
282.125	262.12
282.356	277.12
282.588	277.12
282.819	264.12
283.051	282.12
283.282	275.12
283.513	281.12
283.745	267.12
283.976	264.12
284.207	291.12
284.439	273.12
284.67	268.12
284.901	267.12
285.132	274.12
285.364	273.12
285.595	272.12
285.826	260.12
286.057	270.12
286.288	275.12
286.52	270.12
286.751	261.12
286.982	270.12
287.213	279.12
287.444	279.12
287.675	273.12
287.906	280.12
288.138	276.12
288.369	296.12
288.6	298.12
288.831	283.12
289.062	276.12
289.293	285.12
289.524	274.12
289.755	272.12
289.986	262.12
290.217	297.12
290.448	304.12
290.679	278.12
290.91	276.12
291.141	278.12
291.371	281.12
291.602	287.12
291.833	269.12
292.064	267.12
292.295	275.12
292.526	283.12
292.757	268.12
292.987	287.12
293.218	290.12
293.449	293.12
293.68	292.12
293.91	272.12
294.141	272.12
294.372	275.12
294.603	281.12
294.833	291.12
295.064	277.12
295.295	297.12
295.525	299.12
295.756	284.12
295.987	303.12
296.217	311.12
296.448	324.12
296.679	307.12
296.909	297.12
297.14	287.12
297.37	299.12
297.601	291.12
297.831	293.12
298.062	297.12
298.292	294.12
298.523	297.12
298.753	301.12
298.984	330.12
299.214	294.12
299.445	300.12
299.675	306.12
299.905	315.12
300.136	324.12
300.366	295.12
300.597	297.12
300.827	317.12
301.057	330.12
301.288	319.12
301.518	329.12
301.748	335.12
301.979	318.12
302.209	327.12
302.439	325.12
302.669	324.12
302.9	315.12
303.13	311.12
303.36	328.12
303.59	325.12
303.82	325.12
304.051	317.12
304.281	344.12
304.511	319.12
304.741	297.12
304.971	329.12
305.201	322.12
305.431	325.12
305.661	310.12
305.891	315.12
306.121	328.12
306.352	335.12
306.582	341.12
306.812	332.12
307.042	327.12
307.272	345.12
307.502	336.12
307.731	331.12
307.961	319.12
308.191	317.12
308.421	333.12
308.651	335.12
308.881	337.12
309.111	335.12
309.341	357.12
309.571	337.12
309.8	363.12
310.03	362.12
310.26	358.12
310.49	362.12
310.72	350.12
310.949	371.12
311.179	377.12
311.409	349.12
311.639	360.12
311.868	363.12
312.098	373.12
312.328	367.12
312.557	381.12
312.787	397.12
313.017	385.12
313.246	383.12
313.476	370.12
313.706	347.12
313.935	359.12
314.165	378.12
314.394	373.12
314.624	372.12
314.853	361.12
315.083	383.12
315.312	377.12
315.542	356.12
315.771	362.12
316.001	363.12
316.23	364.12
316.46	376.12
316.689	355.12
316.919	369.12
317.148	377.12
317.377	394.12
317.607	377.12
317.836	378.12
318.065	375.12
318.295	379.12
318.524	370.12
318.753	384.12
318.983	358.12
319.212	385.12
319.441	388.12
319.67	385.12
319.9	376.12
320.129	363.12
320.358	375.12
320.587	387.12
320.816	379.12
321.046	374.12
321.275	370.12
321.504	392.12
321.733	403.12
321.962	410.12
322.191	409.12
322.42	421.12
322.649	406.12
322.878	428.12
323.108	416.12
323.337	468.12
323.566	449.12
323.795	482.12
324.024	523.12
324.253	610.12
324.482	841.12
324.71	1375.12
324.939	2062.12
325.168	1797.12
325.397	882.12
325.626	593.12
325.855	499.12
326.084	471.12
326.313	457.12
326.542	488.12
326.77	516.12
326.999	590.12
327.228	832.12
327.457	1241.12
327.686	1541.12
327.914	1021.12
328.143	649.12
328.372	589.12
328.6	556.12
328.829	528.12
329.058	548.12
329.287	546.12
329.515	538.12
329.744	481.12
329.972	478.12
330.201	506.12
330.43	537.12
330.658	554.12
330.887	571.12
331.115	565.12
331.344	501.12
331.572	476.12
331.801	473.12
332.03	496.12
332.258	458.12
332.486	450.12
332.715	453.12
332.943	447.12
333.172	477.12
333.4	487.12
333.629	470.12
333.857	479.12
334.085	489.12
334.314	488.12
334.542	531.12
334.771	532.12
334.999	499.12
335.227	483.12
335.455	468.12
335.684	475.12
335.912	458.12
336.14	433.12
336.369	441.12
336.597	454.12
336.825	453.12
337.053	460.12
337.281	447.12
337.51	452.12
337.738	445.12
337.966	431.12
338.194	448.12
338.422	447.12
338.65	449.12
338.878	433.12
339.106	447.12
339.334	444.12
339.562	427.12
339.79	427.12
340.018	420.12
340.246	407.12
340.474	425.12
340.702	427.12
340.93	431.12
341.158	427.12
341.386	444.12
341.614	435.12
341.842	420.12
342.07	433.12
342.298	410.12
342.526	427.12
342.754	415.12
342.981	418.12
343.209	434.12
343.437	419.12
343.665	425.12
343.893	456.12
344.12	444.12
344.348	456.12
344.576	409.12
344.804	437.12
345.031	449.12
345.259	422.12
345.487	437.12
345.714	444.12
345.942	432.12
346.17	422.12
346.397	415.12
346.625	411.12
346.853	412.12
347.08	429.12
347.308	422.12
347.535	431.12
347.763	415.12
347.99	439.12
348.218	425.12
348.445	402.12
348.673	424.12
348.9	441.12
349.128	397.12
349.355	404.12
349.583	401.12
349.81	410.12
350.037	401.12
350.265	401.12
350.492	386.12
350.72	397.12
350.947	415.12
351.174	421.12
351.402	425.12
351.629	446.12
351.856	434.12
352.083	419.12
352.311	436.12
352.538	433.12
352.765	434.12
352.992	431.12
353.22	392.12
353.447	409.12
353.674	402.12
353.901	421.12
354.128	418.12
354.355	376.12
354.583	397.12
354.81	395.12
355.037	373.12
355.264	397.12
355.491	371.12
355.718	393.12
355.945	378.12
356.172	383.12
356.399	402.12
356.626	378.12
356.853	385.12
357.08	411.12
357.307	387.12
357.534	385.12
357.761	399.12
357.988	399.12
358.215	415.12
358.441	384.12
358.668	382.12
358.895	406.12
359.122	400.12
359.349	414.12
359.576	413.12
359.802	413.12
360.029	427.12
360.256	442.12
360.483	461.12
360.709	411.12
360.936	409.12
361.163	412.12
361.39	407.12
361.616	423.12
361.843	425.12
362.07	428.12
362.296	413.12
362.523	412.12
362.749	418.12
362.976	411.12
363.203	421.12
363.429	420.12
363.656	412.12
363.882	407.12
364.109	394.12
364.335	403.12
364.562	411.12
364.788	401.12
365.015	416.12
365.241	405.12
365.468	408.12
365.694	405.12
365.92	415.12
366.147	408.12
366.373	422.12
366.599	383.12
366.826	411.12
367.052	390.12
367.278	394.12
367.505	408.12
367.731	401.12
367.957	390.12
368.184	400.12
368.41	424.12
368.636	425.12
368.862	421.12
369.089	410.12
369.315	416.12
369.541	417.12
369.767	409.12
369.993	406.12
370.219	403.12
370.445	397.12
370.672	409.12
370.898	416.12
371.124	386.12
371.35	415.12
371.576	420.12
371.802	406.12
372.028	399.12
372.254	412.12
372.48	397.12
372.706	403.12
372.932	426.12
373.158	444.12
373.384	447.12
373.61	439.12
373.835	420.12
374.061	400.12
374.287	439.12
374.513	428.12
374.739	423.12
374.965	405.12
375.191	428.12
375.416	435.12
375.642	416.12
375.868	407.12
376.094	417.12
376.319	432.12
376.545	416.12
376.771	420.12
376.997	404.12
377.222	401.12
377.448	401.12
377.674	402.12
377.899	423.12
378.125	405.12
378.35	424.12
378.576	419.12
378.802	417.12
379.027	394.12
379.253	409.12
379.478	405.12
379.704	416.12
379.929	411.12
380.155	436.12
380.38	426.12
380.606	402.12
380.831	407.12
381.057	429.12
381.282	409.12
381.507	409.12
381.733	417.12
381.958	419.12
382.184	435.12
382.409	438.12
382.634	428.12
382.86	415.12
383.085	395.12
383.31	412.12
383.535	428.12
383.761	414.12
383.986	427.12
384.211	437.12
384.436	450.12
384.662	433.12
384.887	429.12
385.112	454.12
385.337	441.12
385.562	437.12
385.787	458.12
386.013	474.12
386.238	483.12
386.463	463.12
386.688	457.12
386.913	456.12
387.138	470.12
387.363	476.12
387.588	455.12
387.813	465.12
388.038	469.12
388.263	481.12
388.488	451.12
388.713	464.12
388.938	457.12
389.163	439.12
389.387	461.12
389.612	459.12
389.837	459.12
390.062	461.12
390.287	459.12
390.512	468.12
390.736	464.12
390.961	472.12
391.186	490.12
391.411	473.12
391.636	467.12
391.86	480.12
392.085	504.12
392.31	481.12
392.534	477.12
392.759	480.12
392.984	472.12
393.208	459.12
393.433	471.12
393.658	479.12
393.882	487.12
394.107	481.12
394.331	484.12
394.556	459.12
394.78	480.12
395.005	486.12
395.229	474.12
395.454	497.12
395.678	486.12
395.903	495.12
396.127	503.12
396.352	503.12
396.576	506.12
396.801	488.12
397.025	495.12
397.249	502.12
397.474	509.12
397.698	477.12
397.922	541.12
398.147	548.12
398.371	513.12
398.595	560.12
398.82	539.12
399.044	567.12
399.268	570.12
399.492	599.12
399.717	660.12
399.941	667.12
400.165	685.12
400.389	680.12
400.613	610.12
400.837	567.12
401.062	567.12
401.286	569.12
401.51	555.12
401.734	526.12
401.958	548.12
402.182	568.12
402.406	559.12
402.63	565.12
402.854	563.12
403.078	569.12
403.302	575.12
403.526	581.12
403.75	583.12
403.974	587.12
404.198	576.12
404.422	597.12
404.645	583.12
404.869	570.12
405.093	606.12
405.317	668.12
405.541	680.12
405.765	650.12
405.988	610.12
406.212	631.12
406.436	620.12
406.66	667.12
406.883	607.12
407.107	631.12
407.331	704.12
407.555	767.12
407.778	738.12
408.002	703.12
408.226	668.12
408.449	666.12
408.673	632.12
408.896	662.12
409.12	669.12
409.344	658.12
409.567	587.12
409.791	609.12
410.014	578.12
410.238	568.12
410.461	591.12
410.685	602.12
410.908	616.12
411.132	630.12
411.355	665.12
411.578	624.12
411.802	608.12
412.025	581.12
412.249	601.12
412.472	618.12
412.695	641.12
412.919	628.12
413.142	604.12
413.365	551.12
413.589	544.12
413.812	567.12
414.035	571.12
414.258	546.12
414.482	560.12
414.705	575.12
414.928	562.12
415.151	563.12
415.374	574.12
415.597	560.12
415.821	550.12
416.044	555.12
416.267	550.12
416.49	557.12
416.713	543.12
416.936	563.12
417.159	561.12
417.382	572.12
417.605	564.12
417.828	558.12
418.051	561.12
418.274	552.12
418.497	567.12
418.72	548.12
418.943	536.12
419.166	575.12
419.389	611.12
419.611	584.12
419.834	598.12
420.057	607.12
420.28	569.12
420.503	563.12
420.726	562.12
420.948	603.12
421.171	623.12
421.394	650.12
421.617	611.12
421.839	568.12
422.062	564.12
422.285	601.12
422.507	639.12
422.73	699.12
422.953	702.12
423.175	609.12
423.398	604.12
423.621	590.12
423.843	604.12
424.066	639.12
424.288	609.12
424.511	607.12
424.733	657.12
424.956	754.12
425.178	726.12
425.401	692.12
425.623	752.12
425.846	634.12
426.068	618.12
426.291	603.12
426.513	586.12
426.735	608.12
426.958	636.12
427.18	721.12
427.402	839.12
427.625	915.12
427.847	800.12
428.069	709.12
428.292	628.12
428.514	599.12
428.736	579.12
428.958	575.12
429.181	552.12
429.403	549.12
429.625	557.12
429.847	607.12
430.069	665.12
430.292	645.12
430.514	596.12
430.736	559.12
430.958	540.12
431.18	534.12
431.402	535.12
431.624	522.12
431.846	543.12
432.068	553.12
432.29	525.12
432.512	538.12
432.734	549.12
432.956	536.12
433.178	543.12
433.4	552.12
433.622	533.12
433.844	555.12
434.066	561.12
434.287	534.12
434.509	561.12
434.731	561.12
434.953	564.12
435.175	566.12
435.397	599.12
435.618	596.12
435.84	641.12
436.062	731.12
436.284	787.12
436.505	664.12
436.727	631.12
436.949	595.12
437.17	569.12
437.392	541.12
437.614	589.12
437.835	601.12
438.057	680.12
438.278	798.12
438.5	802.12
438.721	866.12
438.943	817.12
439.165	673.12
439.386	627.12
439.608	609.12
439.829	599.12
440.05	635.12
440.272	683.12
440.493	637.12
440.715	619.12
440.936	567.12
441.158	562.12
441.379	575.12
441.6	592.12
441.822	600.12
442.043	643.12
442.264	706.12
442.486	760.12
442.707	694.12
442.928	592.12
443.149	627.12
443.371	626.12
443.592	677.12
443.813	786.12
444.034	840.12
444.255	711.12
444.476	635.12
444.698	607.12
444.919	593.12
445.14	720.12
445.361	671.12
445.582	643.12
445.803	724.12
446.024	826.12
446.245	803.12
446.466	728.12
446.687	635.12
446.908	591.12
447.129	569.12
447.35	572.12
447.571	547.12
447.792	529.12
448.013	575.12
448.234	580.12
448.455	626.12
448.675	720.12
448.896	800.12
449.117	723.12
449.338	677.12
449.559	771.12
449.779	869.12
450	712.12
450.221	596.12
450.442	537.12
450.662	535.12
450.883	527.12
451.104	541.12
451.324	555.12
451.545	528.12
451.766	508.12
451.986	501.12
452.207	508.12
452.428	505.12
452.648	491.12
452.869	500.12
453.089	479.12
453.31	526.12
453.53	509.12
453.751	495.12
453.971	487.12
454.192	525.12
454.412	518.12
454.633	482.12
454.853	489.12
455.073	491.12
455.294	502.12
455.514	570.12
455.734	570.12
455.955	509.12
456.175	471.12
456.395	463.12
456.616	474.12
456.836	492.12
457.056	483.12
457.276	461.12
457.497	507.12
457.717	480.12
457.937	488.12
458.157	482.12
458.377	495.12
458.598	535.12
458.818	575.12
459.038	624.12
459.258	664.12
459.478	601.12
459.698	526.12
459.918	528.12
460.138	549.12
460.358	573.12
460.578	549.12
460.798	585.12
461.018	555.12
461.238	564.12
461.458	585.12
461.678	566.12
461.898	567.12
462.118	557.12
462.338	604.12
462.558	576.12
462.777	587.12
462.997	624.12
463.217	649.12
463.437	637.12
463.657	631.12
463.876	617.12
464.096	605.12
464.316	587.12
464.536	627.12
464.755	631.12
464.975	625.12
465.195	626.12
465.414	667.12
465.634	625.12
465.854	592.12
466.073	567.12
466.293	553.12
466.512	519.12
466.732	540.12
466.951	517.12
467.171	512.12
467.391	540.12
467.61	548.12
467.829	544.12
468.049	508.12
468.268	551.12
468.488	519.12
468.707	519.12
468.927	524.12
469.146	482.12
469.365	487.12
469.585	503.12
469.804	515.12
470.023	513.12
470.243	510.12
470.462	526.12
470.681	542.12
470.901	525.12
471.12	539.12
471.339	528.12
471.558	510.12
471.777	498.12
471.997	510.12
472.216	531.12
472.435	570.12
472.654	532.12
472.873	539.12
473.092	504.12
473.311	534.12
473.53	505.12
473.749	536.12
473.968	556.12
474.187	639.12
474.406	679.12
474.625	545.12
474.844	535.12
475.063	533.12
475.282	503.12
475.501	540.12
475.72	538.12
475.939	529.12
476.158	532.12
476.377	553.12
476.596	540.12
476.814	543.12
477.033	548.12
477.252	566.12
477.471	567.12
477.69	573.12
477.908	599.12
478.127	592.12
478.346	571.12
478.564	623.12
478.783	589.12
479.002	590.12
479.22	609.12
479.439	609.12
479.658	624.12
479.876	639.12
480.095	637.12
480.313	674.12
480.532	660.12
480.751	655.12
480.969	664.12
481.188	692.12
481.406	737.12
481.624	649.12
481.843	626.12
482.061	615.12
482.28	616.12
482.498	632.12
482.717	605.12
482.935	614.12
483.153	606.12
483.372	595.12
483.59	627.12
483.808	599.12
484.027	585.12
484.245	629.12
484.463	609.12
484.681	627.12
484.9	629.12
485.118	628.12
485.336	610.12
485.554	634.12
485.772	647.12
485.99	640.12
486.209	641.12
486.427	644.12
486.645	642.12
486.863	679.12
487.081	688.12
487.299	657.12
487.517	636.12
487.735	650.12
487.953	651.12
488.171	640.12
488.389	655.12
488.607	651.12
488.825	651.12
489.043	658.12
489.261	653.12
489.479	671.12
489.696	658.12
489.914	656.12
490.132	668.12
490.35	702.12
490.568	697.12
490.786	693.12
491.003	700.12
491.221	699.12
491.439	711.12
491.657	748.12
491.874	742.12
492.092	764.12
492.31	722.12
492.527	722.12
492.745	760.12
492.963	743.12
493.18	724.12
493.398	760.12
493.615	771.12
493.833	774.12
494.05	769.12
494.268	745.12
494.485	748.12
494.703	759.12
494.92	783.12
495.138	773.12
495.355	749.12
495.573	779.12
495.79	768.12
496.008	779.12
496.225	779.12
496.442	771.12
496.66	759.12
496.877	765.12
497.094	803.12
497.312	787.12
497.529	801.12
497.746	827.12
497.963	856.12
498.181	864.12
498.398	859.12
498.615	901.12
498.832	903.12
499.049	925.12
499.267	953.12
499.484	984.12
499.701	1021.12
499.918	1121.12
500.135	1132.12
500.352	1187.12
500.569	1238.12
500.786	1229.12
501.003	1214.12
501.22	1124.12
501.437	1124.12
501.654	1057.12
501.871	1058.12
