Data from 1979.PennyLincolnUp.Lamp.En5.5.200Scan.071719.P1_HRD10591_16-18-57-863.txt Node
Date: Thu Jul 18 16:18:57 EDT 2019
User: cochatt
Spectrometer: HR+D1059
Trigger mode: 1
Integration Time (sec): 1.000000E-1
Scans to average: 1
Electric dark correction enabled: true
Nonlinearity correction enabled: false
Boxcar width: 0
XAxis mode: Wavelengths
Number of Pixels in Spectrum: 2048
>>>>>Begin Spectral Data<<<<<
223.165	-5.31
223.4	-5.31
223.635	-5.31
223.869	-21.31
224.104	-21.31
224.338	-14.31
224.573	-17.31
224.808	-18.31
225.042	-3.31
225.277	-8.31
225.511	4.69
225.746	4.69
225.98	6.69
226.215	26.69
226.449	5.69
226.683	14.69
226.918	14.69
227.152	31.69
227.387	27.69
227.621	29.69
227.856	54.69
228.09	53.69
228.324	49.69
228.559	57.69
228.793	64.69
229.027	83.69
229.262	100.69
229.496	105.69
229.73	102.69
229.964	138.69
230.199	110.69
230.433	108.69
230.667	117.69
230.901	117.69
231.136	117.69
231.37	116.69
231.604	105.69
231.838	120.69
232.072	119.69
232.306	115.69
232.541	122.69
232.775	120.69
233.009	114.69
233.243	115.69
233.477	117.69
233.711	101.69
233.945	109.69
234.179	95.69
234.413	122.69
234.647	115.69
234.881	115.69
235.115	114.69
235.349	120.69
235.583	120.69
235.817	130.69
236.051	117.69
236.285	115.69
236.519	111.69
236.753	121.69
236.987	131.69
237.221	150.69
237.455	198.69
237.689	160.69
237.922	127.69
238.156	129.69
238.39	123.69
238.624	126.69
238.858	129.69
239.091	115.69
239.325	126.69
239.559	135.69
239.793	130.69
240.027	135.69
240.26	135.69
240.494	155.69
240.728	143.69
240.961	132.69
241.195	133.69
241.429	129.69
241.662	122.69
241.896	132.69
242.13	129.69
242.363	141.69
242.597	140.69
242.83	123.69
243.064	126.69
243.298	132.69
243.531	147.69
243.765	142.69
243.998	139.69
244.232	140.69
244.465	139.69
244.699	141.69
244.932	132.69
245.166	144.69
245.399	141.69
245.633	152.69
245.866	135.69
246.099	126.69
246.333	141.69
246.566	144.69
246.8	162.69
247.033	138.69
247.266	153.69
247.5	139.69
247.733	177.69
247.966	156.69
248.2	153.69
248.433	163.69
248.666	177.69
248.899	179.69
249.133	200.69
249.366	197.69
249.599	181.69
249.832	176.69
250.066	177.69
250.299	151.69
250.532	188.69
250.765	202.69
250.998	208.69
251.231	213.69
251.465	196.69
251.698	184.69
251.931	181.69
252.164	186.69
252.397	179.69
252.63	170.69
252.863	206.69
253.096	185.69
253.329	199.69
253.562	187.69
253.795	200.69
254.028	212.69
254.261	190.69
254.494	202.69
254.727	211.69
254.96	227.69
255.193	219.69
255.426	226.69
255.659	214.69
255.892	212.69
256.124	187.69
256.357	202.69
256.59	205.69
256.823	193.69
257.056	196.69
257.289	202.69
257.521	191.69
257.754	200.69
257.987	195.69
258.22	199.69
258.452	210.69
258.685	192.69
258.918	184.69
259.151	198.69
259.383	193.69
259.616	199.69
259.849	190.69
260.081	202.69
260.314	207.69
260.547	218.69
260.779	234.69
261.012	228.69
261.244	204.69
261.477	202.69
261.71	208.69
261.942	185.69
262.175	227.69
262.407	214.69
262.64	207.69
262.872	206.69
263.105	186.69
263.337	206.69
263.57	191.69
263.802	196.69
264.035	200.69
264.267	197.69
264.499	204.69
264.732	194.69
264.964	197.69
265.197	206.69
265.429	207.69
265.661	176.69
265.894	209.69
266.126	212.69
266.358	186.69
266.591	213.69
266.823	198.69
267.055	193.69
267.287	204.69
267.52	215.69
267.752	225.69
267.984	221.69
268.216	205.69
268.448	215.69
268.681	213.69
268.913	221.69
269.145	227.69
269.377	253.69
269.609	234.69
269.841	232.69
270.073	229.69
270.306	254.69
270.538	282.69
270.77	268.69
271.002	257.69
271.234	255.69
271.466	261.69
271.698	275.69
271.93	281.69
272.162	266.69
272.394	274.69
272.626	273.69
272.858	278.69
273.09	259.69
273.322	252.69
273.553	232.69
273.785	237.69
274.017	245.69
274.249	246.69
274.481	240.69
274.713	241.69
274.945	244.69
275.176	236.69
275.408	255.69
275.64	220.69
275.872	238.69
276.104	244.69
276.335	253.69
276.567	274.69
276.799	264.69
277.031	277.69
277.262	275.69
277.494	309.69
277.726	265.69
277.957	283.69
278.189	259.69
278.421	252.69
278.652	252.69
278.884	269.69
279.115	247.69
279.347	245.69
279.579	248.69
279.81	246.69
280.042	247.69
280.273	261.69
280.505	247.69
280.736	246.69
280.968	242.69
281.199	257.69
281.431	264.69
281.662	257.69
281.894	235.69
282.125	242.69
282.356	266.69
282.588	269.69
282.819	294.69
283.051	276.69
283.282	255.69
283.513	267.69
283.745	267.69
283.976	270.69
284.207	271.69
284.439	244.69
284.67	277.69
284.901	262.69
285.132	265.69
285.364	270.69
285.595	270.69
285.826	257.69
286.057	272.69
286.288	232.69
286.52	259.69
286.751	268.69
286.982	268.69
287.213	254.69
287.444	258.69
287.675	270.69
287.906	272.69
288.138	287.69
288.369	287.69
288.6	305.69
288.831	282.69
289.062	281.69
289.293	277.69
289.524	267.69
289.755	265.69
289.986	289.69
290.217	302.69
290.448	284.69
290.679	286.69
290.91	265.69
291.141	284.69
291.371	281.69
291.602	276.69
291.833	282.69
292.064	305.69
292.295	293.69
292.526	290.69
292.757	271.69
292.987	289.69
293.218	272.69
293.449	272.69
293.68	282.69
293.91	296.69
294.141	273.69
294.372	269.69
294.603	286.69
294.833	277.69
295.064	271.69
295.295	289.69
295.525	295.69
295.756	272.69
295.987	287.69
296.217	297.69
296.448	318.69
296.679	304.69
296.909	285.69
297.14	291.69
297.37	314.69
297.601	287.69
297.831	292.69
298.062	293.69
298.292	287.69
298.523	320.69
298.753	305.69
298.984	269.69
299.214	294.69
299.445	308.69
299.675	301.69
299.905	294.69
300.136	293.69
300.366	303.69
300.597	306.69
300.827	309.69
301.057	313.69
301.288	320.69
301.518	320.69
301.748	300.69
301.979	317.69
302.209	313.69
302.439	337.69
302.669	328.69
302.9	297.69
303.13	311.69
303.36	331.69
303.59	322.69
303.82	315.69
304.051	292.69
304.281	315.69
304.511	309.69
304.741	319.69
304.971	306.69
305.201	330.69
305.431	317.69
305.661	326.69
305.891	315.69
306.121	325.69
306.352	345.69
306.582	310.69
306.812	335.69
307.042	323.69
307.272	316.69
307.502	321.69
307.731	324.69
307.961	331.69
308.191	326.69
308.421	310.69
308.651	311.69
308.881	340.69
309.111	334.69
309.341	337.69
309.571	341.69
309.8	348.69
310.03	347.69
310.26	356.69
310.49	340.69
310.72	329.69
310.949	371.69
311.179	381.69
311.409	350.69
311.639	356.69
311.868	333.69
312.098	339.69
312.328	351.69
312.557	366.69
312.787	378.69
313.017	385.69
313.246	358.69
313.476	356.69
313.706	355.69
313.935	363.69
314.165	358.69
314.394	358.69
314.624	371.69
314.853	369.69
315.083	369.69
315.312	353.69
315.542	356.69
315.771	350.69
316.001	347.69
316.23	353.69
316.46	349.69
316.689	357.69
316.919	357.69
317.148	359.69
317.377	358.69
317.607	346.69
317.836	357.69
318.065	376.69
318.295	355.69
318.524	365.69
318.753	350.69
318.983	385.69
319.212	349.69
319.441	356.69
319.67	385.69
319.9	371.69
320.129	363.69
320.358	354.69
320.587	373.69
320.816	393.69
321.046	382.69
321.275	362.69
321.504	391.69
321.733	383.69
321.962	390.69
322.191	399.69
322.42	417.69
322.649	431.69
322.878	428.69
323.108	435.69
323.337	459.69
323.566	467.69
323.795	503.69
324.024	519.69
324.253	636.69
324.482	840.69
324.71	1333.69
324.939	1986.69
325.168	1689.69
325.397	829.69
325.626	595.69
325.855	503.69
326.084	474.69
326.313	458.69
326.542	478.69
326.77	507.69
326.999	590.69
327.228	785.69
327.457	1221.69
327.686	1497.69
327.914	977.69
328.143	649.69
328.372	582.69
328.6	523.69
328.829	509.69
329.058	509.69
329.287	538.69
329.515	527.69
329.744	491.69
329.972	470.69
330.201	498.69
330.43	533.69
330.658	529.69
330.887	575.69
331.115	555.69
331.344	475.69
331.572	471.69
331.801	445.69
332.03	473.69
332.258	450.69
332.486	455.69
332.715	437.69
332.943	443.69
333.172	444.69
333.4	449.69
333.629	461.69
333.857	480.69
334.085	473.69
334.314	485.69
334.542	511.69
334.771	535.69
334.999	490.69
335.227	468.69
335.455	487.69
335.684	433.69
335.912	437.69
336.14	452.69
336.369	446.69
336.597	440.69
336.825	455.69
337.053	441.69
337.281	419.69
337.51	437.69
337.738	459.69
337.966	415.69
338.194	431.69
338.422	440.69
338.65	446.69
338.878	424.69
339.106	414.69
339.334	416.69
339.562	427.69
339.79	411.69
340.018	421.69
340.246	421.69
340.474	424.69
340.702	420.69
340.93	417.69
341.158	408.69
341.386	414.69
341.614	409.69
341.842	426.69
342.07	418.69
342.298	399.69
342.526	397.69
342.754	409.69
342.981	429.69
343.209	420.69
343.437	413.69
343.665	412.69
343.893	439.69
344.12	444.69
344.348	452.69
344.576	437.69
344.804	437.69
345.031	422.69
345.259	436.69
345.487	434.69
345.714	437.69
345.942	424.69
346.17	406.69
346.397	423.69
346.625	426.69
346.853	398.69
347.08	422.69
347.308	406.69
347.535	413.69
347.763	420.69
347.99	413.69
348.218	423.69
348.445	426.69
348.673	428.69
348.9	383.69
349.128	408.69
349.355	398.69
349.583	403.69
349.81	377.69
350.037	400.69
350.265	411.69
350.492	400.69
350.72	389.69
350.947	395.69
351.174	429.69
351.402	396.69
351.629	412.69
351.856	412.69
352.083	419.69
352.311	421.69
352.538	425.69
352.765	404.69
352.992	406.69
353.22	390.69
353.447	418.69
353.674	394.69
353.901	418.69
354.128	411.69
354.355	417.69
354.583	390.69
354.81	410.69
355.037	371.69
355.264	379.69
355.491	386.69
355.718	391.69
355.945	386.69
356.172	377.69
356.399	398.69
356.626	379.69
356.853	393.69
357.08	362.69
357.307	395.69
357.534	403.69
357.761	386.69
357.988	385.69
358.215	386.69
358.441	381.69
358.668	361.69
358.895	381.69
359.122	399.69
359.349	396.69
359.576	429.69
359.802	398.69
360.029	448.69
360.256	443.69
360.483	433.69
360.709	429.69
360.936	417.69
361.163	398.69
361.39	423.69
361.616	403.69
361.843	405.69
362.07	414.69
362.296	405.69
362.523	403.69
362.749	409.69
362.976	393.69
363.203	407.69
363.429	404.69
363.656	389.69
363.882	382.69
364.109	413.69
364.335	386.69
364.562	399.69
364.788	397.69
365.015	407.69
365.241	402.69
365.468	406.69
365.694	405.69
365.92	395.69
366.147	403.69
366.373	393.69
366.599	405.69
366.826	391.69
367.052	413.69
367.278	402.69
367.505	397.69
367.731	425.69
367.957	417.69
368.184	389.69
368.41	395.69
368.636	387.69
368.862	415.69
369.089	416.69
369.315	399.69
369.541	394.69
369.767	391.69
369.993	401.69
370.219	396.69
370.445	397.69
370.672	400.69
370.898	416.69
371.124	422.69
371.35	390.69
371.576	397.69
371.802	396.69
372.028	404.69
372.254	394.69
372.48	398.69
372.706	402.69
372.932	414.69
373.158	401.69
373.384	417.69
373.61	411.69
373.835	413.69
374.061	412.69
374.287	410.69
374.513	415.69
374.739	422.69
374.965	428.69
375.191	430.69
375.416	423.69
375.642	416.69
375.868	412.69
376.094	428.69
376.319	420.69
376.545	397.69
376.771	409.69
376.997	423.69
377.222	404.69
377.448	397.69
377.674	421.69
377.899	440.69
378.125	411.69
378.35	412.69
378.576	403.69
378.802	391.69
379.027	428.69
379.253	424.69
379.478	414.69
379.704	404.69
379.929	391.69
380.155	405.69
380.38	414.69
380.606	411.69
380.831	419.69
381.057	409.69
381.282	394.69
381.507	414.69
381.733	398.69
381.958	420.69
382.184	431.69
382.409	421.69
382.634	420.69
382.86	410.69
383.085	435.69
383.31	433.69
383.535	438.69
383.761	445.69
383.986	423.69
384.211	438.69
384.436	439.69
384.662	452.69
384.887	449.69
385.112	464.69
385.337	451.69
385.562	437.69
385.787	439.69
386.013	454.69
386.238	453.69
386.463	452.69
386.688	467.69
386.913	455.69
387.138	469.69
387.363	463.69
387.588	449.69
387.813	448.69
388.038	458.69
388.263	465.69
388.488	454.69
388.713	456.69
388.938	475.69
389.163	476.69
389.387	457.69
389.612	459.69
389.837	466.69
390.062	434.69
390.287	456.69
390.512	439.69
390.736	454.69
390.961	469.69
391.186	469.69
391.411	477.69
391.636	464.69
391.86	480.69
392.085	471.69
392.31	486.69
392.534	497.69
392.759	487.69
392.984	460.69
393.208	475.69
393.433	465.69
393.658	488.69
393.882	473.69
394.107	471.69
394.331	475.69
394.556	469.69
394.78	478.69
395.005	481.69
395.229	487.69
395.454	480.69
395.678	475.69
395.903	507.69
396.127	523.69
396.352	504.69
396.576	469.69
396.801	477.69
397.025	495.69
397.249	510.69
397.474	501.69
397.698	505.69
397.922	506.69
398.147	513.69
398.371	536.69
398.595	519.69
398.82	526.69
399.044	547.69
399.268	587.69
399.492	602.69
399.717	649.69
399.941	668.69
400.165	681.69
400.389	666.69
400.613	612.69
400.837	573.69
401.062	551.69
401.286	561.69
401.51	550.69
401.734	538.69
401.958	559.69
402.182	540.69
402.406	570.69
402.63	552.69
402.854	555.69
403.078	546.69
403.302	577.69
403.526	564.69
403.75	564.69
403.974	570.69
404.198	552.69
404.422	586.69
404.645	583.69
404.869	559.69
405.093	596.69
405.317	677.69
405.541	669.69
405.765	635.69
405.988	607.69
406.212	606.69
406.436	618.69
406.66	628.69
406.883	614.69
407.107	655.69
407.331	691.69
407.555	757.69
407.778	745.69
408.002	673.69
408.226	633.69
408.449	634.69
408.673	617.69
408.896	647.69
409.12	687.69
409.344	678.69
409.567	618.69
409.791	594.69
410.014	584.69
410.238	583.69
410.461	591.69
410.685	588.69
410.908	583.69
411.132	615.69
411.355	645.69
411.578	631.69
411.802	585.69
412.025	556.69
412.249	587.69
412.472	601.69
412.695	651.69
412.919	613.69
413.142	596.69
413.365	573.69
413.589	581.69
413.812	556.69
414.035	558.69
414.258	562.69
414.482	561.69
414.705	549.69
414.928	539.69
415.151	545.69
415.374	536.69
415.597	531.69
415.821	542.69
416.044	549.69
416.267	560.69
416.49	558.69
416.713	549.69
416.936	543.69
417.159	527.69
417.382	542.69
417.605	524.69
417.828	534.69
418.051	557.69
418.274	553.69
418.497	540.69
418.72	544.69
418.943	553.69
419.166	567.69
419.389	591.69
419.611	601.69
419.834	577.69
420.057	600.69
420.28	566.69
420.503	556.69
420.726	575.69
420.948	573.69
421.171	622.69
421.394	633.69
421.617	597.69
421.839	569.69
422.062	584.69
422.285	584.69
422.507	599.69
422.73	693.69
422.953	651.69
423.175	611.69
423.398	598.69
423.621	555.69
423.843	590.69
424.066	594.69
424.288	602.69
424.511	622.69
424.733	643.69
424.956	723.69
425.178	689.69
425.401	698.69
425.623	735.69
425.846	646.69
426.068	604.69
426.291	604.69
426.513	589.69
426.735	595.69
426.958	627.69
427.18	694.69
427.402	804.69
427.625	917.69
427.847	791.69
428.069	709.69
428.292	604.69
428.514	581.69
428.736	526.69
428.958	569.69
429.181	537.69
429.403	545.69
429.625	570.69
429.847	585.69
430.069	644.69
430.292	639.69
430.514	569.69
430.736	556.69
430.958	558.69
431.18	539.69
431.402	523.69
431.624	525.69
431.846	506.69
432.068	533.69
432.29	544.69
432.512	526.69
432.734	536.69
432.956	545.69
433.178	522.69
433.4	539.69
433.622	552.69
433.844	545.69
434.066	538.69
434.287	535.69
434.509	551.69
434.731	543.69
434.953	551.69
435.175	541.69
435.397	595.69
435.618	593.69
435.84	621.69
436.062	708.69
436.284	747.69
436.505	638.69
436.727	595.69
436.949	527.69
437.17	569.69
437.392	542.69
437.614	550.69
437.835	587.69
438.057	666.69
438.278	767.69
438.5	773.69
438.721	841.69
438.943	836.69
439.165	652.69
439.386	596.69
439.608	575.69
439.829	589.69
440.05	609.69
440.272	648.69
440.493	622.69
440.715	589.69
440.936	553.69
441.158	555.69
441.379	578.69
441.6	585.69
441.822	585.69
442.043	605.69
442.264	703.69
442.486	760.69
442.707	653.69
442.928	609.69
443.149	630.69
443.371	645.69
443.592	651.69
443.813	749.69
444.034	805.69
444.255	683.69
444.476	633.69
444.698	614.69
444.919	612.69
445.14	692.69
445.361	685.69
445.582	633.69
445.803	685.69
446.024	793.69
446.245	801.69
446.466	708.69
446.687	635.69
446.908	580.69
447.129	527.69
447.35	538.69
447.571	549.69
447.792	521.69
448.013	528.69
448.234	558.69
448.455	602.69
448.675	698.69
448.896	827.69
449.117	714.69
449.338	658.69
449.559	765.69
449.779	860.69
450	677.69
450.221	565.69
450.442	517.69
450.662	533.69
450.883	530.69
451.104	529.69
451.324	548.69
451.545	519.69
451.766	502.69
451.986	500.69
452.207	504.69
452.428	498.69
452.648	490.69
452.869	504.69
453.089	513.69
453.31	511.69
453.53	490.69
453.751	494.69
453.971	519.69
454.192	505.69
454.412	505.69
454.633	492.69
454.853	465.69
455.073	483.69
455.294	516.69
455.514	571.69
455.734	548.69
455.955	485.69
456.175	482.69
456.395	471.69
456.616	482.69
456.836	492.69
457.056	468.69
457.276	462.69
457.497	458.69
457.717	482.69
457.937	475.69
458.157	482.69
458.377	475.69
458.598	516.69
458.818	563.69
459.038	634.69
459.258	641.69
459.478	580.69
459.698	550.69
459.918	551.69
460.138	543.69
460.358	543.69
460.578	575.69
460.798	569.69
461.018	586.69
461.238	579.69
461.458	553.69
461.678	526.69
461.898	583.69
462.118	546.69
462.338	580.69
462.558	587.69
462.777	597.69
462.997	615.69
463.217	609.69
463.437	629.69
463.657	605.69
463.876	621.69
464.096	602.69
464.316	582.69
464.536	595.69
464.755	585.69
464.975	606.69
465.195	624.69
465.414	675.69
465.634	613.69
465.854	566.69
466.073	526.69
466.293	527.69
466.512	519.69
466.732	509.69
466.951	495.69
467.171	497.69
467.391	531.69
467.61	528.69
467.829	551.69
468.049	538.69
468.268	525.69
468.488	516.69
468.707	513.69
468.927	512.69
469.146	489.69
469.365	493.69
469.585	497.69
469.804	489.69
470.023	533.69
470.243	534.69
470.462	526.69
470.681	547.69
470.901	528.69
471.12	534.69
471.339	535.69
471.558	534.69
471.777	526.69
471.997	525.69
472.216	519.69
472.435	552.69
472.654	523.69
472.873	526.69
473.092	501.69
473.311	514.69
473.53	531.69
473.749	523.69
473.968	555.69
474.187	625.69
474.406	651.69
474.625	564.69
474.844	533.69
475.063	526.69
475.282	528.69
475.501	521.69
475.72	517.69
475.939	526.69
476.158	543.69
476.377	541.69
476.596	531.69
476.814	536.69
477.033	533.69
477.252	550.69
477.471	527.69
477.69	567.69
477.908	562.69
478.127	587.69
478.346	566.69
478.564	587.69
478.783	585.69
479.002	590.69
479.22	592.69
479.439	627.69
479.658	604.69
479.876	614.69
480.095	623.69
480.313	665.69
480.532	657.69
480.751	631.69
480.969	653.69
481.188	685.69
481.406	691.69
481.624	654.69
481.843	629.69
482.061	630.69
482.28	617.69
482.498	613.69
482.717	570.69
482.935	604.69
483.153	587.69
483.372	608.69
483.59	621.69
483.808	594.69
484.027	613.69
484.245	601.69
484.463	619.69
484.681	625.69
484.9	621.69
485.118	618.69
485.336	622.69
485.554	603.69
485.772	628.69
485.99	619.69
486.209	659.69
486.427	637.69
486.645	623.69
486.863	652.69
487.081	654.69
487.299	654.69
487.517	630.69
487.735	643.69
487.953	654.69
488.171	645.69
488.389	641.69
488.607	641.69
488.825	635.69
489.043	649.69
489.261	653.69
489.479	637.69
489.696	638.69
489.914	681.69
490.132	669.69
490.35	667.69
490.568	646.69
490.786	652.69
491.003	678.69
491.221	689.69
491.439	739.69
491.657	709.69
491.874	695.69
492.092	706.69
492.31	722.69
492.527	731.69
492.745	726.69
492.963	719.69
493.18	720.69
493.398	747.69
493.615	740.69
493.833	755.69
494.05	738.69
494.268	727.69
494.485	761.69
494.703	747.69
494.92	739.69
495.138	760.69
495.355	750.69
495.573	758.69
495.79	757.69
496.008	760.69
496.225	757.69
496.442	755.69
496.66	755.69
496.877	743.69
497.094	786.69
497.312	795.69
497.529	784.69
497.746	793.69
497.963	799.69
498.181	859.69
498.398	860.69
498.615	893.69
498.832	892.69
499.049	904.69
499.267	935.69
499.484	998.69
499.701	1063.69
499.918	1073.69
500.135	1129.69
500.352	1178.69
500.569	1212.69
500.786	1199.69
501.003	1190.69
501.22	1166.69
501.437	1115.69
501.654	1041.69
501.871	996.69
