Data from 1979.PennyLincolnUp.Lamp.En5.5.200Scan.071719.P1_HRD10591_16-18-00-863.txt Node
Date: Thu Jul 18 16:18:00 EDT 2019
User: cochatt
Spectrometer: HR+D1059
Trigger mode: 1
Integration Time (sec): 1.000000E-1
Scans to average: 1
Electric dark correction enabled: true
Nonlinearity correction enabled: false
Boxcar width: 0
XAxis mode: Wavelengths
Number of Pixels in Spectrum: 2048
>>>>>Begin Spectral Data<<<<<
223.165	-8.88
223.4	-8.88
223.635	-8.88
223.869	-21.88
224.104	-19.88
224.338	-22.88
224.573	-23.88
224.808	-16.88
225.042	-3.88
225.277	-16.88
225.511	-5.88
225.746	1.12
225.98	19.12
226.215	25.12
226.449	10.12
226.683	34.12
226.918	22.12
227.152	29.12
227.387	42.12
227.621	43.12
227.856	43.12
228.09	43.12
228.324	47.12
228.559	57.12
228.793	67.12
229.027	87.12
229.262	107.12
229.496	90.12
229.73	112.12
229.964	145.12
230.199	123.12
230.433	119.12
230.667	109.12
230.901	117.12
231.136	113.12
231.37	100.12
231.604	105.12
231.838	105.12
232.072	126.12
232.306	115.12
232.541	105.12
232.775	121.12
233.009	120.12
233.243	114.12
233.477	103.12
233.711	115.12
233.945	125.12
234.179	123.12
234.413	122.12
234.647	111.12
234.881	120.12
235.115	121.12
235.349	113.12
235.583	109.12
235.817	123.12
236.051	118.12
236.285	113.12
236.519	123.12
236.753	129.12
236.987	125.12
237.221	148.12
237.455	190.12
237.689	171.12
237.922	143.12
238.156	134.12
238.39	135.12
238.624	124.12
238.858	141.12
239.091	111.12
239.325	103.12
239.559	130.12
239.793	125.12
240.027	122.12
240.26	124.12
240.494	153.12
240.728	139.12
240.961	138.12
241.195	130.12
241.429	129.12
241.662	128.12
241.896	113.12
242.13	131.12
242.363	142.12
242.597	128.12
242.83	137.12
243.064	149.12
243.298	136.12
243.531	145.12
243.765	134.12
243.998	144.12
244.232	154.12
244.465	148.12
244.699	145.12
244.932	146.12
245.166	143.12
245.399	141.12
245.633	154.12
245.866	155.12
246.099	135.12
246.333	137.12
246.566	159.12
246.8	153.12
247.033	144.12
247.266	142.12
247.5	153.12
247.733	153.12
247.966	174.12
248.2	169.12
248.433	157.12
248.666	172.12
248.899	162.12
249.133	174.12
249.366	181.12
249.599	185.12
249.832	172.12
250.066	158.12
250.299	165.12
250.532	184.12
250.765	184.12
250.998	202.12
251.231	210.12
251.465	186.12
251.698	201.12
251.931	180.12
252.164	195.12
252.397	176.12
252.63	189.12
252.863	189.12
253.096	207.12
253.329	203.12
253.562	189.12
253.795	202.12
254.028	202.12
254.261	193.12
254.494	207.12
254.727	229.12
254.96	231.12
255.193	229.12
255.426	216.12
255.659	198.12
255.892	199.12
256.124	214.12
256.357	214.12
256.59	210.12
256.823	196.12
257.056	192.12
257.289	202.12
257.521	183.12
257.754	201.12
257.987	189.12
258.22	183.12
258.452	185.12
258.685	192.12
258.918	191.12
259.151	210.12
259.383	211.12
259.616	193.12
259.849	191.12
260.081	201.12
260.314	219.12
260.547	211.12
260.779	205.12
261.012	206.12
261.244	197.12
261.477	200.12
261.71	204.12
261.942	202.12
262.175	220.12
262.407	201.12
262.64	201.12
262.872	203.12
263.105	197.12
263.337	219.12
263.57	208.12
263.802	204.12
264.035	192.12
264.267	199.12
264.499	207.12
264.732	216.12
264.964	197.12
265.197	190.12
265.429	209.12
265.661	198.12
265.894	203.12
266.126	208.12
266.358	208.12
266.591	201.12
266.823	204.12
267.055	200.12
267.287	209.12
267.52	207.12
267.752	198.12
267.984	218.12
268.216	210.12
268.448	219.12
268.681	222.12
268.913	209.12
269.145	229.12
269.377	249.12
269.609	237.12
269.841	225.12
270.073	236.12
270.306	237.12
270.538	278.12
270.77	264.12
271.002	250.12
271.234	249.12
271.466	277.12
271.698	269.12
271.93	259.12
272.162	270.12
272.394	263.12
272.626	266.12
272.858	251.12
273.09	257.12
273.322	242.12
273.553	248.12
273.785	226.12
274.017	246.12
274.249	235.12
274.481	241.12
274.713	223.12
274.945	238.12
275.176	242.12
275.408	257.12
275.64	235.12
275.872	261.12
276.104	241.12
276.335	247.12
276.567	247.12
276.799	281.12
277.031	273.12
277.262	260.12
277.494	293.12
277.726	266.12
277.957	262.12
278.189	233.12
278.421	248.12
278.652	243.12
278.884	265.12
279.115	259.12
279.347	257.12
279.579	253.12
279.81	236.12
280.042	247.12
280.273	248.12
280.505	230.12
280.736	258.12
280.968	272.12
281.199	253.12
281.431	233.12
281.662	261.12
281.894	239.12
282.125	253.12
282.356	246.12
282.588	291.12
282.819	273.12
283.051	273.12
283.282	249.12
283.513	252.12
283.745	259.12
283.976	271.12
284.207	270.12
284.439	263.12
284.67	277.12
284.901	252.12
285.132	253.12
285.364	270.12
285.595	265.12
285.826	256.12
286.057	267.12
286.288	272.12
286.52	279.12
286.751	268.12
286.982	259.12
287.213	239.12
287.444	269.12
287.675	271.12
287.906	284.12
288.138	291.12
288.369	275.12
288.6	267.12
288.831	268.12
289.062	261.12
289.293	263.12
289.524	261.12
289.755	262.12
289.986	266.12
290.217	274.12
290.448	279.12
290.679	279.12
290.91	270.12
291.141	275.12
291.371	270.12
291.602	279.12
291.833	249.12
292.064	281.12
292.295	254.12
292.526	263.12
292.757	277.12
292.987	271.12
293.218	261.12
293.449	283.12
293.68	286.12
293.91	270.12
294.141	271.12
294.372	260.12
294.603	278.12
294.833	265.12
295.064	269.12
295.295	280.12
295.525	278.12
295.756	269.12
295.987	283.12
296.217	302.12
296.448	297.12
296.679	281.12
296.909	281.12
297.14	294.12
297.37	295.12
297.601	300.12
297.831	292.12
298.062	290.12
298.292	297.12
298.523	311.12
298.753	279.12
298.984	288.12
299.214	294.12
299.445	297.12
299.675	294.12
299.905	289.12
300.136	301.12
300.366	307.12
300.597	296.12
300.827	314.12
301.057	289.12
301.288	312.12
301.518	309.12
301.748	305.12
301.979	328.12
302.209	297.12
302.439	296.12
302.669	313.12
302.9	311.12
303.13	298.12
303.36	310.12
303.59	317.12
303.82	323.12
304.051	315.12
304.281	305.12
304.511	299.12
304.741	303.12
304.971	318.12
305.201	322.12
305.431	304.12
305.661	320.12
305.891	306.12
306.121	313.12
306.352	324.12
306.582	321.12
306.812	333.12
307.042	313.12
307.272	337.12
307.502	336.12
307.731	325.12
307.961	313.12
308.191	314.12
308.421	312.12
308.651	332.12
308.881	322.12
309.111	331.12
309.341	317.12
309.571	338.12
309.8	334.12
310.03	334.12
310.26	323.12
310.49	337.12
310.72	365.12
310.949	352.12
311.179	348.12
311.409	348.12
311.639	345.12
311.868	329.12
312.098	358.12
312.328	347.12
312.557	362.12
312.787	368.12
313.017	370.12
313.246	363.12
313.476	339.12
313.706	339.12
313.935	351.12
314.165	343.12
314.394	354.12
314.624	373.12
314.853	354.12
315.083	364.12
315.312	367.12
315.542	342.12
315.771	343.12
316.001	316.12
316.23	335.12
316.46	353.12
316.689	353.12
316.919	337.12
317.148	363.12
317.377	354.12
317.607	361.12
317.836	361.12
318.065	338.12
318.295	363.12
318.524	341.12
318.753	343.12
318.983	364.12
319.212	363.12
319.441	357.12
319.67	357.12
319.9	369.12
320.129	355.12
320.358	333.12
320.587	347.12
320.816	363.12
321.046	370.12
321.275	374.12
321.504	361.12
321.733	392.12
321.962	386.12
322.191	368.12
322.42	383.12
322.649	403.12
322.878	394.12
323.108	420.12
323.337	404.12
323.566	414.12
323.795	448.12
324.024	482.12
324.253	581.12
324.482	793.12
324.71	1249.12
324.939	1780.12
325.168	1523.12
325.397	750.12
325.626	544.12
325.855	485.12
326.084	457.12
326.313	418.12
326.542	467.12
326.77	482.12
326.999	545.12
327.228	746.12
327.457	1131.12
327.686	1361.12
327.914	908.12
328.143	583.12
328.372	553.12
328.6	493.12
328.829	470.12
329.058	477.12
329.287	490.12
329.515	490.12
329.744	462.12
329.972	447.12
330.201	466.12
330.43	491.12
330.658	508.12
330.887	518.12
331.115	519.12
331.344	454.12
331.572	451.12
331.801	433.12
332.03	449.12
332.258	434.12
332.486	427.12
332.715	439.12
332.943	434.12
333.172	458.12
333.4	437.12
333.629	447.12
333.857	463.12
334.085	449.12
334.314	475.12
334.542	497.12
334.771	505.12
334.999	449.12
335.227	445.12
335.455	425.12
335.684	430.12
335.912	428.12
336.14	425.12
336.369	435.12
336.597	416.12
336.825	414.12
337.053	409.12
337.281	415.12
337.51	433.12
337.738	416.12
337.966	412.12
338.194	436.12
338.422	409.12
338.65	417.12
338.878	401.12
339.106	399.12
339.334	411.12
339.562	420.12
339.79	424.12
340.018	426.12
340.246	394.12
340.474	413.12
340.702	413.12
340.93	421.12
341.158	398.12
341.386	407.12
341.614	407.12
341.842	396.12
342.07	409.12
342.298	394.12
342.526	414.12
342.754	409.12
342.981	417.12
343.209	399.12
343.437	396.12
343.665	428.12
343.893	425.12
344.12	445.12
344.348	439.12
344.576	438.12
344.804	434.12
345.031	416.12
345.259	413.12
345.487	410.12
345.714	413.12
345.942	421.12
346.17	410.12
346.397	380.12
346.625	389.12
346.853	401.12
347.08	382.12
347.308	391.12
347.535	391.12
347.763	394.12
347.99	405.12
348.218	411.12
348.445	411.12
348.673	417.12
348.9	408.12
349.128	385.12
349.355	386.12
349.583	396.12
349.81	397.12
350.037	396.12
350.265	391.12
350.492	385.12
350.72	390.12
350.947	384.12
351.174	391.12
351.402	391.12
351.629	402.12
351.856	401.12
352.083	390.12
352.311	405.12
352.538	406.12
352.765	445.12
352.992	411.12
353.22	384.12
353.447	373.12
353.674	398.12
353.901	377.12
354.128	383.12
354.355	379.12
354.583	385.12
354.81	376.12
355.037	393.12
355.264	373.12
355.491	374.12
355.718	370.12
355.945	371.12
356.172	373.12
356.399	378.12
356.626	418.12
356.853	374.12
357.08	375.12
357.307	380.12
357.534	373.12
357.761	389.12
357.988	380.12
358.215	367.12
358.441	377.12
358.668	378.12
358.895	369.12
359.122	397.12
359.349	389.12
359.576	400.12
359.802	417.12
360.029	419.12
360.256	417.12
360.483	412.12
360.709	416.12
360.936	396.12
361.163	395.12
361.39	382.12
361.616	399.12
361.843	375.12
362.07	394.12
362.296	391.12
362.523	399.12
362.749	407.12
362.976	414.12
363.203	393.12
363.429	393.12
363.656	399.12
363.882	386.12
364.109	392.12
364.335	390.12
364.562	396.12
364.788	394.12
365.015	380.12
365.241	391.12
365.468	409.12
365.694	395.12
365.92	378.12
366.147	369.12
366.373	403.12
366.599	371.12
366.826	391.12
367.052	389.12
367.278	400.12
367.505	395.12
367.731	388.12
367.957	373.12
368.184	389.12
368.41	369.12
368.636	402.12
368.862	398.12
369.089	401.12
369.315	382.12
369.541	411.12
369.767	387.12
369.993	377.12
370.219	392.12
370.445	397.12
370.672	385.12
370.898	415.12
371.124	383.12
371.35	396.12
371.576	399.12
371.802	401.12
372.028	386.12
372.254	397.12
372.48	409.12
372.706	404.12
372.932	384.12
373.158	391.12
373.384	413.12
373.61	393.12
373.835	412.12
374.061	420.12
374.287	405.12
374.513	426.12
374.739	403.12
374.965	409.12
375.191	406.12
375.416	425.12
375.642	416.12
375.868	411.12
376.094	391.12
376.319	409.12
376.545	428.12
376.771	416.12
376.997	375.12
377.222	397.12
377.448	391.12
377.674	411.12
377.899	393.12
378.125	414.12
378.35	411.12
378.576	408.12
378.802	421.12
379.027	398.12
379.253	407.12
379.478	396.12
379.704	399.12
379.929	407.12
380.155	390.12
380.38	389.12
380.606	419.12
380.831	411.12
381.057	391.12
381.282	410.12
381.507	413.12
381.733	405.12
381.958	404.12
382.184	414.12
382.409	423.12
382.634	413.12
382.86	423.12
383.085	409.12
383.31	399.12
383.535	413.12
383.761	409.12
383.986	426.12
384.211	421.12
384.436	441.12
384.662	426.12
384.887	416.12
385.112	455.12
385.337	432.12
385.562	430.12
385.787	449.12
386.013	453.12
386.238	484.12
386.463	451.12
386.688	435.12
386.913	439.12
387.138	447.12
387.363	456.12
387.588	430.12
387.813	465.12
388.038	448.12
388.263	459.12
388.488	451.12
388.713	450.12
388.938	443.12
389.163	456.12
389.387	441.12
389.612	457.12
389.837	434.12
390.062	441.12
390.287	430.12
390.512	459.12
390.736	457.12
390.961	448.12
391.186	450.12
391.411	463.12
391.636	457.12
391.86	497.12
392.085	480.12
392.31	476.12
392.534	487.12
392.759	481.12
392.984	460.12
393.208	466.12
393.433	484.12
393.658	495.12
393.882	450.12
394.107	458.12
394.331	454.12
394.556	463.12
394.78	449.12
395.005	465.12
395.229	466.12
395.454	480.12
395.678	501.12
395.903	509.12
396.127	489.12
396.352	471.12
396.576	492.12
396.801	490.12
397.025	487.12
397.249	489.12
397.474	505.12
397.698	488.12
397.922	515.12
398.147	519.12
398.371	536.12
398.595	519.12
398.82	522.12
399.044	537.12
399.268	579.12
399.492	600.12
399.717	617.12
399.941	654.12
400.165	651.12
400.389	653.12
400.613	613.12
400.837	569.12
401.062	538.12
401.286	524.12
401.51	537.12
401.734	527.12
401.958	537.12
402.182	529.12
402.406	545.12
402.63	571.12
402.854	561.12
403.078	559.12
403.302	565.12
403.526	548.12
403.75	569.12
403.974	565.12
404.198	556.12
404.422	553.12
404.645	545.12
404.869	560.12
405.093	606.12
405.317	601.12
405.541	670.12
405.765	611.12
405.988	576.12
406.212	570.12
406.436	598.12
406.66	629.12
406.883	609.12
407.107	610.12
407.331	663.12
407.555	730.12
407.778	729.12
408.002	682.12
408.226	604.12
408.449	607.12
408.673	608.12
408.896	634.12
409.12	671.12
409.344	629.12
409.567	591.12
409.791	551.12
410.014	562.12
410.238	560.12
410.461	569.12
410.685	574.12
410.908	575.12
411.132	586.12
411.355	616.12
411.578	612.12
411.802	569.12
412.025	571.12
412.249	593.12
412.472	603.12
412.695	615.12
412.919	598.12
413.142	563.12
413.365	562.12
413.589	545.12
413.812	560.12
414.035	554.12
414.258	535.12
414.482	527.12
414.705	541.12
414.928	524.12
415.151	524.12
415.374	532.12
415.597	537.12
415.821	517.12
416.044	528.12
416.267	550.12
416.49	531.12
416.713	536.12
416.936	519.12
417.159	540.12
417.382	531.12
417.605	517.12
417.828	539.12
418.051	541.12
418.274	535.12
418.497	531.12
418.72	552.12
418.943	538.12
419.166	544.12
419.389	557.12
419.611	571.12
419.834	555.12
420.057	587.12
420.28	555.12
420.503	550.12
420.726	521.12
420.948	539.12
421.171	586.12
421.394	608.12
421.617	570.12
421.839	552.12
422.062	549.12
422.285	561.12
422.507	607.12
422.73	687.12
422.953	671.12
423.175	564.12
423.398	554.12
423.621	559.12
423.843	574.12
424.066	597.12
424.288	567.12
424.511	600.12
424.733	643.12
424.956	707.12
425.178	683.12
425.401	659.12
425.623	685.12
425.846	621.12
426.068	596.12
426.291	561.12
426.513	555.12
426.735	593.12
426.958	603.12
427.18	653.12
427.402	788.12
427.625	866.12
427.847	751.12
428.069	659.12
428.292	598.12
428.514	581.12
428.736	546.12
428.958	531.12
429.181	538.12
429.403	546.12
429.625	549.12
429.847	558.12
430.069	624.12
430.292	623.12
430.514	566.12
430.736	533.12
430.958	525.12
431.18	501.12
431.402	518.12
431.624	497.12
431.846	523.12
432.068	527.12
432.29	502.12
432.512	505.12
432.734	527.12
432.956	521.12
433.178	522.12
433.4	542.12
433.622	525.12
433.844	516.12
434.066	520.12
434.287	518.12
434.509	518.12
434.731	538.12
434.953	531.12
435.175	568.12
435.397	579.12
435.618	567.12
435.84	618.12
436.062	678.12
436.284	738.12
436.505	619.12
436.727	565.12
436.949	542.12
437.17	548.12
437.392	522.12
437.614	539.12
437.835	599.12
438.057	650.12
438.278	746.12
438.5	732.12
438.721	793.12
438.943	802.12
439.165	609.12
439.386	563.12
439.608	600.12
439.829	591.12
440.05	594.12
440.272	631.12
440.493	588.12
440.715	567.12
440.936	569.12
441.158	554.12
441.379	522.12
441.6	545.12
441.822	584.12
442.043	603.12
442.264	683.12
442.486	725.12
442.707	611.12
442.928	587.12
443.149	590.12
443.371	618.12
443.592	637.12
443.813	713.12
444.034	787.12
444.255	655.12
444.476	611.12
444.698	601.12
444.919	579.12
445.14	735.12
445.361	659.12
445.582	634.12
445.803	662.12
446.024	758.12
446.245	757.12
446.466	684.12
446.687	597.12
446.908	592.12
447.129	546.12
447.35	537.12
447.571	523.12
447.792	506.12
448.013	536.12
448.234	526.12
448.455	573.12
448.675	691.12
448.896	778.12
449.117	654.12
449.338	659.12
449.559	747.12
449.779	829.12
450	643.12
450.221	552.12
450.442	541.12
450.662	507.12
450.883	515.12
451.104	531.12
451.324	529.12
451.545	507.12
451.766	492.12
451.986	481.12
452.207	465.12
452.428	463.12
452.648	467.12
452.869	479.12
453.089	459.12
453.31	479.12
453.53	488.12
453.751	473.12
453.971	473.12
454.192	507.12
454.412	462.12
454.633	459.12
454.853	486.12
455.073	457.12
455.294	518.12
455.514	549.12
455.734	537.12
455.955	487.12
456.175	471.12
456.395	480.12
456.616	454.12
456.836	456.12
457.056	441.12
457.276	455.12
457.497	451.12
457.717	454.12
457.937	457.12
458.157	479.12
458.377	482.12
458.598	472.12
458.818	532.12
459.038	613.12
459.258	617.12
459.478	573.12
459.698	530.12
459.918	507.12
460.138	518.12
460.358	542.12
460.578	556.12
460.798	547.12
461.018	573.12
461.238	547.12
461.458	545.12
461.678	545.12
461.898	562.12
462.118	557.12
462.338	592.12
462.558	559.12
462.777	574.12
462.997	591.12
463.217	594.12
463.437	582.12
463.657	597.12
463.876	577.12
464.096	573.12
464.316	595.12
464.536	586.12
464.755	597.12
464.975	569.12
465.195	609.12
465.414	656.12
465.634	573.12
465.854	534.12
466.073	545.12
466.293	521.12
466.512	511.12
466.732	515.12
466.951	508.12
467.171	488.12
467.391	507.12
467.61	498.12
467.829	521.12
468.049	507.12
468.268	490.12
468.488	490.12
468.707	470.12
468.927	490.12
469.146	493.12
469.365	474.12
469.585	478.12
469.804	512.12
470.023	493.12
470.243	505.12
470.462	514.12
470.681	537.12
470.901	513.12
471.12	519.12
471.339	485.12
471.558	496.12
471.777	505.12
471.997	501.12
472.216	497.12
472.435	527.12
472.654	508.12
472.873	482.12
473.092	497.12
473.311	495.12
473.53	507.12
473.749	498.12
473.968	533.12
474.187	635.12
474.406	617.12
474.625	545.12
474.844	526.12
475.063	499.12
475.282	488.12
475.501	525.12
475.72	523.12
475.939	503.12
476.158	527.12
476.377	517.12
476.596	506.12
476.814	538.12
477.033	535.12
477.252	539.12
477.471	543.12
477.69	553.12
477.908	550.12
478.127	551.12
478.346	571.12
478.564	556.12
478.783	580.12
479.002	583.12
479.22	579.12
479.439	594.12
479.658	606.12
479.876	603.12
480.095	615.12
480.313	633.12
480.532	628.12
480.751	610.12
480.969	610.12
481.188	680.12
481.406	699.12
481.624	633.12
481.843	598.12
482.061	589.12
482.28	589.12
482.498	596.12
482.717	581.12
482.935	611.12
483.153	588.12
483.372	591.12
483.59	602.12
483.808	592.12
484.027	582.12
484.245	599.12
484.463	633.12
484.681	595.12
484.9	603.12
485.118	599.12
485.336	594.12
485.554	595.12
485.772	607.12
485.99	606.12
486.209	629.12
486.427	614.12
486.645	633.12
486.863	641.12
487.081	610.12
487.299	630.12
487.517	641.12
487.735	635.12
487.953	619.12
488.171	640.12
488.389	643.12
488.607	627.12
488.825	633.12
489.043	616.12
489.261	649.12
489.479	669.12
489.696	645.12
489.914	645.12
490.132	647.12
490.35	645.12
490.568	644.12
490.786	675.12
491.003	675.12
491.221	699.12
491.439	680.12
491.657	709.12
491.874	673.12
492.092	703.12
492.31	689.12
492.527	716.12
492.745	706.12
492.963	696.12
493.18	705.12
493.398	696.12
493.615	720.12
493.833	712.12
494.05	729.12
494.268	726.12
494.485	727.12
494.703	742.12
494.92	742.12
495.138	711.12
495.355	742.12
495.573	718.12
495.79	747.12
496.008	752.12
496.225	753.12
496.442	732.12
496.66	729.12
496.877	723.12
497.094	749.12
497.312	743.12
497.529	783.12
497.746	748.12
497.963	788.12
498.181	818.12
498.398	856.12
498.615	833.12
498.832	861.12
499.049	880.12
499.267	907.12
499.484	953.12
499.701	990.12
499.918	1065.12
500.135	1079.12
500.352	1161.12
500.569	1164.12
500.786	1195.12
501.003	1172.12
501.22	1131.12
501.437	1066.12
501.654	992.12
501.871	1004.12
