Data from 1979.PennyLincolnUp.Lamp.En5.5.200Scan.071719.P1_HRD10591_16-17-54-863.txt Node
Date: Thu Jul 18 16:17:54 EDT 2019
User: cochatt
Spectrometer: HR+D1059
Trigger mode: 1
Integration Time (sec): 1.000000E-1
Scans to average: 1
Electric dark correction enabled: true
Nonlinearity correction enabled: false
Boxcar width: 0
XAxis mode: Wavelengths
Number of Pixels in Spectrum: 2048
>>>>>Begin Spectral Data<<<<<
223.165	-10.88
223.4	-10.88
223.635	-10.88
223.869	-14.88
224.104	-21.88
224.338	-16.88
224.573	-13.88
224.808	-9.88
225.042	-6.88
225.277	-9.88
225.511	-7.88
225.746	15.12
225.98	7.12
226.215	21.12
226.449	18.12
226.683	13.12
226.918	6.12
227.152	32.12
227.387	38.12
227.621	28.12
227.856	39.12
228.09	51.12
228.324	44.12
228.559	67.12
228.793	89.12
229.027	94.12
229.262	99.12
229.496	109.12
229.73	110.12
229.964	146.12
230.199	124.12
230.433	105.12
230.667	119.12
230.901	97.12
231.136	110.12
231.37	114.12
231.604	120.12
231.838	109.12
232.072	105.12
232.306	117.12
232.541	111.12
232.775	102.12
233.009	111.12
233.243	109.12
233.477	118.12
233.711	113.12
233.945	119.12
234.179	123.12
234.413	105.12
234.647	119.12
234.881	134.12
235.115	108.12
235.349	110.12
235.583	128.12
235.817	127.12
236.051	109.12
236.285	127.12
236.519	123.12
236.753	128.12
236.987	131.12
237.221	146.12
237.455	189.12
237.689	143.12
237.922	145.12
238.156	135.12
238.39	119.12
238.624	126.12
238.858	109.12
239.091	129.12
239.325	123.12
239.559	131.12
239.793	121.12
240.027	142.12
240.26	135.12
240.494	144.12
240.728	142.12
240.961	134.12
241.195	114.12
241.429	127.12
241.662	111.12
241.896	140.12
242.13	136.12
242.363	129.12
242.597	113.12
242.83	135.12
243.064	128.12
243.298	135.12
243.531	130.12
243.765	117.12
243.998	136.12
244.232	136.12
244.465	140.12
244.699	143.12
244.932	141.12
245.166	138.12
245.399	138.12
245.633	147.12
245.866	153.12
246.099	142.12
246.333	139.12
246.566	133.12
246.8	147.12
247.033	147.12
247.266	138.12
247.5	152.12
247.733	158.12
247.966	151.12
248.2	150.12
248.433	159.12
248.666	148.12
248.899	169.12
249.133	170.12
249.366	169.12
249.599	171.12
249.832	153.12
250.066	161.12
250.299	168.12
250.532	168.12
250.765	179.12
250.998	184.12
251.231	169.12
251.465	183.12
251.698	178.12
251.931	172.12
252.164	185.12
252.397	182.12
252.63	171.12
252.863	175.12
253.096	190.12
253.329	203.12
253.562	187.12
253.795	180.12
254.028	191.12
254.261	190.12
254.494	193.12
254.727	212.12
254.96	230.12
255.193	204.12
255.426	203.12
255.659	205.12
255.892	200.12
256.124	192.12
256.357	205.12
256.59	198.12
256.823	204.12
257.056	195.12
257.289	176.12
257.521	196.12
257.754	182.12
257.987	191.12
258.22	207.12
258.452	182.12
258.685	191.12
258.918	189.12
259.151	195.12
259.383	192.12
259.616	205.12
259.849	191.12
260.081	209.12
260.314	206.12
260.547	226.12
260.779	195.12
261.012	204.12
261.244	202.12
261.477	175.12
261.71	195.12
261.942	205.12
262.175	207.12
262.407	206.12
262.64	190.12
262.872	196.12
263.105	187.12
263.337	191.12
263.57	181.12
263.802	190.12
264.035	191.12
264.267	200.12
264.499	185.12
264.732	207.12
264.964	205.12
265.197	185.12
265.429	200.12
265.661	200.12
265.894	193.12
266.126	197.12
266.358	206.12
266.591	204.12
266.823	206.12
267.055	209.12
267.287	206.12
267.52	203.12
267.752	195.12
267.984	194.12
268.216	209.12
268.448	214.12
268.681	207.12
268.913	214.12
269.145	222.12
269.377	231.12
269.609	236.12
269.841	229.12
270.073	228.12
270.306	247.12
270.538	251.12
270.77	256.12
271.002	251.12
271.234	250.12
271.466	251.12
271.698	249.12
271.93	254.12
272.162	255.12
272.394	257.12
272.626	249.12
272.858	248.12
273.09	252.12
273.322	219.12
273.553	217.12
273.785	214.12
274.017	256.12
274.249	243.12
274.481	232.12
274.713	215.12
274.945	217.12
275.176	238.12
275.408	214.12
275.64	245.12
275.872	228.12
276.104	235.12
276.335	229.12
276.567	246.12
276.799	255.12
277.031	250.12
277.262	273.12
277.494	263.12
277.726	259.12
277.957	242.12
278.189	249.12
278.421	226.12
278.652	227.12
278.884	233.12
279.115	229.12
279.347	235.12
279.579	234.12
279.81	243.12
280.042	234.12
280.273	251.12
280.505	235.12
280.736	260.12
280.968	252.12
281.199	245.12
281.431	250.12
281.662	247.12
281.894	250.12
282.125	256.12
282.356	268.12
282.588	252.12
282.819	290.12
283.051	267.12
283.282	241.12
283.513	240.12
283.745	237.12
283.976	257.12
284.207	249.12
284.439	271.12
284.67	261.12
284.901	238.12
285.132	258.12
285.364	246.12
285.595	240.12
285.826	246.12
286.057	253.12
286.288	254.12
286.52	247.12
286.751	235.12
286.982	247.12
287.213	245.12
287.444	245.12
287.675	274.12
287.906	254.12
288.138	287.12
288.369	260.12
288.6	262.12
288.831	266.12
289.062	280.12
289.293	244.12
289.524	257.12
289.755	261.12
289.986	264.12
290.217	267.12
290.448	260.12
290.679	271.12
290.91	263.12
291.141	275.12
291.371	262.12
291.602	241.12
291.833	282.12
292.064	280.12
292.295	258.12
292.526	291.12
292.757	274.12
292.987	269.12
293.218	247.12
293.449	271.12
293.68	267.12
293.91	274.12
294.141	266.12
294.372	259.12
294.603	277.12
294.833	267.12
295.064	285.12
295.295	271.12
295.525	273.12
295.756	269.12
295.987	267.12
296.217	300.12
296.448	293.12
296.679	288.12
296.909	288.12
297.14	273.12
297.37	261.12
297.601	282.12
297.831	282.12
298.062	271.12
298.292	270.12
298.523	261.12
298.753	273.12
298.984	282.12
299.214	280.12
299.445	278.12
299.675	294.12
299.905	288.12
300.136	287.12
300.366	294.12
300.597	285.12
300.827	291.12
301.057	287.12
301.288	305.12
301.518	281.12
301.748	291.12
301.979	295.12
302.209	284.12
302.439	308.12
302.669	293.12
302.9	293.12
303.13	294.12
303.36	289.12
303.59	299.12
303.82	311.12
304.051	300.12
304.281	305.12
304.511	311.12
304.741	303.12
304.971	293.12
305.201	288.12
305.431	298.12
305.661	306.12
305.891	318.12
306.121	287.12
306.352	291.12
306.582	296.12
306.812	295.12
307.042	303.12
307.272	303.12
307.502	313.12
307.731	311.12
307.961	306.12
308.191	299.12
308.421	327.12
308.651	328.12
308.881	311.12
309.111	304.12
309.341	301.12
309.571	318.12
309.8	331.12
310.03	339.12
310.26	326.12
310.49	322.12
310.72	353.12
310.949	334.12
311.179	343.12
311.409	335.12
311.639	326.12
311.868	342.12
312.098	344.12
312.328	333.12
312.557	357.12
312.787	362.12
313.017	354.12
313.246	354.12
313.476	331.12
313.706	332.12
313.935	349.12
314.165	349.12
314.394	346.12
314.624	351.12
314.853	350.12
315.083	350.12
315.312	338.12
315.542	313.12
315.771	329.12
316.001	321.12
316.23	323.12
316.46	347.12
316.689	341.12
316.919	361.12
317.148	352.12
317.377	350.12
317.607	346.12
317.836	329.12
318.065	345.12
318.295	338.12
318.524	332.12
318.753	337.12
318.983	351.12
319.212	345.12
319.441	351.12
319.67	363.12
319.9	334.12
320.129	330.12
320.358	344.12
320.587	361.12
320.816	337.12
321.046	353.12
321.275	350.12
321.504	353.12
321.733	348.12
321.962	329.12
322.191	363.12
322.42	368.12
322.649	376.12
322.878	373.12
323.108	385.12
323.337	397.12
323.566	392.12
323.795	440.12
324.024	441.12
324.253	541.12
324.482	742.12
324.71	1110.12
324.939	1605.12
325.168	1433.12
325.397	711.12
325.626	506.12
325.855	424.12
326.084	430.12
326.313	411.12
326.542	437.12
326.77	430.12
326.999	514.12
327.228	683.12
327.457	1002.12
327.686	1236.12
327.914	802.12
328.143	531.12
328.372	469.12
328.6	460.12
328.829	430.12
329.058	462.12
329.287	467.12
329.515	436.12
329.744	433.12
329.972	432.12
330.201	431.12
330.43	461.12
330.658	440.12
330.887	483.12
331.115	487.12
331.344	436.12
331.572	426.12
331.801	418.12
332.03	426.12
332.258	422.12
332.486	427.12
332.715	414.12
332.943	423.12
333.172	425.12
333.4	412.12
333.629	425.12
333.857	441.12
334.085	436.12
334.314	441.12
334.542	447.12
334.771	467.12
334.999	432.12
335.227	418.12
335.455	408.12
335.684	420.12
335.912	408.12
336.14	421.12
336.369	392.12
336.597	394.12
336.825	417.12
337.053	399.12
337.281	406.12
337.51	403.12
337.738	386.12
337.966	381.12
338.194	409.12
338.422	408.12
338.65	382.12
338.878	399.12
339.106	368.12
339.334	391.12
339.562	409.12
339.79	382.12
340.018	396.12
340.246	397.12
340.474	414.12
340.702	395.12
340.93	407.12
341.158	389.12
341.386	382.12
341.614	406.12
341.842	396.12
342.07	368.12
342.298	380.12
342.526	385.12
342.754	379.12
342.981	379.12
343.209	401.12
343.437	409.12
343.665	394.12
343.893	416.12
344.12	394.12
344.348	401.12
344.576	391.12
344.804	402.12
345.031	421.12
345.259	396.12
345.487	396.12
345.714	402.12
345.942	391.12
346.17	401.12
346.397	373.12
346.625	366.12
346.853	405.12
347.08	384.12
347.308	394.12
347.535	387.12
347.763	403.12
347.99	383.12
348.218	385.12
348.445	398.12
348.673	399.12
348.9	386.12
349.128	387.12
349.355	383.12
349.583	357.12
349.81	393.12
350.037	375.12
350.265	381.12
350.492	366.12
350.72	391.12
350.947	381.12
351.174	378.12
351.402	387.12
351.629	390.12
351.856	379.12
352.083	379.12
352.311	381.12
352.538	387.12
352.765	396.12
352.992	390.12
353.22	383.12
353.447	365.12
353.674	357.12
353.901	360.12
354.128	383.12
354.355	380.12
354.583	360.12
354.81	373.12
355.037	360.12
355.264	366.12
355.491	373.12
355.718	364.12
355.945	379.12
356.172	361.12
356.399	363.12
356.626	365.12
356.853	362.12
357.08	379.12
357.307	362.12
357.534	350.12
357.761	359.12
357.988	392.12
358.215	364.12
358.441	361.12
358.668	384.12
358.895	390.12
359.122	368.12
359.349	375.12
359.576	385.12
359.802	396.12
360.029	434.12
360.256	407.12
360.483	393.12
360.709	386.12
360.936	386.12
361.163	381.12
361.39	379.12
361.616	392.12
361.843	382.12
362.07	364.12
362.296	385.12
362.523	389.12
362.749	379.12
362.976	390.12
363.203	390.12
363.429	376.12
363.656	372.12
363.882	388.12
364.109	390.12
364.335	379.12
364.562	368.12
364.788	366.12
365.015	394.12
365.241	389.12
365.468	379.12
365.694	368.12
365.92	378.12
366.147	370.12
366.373	371.12
366.599	382.12
366.826	360.12
367.052	379.12
367.278	364.12
367.505	373.12
367.731	376.12
367.957	378.12
368.184	383.12
368.41	361.12
368.636	404.12
368.862	399.12
369.089	391.12
369.315	365.12
369.541	369.12
369.767	383.12
369.993	375.12
370.219	396.12
370.445	383.12
370.672	376.12
370.898	397.12
371.124	386.12
371.35	391.12
371.576	397.12
371.802	369.12
372.028	383.12
372.254	370.12
372.48	392.12
372.706	405.12
372.932	400.12
373.158	397.12
373.384	401.12
373.61	386.12
373.835	412.12
374.061	385.12
374.287	393.12
374.513	384.12
374.739	396.12
374.965	410.12
375.191	410.12
375.416	412.12
375.642	406.12
375.868	403.12
376.094	396.12
376.319	395.12
376.545	368.12
376.771	388.12
376.997	402.12
377.222	383.12
377.448	390.12
377.674	386.12
377.899	371.12
378.125	381.12
378.35	418.12
378.576	386.12
378.802	385.12
379.027	398.12
379.253	371.12
379.478	383.12
379.704	386.12
379.929	401.12
380.155	386.12
380.38	398.12
380.606	379.12
380.831	379.12
381.057	398.12
381.282	384.12
381.507	399.12
381.733	399.12
381.958	391.12
382.184	392.12
382.409	410.12
382.634	397.12
382.86	397.12
383.085	413.12
383.31	392.12
383.535	404.12
383.761	411.12
383.986	409.12
384.211	401.12
384.436	419.12
384.662	421.12
384.887	409.12
385.112	418.12
385.337	453.12
385.562	428.12
385.787	441.12
386.013	423.12
386.238	440.12
386.463	433.12
386.688	439.12
386.913	449.12
387.138	433.12
387.363	428.12
387.588	449.12
387.813	428.12
388.038	413.12
388.263	435.12
388.488	429.12
388.713	432.12
388.938	464.12
389.163	443.12
389.387	427.12
389.612	451.12
389.837	456.12
390.062	426.12
390.287	431.12
390.512	445.12
390.736	455.12
390.961	426.12
391.186	430.12
391.411	447.12
391.636	433.12
391.86	439.12
392.085	480.12
392.31	477.12
392.534	446.12
392.759	447.12
392.984	437.12
393.208	449.12
393.433	466.12
393.658	457.12
393.882	437.12
394.107	437.12
394.331	463.12
394.556	431.12
394.78	441.12
395.005	457.12
395.229	453.12
395.454	465.12
395.678	472.12
395.903	496.12
396.127	471.12
396.352	493.12
396.576	468.12
396.801	475.12
397.025	470.12
397.249	470.12
397.474	478.12
397.698	471.12
397.922	484.12
398.147	509.12
398.371	482.12
398.595	507.12
398.82	504.12
399.044	516.12
399.268	530.12
399.492	562.12
399.717	618.12
399.941	639.12
400.165	615.12
400.389	612.12
400.613	559.12
400.837	524.12
401.062	507.12
401.286	537.12
401.51	518.12
401.734	523.12
401.958	537.12
402.182	530.12
402.406	511.12
402.63	523.12
402.854	540.12
403.078	517.12
403.302	521.12
403.526	543.12
403.75	542.12
403.974	556.12
404.198	537.12
404.422	519.12
404.645	555.12
404.869	559.12
405.093	571.12
405.317	587.12
405.541	636.12
405.765	583.12
405.988	553.12
406.212	575.12
406.436	573.12
406.66	593.12
406.883	578.12
407.107	582.12
407.331	636.12
407.555	685.12
407.778	693.12
408.002	654.12
408.226	631.12
408.449	602.12
408.673	578.12
408.896	599.12
409.12	636.12
409.344	623.12
409.567	573.12
409.791	566.12
410.014	535.12
410.238	541.12
410.461	561.12
410.685	556.12
410.908	553.12
411.132	587.12
411.355	610.12
411.578	569.12
411.802	524.12
412.025	551.12
412.249	551.12
412.472	534.12
412.695	592.12
412.919	601.12
413.142	552.12
413.365	545.12
413.589	525.12
413.812	528.12
414.035	537.12
414.258	529.12
414.482	509.12
414.705	521.12
414.928	525.12
415.151	520.12
415.374	514.12
415.597	533.12
415.821	527.12
416.044	505.12
416.267	501.12
416.49	510.12
416.713	518.12
416.936	504.12
417.159	524.12
417.382	521.12
417.605	516.12
417.828	520.12
418.051	521.12
418.274	517.12
418.497	512.12
418.72	530.12
418.943	519.12
419.166	530.12
419.389	569.12
419.611	555.12
419.834	533.12
420.057	542.12
420.28	516.12
420.503	537.12
420.726	530.12
420.948	535.12
421.171	578.12
421.394	589.12
421.617	540.12
421.839	546.12
422.062	528.12
422.285	531.12
422.507	577.12
422.73	646.12
422.953	625.12
423.175	575.12
423.398	544.12
423.621	548.12
423.843	562.12
424.066	552.12
424.288	551.12
424.511	561.12
424.733	624.12
424.956	683.12
425.178	655.12
425.401	641.12
425.623	678.12
425.846	596.12
426.068	533.12
426.291	553.12
426.513	566.12
426.735	569.12
426.958	585.12
427.18	634.12
427.402	757.12
427.625	842.12
427.847	730.12
428.069	635.12
428.292	570.12
428.514	547.12
428.736	507.12
428.958	515.12
429.181	513.12
429.403	513.12
429.625	500.12
429.847	560.12
430.069	575.12
430.292	594.12
430.514	508.12
430.736	506.12
430.958	509.12
431.18	495.12
431.402	514.12
431.624	493.12
431.846	514.12
432.068	490.12
432.29	517.12
432.512	481.12
432.734	505.12
432.956	502.12
433.178	525.12
433.4	503.12
433.622	496.12
433.844	491.12
434.066	522.12
434.287	489.12
434.509	500.12
434.731	500.12
434.953	522.12
435.175	565.12
435.397	569.12
435.618	568.12
435.84	610.12
436.062	647.12
436.284	700.12
436.505	627.12
436.727	553.12
436.949	520.12
437.17	509.12
437.392	491.12
437.614	540.12
437.835	543.12
438.057	622.12
438.278	708.12
438.5	726.12
438.721	779.12
438.943	713.12
439.165	606.12
439.386	565.12
439.608	522.12
439.829	568.12
440.05	536.12
440.272	607.12
440.493	559.12
440.715	545.12
440.936	509.12
441.158	537.12
441.379	517.12
441.6	551.12
441.822	534.12
442.043	595.12
442.264	651.12
442.486	669.12
442.707	608.12
442.928	556.12
443.149	581.12
443.371	590.12
443.592	621.12
443.813	690.12
444.034	737.12
444.255	618.12
444.476	579.12
444.698	581.12
444.919	578.12
445.14	716.12
445.361	604.12
445.582	601.12
445.803	630.12
446.024	719.12
446.245	707.12
446.466	671.12
446.687	578.12
446.908	569.12
447.129	523.12
447.35	519.12
447.571	499.12
447.792	498.12
448.013	518.12
448.234	528.12
448.455	565.12
448.675	638.12
448.896	743.12
449.117	602.12
449.338	608.12
449.559	681.12
449.779	784.12
450	641.12
450.221	538.12
450.442	490.12
450.662	478.12
450.883	493.12
451.104	503.12
451.324	488.12
451.545	466.12
451.766	481.12
451.986	462.12
452.207	450.12
452.428	457.12
452.648	435.12
452.869	441.12
453.089	477.12
453.31	470.12
453.53	475.12
453.751	477.12
453.971	467.12
454.192	469.12
454.412	447.12
454.633	460.12
454.853	456.12
455.073	440.12
455.294	487.12
455.514	515.12
455.734	506.12
455.955	449.12
456.175	453.12
456.395	453.12
456.616	440.12
456.836	436.12
457.056	429.12
457.276	445.12
457.497	436.12
457.717	458.12
457.937	470.12
458.157	461.12
458.377	449.12
458.598	477.12
458.818	526.12
459.038	583.12
459.258	583.12
459.478	519.12
459.698	512.12
459.918	517.12
460.138	493.12
460.358	493.12
460.578	522.12
460.798	539.12
461.018	519.12
461.238	511.12
461.458	516.12
461.678	533.12
461.898	525.12
462.118	539.12
462.338	539.12
462.558	540.12
462.777	545.12
462.997	586.12
463.217	569.12
463.437	569.12
463.657	573.12
463.876	543.12
464.096	572.12
464.316	574.12
464.536	559.12
464.755	552.12
464.975	558.12
465.195	602.12
465.414	631.12
465.634	552.12
465.854	527.12
466.073	514.12
466.293	509.12
466.512	502.12
466.732	480.12
466.951	493.12
467.171	486.12
467.391	499.12
467.61	503.12
467.829	474.12
468.049	482.12
468.268	476.12
468.488	467.12
468.707	465.12
468.927	458.12
469.146	481.12
469.365	477.12
469.585	472.12
469.804	479.12
470.023	494.12
470.243	477.12
470.462	481.12
470.681	505.12
470.901	513.12
471.12	495.12
471.339	473.12
471.558	497.12
471.777	489.12
471.997	491.12
472.216	511.12
472.435	502.12
472.654	486.12
472.873	471.12
473.092	456.12
473.311	483.12
473.53	469.12
473.749	491.12
473.968	520.12
474.187	585.12
474.406	599.12
474.625	517.12
474.844	471.12
475.063	491.12
475.282	486.12
475.501	494.12
475.72	505.12
475.939	492.12
476.158	476.12
476.377	502.12
476.596	470.12
476.814	507.12
477.033	509.12
477.252	506.12
477.471	527.12
477.69	516.12
477.908	525.12
478.127	542.12
478.346	549.12
478.564	543.12
478.783	544.12
479.002	550.12
479.22	574.12
479.439	556.12
479.658	577.12
479.876	587.12
480.095	603.12
480.313	623.12
480.532	603.12
480.751	573.12
480.969	574.12
481.188	626.12
481.406	663.12
481.624	619.12
481.843	592.12
482.061	565.12
482.28	575.12
482.498	583.12
482.717	572.12
482.935	554.12
483.153	583.12
483.372	565.12
483.59	574.12
483.808	563.12
484.027	576.12
484.245	575.12
484.463	576.12
484.681	588.12
484.9	585.12
485.118	607.12
485.336	592.12
485.554	578.12
485.772	569.12
485.99	576.12
486.209	586.12
486.427	595.12
486.645	617.12
486.863	614.12
487.081	609.12
487.299	608.12
487.517	599.12
487.735	571.12
487.953	590.12
488.171	606.12
488.389	601.12
488.607	614.12
488.825	630.12
489.043	623.12
489.261	618.12
489.479	603.12
489.696	578.12
489.914	616.12
490.132	619.12
490.35	650.12
490.568	617.12
490.786	635.12
491.003	647.12
491.221	650.12
491.439	645.12
491.657	643.12
491.874	667.12
492.092	679.12
492.31	672.12
492.527	697.12
492.745	685.12
492.963	665.12
493.18	691.12
493.398	691.12
493.615	695.12
493.833	700.12
494.05	678.12
494.268	685.12
494.485	680.12
494.703	677.12
494.92	693.12
495.138	655.12
495.355	686.12
495.573	721.12
495.79	677.12
496.008	710.12
496.225	715.12
496.442	703.12
496.66	729.12
496.877	730.12
497.094	722.12
497.312	734.12
497.529	741.12
497.746	744.12
497.963	766.12
498.181	763.12
498.398	797.12
498.615	831.12
498.832	837.12
499.049	878.12
499.267	910.12
499.484	923.12
499.701	946.12
499.918	991.12
500.135	1029.12
500.352	1111.12
500.569	1107.12
500.786	1119.12
501.003	1097.12
501.22	1079.12
501.437	1017.12
501.654	976.12
501.871	943.12
