Data from 1979.PennyLincolnUp.Lamp.En5.5.200Scan.071719.P1_HRD10591_16-19-05-864.txt Node
Date: Thu Jul 18 16:19:05 EDT 2019
User: cochatt
Spectrometer: HR+D1059
Trigger mode: 1
Integration Time (sec): 1.000000E-1
Scans to average: 1
Electric dark correction enabled: true
Nonlinearity correction enabled: false
Boxcar width: 0
XAxis mode: Wavelengths
Number of Pixels in Spectrum: 2048
>>>>>Begin Spectral Data<<<<<
223.165	-14.5
223.4	-14.5
223.635	-14.5
223.869	-27.5
224.104	-5.5
224.338	-17.5
224.573	-17.5
224.808	2.5
225.042	-20.5
225.277	-4.5
225.511	-5.5
225.746	11.5
225.98	2.5
226.215	-1.5
226.449	36.5
226.683	23.5
226.918	11.5
227.152	26.5
227.387	35.5
227.621	33.5
227.856	22.5
228.09	40.5
228.324	53.5
228.559	54.5
228.793	72.5
229.027	83.5
229.262	93.5
229.496	93.5
229.73	103.5
229.964	136.5
230.199	115.5
230.433	101.5
230.667	100.5
230.901	115.5
231.136	106.5
231.37	94.5
231.604	102.5
231.838	116.5
232.072	120.5
232.306	106.5
232.541	101.5
232.775	112.5
233.009	109.5
233.243	118.5
233.477	115.5
233.711	116.5
233.945	125.5
234.179	121.5
234.413	104.5
234.647	108.5
234.881	114.5
235.115	124.5
235.349	130.5
235.583	116.5
235.817	119.5
236.051	108.5
236.285	140.5
236.519	119.5
236.753	123.5
236.987	125.5
237.221	158.5
237.455	221.5
237.689	173.5
237.922	140.5
238.156	131.5
238.39	130.5
238.624	120.5
238.858	137.5
239.091	113.5
239.325	120.5
239.559	119.5
239.793	137.5
240.027	131.5
240.26	142.5
240.494	155.5
240.728	145.5
240.961	143.5
241.195	142.5
241.429	134.5
241.662	132.5
241.896	120.5
242.13	125.5
242.363	117.5
242.597	130.5
242.83	131.5
243.064	132.5
243.298	139.5
243.531	138.5
243.765	142.5
243.998	137.5
244.232	140.5
244.465	138.5
244.699	142.5
244.932	158.5
245.166	152.5
245.399	143.5
245.633	143.5
245.866	147.5
246.099	150.5
246.333	152.5
246.566	143.5
246.8	147.5
247.033	144.5
247.266	170.5
247.5	146.5
247.733	162.5
247.966	158.5
248.2	161.5
248.433	170.5
248.666	143.5
248.899	178.5
249.133	181.5
249.366	188.5
249.599	191.5
249.832	171.5
250.066	167.5
250.299	175.5
250.532	177.5
250.765	198.5
250.998	202.5
251.231	204.5
251.465	214.5
251.698	186.5
251.931	191.5
252.164	186.5
252.397	190.5
252.63	189.5
252.863	201.5
253.096	198.5
253.329	215.5
253.562	214.5
253.795	222.5
254.028	189.5
254.261	198.5
254.494	214.5
254.727	243.5
254.96	267.5
255.193	224.5
255.426	225.5
255.659	228.5
255.892	214.5
256.124	216.5
256.357	218.5
256.59	217.5
256.823	213.5
257.056	181.5
257.289	193.5
257.521	218.5
257.754	195.5
257.987	212.5
258.22	209.5
258.452	209.5
258.685	188.5
258.918	200.5
259.151	202.5
259.383	202.5
259.616	214.5
259.849	215.5
260.081	217.5
260.314	241.5
260.547	223.5
260.779	230.5
261.012	239.5
261.244	220.5
261.477	212.5
261.71	220.5
261.942	214.5
262.175	214.5
262.407	227.5
262.64	214.5
262.872	201.5
263.105	190.5
263.337	207.5
263.57	225.5
263.802	205.5
264.035	188.5
264.267	199.5
264.499	183.5
264.732	199.5
264.964	203.5
265.197	188.5
265.429	208.5
265.661	212.5
265.894	201.5
266.126	196.5
266.358	202.5
266.591	208.5
266.823	215.5
267.055	209.5
267.287	211.5
267.52	221.5
267.752	216.5
267.984	214.5
268.216	226.5
268.448	210.5
268.681	221.5
268.913	238.5
269.145	241.5
269.377	257.5
269.609	238.5
269.841	251.5
270.073	243.5
270.306	250.5
270.538	294.5
270.77	295.5
271.002	266.5
271.234	269.5
271.466	263.5
271.698	290.5
271.93	290.5
272.162	271.5
272.394	309.5
272.626	263.5
272.858	259.5
273.09	253.5
273.322	253.5
273.553	242.5
273.785	234.5
274.017	261.5
274.249	256.5
274.481	252.5
274.713	245.5
274.945	244.5
275.176	262.5
275.408	265.5
275.64	257.5
275.872	238.5
276.104	238.5
276.335	275.5
276.567	255.5
276.799	267.5
277.031	280.5
277.262	289.5
277.494	295.5
277.726	281.5
277.957	267.5
278.189	268.5
278.421	248.5
278.652	268.5
278.884	259.5
279.115	265.5
279.347	262.5
279.579	263.5
279.81	258.5
280.042	264.5
280.273	247.5
280.505	254.5
280.736	269.5
280.968	261.5
281.199	260.5
281.431	251.5
281.662	263.5
281.894	272.5
282.125	275.5
282.356	283.5
282.588	290.5
282.819	293.5
283.051	282.5
283.282	252.5
283.513	274.5
283.745	262.5
283.976	258.5
284.207	277.5
284.439	268.5
284.67	260.5
284.901	270.5
285.132	272.5
285.364	277.5
285.595	285.5
285.826	266.5
286.057	293.5
286.288	281.5
286.52	279.5
286.751	283.5
286.982	263.5
287.213	278.5
287.444	276.5
287.675	274.5
287.906	279.5
288.138	309.5
288.369	283.5
288.6	283.5
288.831	285.5
289.062	294.5
289.293	293.5
289.524	279.5
289.755	267.5
289.986	287.5
290.217	293.5
290.448	282.5
290.679	276.5
290.91	291.5
291.141	282.5
291.371	277.5
291.602	287.5
291.833	287.5
292.064	285.5
292.295	290.5
292.526	286.5
292.757	282.5
292.987	300.5
293.218	281.5
293.449	281.5
293.68	282.5
293.91	300.5
294.141	280.5
294.372	274.5
294.603	283.5
294.833	301.5
295.064	298.5
295.295	297.5
295.525	292.5
295.756	285.5
295.987	297.5
296.217	321.5
296.448	329.5
296.679	295.5
296.909	299.5
297.14	300.5
297.37	307.5
297.601	287.5
297.831	301.5
298.062	311.5
298.292	305.5
298.523	294.5
298.753	294.5
298.984	294.5
299.214	315.5
299.445	299.5
299.675	302.5
299.905	306.5
300.136	311.5
300.366	302.5
300.597	309.5
300.827	324.5
301.057	318.5
301.288	328.5
301.518	329.5
301.748	330.5
301.979	322.5
302.209	305.5
302.439	340.5
302.669	345.5
302.9	326.5
303.13	325.5
303.36	322.5
303.59	307.5
303.82	353.5
304.051	335.5
304.281	335.5
304.511	332.5
304.741	311.5
304.971	340.5
305.201	331.5
305.431	336.5
305.661	336.5
305.891	309.5
306.121	328.5
306.352	353.5
306.582	327.5
306.812	334.5
307.042	326.5
307.272	346.5
307.502	335.5
307.731	326.5
307.961	341.5
308.191	313.5
308.421	314.5
308.651	341.5
308.881	334.5
309.111	334.5
309.341	346.5
309.571	343.5
309.8	355.5
310.03	364.5
310.26	356.5
310.49	372.5
310.72	359.5
310.949	377.5
311.179	385.5
311.409	380.5
311.639	357.5
311.868	382.5
312.098	360.5
312.328	362.5
312.557	391.5
312.787	412.5
313.017	409.5
313.246	381.5
313.476	344.5
313.706	360.5
313.935	370.5
314.165	373.5
314.394	403.5
314.624	390.5
314.853	374.5
315.083	368.5
315.312	369.5
315.542	351.5
315.771	376.5
316.001	365.5
316.23	365.5
316.46	379.5
316.689	373.5
316.919	344.5
317.148	374.5
317.377	394.5
317.607	383.5
317.836	387.5
318.065	370.5
318.295	359.5
318.524	408.5
318.753	373.5
318.983	375.5
319.212	370.5
319.441	393.5
319.67	377.5
319.9	394.5
320.129	379.5
320.358	398.5
320.587	379.5
320.816	386.5
321.046	381.5
321.275	397.5
321.504	375.5
321.733	385.5
321.962	397.5
322.191	388.5
322.42	407.5
322.649	392.5
322.878	444.5
323.108	448.5
323.337	451.5
323.566	483.5
323.795	491.5
324.024	539.5
324.253	636.5
324.482	860.5
324.71	1339.5
324.939	2030.5
325.168	1729.5
325.397	881.5
325.626	587.5
325.855	534.5
326.084	494.5
326.313	461.5
326.542	489.5
326.77	511.5
326.999	604.5
327.228	830.5
327.457	1238.5
327.686	1551.5
327.914	981.5
328.143	639.5
328.372	566.5
328.6	555.5
328.829	537.5
329.058	540.5
329.287	546.5
329.515	523.5
329.744	501.5
329.972	486.5
330.201	504.5
330.43	509.5
330.658	543.5
330.887	546.5
331.115	556.5
331.344	498.5
331.572	473.5
331.801	479.5
332.03	469.5
332.258	482.5
332.486	437.5
332.715	434.5
332.943	453.5
333.172	463.5
333.4	463.5
333.629	457.5
333.857	470.5
334.085	478.5
334.314	505.5
334.542	515.5
334.771	554.5
334.999	494.5
335.227	467.5
335.455	469.5
335.684	461.5
335.912	452.5
336.14	448.5
336.369	445.5
336.597	461.5
336.825	466.5
337.053	436.5
337.281	438.5
337.51	457.5
337.738	441.5
337.966	425.5
338.194	457.5
338.422	455.5
338.65	442.5
338.878	433.5
339.106	431.5
339.334	438.5
339.562	421.5
339.79	426.5
340.018	446.5
340.246	401.5
340.474	415.5
340.702	426.5
340.93	418.5
341.158	425.5
341.386	426.5
341.614	445.5
341.842	433.5
342.07	411.5
342.298	412.5
342.526	418.5
342.754	412.5
342.981	421.5
343.209	405.5
343.437	425.5
343.665	441.5
343.893	445.5
344.12	443.5
344.348	426.5
344.576	418.5
344.804	441.5
345.031	441.5
345.259	476.5
345.487	430.5
345.714	435.5
345.942	429.5
346.17	428.5
346.397	436.5
346.625	413.5
346.853	413.5
347.08	422.5
347.308	423.5
347.535	430.5
347.763	440.5
347.99	411.5
348.218	420.5
348.445	441.5
348.673	446.5
348.9	436.5
349.128	414.5
349.355	387.5
349.583	411.5
349.81	412.5
350.037	391.5
350.265	387.5
350.492	405.5
350.72	409.5
350.947	410.5
351.174	428.5
351.402	431.5
351.629	410.5
351.856	412.5
352.083	417.5
352.311	444.5
352.538	433.5
352.765	436.5
352.992	423.5
353.22	441.5
353.447	408.5
353.674	418.5
353.901	394.5
354.128	389.5
354.355	393.5
354.583	399.5
354.81	411.5
355.037	390.5
355.264	412.5
355.491	395.5
355.718	403.5
355.945	389.5
356.172	393.5
356.399	387.5
356.626	394.5
356.853	386.5
357.08	412.5
357.307	415.5
357.534	385.5
357.761	381.5
357.988	384.5
358.215	381.5
358.441	385.5
358.668	385.5
358.895	392.5
359.122	409.5
359.349	407.5
359.576	416.5
359.802	441.5
360.029	439.5
360.256	472.5
360.483	446.5
360.709	430.5
360.936	436.5
361.163	417.5
361.39	428.5
361.616	423.5
361.843	415.5
362.07	416.5
362.296	426.5
362.523	423.5
362.749	417.5
362.976	436.5
363.203	422.5
363.429	406.5
363.656	406.5
363.882	390.5
364.109	406.5
364.335	422.5
364.562	407.5
364.788	421.5
365.015	408.5
365.241	425.5
365.468	414.5
365.694	415.5
365.92	421.5
366.147	426.5
366.373	402.5
366.599	410.5
366.826	406.5
367.052	402.5
367.278	435.5
367.505	423.5
367.731	427.5
367.957	411.5
368.184	412.5
368.41	412.5
368.636	413.5
368.862	422.5
369.089	441.5
369.315	415.5
369.541	419.5
369.767	405.5
369.993	421.5
370.219	404.5
370.445	423.5
370.672	433.5
370.898	413.5
371.124	391.5
371.35	415.5
371.576	408.5
371.802	408.5
372.028	428.5
372.254	411.5
372.48	425.5
372.706	408.5
372.932	433.5
373.158	438.5
373.384	431.5
373.61	422.5
373.835	428.5
374.061	428.5
374.287	423.5
374.513	431.5
374.739	418.5
374.965	412.5
375.191	436.5
375.416	428.5
375.642	428.5
375.868	439.5
376.094	437.5
376.319	425.5
376.545	407.5
376.771	448.5
376.997	420.5
377.222	428.5
377.448	421.5
377.674	417.5
377.899	423.5
378.125	421.5
378.35	426.5
378.576	432.5
378.802	415.5
379.027	428.5
379.253	402.5
379.478	425.5
379.704	403.5
379.929	405.5
380.155	413.5
380.38	435.5
380.606	438.5
380.831	426.5
381.057	423.5
381.282	415.5
381.507	441.5
381.733	430.5
381.958	429.5
382.184	414.5
382.409	438.5
382.634	433.5
382.86	430.5
383.085	411.5
383.31	453.5
383.535	445.5
383.761	450.5
383.986	445.5
384.211	438.5
384.436	458.5
384.662	439.5
384.887	452.5
385.112	466.5
385.337	449.5
385.562	459.5
385.787	460.5
386.013	475.5
386.238	480.5
386.463	488.5
386.688	487.5
386.913	448.5
387.138	450.5
387.363	474.5
387.588	480.5
387.813	445.5
388.038	457.5
388.263	478.5
388.488	469.5
388.713	478.5
388.938	451.5
389.163	439.5
389.387	466.5
389.612	455.5
389.837	467.5
390.062	465.5
390.287	466.5
390.512	474.5
390.736	464.5
390.961	470.5
391.186	475.5
391.411	462.5
391.636	466.5
391.86	480.5
392.085	508.5
392.31	511.5
392.534	494.5
392.759	482.5
392.984	507.5
393.208	475.5
393.433	489.5
393.658	489.5
393.882	485.5
394.107	488.5
394.331	501.5
394.556	466.5
394.78	504.5
395.005	478.5
395.229	479.5
395.454	508.5
395.678	499.5
395.903	506.5
396.127	508.5
396.352	516.5
396.576	497.5
396.801	499.5
397.025	507.5
397.249	499.5
397.474	502.5
397.698	503.5
397.922	532.5
398.147	521.5
398.371	533.5
398.595	529.5
398.82	555.5
399.044	563.5
399.268	591.5
399.492	612.5
399.717	670.5
399.941	693.5
400.165	672.5
400.389	691.5
400.613	616.5
400.837	611.5
401.062	595.5
401.286	574.5
401.51	567.5
401.734	564.5
401.958	556.5
402.182	571.5
402.406	582.5
402.63	580.5
402.854	565.5
403.078	582.5
403.302	575.5
403.526	588.5
403.75	600.5
403.974	584.5
404.198	577.5
404.422	595.5
404.645	590.5
404.869	609.5
405.093	633.5
405.317	649.5
405.541	694.5
405.765	633.5
405.988	609.5
406.212	619.5
406.436	646.5
406.66	661.5
406.883	636.5
407.107	660.5
407.331	704.5
407.555	742.5
407.778	779.5
408.002	695.5
408.226	661.5
408.449	667.5
408.673	623.5
408.896	677.5
409.12	703.5
409.344	643.5
409.567	615.5
409.791	618.5
410.014	568.5
410.238	572.5
410.461	582.5
410.685	601.5
410.908	607.5
411.132	619.5
411.355	690.5
411.578	653.5
411.802	587.5
412.025	569.5
412.249	608.5
412.472	613.5
412.695	651.5
412.919	653.5
413.142	612.5
413.365	566.5
413.589	584.5
413.812	573.5
414.035	549.5
414.258	585.5
414.482	571.5
414.705	537.5
414.928	561.5
415.151	546.5
415.374	568.5
415.597	550.5
415.821	539.5
416.044	541.5
416.267	586.5
416.49	558.5
416.713	541.5
416.936	563.5
417.159	565.5
417.382	553.5
417.605	543.5
417.828	573.5
418.051	582.5
418.274	579.5
418.497	536.5
418.72	551.5
418.943	562.5
419.166	602.5
419.389	601.5
419.611	620.5
419.834	587.5
420.057	583.5
420.28	590.5
420.503	573.5
420.726	577.5
420.948	590.5
421.171	632.5
421.394	632.5
421.617	606.5
421.839	582.5
422.062	591.5
422.285	571.5
422.507	626.5
422.73	715.5
422.953	677.5
423.175	604.5
423.398	579.5
423.621	590.5
423.843	625.5
424.066	605.5
424.288	618.5
424.511	625.5
424.733	682.5
424.956	764.5
425.178	713.5
425.401	717.5
425.623	753.5
425.846	649.5
426.068	635.5
426.291	596.5
426.513	605.5
426.735	618.5
426.958	665.5
427.18	715.5
427.402	833.5
427.625	927.5
427.847	811.5
428.069	678.5
428.292	658.5
428.514	617.5
428.736	582.5
428.958	579.5
429.181	571.5
429.403	565.5
429.625	591.5
429.847	577.5
430.069	651.5
430.292	647.5
430.514	556.5
430.736	555.5
430.958	550.5
431.18	559.5
431.402	528.5
431.624	548.5
431.846	523.5
432.068	540.5
432.29	542.5
432.512	543.5
432.734	551.5
432.956	534.5
433.178	541.5
433.4	548.5
433.622	556.5
433.844	550.5
434.066	551.5
434.287	554.5
434.509	538.5
434.731	545.5
434.953	550.5
435.175	586.5
435.397	599.5
435.618	620.5
435.84	650.5
436.062	751.5
436.284	810.5
436.505	656.5
436.727	622.5
436.949	581.5
437.17	561.5
437.392	559.5
437.614	591.5
437.835	625.5
438.057	713.5
438.278	778.5
438.5	769.5
438.721	868.5
438.943	821.5
439.165	666.5
439.386	612.5
439.608	595.5
439.829	600.5
440.05	592.5
440.272	648.5
440.493	629.5
440.715	619.5
440.936	584.5
441.158	575.5
441.379	567.5
441.6	587.5
441.822	630.5
442.043	641.5
442.264	700.5
442.486	755.5
442.707	665.5
442.928	617.5
443.149	629.5
443.371	632.5
443.592	679.5
443.813	741.5
444.034	847.5
444.255	704.5
444.476	639.5
444.698	634.5
444.919	614.5
445.14	714.5
445.361	667.5
445.582	651.5
445.803	696.5
446.024	785.5
446.245	818.5
446.466	734.5
446.687	649.5
446.908	590.5
447.129	567.5
447.35	563.5
447.571	562.5
447.792	528.5
448.013	541.5
448.234	585.5
448.455	616.5
448.675	715.5
448.896	846.5
449.117	728.5
449.338	654.5
449.559	774.5
449.779	872.5
450	729.5
450.221	596.5
450.442	568.5
450.662	546.5
450.883	537.5
451.104	549.5
451.324	521.5
451.545	528.5
451.766	513.5
451.986	490.5
452.207	489.5
452.428	519.5
452.648	511.5
452.869	512.5
453.089	519.5
453.31	509.5
453.53	478.5
453.751	497.5
453.971	494.5
454.192	531.5
454.412	499.5
454.633	499.5
454.853	494.5
455.073	511.5
455.294	518.5
455.514	564.5
455.734	561.5
455.955	498.5
456.175	485.5
456.395	480.5
456.616	476.5
456.836	483.5
457.056	460.5
457.276	473.5
457.497	482.5
457.717	492.5
457.937	499.5
458.157	497.5
458.377	491.5
458.598	487.5
458.818	558.5
459.038	631.5
459.258	665.5
459.478	573.5
459.698	555.5
459.918	566.5
460.138	568.5
460.358	581.5
460.578	565.5
460.798	572.5
461.018	594.5
461.238	559.5
461.458	547.5
461.678	567.5
461.898	570.5
462.118	548.5
462.338	579.5
462.558	595.5
462.777	611.5
462.997	603.5
463.217	629.5
463.437	641.5
463.657	618.5
463.876	627.5
464.096	629.5
464.316	606.5
464.536	647.5
464.755	611.5
464.975	599.5
465.195	624.5
465.414	703.5
465.634	607.5
465.854	585.5
466.073	576.5
466.293	547.5
466.512	530.5
466.732	542.5
466.951	536.5
467.171	530.5
467.391	527.5
467.61	537.5
467.829	519.5
468.049	549.5
468.268	553.5
468.488	525.5
468.707	505.5
468.927	515.5
469.146	525.5
469.365	530.5
469.585	504.5
469.804	531.5
470.023	537.5
470.243	540.5
470.462	539.5
470.681	571.5
470.901	543.5
471.12	522.5
471.339	546.5
471.558	517.5
471.777	531.5
471.997	503.5
472.216	533.5
472.435	555.5
472.654	564.5
472.873	525.5
473.092	515.5
473.311	519.5
473.53	514.5
473.749	527.5
473.968	551.5
474.187	639.5
474.406	668.5
474.625	582.5
474.844	533.5
475.063	519.5
475.282	527.5
475.501	553.5
475.72	525.5
475.939	535.5
476.158	551.5
476.377	551.5
476.596	554.5
476.814	543.5
477.033	562.5
477.252	557.5
477.471	561.5
477.69	549.5
477.908	581.5
478.127	575.5
478.346	583.5
478.564	586.5
478.783	610.5
479.002	588.5
479.22	611.5
479.439	616.5
479.658	635.5
479.876	651.5
480.095	648.5
480.313	693.5
480.532	654.5
480.751	663.5
480.969	667.5
481.188	708.5
481.406	709.5
481.624	696.5
481.843	621.5
482.061	629.5
482.28	637.5
482.498	618.5
482.717	605.5
482.935	634.5
483.153	612.5
483.372	628.5
483.59	617.5
483.808	627.5
484.027	617.5
484.245	622.5
484.463	611.5
484.681	652.5
484.9	622.5
485.118	640.5
485.336	617.5
485.554	630.5
485.772	655.5
485.99	649.5
486.209	625.5
486.427	635.5
486.645	661.5
486.863	670.5
487.081	649.5
487.299	676.5
487.517	686.5
487.735	645.5
487.953	659.5
488.171	651.5
488.389	650.5
488.607	651.5
488.825	665.5
489.043	668.5
489.261	659.5
489.479	655.5
489.696	668.5
489.914	682.5
490.132	709.5
490.35	681.5
490.568	691.5
490.786	689.5
491.003	716.5
491.221	748.5
491.439	706.5
491.657	716.5
491.874	714.5
492.092	718.5
492.31	745.5
492.527	754.5
492.745	728.5
492.963	774.5
493.18	746.5
493.398	748.5
493.615	779.5
493.833	783.5
494.05	780.5
494.268	767.5
494.485	753.5
494.703	766.5
494.92	761.5
495.138	764.5
495.355	779.5
495.573	771.5
495.79	761.5
496.008	764.5
496.225	791.5
496.442	774.5
496.66	808.5
496.877	776.5
497.094	806.5
497.312	795.5
497.529	815.5
497.746	804.5
497.963	837.5
498.181	849.5
498.398	876.5
498.615	881.5
498.832	917.5
499.049	921.5
499.267	967.5
499.484	1027.5
499.701	1054.5
499.918	1100.5
500.135	1173.5
500.352	1203.5
500.569	1266.5
500.786	1247.5
501.003	1221.5
501.22	1152.5
501.437	1082.5
501.654	1073.5
501.871	1038.5
502.088	988.5
502.305	967.5
502.522	912.5
502.739	901.5
502.956	865.5
503.172	862.5
503.389	839.5
503.606	817.5
503.823	803.5
504.04	817.5
504.256	796.5
504.473	808.5
504.69	808.5
504.907	795.5
505.123	798.5
505.34	778.5
505.557	760.5
505.773	760.5
505.99	751.5
506.207	742.5
506.423	741.5
506.64	768.5
506.856	720.5
507.073	719.5
507.289	742.5
507.506	734.5
507.722	726.5
507.939	749.5
508.155	702.5
508.372	696.5
508.588	677.5
508.805	686.5
509.021	694.5
509.238	674.5
509.454	706.5
509.67	682.5
509.887	668.5
510.103	686.5
510.319	691.5
510.536	756.5
510.752	1251.5
510.968	994.5
511.184	679.5
511.401	646.5
511.617	672.5
511.833	670.5
512.049	677.5
512.265	643.5
512.481	669.5
512.698	656.5
512.914	658.5
513.13	652.5
513.346	642.5
513.562	632.5
513.778	653.5
513.994	687.5
514.21	669.5
514.426	652.5
514.642	733.5
514.858	738.5
515.074	732.5
515.29	900.5
515.506	1284.5
515.721	1082.5
515.937	766.5
516.153	724.5
516.369	715.5
516.585	706.5
516.801	705.5
517.016	678.5
517.232	716.5
517.448	712.5
517.664	712.5
517.879	734.5
518.095	742.5
518.311	740.5
518.527	670.5
518.742	701.5
518.958	687.5
519.173	689.5
519.389	669.5
519.605	671.5
519.82	668.5
