Data from 1979.PennyLincolnUp.Lamp.En5.5.200Scan.071719.P1_HRD10591_16-20-31-863.txt Node
Date: Thu Jul 18 16:20:31 EDT 2019
User: cochatt
Spectrometer: HR+D1059
Trigger mode: 1
Integration Time (sec): 1.000000E-1
Scans to average: 1
Electric dark correction enabled: true
Nonlinearity correction enabled: false
Boxcar width: 0
XAxis mode: Wavelengths
Number of Pixels in Spectrum: 2048
>>>>>Begin Spectral Data<<<<<
223.165	-16.81
223.4	-16.81
223.635	-16.81
223.869	-4.81
224.104	-27.81
224.338	-18.81
224.573	-14.81
224.808	-10.81
225.042	-9.81
225.277	-8.81
225.511	-11.81
225.746	15.19
225.98	14.19
226.215	6.19
226.449	17.19
226.683	17.19
226.918	25.19
227.152	29.19
227.387	23.19
227.621	31.19
227.856	61.19
228.09	40.19
228.324	52.19
228.559	58.19
228.793	70.19
229.027	89.19
229.262	92.19
229.496	104.19
229.73	131.19
229.964	159.19
230.199	128.19
230.433	126.19
230.667	108.19
230.901	110.19
231.136	113.19
231.37	117.19
231.604	121.19
231.838	123.19
232.072	118.19
232.306	113.19
232.541	102.19
232.775	109.19
233.009	111.19
233.243	112.19
233.477	127.19
233.711	123.19
233.945	132.19
234.179	123.19
234.413	113.19
234.647	130.19
234.881	126.19
235.115	120.19
235.349	129.19
235.583	126.19
235.817	126.19
236.051	123.19
236.285	135.19
236.519	120.19
236.753	124.19
236.987	139.19
237.221	182.19
237.455	222.19
237.689	181.19
237.922	140.19
238.156	133.19
238.39	121.19
238.624	129.19
238.858	127.19
239.091	122.19
239.325	112.19
239.559	128.19
239.793	144.19
240.027	137.19
240.26	135.19
240.494	160.19
240.728	156.19
240.961	141.19
241.195	146.19
241.429	136.19
241.662	128.19
241.896	135.19
242.13	130.19
242.363	142.19
242.597	140.19
242.83	135.19
243.064	142.19
243.298	146.19
243.531	142.19
243.765	144.19
243.998	140.19
244.232	142.19
244.465	142.19
244.699	152.19
244.932	152.19
245.166	160.19
245.399	156.19
245.633	132.19
245.866	153.19
246.099	158.19
246.333	153.19
246.566	156.19
246.8	145.19
247.033	163.19
247.266	166.19
247.5	142.19
247.733	151.19
247.966	175.19
248.2	173.19
248.433	165.19
248.666	183.19
248.899	172.19
249.133	201.19
249.366	198.19
249.599	196.19
249.832	161.19
250.066	160.19
250.299	161.19
250.532	176.19
250.765	206.19
250.998	225.19
251.231	223.19
251.465	206.19
251.698	192.19
251.931	187.19
252.164	197.19
252.397	190.19
252.63	187.19
252.863	194.19
253.096	208.19
253.329	223.19
253.562	219.19
253.795	219.19
254.028	221.19
254.261	217.19
254.494	223.19
254.727	232.19
254.96	258.19
255.193	262.19
255.426	233.19
255.659	226.19
255.892	234.19
256.124	223.19
256.357	234.19
256.59	217.19
256.823	203.19
257.056	206.19
257.289	192.19
257.521	212.19
257.754	210.19
257.987	208.19
258.22	199.19
258.452	194.19
258.685	217.19
258.918	217.19
259.151	210.19
259.383	228.19
259.616	216.19
259.849	220.19
260.081	233.19
260.314	266.19
260.547	244.19
260.779	245.19
261.012	221.19
261.244	212.19
261.477	216.19
261.71	228.19
261.942	209.19
262.175	237.19
262.407	229.19
262.64	203.19
262.872	205.19
263.105	213.19
263.337	220.19
263.57	227.19
263.802	193.19
264.035	206.19
264.267	214.19
264.499	210.19
264.732	213.19
264.964	207.19
265.197	205.19
265.429	201.19
265.661	199.19
265.894	208.19
266.126	225.19
266.358	214.19
266.591	214.19
266.823	201.19
267.055	208.19
267.287	225.19
267.52	224.19
267.752	213.19
267.984	213.19
268.216	206.19
268.448	227.19
268.681	221.19
268.913	253.19
269.145	264.19
269.377	268.19
269.609	238.19
269.841	253.19
270.073	260.19
270.306	260.19
270.538	282.19
270.77	313.19
271.002	293.19
271.234	284.19
271.466	291.19
271.698	290.19
271.93	292.19
272.162	298.19
272.394	300.19
272.626	287.19
272.858	281.19
273.09	268.19
273.322	247.19
273.553	252.19
273.785	270.19
274.017	275.19
274.249	258.19
274.481	239.19
274.713	255.19
274.945	267.19
275.176	272.19
275.408	278.19
275.64	264.19
275.872	264.19
276.104	274.19
276.335	265.19
276.567	256.19
276.799	274.19
277.031	280.19
277.262	308.19
277.494	281.19
277.726	283.19
277.957	284.19
278.189	262.19
278.421	272.19
278.652	278.19
278.884	272.19
279.115	263.19
279.347	265.19
279.579	262.19
279.81	249.19
280.042	253.19
280.273	245.19
280.505	249.19
280.736	269.19
280.968	270.19
281.199	267.19
281.431	254.19
281.662	269.19
281.894	251.19
282.125	266.19
282.356	288.19
282.588	309.19
282.819	312.19
283.051	277.19
283.282	264.19
283.513	251.19
283.745	256.19
283.976	289.19
284.207	295.19
284.439	280.19
284.67	281.19
284.901	280.19
285.132	272.19
285.364	269.19
285.595	274.19
285.826	281.19
286.057	290.19
286.288	275.19
286.52	282.19
286.751	289.19
286.982	286.19
287.213	265.19
287.444	286.19
287.675	289.19
287.906	290.19
288.138	311.19
288.369	297.19
288.6	292.19
288.831	286.19
289.062	284.19
289.293	284.19
289.524	301.19
289.755	290.19
289.986	314.19
290.217	302.19
290.448	288.19
290.679	288.19
290.91	301.19
291.141	291.19
291.371	280.19
291.602	293.19
291.833	289.19
292.064	280.19
292.295	295.19
292.526	292.19
292.757	295.19
292.987	276.19
293.218	285.19
293.449	300.19
293.68	288.19
293.91	291.19
294.141	291.19
294.372	282.19
294.603	286.19
294.833	302.19
295.064	292.19
295.295	303.19
295.525	302.19
295.756	300.19
295.987	321.19
296.217	316.19
296.448	350.19
296.679	327.19
296.909	282.19
297.14	294.19
297.37	284.19
297.601	312.19
297.831	304.19
298.062	289.19
298.292	302.19
298.523	312.19
298.753	303.19
298.984	305.19
299.214	295.19
299.445	308.19
299.675	304.19
299.905	312.19
300.136	308.19
300.366	309.19
300.597	310.19
300.827	312.19
301.057	336.19
301.288	320.19
301.518	337.19
301.748	325.19
301.979	317.19
302.209	328.19
302.439	319.19
302.669	335.19
302.9	336.19
303.13	308.19
303.36	333.19
303.59	331.19
303.82	350.19
304.051	329.19
304.281	347.19
304.511	328.19
304.741	316.19
304.971	315.19
305.201	347.19
305.431	343.19
305.661	329.19
305.891	333.19
306.121	341.19
306.352	325.19
306.582	334.19
306.812	331.19
307.042	338.19
307.272	330.19
307.502	338.19
307.731	339.19
307.961	334.19
308.191	332.19
308.421	325.19
308.651	332.19
308.881	345.19
309.111	332.19
309.341	347.19
309.571	356.19
309.8	347.19
310.03	378.19
310.26	368.19
310.49	376.19
310.72	375.19
310.949	381.19
311.179	397.19
311.409	359.19
311.639	350.19
311.868	368.19
312.098	372.19
312.328	383.19
312.557	390.19
312.787	397.19
313.017	400.19
313.246	396.19
313.476	369.19
313.706	382.19
313.935	374.19
314.165	384.19
314.394	395.19
314.624	420.19
314.853	380.19
315.083	384.19
315.312	395.19
315.542	388.19
315.771	365.19
316.001	370.19
316.23	380.19
316.46	388.19
316.689	359.19
316.919	385.19
317.148	374.19
317.377	386.19
317.607	379.19
317.836	382.19
318.065	367.19
318.295	374.19
318.524	368.19
318.753	386.19
318.983	386.19
319.212	394.19
319.441	363.19
319.67	384.19
319.9	399.19
320.129	371.19
320.358	387.19
320.587	376.19
320.816	397.19
321.046	397.19
321.275	385.19
321.504	401.19
321.733	391.19
321.962	397.19
322.191	412.19
322.42	411.19
322.649	433.19
322.878	461.19
323.108	434.19
323.337	454.19
323.566	497.19
323.795	521.19
324.024	553.19
324.253	655.19
324.482	933.19
324.71	1444.19
324.939	2208.19
325.168	1874.19
325.397	920.19
325.626	648.19
325.855	543.19
326.084	517.19
326.313	463.19
326.542	506.19
326.77	531.19
326.999	654.19
327.228	877.19
327.457	1332.19
327.686	1664.19
327.914	1037.19
328.143	682.19
328.372	613.19
328.6	566.19
328.829	555.19
329.058	557.19
329.287	585.19
329.515	542.19
329.744	517.19
329.972	480.19
330.201	524.19
330.43	544.19
330.658	592.19
330.887	614.19
331.115	577.19
331.344	523.19
331.572	496.19
331.801	486.19
332.03	495.19
332.258	486.19
332.486	458.19
332.715	450.19
332.943	464.19
333.172	459.19
333.4	488.19
333.629	483.19
333.857	501.19
334.085	519.19
334.314	500.19
334.542	527.19
334.771	584.19
334.999	522.19
335.227	476.19
335.455	481.19
335.684	448.19
335.912	457.19
336.14	462.19
336.369	448.19
336.597	469.19
336.825	481.19
337.053	455.19
337.281	450.19
337.51	461.19
337.738	460.19
337.966	450.19
338.194	465.19
338.422	464.19
338.65	447.19
338.878	433.19
339.106	420.19
339.334	441.19
339.562	436.19
339.79	406.19
340.018	448.19
340.246	435.19
340.474	434.19
340.702	455.19
340.93	444.19
341.158	446.19
341.386	415.19
341.614	444.19
341.842	447.19
342.07	426.19
342.298	423.19
342.526	429.19
342.754	427.19
342.981	413.19
343.209	433.19
343.437	430.19
343.665	434.19
343.893	461.19
344.12	434.19
344.348	442.19
344.576	454.19
344.804	440.19
345.031	453.19
345.259	465.19
345.487	430.19
345.714	450.19
345.942	427.19
346.17	446.19
346.397	428.19
346.625	444.19
346.853	426.19
347.08	412.19
347.308	421.19
347.535	440.19
347.763	441.19
347.99	433.19
348.218	425.19
348.445	433.19
348.673	444.19
348.9	433.19
349.128	429.19
349.355	413.19
349.583	405.19
349.81	421.19
350.037	423.19
350.265	433.19
350.492	391.19
350.72	425.19
350.947	424.19
351.174	430.19
351.402	408.19
351.629	423.19
351.856	444.19
352.083	434.19
352.311	456.19
352.538	428.19
352.765	440.19
352.992	419.19
353.22	429.19
353.447	424.19
353.674	424.19
353.901	417.19
354.128	395.19
354.355	400.19
354.583	411.19
354.81	390.19
355.037	414.19
355.264	400.19
355.491	391.19
355.718	406.19
355.945	420.19
356.172	387.19
356.399	400.19
356.626	397.19
356.853	409.19
357.08	390.19
357.307	391.19
357.534	417.19
357.761	396.19
357.988	401.19
358.215	411.19
358.441	415.19
358.668	402.19
358.895	398.19
359.122	403.19
359.349	409.19
359.576	430.19
359.802	436.19
360.029	464.19
360.256	486.19
360.483	469.19
360.709	455.19
360.936	421.19
361.163	413.19
361.39	428.19
361.616	433.19
361.843	412.19
362.07	420.19
362.296	414.19
362.523	433.19
362.749	418.19
362.976	404.19
363.203	419.19
363.429	418.19
363.656	414.19
363.882	403.19
364.109	396.19
364.335	390.19
364.562	428.19
364.788	417.19
365.015	420.19
365.241	418.19
365.468	396.19
365.694	412.19
365.92	438.19
366.147	420.19
366.373	417.19
366.599	416.19
366.826	407.19
367.052	416.19
367.278	417.19
367.505	410.19
367.731	388.19
367.957	415.19
368.184	431.19
368.41	409.19
368.636	446.19
368.862	418.19
369.089	414.19
369.315	426.19
369.541	407.19
369.767	411.19
369.993	425.19
370.219	430.19
370.445	417.19
370.672	427.19
370.898	434.19
371.124	419.19
371.35	422.19
371.576	414.19
371.802	425.19
372.028	435.19
372.254	423.19
372.48	418.19
372.706	414.19
372.932	420.19
373.158	433.19
373.384	423.19
373.61	399.19
373.835	432.19
374.061	429.19
374.287	446.19
374.513	444.19
374.739	437.19
374.965	423.19
375.191	443.19
375.416	429.19
375.642	442.19
375.868	418.19
376.094	424.19
376.319	442.19
376.545	417.19
376.771	420.19
376.997	432.19
377.222	428.19
377.448	424.19
377.674	425.19
377.899	426.19
378.125	395.19
378.35	432.19
378.576	442.19
378.802	440.19
379.027	431.19
379.253	412.19
379.478	412.19
379.704	429.19
379.929	417.19
380.155	424.19
380.38	423.19
380.606	395.19
380.831	423.19
381.057	436.19
381.282	417.19
381.507	408.19
381.733	408.19
381.958	433.19
382.184	443.19
382.409	441.19
382.634	445.19
382.86	455.19
383.085	451.19
383.31	442.19
383.535	453.19
383.761	440.19
383.986	424.19
384.211	430.19
384.436	461.19
384.662	473.19
384.887	450.19
385.112	450.19
385.337	447.19
385.562	466.19
385.787	478.19
386.013	472.19
386.238	473.19
386.463	458.19
386.688	477.19
386.913	456.19
387.138	471.19
387.363	470.19
387.588	462.19
387.813	460.19
388.038	467.19
388.263	476.19
388.488	470.19
388.713	482.19
388.938	480.19
389.163	486.19
389.387	489.19
389.612	469.19
389.837	444.19
390.062	470.19
390.287	463.19
390.512	467.19
390.736	484.19
390.961	460.19
391.186	476.19
391.411	488.19
391.636	504.19
391.86	481.19
392.085	478.19
392.31	493.19
392.534	472.19
392.759	495.19
392.984	490.19
393.208	489.19
393.433	481.19
393.658	496.19
393.882	490.19
394.107	489.19
394.331	484.19
394.556	495.19
394.78	481.19
395.005	501.19
395.229	474.19
395.454	510.19
395.678	495.19
395.903	518.19
396.127	512.19
396.352	534.19
396.576	500.19
396.801	492.19
397.025	462.19
397.249	505.19
397.474	511.19
397.698	521.19
397.922	518.19
398.147	545.19
398.371	548.19
398.595	527.19
398.82	561.19
399.044	553.19
399.268	599.19
399.492	605.19
399.717	653.19
399.941	685.19
400.165	694.19
400.389	701.19
400.613	645.19
400.837	589.19
401.062	578.19
401.286	545.19
401.51	579.19
401.734	554.19
401.958	561.19
402.182	581.19
402.406	584.19
402.63	579.19
402.854	604.19
403.078	569.19
403.302	590.19
403.526	588.19
403.75	556.19
403.974	582.19
404.198	577.19
404.422	566.19
404.645	592.19
404.869	604.19
405.093	624.19
405.317	674.19
405.541	695.19
405.765	638.19
405.988	625.19
406.212	620.19
406.436	634.19
406.66	666.19
406.883	629.19
407.107	649.19
407.331	702.19
407.555	778.19
407.778	774.19
408.002	717.19
408.226	670.19
408.449	657.19
408.673	641.19
408.896	654.19
409.12	706.19
409.344	653.19
409.567	633.19
409.791	609.19
410.014	577.19
410.238	596.19
410.461	577.19
410.685	580.19
410.908	615.19
411.132	624.19
411.355	668.19
411.578	651.19
411.802	593.19
412.025	578.19
412.249	577.19
412.472	615.19
412.695	668.19
412.919	636.19
413.142	592.19
413.365	562.19
413.589	575.19
413.812	567.19
414.035	552.19
414.258	571.19
414.482	558.19
414.705	567.19
414.928	544.19
415.151	567.19
415.374	570.19
415.597	574.19
415.821	539.19
416.044	552.19
416.267	561.19
416.49	566.19
416.713	545.19
416.936	564.19
417.159	564.19
417.382	542.19
417.605	536.19
417.828	585.19
418.051	571.19
418.274	597.19
418.497	558.19
418.72	558.19
418.943	546.19
419.166	550.19
419.389	592.19
419.611	600.19
419.834	583.19
420.057	590.19
420.28	579.19
420.503	568.19
420.726	592.19
420.948	579.19
421.171	631.19
421.394	662.19
421.617	616.19
421.839	578.19
422.062	592.19
422.285	585.19
422.507	642.19
422.73	717.19
422.953	712.19
423.175	638.19
423.398	592.19
423.621	598.19
423.843	612.19
424.066	636.19
424.288	623.19
424.511	640.19
424.733	683.19
424.956	753.19
425.178	734.19
425.401	739.19
425.623	733.19
425.846	659.19
426.068	607.19
426.291	606.19
426.513	607.19
426.735	614.19
426.958	666.19
427.18	729.19
427.402	861.19
427.625	942.19
427.847	805.19
428.069	721.19
428.292	662.19
428.514	609.19
428.736	586.19
428.958	582.19
429.181	572.19
429.403	569.19
429.625	573.19
429.847	603.19
430.069	674.19
430.292	642.19
430.514	606.19
430.736	585.19
430.958	576.19
431.18	554.19
431.402	527.19
431.624	546.19
431.846	526.19
432.068	553.19
432.29	538.19
432.512	549.19
432.734	562.19
432.956	555.19
433.178	574.19
433.4	573.19
433.622	566.19
433.844	545.19
434.066	510.19
434.287	553.19
434.509	544.19
434.731	570.19
434.953	585.19
435.175	553.19
435.397	632.19
435.618	642.19
435.84	635.19
436.062	728.19
436.284	847.19
436.505	689.19
436.727	632.19
436.949	585.19
437.17	582.19
437.392	564.19
437.614	587.19
437.835	603.19
438.057	705.19
438.278	802.19
438.5	794.19
438.721	865.19
438.943	836.19
439.165	681.19
439.386	632.19
439.608	619.19
439.829	632.19
440.05	642.19
440.272	680.19
440.493	652.19
440.715	592.19
440.936	570.19
441.158	598.19
441.379	579.19
441.6	594.19
441.822	599.19
442.043	662.19
442.264	740.19
442.486	778.19
442.707	674.19
442.928	618.19
443.149	646.19
443.371	639.19
443.592	668.19
443.813	774.19
444.034	841.19
444.255	676.19
444.476	639.19
444.698	648.19
444.919	649.19
445.14	717.19
445.361	674.19
445.582	667.19
445.803	730.19
446.024	826.19
446.245	830.19
446.466	748.19
446.687	655.19
446.908	606.19
447.129	584.19
447.35	562.19
447.571	568.19
447.792	546.19
448.013	561.19
448.234	581.19
448.455	604.19
448.675	749.19
448.896	853.19
449.117	715.19
449.338	704.19
449.559	776.19
449.779	919.19
450	726.19
450.221	622.19
450.442	570.19
450.662	564.19
450.883	574.19
451.104	582.19
451.324	566.19
451.545	540.19
451.766	533.19
451.986	517.19
452.207	516.19
452.428	495.19
452.648	526.19
452.869	512.19
453.089	522.19
453.31	537.19
453.53	519.19
453.751	508.19
453.971	492.19
454.192	548.19
454.412	535.19
454.633	502.19
454.853	501.19
455.073	480.19
455.294	528.19
455.514	612.19
455.734	586.19
455.955	509.19
456.175	480.19
456.395	476.19
456.616	476.19
456.836	473.19
457.056	494.19
457.276	483.19
457.497	500.19
457.717	482.19
457.937	497.19
458.157	500.19
458.377	502.19
458.598	532.19
458.818	568.19
459.038	649.19
459.258	646.19
459.478	586.19
459.698	572.19
459.918	554.19
460.138	564.19
460.358	570.19
460.578	559.19
460.798	595.19
461.018	586.19
461.238	580.19
461.458	566.19
461.678	577.19
461.898	592.19
462.118	574.19
462.338	587.19
462.558	574.19
462.777	606.19
462.997	628.19
463.217	631.19
463.437	657.19
463.657	597.19
463.876	615.19
464.096	606.19
464.316	602.19
464.536	638.19
464.755	612.19
464.975	623.19
465.195	642.19
465.414	711.19
465.634	626.19
465.854	587.19
466.073	550.19
466.293	550.19
466.512	553.19
466.732	540.19
466.951	536.19
467.171	530.19
467.391	526.19
467.61	536.19
467.829	552.19
468.049	534.19
468.268	551.19
468.488	531.19
468.707	517.19
468.927	498.19
469.146	519.19
469.365	518.19
469.585	506.19
469.804	533.19
470.023	555.19
470.243	524.19
470.462	542.19
470.681	551.19
470.901	553.19
471.12	531.19
471.339	546.19
471.558	526.19
471.777	531.19
471.997	538.19
472.216	560.19
472.435	573.19
472.654	572.19
472.873	523.19
473.092	528.19
473.311	527.19
473.53	529.19
473.749	541.19
473.968	583.19
474.187	674.19
474.406	684.19
474.625	612.19
474.844	520.19
475.063	535.19
475.282	556.19
475.501	530.19
475.72	550.19
475.939	556.19
476.158	534.19
476.377	558.19
476.596	555.19
476.814	580.19
477.033	558.19
477.252	573.19
477.471	567.19
477.69	588.19
477.908	584.19
478.127	588.19
478.346	581.19
478.564	600.19
478.783	610.19
479.002	621.19
479.22	613.19
479.439	651.19
479.658	638.19
479.876	644.19
480.095	657.19
480.313	690.19
480.532	666.19
480.751	674.19
480.969	672.19
481.188	707.19
481.406	767.19
481.624	657.19
481.843	645.19
482.061	625.19
482.28	620.19
482.498	609.19
482.717	622.19
482.935	624.19
483.153	611.19
483.372	650.19
483.59	608.19
483.808	613.19
484.027	616.19
484.245	620.19
484.463	633.19
484.681	653.19
484.9	632.19
485.118	652.19
485.336	636.19
485.554	663.19
485.772	619.19
485.99	654.19
486.209	635.19
486.427	653.19
486.645	655.19
486.863	670.19
487.081	692.19
487.299	683.19
487.517	653.19
487.735	677.19
487.953	660.19
488.171	670.19
488.389	660.19
488.607	661.19
488.825	644.19
489.043	650.19
489.261	678.19
489.479	667.19
489.696	656.19
489.914	679.19
490.132	683.19
490.35	680.19
490.568	706.19
490.786	697.19
491.003	711.19
491.221	705.19
491.439	741.19
491.657	745.19
491.874	738.19
492.092	751.19
492.31	748.19
492.527	763.19
492.745	766.19
492.963	785.19
493.18	748.19
493.398	762.19
493.615	784.19
493.833	760.19
494.05	776.19
494.268	800.19
494.485	753.19
494.703	776.19
494.92	778.19
495.138	792.19
495.355	790.19
495.573	796.19
495.79	796.19
496.008	807.19
496.225	799.19
496.442	792.19
496.66	818.19
496.877	790.19
497.094	814.19
497.312	790.19
497.529	830.19
497.746	814.19
497.963	841.19
498.181	871.19
498.398	880.19
498.615	894.19
498.832	926.19
499.049	937.19
499.267	974.19
499.484	1009.19
499.701	1052.19
499.918	1116.19
500.135	1167.19
500.352	1201.19
500.569	1243.19
500.786	1259.19
501.003	1213.19
501.22	1157.19
501.437	1112.19
501.654	1083.19
501.871	1035.19
