Data from 1979.PennyLincolnUp.Lamp.En5.5.200Scan.071719.P1_HRD10591_16-17-39-863.txt Node
Date: Thu Jul 18 16:17:39 EDT 2019
User: cochatt
Spectrometer: HR+D1059
Trigger mode: 1
Integration Time (sec): 1.000000E-1
Scans to average: 1
Electric dark correction enabled: true
Nonlinearity correction enabled: false
Boxcar width: 0
XAxis mode: Wavelengths
Number of Pixels in Spectrum: 2048
>>>>>Begin Spectral Data<<<<<
223.165	-5.19
223.4	-5.19
223.635	-5.19
223.869	-22.19
224.104	-23.19
224.338	-3.19
224.573	-15.19
224.808	-16.19
225.042	-11.19
225.277	-21.19
225.511	-0.19
225.746	14.81
225.98	12.81
226.215	-6.19
226.449	12.81
226.683	28.81
226.918	25.81
227.152	28.81
227.387	36.81
227.621	42.81
227.856	30.81
228.09	42.81
228.324	48.81
228.559	46.81
228.793	62.81
229.027	90.81
229.262	87.81
229.496	105.81
229.73	117.81
229.964	119.81
230.199	114.81
230.433	105.81
230.667	86.81
230.901	97.81
231.136	85.81
231.37	90.81
231.604	93.81
231.838	115.81
232.072	99.81
232.306	112.81
232.541	115.81
232.775	117.81
233.009	98.81
233.243	97.81
233.477	104.81
233.711	107.81
233.945	113.81
234.179	117.81
234.413	101.81
234.647	112.81
234.881	107.81
235.115	109.81
235.349	108.81
235.583	126.81
235.817	113.81
236.051	118.81
236.285	111.81
236.519	117.81
236.753	109.81
236.987	127.81
237.221	141.81
237.455	184.81
237.689	155.81
237.922	135.81
238.156	111.81
238.39	109.81
238.624	123.81
238.858	116.81
239.091	113.81
239.325	123.81
239.559	142.81
239.793	126.81
240.027	106.81
240.26	117.81
240.494	141.81
240.728	137.81
240.961	141.81
241.195	137.81
241.429	134.81
241.662	108.81
241.896	121.81
242.13	125.81
242.363	131.81
242.597	121.81
242.83	140.81
243.064	127.81
243.298	139.81
243.531	142.81
243.765	142.81
243.998	130.81
244.232	125.81
244.465	129.81
244.699	134.81
244.932	142.81
245.166	120.81
245.399	132.81
245.633	126.81
245.866	133.81
246.099	140.81
246.333	142.81
246.566	129.81
246.8	132.81
247.033	132.81
247.266	145.81
247.5	147.81
247.733	132.81
247.966	151.81
248.2	160.81
248.433	148.81
248.666	149.81
248.899	149.81
249.133	178.81
249.366	171.81
249.599	167.81
249.832	153.81
250.066	171.81
250.299	154.81
250.532	162.81
250.765	159.81
250.998	179.81
251.231	174.81
251.465	191.81
251.698	177.81
251.931	162.81
252.164	155.81
252.397	164.81
252.63	171.81
252.863	182.81
253.096	180.81
253.329	188.81
253.562	179.81
253.795	187.81
254.028	180.81
254.261	173.81
254.494	185.81
254.727	206.81
254.96	216.81
255.193	211.81
255.426	169.81
255.659	193.81
255.892	172.81
256.124	197.81
256.357	198.81
256.59	196.81
256.823	179.81
257.056	196.81
257.289	187.81
257.521	176.81
257.754	177.81
257.987	179.81
258.22	175.81
258.452	176.81
258.685	169.81
258.918	158.81
259.151	181.81
259.383	181.81
259.616	201.81
259.849	193.81
260.081	205.81
260.314	221.81
260.547	211.81
260.779	196.81
261.012	187.81
261.244	202.81
261.477	191.81
261.71	194.81
261.942	196.81
262.175	199.81
262.407	200.81
262.64	188.81
262.872	192.81
263.105	203.81
263.337	191.81
263.57	183.81
263.802	179.81
264.035	205.81
264.267	180.81
264.499	193.81
264.732	183.81
264.964	192.81
265.197	181.81
265.429	187.81
265.661	187.81
265.894	182.81
266.126	180.81
266.358	203.81
266.591	200.81
266.823	194.81
267.055	203.81
267.287	196.81
267.52	181.81
267.752	184.81
267.984	192.81
268.216	181.81
268.448	212.81
268.681	219.81
268.913	204.81
269.145	214.81
269.377	207.81
269.609	216.81
269.841	219.81
270.073	217.81
270.306	207.81
270.538	245.81
270.77	247.81
271.002	233.81
271.234	235.81
271.466	231.81
271.698	242.81
271.93	243.81
272.162	242.81
272.394	257.81
272.626	233.81
272.858	222.81
273.09	239.81
273.322	229.81
273.553	228.81
273.785	222.81
274.017	217.81
274.249	211.81
274.481	226.81
274.713	214.81
274.945	241.81
275.176	238.81
275.408	231.81
275.64	227.81
275.872	215.81
276.104	223.81
276.335	235.81
276.567	228.81
276.799	246.81
277.031	244.81
277.262	236.81
277.494	247.81
277.726	225.81
277.957	237.81
278.189	225.81
278.421	228.81
278.652	213.81
278.884	225.81
279.115	222.81
279.347	244.81
279.579	238.81
279.81	225.81
280.042	239.81
280.273	242.81
280.505	244.81
280.736	252.81
280.968	239.81
281.199	219.81
281.431	216.81
281.662	242.81
281.894	250.81
282.125	239.81
282.356	259.81
282.588	236.81
282.819	250.81
283.051	230.81
283.282	237.81
283.513	240.81
283.745	235.81
283.976	226.81
284.207	246.81
284.439	241.81
284.67	242.81
284.901	243.81
285.132	258.81
285.364	238.81
285.595	247.81
285.826	246.81
286.057	250.81
286.288	248.81
286.52	234.81
286.751	247.81
286.982	232.81
287.213	247.81
287.444	250.81
287.675	246.81
287.906	233.81
288.138	257.81
288.369	266.81
288.6	266.81
288.831	277.81
289.062	265.81
289.293	254.81
289.524	254.81
289.755	259.81
289.986	237.81
290.217	238.81
290.448	266.81
290.679	260.81
290.91	256.81
291.141	255.81
291.371	248.81
291.602	256.81
291.833	265.81
292.064	254.81
292.295	269.81
292.526	244.81
292.757	261.81
292.987	260.81
293.218	236.81
293.449	259.81
293.68	259.81
293.91	244.81
294.141	276.81
294.372	271.81
294.603	282.81
294.833	263.81
295.064	244.81
295.295	259.81
295.525	261.81
295.756	246.81
295.987	266.81
296.217	261.81
296.448	283.81
296.679	275.81
296.909	257.81
297.14	274.81
297.37	271.81
297.601	273.81
297.831	269.81
298.062	275.81
298.292	271.81
298.523	270.81
298.753	276.81
298.984	287.81
299.214	263.81
299.445	273.81
299.675	283.81
299.905	288.81
300.136	289.81
300.366	276.81
300.597	295.81
300.827	286.81
301.057	271.81
301.288	268.81
301.518	273.81
301.748	289.81
301.979	292.81
302.209	283.81
302.439	296.81
302.669	301.81
302.9	272.81
303.13	308.81
303.36	286.81
303.59	286.81
303.82	315.81
304.051	283.81
304.281	295.81
304.511	309.81
304.741	282.81
304.971	274.81
305.201	299.81
305.431	298.81
305.661	302.81
305.891	294.81
306.121	283.81
306.352	288.81
306.582	299.81
306.812	286.81
307.042	297.81
307.272	302.81
307.502	312.81
307.731	286.81
307.961	297.81
308.191	299.81
308.421	283.81
308.651	313.81
308.881	283.81
309.111	291.81
309.341	285.81
309.571	300.81
309.8	301.81
310.03	313.81
310.26	310.81
310.49	306.81
310.72	333.81
310.949	353.81
311.179	330.81
311.409	320.81
311.639	320.81
311.868	322.81
312.098	322.81
312.328	330.81
312.557	327.81
312.787	335.81
313.017	329.81
313.246	329.81
313.476	336.81
313.706	321.81
313.935	334.81
314.165	333.81
314.394	335.81
314.624	324.81
314.853	333.81
315.083	330.81
315.312	331.81
315.542	339.81
315.771	344.81
316.001	322.81
316.23	336.81
316.46	330.81
316.689	349.81
316.919	323.81
317.148	341.81
317.377	325.81
317.607	330.81
317.836	339.81
318.065	325.81
318.295	299.81
318.524	331.81
318.753	317.81
318.983	337.81
319.212	326.81
319.441	311.81
319.67	323.81
319.9	333.81
320.129	335.81
320.358	332.81
320.587	334.81
320.816	342.81
321.046	344.81
321.275	350.81
321.504	326.81
321.733	346.81
321.962	373.81
322.191	369.81
322.42	369.81
322.649	359.81
322.878	357.81
323.108	356.81
323.337	378.81
323.566	355.81
323.795	423.81
324.024	438.81
324.253	488.81
324.482	671.81
324.71	1006.81
324.939	1496.81
325.168	1283.81
325.397	618.81
325.626	452.81
325.855	412.81
326.084	392.81
326.313	377.81
326.542	393.81
326.77	448.81
326.999	487.81
327.228	630.81
327.457	933.81
327.686	1130.81
327.914	731.81
328.143	509.81
328.372	463.81
328.6	436.81
328.829	418.81
329.058	423.81
329.287	441.81
329.515	421.81
329.744	385.81
329.972	385.81
330.201	415.81
330.43	423.81
330.658	453.81
330.887	447.81
331.115	428.81
331.344	397.81
331.572	403.81
331.801	408.81
332.03	406.81
332.258	402.81
332.486	381.81
332.715	402.81
332.943	412.81
333.172	403.81
333.4	402.81
333.629	426.81
333.857	420.81
334.085	431.81
334.314	413.81
334.542	442.81
334.771	456.81
334.999	423.81
335.227	421.81
335.455	411.81
335.684	405.81
335.912	383.81
336.14	400.81
336.369	407.81
336.597	403.81
336.825	394.81
337.053	392.81
337.281	377.81
337.51	394.81
337.738	387.81
337.966	412.81
338.194	380.81
338.422	404.81
338.65	383.81
338.878	387.81
339.106	374.81
339.334	386.81
339.562	367.81
339.79	393.81
340.018	385.81
340.246	386.81
340.474	391.81
340.702	370.81
340.93	382.81
341.158	379.81
341.386	395.81
341.614	396.81
341.842	410.81
342.07	371.81
342.298	348.81
342.526	377.81
342.754	371.81
342.981	375.81
343.209	379.81
343.437	369.81
343.665	383.81
343.893	393.81
344.12	390.81
344.348	387.81
344.576	378.81
344.804	397.81
345.031	387.81
345.259	385.81
345.487	383.81
345.714	390.81
345.942	378.81
346.17	370.81
346.397	391.81
346.625	374.81
346.853	364.81
347.08	383.81
347.308	367.81
347.535	364.81
347.763	381.81
347.99	386.81
348.218	384.81
348.445	371.81
348.673	375.81
348.9	376.81
349.128	359.81
349.355	362.81
349.583	373.81
349.81	361.81
350.037	385.81
350.265	359.81
350.492	357.81
350.72	361.81
350.947	358.81
351.174	354.81
351.402	377.81
351.629	385.81
351.856	366.81
352.083	381.81
352.311	358.81
352.538	371.81
352.765	393.81
352.992	383.81
353.22	380.81
353.447	360.81
353.674	351.81
353.901	371.81
354.128	344.81
354.355	343.81
354.583	379.81
354.81	359.81
355.037	355.81
355.264	360.81
355.491	359.81
355.718	351.81
355.945	353.81
356.172	349.81
356.399	359.81
356.626	331.81
356.853	347.81
357.08	359.81
357.307	357.81
357.534	351.81
357.761	357.81
357.988	356.81
358.215	358.81
358.441	365.81
358.668	362.81
358.895	363.81
359.122	351.81
359.349	357.81
359.576	355.81
359.802	371.81
360.029	385.81
360.256	400.81
360.483	371.81
360.709	376.81
360.936	383.81
361.163	374.81
361.39	359.81
361.616	381.81
361.843	361.81
362.07	397.81
362.296	387.81
362.523	357.81
362.749	375.81
362.976	376.81
363.203	385.81
363.429	358.81
363.656	365.81
363.882	378.81
364.109	335.81
364.335	367.81
364.562	375.81
364.788	365.81
365.015	379.81
365.241	361.81
365.468	368.81
365.694	370.81
365.92	372.81
366.147	378.81
366.373	350.81
366.599	373.81
366.826	353.81
367.052	355.81
367.278	379.81
367.505	347.81
367.731	380.81
367.957	375.81
368.184	380.81
368.41	375.81
368.636	373.81
368.862	375.81
369.089	360.81
369.315	360.81
369.541	378.81
369.767	358.81
369.993	379.81
370.219	359.81
370.445	376.81
370.672	371.81
370.898	364.81
371.124	381.81
371.35	385.81
371.576	378.81
371.802	384.81
372.028	386.81
372.254	375.81
372.48	387.81
372.706	383.81
372.932	377.81
373.158	370.81
373.384	377.81
373.61	383.81
373.835	380.81
374.061	389.81
374.287	397.81
374.513	378.81
374.739	389.81
374.965	377.81
375.191	395.81
375.416	372.81
375.642	387.81
375.868	388.81
376.094	400.81
376.319	390.81
376.545	391.81
376.771	383.81
376.997	358.81
377.222	392.81
377.448	383.81
377.674	378.81
377.899	365.81
378.125	387.81
378.35	367.81
378.576	385.81
378.802	373.81
379.027	374.81
379.253	384.81
379.478	385.81
379.704	393.81
379.929	379.81
380.155	381.81
380.38	360.81
380.606	396.81
380.831	378.81
381.057	387.81
381.282	387.81
381.507	375.81
381.733	368.81
381.958	406.81
382.184	383.81
382.409	389.81
382.634	395.81
382.86	400.81
383.085	395.81
383.31	404.81
383.535	426.81
383.761	386.81
383.986	407.81
384.211	402.81
384.436	405.81
384.662	417.81
384.887	419.81
385.112	424.81
385.337	396.81
385.562	424.81
385.787	409.81
386.013	420.81
386.238	429.81
386.463	423.81
386.688	413.81
386.913	417.81
387.138	409.81
387.363	398.81
387.588	425.81
387.813	447.81
388.038	421.81
388.263	413.81
388.488	429.81
388.713	413.81
388.938	442.81
389.163	431.81
389.387	435.81
389.612	424.81
389.837	411.81
390.062	436.81
390.287	417.81
390.512	429.81
390.736	426.81
390.961	424.81
391.186	422.81
391.411	416.81
391.636	449.81
391.86	448.81
392.085	446.81
392.31	441.81
392.534	445.81
392.759	433.81
392.984	423.81
393.208	470.81
393.433	455.81
393.658	459.81
393.882	454.81
394.107	454.81
394.331	441.81
394.556	451.81
394.78	430.81
395.005	449.81
395.229	433.81
395.454	441.81
395.678	458.81
395.903	475.81
396.127	477.81
396.352	463.81
396.576	457.81
396.801	468.81
397.025	470.81
397.249	458.81
397.474	466.81
397.698	471.81
397.922	470.81
398.147	454.81
398.371	508.81
398.595	511.81
398.82	517.81
399.044	502.81
399.268	535.81
399.492	570.81
399.717	578.81
399.941	605.81
400.165	619.81
400.389	598.81
400.613	563.81
400.837	540.81
401.062	537.81
401.286	519.81
401.51	527.81
401.734	497.81
401.958	510.81
402.182	503.81
402.406	513.81
402.63	526.81
402.854	523.81
403.078	522.81
403.302	539.81
403.526	541.81
403.75	552.81
403.974	513.81
404.198	543.81
404.422	520.81
404.645	535.81
404.869	539.81
405.093	555.81
405.317	584.81
405.541	605.81
405.765	581.81
405.988	531.81
406.212	549.81
406.436	573.81
406.66	565.81
406.883	529.81
407.107	588.81
407.331	627.81
407.555	681.81
407.778	670.81
408.002	617.81
408.226	582.81
408.449	597.81
408.673	567.81
408.896	589.81
409.12	614.81
409.344	627.81
409.567	550.81
409.791	561.81
410.014	525.81
410.238	515.81
410.461	507.81
410.685	525.81
410.908	531.81
411.132	584.81
411.355	575.81
411.578	568.81
411.802	523.81
412.025	515.81
412.249	542.81
412.472	541.81
412.695	570.81
412.919	552.81
413.142	527.81
413.365	525.81
413.589	551.81
413.812	518.81
414.035	536.81
414.258	499.81
414.482	502.81
414.705	510.81
414.928	524.81
415.151	514.81
415.374	502.81
415.597	491.81
415.821	495.81
416.044	518.81
416.267	531.81
416.49	486.81
416.713	489.81
416.936	501.81
417.159	495.81
417.382	526.81
417.605	507.81
417.828	498.81
418.051	507.81
418.274	511.81
418.497	493.81
418.72	490.81
418.943	498.81
419.166	532.81
419.389	533.81
419.611	532.81
419.834	542.81
420.057	546.81
420.28	508.81
420.503	517.81
420.726	509.81
420.948	531.81
421.171	559.81
421.394	578.81
421.617	539.81
421.839	546.81
422.062	513.81
422.285	530.81
422.507	578.81
422.73	634.81
422.953	635.81
423.175	545.81
423.398	553.81
423.621	556.81
423.843	573.81
424.066	545.81
424.288	542.81
424.511	573.81
424.733	583.81
424.956	629.81
425.178	650.81
425.401	632.81
425.623	648.81
425.846	549.81
426.068	551.81
426.291	527.81
426.513	547.81
426.735	530.81
426.958	562.81
427.18	638.81
427.402	737.81
427.625	802.81
427.847	697.81
428.069	628.81
428.292	577.81
428.514	511.81
428.736	522.81
428.958	521.81
429.181	518.81
429.403	483.81
429.625	504.81
429.847	544.81
430.069	568.81
430.292	566.81
430.514	513.81
430.736	498.81
430.958	489.81
431.18	483.81
431.402	503.81
431.624	486.81
431.846	472.81
432.068	476.81
432.29	491.81
432.512	490.81
432.734	488.81
432.956	469.81
433.178	494.81
433.4	485.81
433.622	463.81
433.844	482.81
434.066	486.81
434.287	490.81
434.509	465.81
434.731	491.81
434.953	513.81
435.175	531.81
435.397	540.81
435.618	519.81
435.84	565.81
436.062	622.81
436.284	705.81
436.505	594.81
436.727	558.81
436.949	488.81
437.17	522.81
437.392	486.81
437.614	519.81
437.835	537.81
438.057	591.81
438.278	686.81
438.5	670.81
438.721	738.81
438.943	711.81
439.165	580.81
439.386	538.81
439.608	529.81
439.829	536.81
440.05	553.81
440.272	586.81
440.493	557.81
440.715	515.81
440.936	513.81
441.158	518.81
441.379	499.81
441.6	520.81
441.822	531.81
442.043	583.81
442.264	599.81
442.486	657.81
442.707	584.81
442.928	535.81
443.149	566.81
443.371	550.81
443.592	599.81
443.813	666.81
444.034	701.81
444.255	604.81
444.476	583.81
444.698	556.81
444.919	554.81
445.14	666.81
445.361	619.81
445.582	572.81
445.803	595.81
446.024	695.81
446.245	678.81
446.466	649.81
446.687	573.81
446.908	552.81
447.129	511.81
447.35	483.81
447.571	493.81
447.792	473.81
448.013	509.81
448.234	505.81
448.455	519.81
448.675	613.81
448.896	723.81
449.117	627.81
449.338	601.81
449.559	674.81
449.779	762.81
450	595.81
450.221	502.81
450.442	493.81
450.662	484.81
450.883	475.81
451.104	495.81
451.324	473.81
451.545	472.81
451.766	448.81
451.986	453.81
452.207	439.81
452.428	434.81
452.648	426.81
452.869	453.81
453.089	447.81
453.31	476.81
453.53	444.81
453.751	462.81
453.971	431.81
454.192	454.81
454.412	435.81
454.633	445.81
454.853	441.81
455.073	444.81
455.294	480.81
455.514	475.81
455.734	495.81
455.955	447.81
456.175	416.81
456.395	426.81
456.616	445.81
456.836	437.81
457.056	427.81
457.276	430.81
457.497	438.81
457.717	446.81
457.937	437.81
458.157	427.81
458.377	435.81
458.598	460.81
458.818	494.81
459.038	553.81
459.258	571.81
459.478	516.81
459.698	469.81
459.918	489.81
460.138	494.81
460.358	522.81
460.578	486.81
460.798	501.81
461.018	541.81
461.238	528.81
461.458	534.81
461.678	508.81
461.898	545.81
462.118	507.81
462.338	551.81
462.558	539.81
462.777	530.81
462.997	569.81
463.217	579.81
463.437	587.81
463.657	552.81
463.876	550.81
464.096	560.81
464.316	557.81
464.536	565.81
464.755	571.81
464.975	567.81
465.195	548.81
465.414	595.81
465.634	545.81
465.854	519.81
466.073	508.81
466.293	501.81
466.512	460.81
466.732	490.81
466.951	487.81
467.171	459.81
467.391	473.81
467.61	490.81
467.829	486.81
468.049	483.81
468.268	469.81
468.488	461.81
468.707	476.81
468.927	472.81
469.146	471.81
469.365	463.81
469.585	453.81
469.804	470.81
470.023	481.81
470.243	486.81
470.462	467.81
470.681	486.81
470.901	468.81
471.12	504.81
471.339	463.81
471.558	465.81
471.777	469.81
471.997	448.81
472.216	484.81
472.435	511.81
472.654	492.81
472.873	479.81
473.092	461.81
473.311	466.81
473.53	479.81
473.749	473.81
473.968	495.81
474.187	559.81
474.406	578.81
474.625	511.81
474.844	477.81
475.063	472.81
475.282	473.81
475.501	490.81
475.72	484.81
475.939	497.81
476.158	483.81
476.377	480.81
476.596	492.81
476.814	501.81
477.033	492.81
477.252	500.81
477.471	492.81
477.69	517.81
477.908	492.81
478.127	534.81
478.346	521.81
478.564	539.81
478.783	535.81
479.002	543.81
479.22	559.81
479.439	549.81
479.658	556.81
479.876	550.81
480.095	568.81
480.313	601.81
480.532	606.81
480.751	611.81
480.969	581.81
481.188	620.81
481.406	634.81
481.624	589.81
481.843	562.81
482.061	539.81
482.28	566.81
482.498	561.81
482.717	522.81
482.935	544.81
483.153	551.81
483.372	535.81
483.59	556.81
483.808	546.81
484.027	565.81
484.245	568.81
484.463	551.81
484.681	582.81
484.9	587.81
485.118	572.81
485.336	575.81
485.554	575.81
485.772	568.81
485.99	577.81
486.209	567.81
486.427	563.81
486.645	561.81
486.863	590.81
487.081	600.81
487.299	603.81
487.517	609.81
487.735	585.81
487.953	609.81
488.171	598.81
488.389	594.81
488.607	567.81
488.825	592.81
489.043	567.81
489.261	593.81
489.479	594.81
489.696	593.81
489.914	616.81
490.132	613.81
490.35	616.81
490.568	609.81
490.786	643.81
491.003	616.81
491.221	637.81
491.439	645.81
491.657	662.81
491.874	648.81
492.092	672.81
492.31	667.81
492.527	662.81
492.745	655.81
492.963	643.81
493.18	694.81
493.398	690.81
493.615	682.81
493.833	692.81
494.05	669.81
494.268	669.81
494.485	669.81
494.703	680.81
494.92	687.81
495.138	685.81
495.355	680.81
495.573	682.81
495.79	708.81
496.008	693.81
496.225	690.81
496.442	682.81
496.66	686.81
496.877	695.81
497.094	726.81
497.312	754.81
497.529	727.81
497.746	713.81
497.963	742.81
498.181	741.81
498.398	804.81
498.615	790.81
498.832	823.81
499.049	841.81
499.267	900.81
499.484	911.81
499.701	963.81
499.918	988.81
500.135	1025.81
500.352	1110.81
500.569	1147.81
500.786	1141.81
501.003	1117.81
501.22	1051.81
501.437	1006.81
501.654	971.81
501.871	954.81
502.088	917.81
