Data from 1979.PennyLincolnUp.Lamp.En5.5.200Scan.071719.P1_HRD10591_16-18-32-863.txt Node
Date: Thu Jul 18 16:18:32 EDT 2019
User: cochatt
Spectrometer: HR+D1059
Trigger mode: 1
Integration Time (sec): 1.000000E-1
Scans to average: 1
Electric dark correction enabled: true
Nonlinearity correction enabled: false
Boxcar width: 0
XAxis mode: Wavelengths
Number of Pixels in Spectrum: 2048
>>>>>Begin Spectral Data<<<<<
223.165	-20.56
223.4	-20.56
223.635	-20.56
223.869	-15.56
224.104	-18.56
224.338	-23.56
224.573	-20.56
224.808	4.44
225.042	-15.56
225.277	2.44
225.511	4.44
225.746	2.44
225.98	9.44
226.215	4.44
226.449	22.44
226.683	19.44
226.918	22.44
227.152	22.44
227.387	47.44
227.621	48.44
227.856	40.44
228.09	48.44
228.324	42.44
228.559	48.44
228.793	63.44
229.027	86.44
229.262	95.44
229.496	109.44
229.73	111.44
229.964	138.44
230.199	120.44
230.433	119.44
230.667	97.44
230.901	105.44
231.136	109.44
231.37	112.44
231.604	125.44
231.838	110.44
232.072	114.44
232.306	114.44
232.541	104.44
232.775	115.44
233.009	102.44
233.243	115.44
233.477	130.44
233.711	103.44
233.945	111.44
234.179	103.44
234.413	111.44
234.647	103.44
234.881	117.44
235.115	122.44
235.349	121.44
235.583	121.44
235.817	121.44
236.051	124.44
236.285	125.44
236.519	116.44
236.753	131.44
236.987	135.44
237.221	173.44
237.455	198.44
237.689	170.44
237.922	132.44
238.156	127.44
238.39	137.44
238.624	124.44
238.858	130.44
239.091	124.44
239.325	130.44
239.559	110.44
239.793	111.44
240.027	135.44
240.26	142.44
240.494	140.44
240.728	152.44
240.961	156.44
241.195	135.44
241.429	139.44
241.662	140.44
241.896	117.44
242.13	139.44
242.363	124.44
242.597	119.44
242.83	144.44
243.064	124.44
243.298	142.44
243.531	150.44
243.765	144.44
243.998	145.44
244.232	130.44
244.465	127.44
244.699	139.44
244.932	137.44
245.166	125.44
245.399	139.44
245.633	142.44
245.866	153.44
246.099	134.44
246.333	128.44
246.566	136.44
246.8	153.44
247.033	138.44
247.266	152.44
247.5	167.44
247.733	160.44
247.966	152.44
248.2	156.44
248.433	158.44
248.666	158.44
248.899	182.44
249.133	185.44
249.366	186.44
249.599	166.44
249.832	162.44
250.066	177.44
250.299	194.44
250.532	197.44
250.765	199.44
250.998	195.44
251.231	208.44
251.465	212.44
251.698	181.44
251.931	188.44
252.164	183.44
252.397	190.44
252.63	176.44
252.863	173.44
253.096	202.44
253.329	197.44
253.562	200.44
253.795	193.44
254.028	194.44
254.261	209.44
254.494	211.44
254.727	224.44
254.96	248.44
255.193	228.44
255.426	215.44
255.659	197.44
255.892	217.44
256.124	230.44
256.357	205.44
256.59	205.44
256.823	182.44
257.056	195.44
257.289	187.44
257.521	197.44
257.754	198.44
257.987	202.44
258.22	192.44
258.452	198.44
258.685	195.44
258.918	196.44
259.151	204.44
259.383	211.44
259.616	200.44
259.849	203.44
260.081	203.44
260.314	223.44
260.547	229.44
260.779	227.44
261.012	217.44
261.244	225.44
261.477	222.44
261.71	205.44
261.942	205.44
262.175	204.44
262.407	233.44
262.64	213.44
262.872	191.44
263.105	205.44
263.337	208.44
263.57	198.44
263.802	203.44
264.035	208.44
264.267	198.44
264.499	186.44
264.732	203.44
264.964	203.44
265.197	197.44
265.429	210.44
265.661	213.44
265.894	211.44
266.126	201.44
266.358	213.44
266.591	214.44
266.823	219.44
267.055	217.44
267.287	207.44
267.52	200.44
267.752	225.44
267.984	220.44
268.216	210.44
268.448	213.44
268.681	232.44
268.913	240.44
269.145	262.44
269.377	249.44
269.609	247.44
269.841	247.44
270.073	245.44
270.306	254.44
270.538	294.44
270.77	275.44
271.002	277.44
271.234	238.44
271.466	276.44
271.698	298.44
271.93	259.44
272.162	285.44
272.394	264.44
272.626	259.44
272.858	263.44
273.09	266.44
273.322	253.44
273.553	243.44
273.785	256.44
274.017	253.44
274.249	229.44
274.481	258.44
274.713	260.44
274.945	245.44
275.176	261.44
275.408	232.44
275.64	263.44
275.872	232.44
276.104	261.44
276.335	250.44
276.567	243.44
276.799	270.44
277.031	276.44
277.262	289.44
277.494	299.44
277.726	267.44
277.957	263.44
278.189	273.44
278.421	254.44
278.652	244.44
278.884	238.44
279.115	243.44
279.347	244.44
279.579	229.44
279.81	260.44
280.042	239.44
280.273	271.44
280.505	246.44
280.736	254.44
280.968	253.44
281.199	231.44
281.431	253.44
281.662	251.44
281.894	247.44
282.125	270.44
282.356	265.44
282.588	291.44
282.819	288.44
283.051	276.44
283.282	249.44
283.513	275.44
283.745	263.44
283.976	250.44
284.207	276.44
284.439	272.44
284.67	270.44
284.901	276.44
285.132	272.44
285.364	272.44
285.595	270.44
285.826	260.44
286.057	270.44
286.288	264.44
286.52	275.44
286.751	283.44
286.982	266.44
287.213	276.44
287.444	272.44
287.675	273.44
287.906	272.44
288.138	287.44
288.369	295.44
288.6	278.44
288.831	298.44
289.062	294.44
289.293	273.44
289.524	272.44
289.755	276.44
289.986	262.44
290.217	281.44
290.448	272.44
290.679	285.44
290.91	287.44
291.141	296.44
291.371	286.44
291.602	282.44
291.833	278.44
292.064	277.44
292.295	281.44
292.526	261.44
292.757	287.44
292.987	262.44
293.218	290.44
293.449	287.44
293.68	286.44
293.91	275.44
294.141	295.44
294.372	300.44
294.603	272.44
294.833	275.44
295.064	275.44
295.295	265.44
295.525	293.44
295.756	298.44
295.987	286.44
296.217	322.44
296.448	311.44
296.679	297.44
296.909	298.44
297.14	313.44
297.37	297.44
297.601	295.44
297.831	285.44
298.062	285.44
298.292	300.44
298.523	313.44
298.753	296.44
298.984	319.44
299.214	296.44
299.445	300.44
299.675	280.44
299.905	308.44
300.136	301.44
300.366	306.44
300.597	312.44
300.827	318.44
301.057	316.44
301.288	320.44
301.518	311.44
301.748	324.44
301.979	330.44
302.209	314.44
302.439	327.44
302.669	340.44
302.9	310.44
303.13	315.44
303.36	317.44
303.59	331.44
303.82	343.44
304.051	326.44
304.281	336.44
304.511	319.44
304.741	299.44
304.971	310.44
305.201	318.44
305.431	330.44
305.661	321.44
305.891	299.44
306.121	320.44
306.352	313.44
306.582	324.44
306.812	330.44
307.042	315.44
307.272	331.44
307.502	321.44
307.731	327.44
307.961	323.44
308.191	316.44
308.421	320.44
308.651	329.44
308.881	344.44
309.111	322.44
309.341	351.44
309.571	335.44
309.8	352.44
310.03	356.44
310.26	362.44
310.49	342.44
310.72	365.44
310.949	358.44
311.179	384.44
311.409	358.44
311.639	347.44
311.868	368.44
312.098	355.44
312.328	372.44
312.557	364.44
312.787	390.44
313.017	386.44
313.246	354.44
313.476	370.44
313.706	348.44
313.935	364.44
314.165	377.44
314.394	376.44
314.624	360.44
314.853	374.44
315.083	394.44
315.312	371.44
315.542	356.44
315.771	368.44
316.001	355.44
316.23	350.44
316.46	358.44
316.689	358.44
316.919	373.44
317.148	357.44
317.377	392.44
317.607	373.44
317.836	374.44
318.065	378.44
318.295	358.44
318.524	373.44
318.753	364.44
318.983	354.44
319.212	359.44
319.441	387.44
319.67	370.44
319.9	375.44
320.129	363.44
320.358	355.44
320.587	380.44
320.816	367.44
321.046	380.44
321.275	396.44
321.504	375.44
321.733	382.44
321.962	367.44
322.191	386.44
322.42	408.44
322.649	406.44
322.878	409.44
323.108	440.44
323.337	441.44
323.566	465.44
323.795	476.44
324.024	490.44
324.253	616.44
324.482	844.44
324.71	1274.44
324.939	1943.44
325.168	1686.44
325.397	860.44
325.626	592.44
325.855	500.44
326.084	470.44
326.313	456.44
326.542	461.44
326.77	475.44
326.999	581.44
327.228	823.44
327.457	1214.44
327.686	1510.44
327.914	964.44
328.143	646.44
328.372	570.44
328.6	527.44
328.829	530.44
329.058	523.44
329.287	525.44
329.515	507.44
329.744	484.44
329.972	464.44
330.201	477.44
330.43	493.44
330.658	518.44
330.887	542.44
331.115	539.44
331.344	482.44
331.572	480.44
331.801	456.44
332.03	477.44
332.258	449.44
332.486	405.44
332.715	447.44
332.943	450.44
333.172	448.44
333.4	440.44
333.629	471.44
333.857	461.44
334.085	480.44
334.314	499.44
334.542	503.44
334.771	523.44
334.999	488.44
335.227	468.44
335.455	453.44
335.684	453.44
335.912	453.44
336.14	443.44
336.369	453.44
336.597	436.44
336.825	442.44
337.053	426.44
337.281	418.44
337.51	426.44
337.738	442.44
337.966	436.44
338.194	435.44
338.422	437.44
338.65	440.44
338.878	417.44
339.106	410.44
339.334	404.44
339.562	423.44
339.79	444.44
340.018	429.44
340.246	423.44
340.474	452.44
340.702	436.44
340.93	410.44
341.158	393.44
341.386	426.44
341.614	423.44
341.842	410.44
342.07	408.44
342.298	404.44
342.526	403.44
342.754	412.44
342.981	402.44
343.209	407.44
343.437	416.44
343.665	428.44
343.893	438.44
344.12	452.44
344.348	440.44
344.576	414.44
344.804	438.44
345.031	431.44
345.259	431.44
345.487	439.44
345.714	407.44
345.942	422.44
346.17	423.44
346.397	411.44
346.625	408.44
346.853	399.44
347.08	411.44
347.308	437.44
347.535	411.44
347.763	422.44
347.99	412.44
348.218	425.44
348.445	418.44
348.673	415.44
348.9	406.44
349.128	402.44
349.355	415.44
349.583	389.44
349.81	374.44
350.037	380.44
350.265	402.44
350.492	392.44
350.72	385.44
350.947	404.44
351.174	392.44
351.402	422.44
351.629	418.44
351.856	410.44
352.083	418.44
352.311	411.44
352.538	420.44
352.765	422.44
352.992	427.44
353.22	411.44
353.447	417.44
353.674	398.44
353.901	413.44
354.128	391.44
354.355	397.44
354.583	408.44
354.81	397.44
355.037	372.44
355.264	376.44
355.491	399.44
355.718	388.44
355.945	410.44
356.172	396.44
356.399	385.44
356.626	387.44
356.853	380.44
357.08	390.44
357.307	388.44
357.534	365.44
357.761	390.44
357.988	399.44
358.215	387.44
358.441	389.44
358.668	404.44
358.895	404.44
359.122	397.44
359.349	385.44
359.576	416.44
359.802	435.44
360.029	457.44
360.256	442.44
360.483	444.44
360.709	415.44
360.936	435.44
361.163	411.44
361.39	419.44
361.616	426.44
361.843	392.44
362.07	408.44
362.296	428.44
362.523	402.44
362.749	416.44
362.976	421.44
363.203	437.44
363.429	411.44
363.656	388.44
363.882	410.44
364.109	422.44
364.335	397.44
364.562	410.44
364.788	419.44
365.015	385.44
365.241	391.44
365.468	399.44
365.694	403.44
365.92	406.44
366.147	399.44
366.373	406.44
366.599	426.44
366.826	380.44
367.052	396.44
367.278	398.44
367.505	404.44
367.731	404.44
367.957	391.44
368.184	380.44
368.41	412.44
368.636	421.44
368.862	411.44
369.089	414.44
369.315	399.44
369.541	414.44
369.767	407.44
369.993	396.44
370.219	400.44
370.445	416.44
370.672	383.44
370.898	402.44
371.124	418.44
371.35	381.44
371.576	396.44
371.802	426.44
372.028	415.44
372.254	415.44
372.48	414.44
372.706	418.44
372.932	415.44
373.158	430.44
373.384	441.44
373.61	420.44
373.835	404.44
374.061	440.44
374.287	408.44
374.513	421.44
374.739	409.44
374.965	423.44
375.191	416.44
375.416	415.44
375.642	429.44
375.868	436.44
376.094	402.44
376.319	388.44
376.545	398.44
376.771	419.44
376.997	415.44
377.222	402.44
377.448	399.44
377.674	395.44
377.899	408.44
378.125	404.44
378.35	381.44
378.576	416.44
378.802	415.44
379.027	435.44
379.253	414.44
379.478	398.44
379.704	414.44
379.929	411.44
380.155	427.44
380.38	413.44
380.606	419.44
380.831	418.44
381.057	417.44
381.282	418.44
381.507	425.44
381.733	405.44
381.958	404.44
382.184	422.44
382.409	416.44
382.634	419.44
382.86	409.44
383.085	416.44
383.31	432.44
383.535	422.44
383.761	425.44
383.986	434.44
384.211	452.44
384.436	452.44
384.662	444.44
384.887	454.44
385.112	450.44
385.337	458.44
385.562	469.44
385.787	442.44
386.013	458.44
386.238	442.44
386.463	455.44
386.688	472.44
386.913	472.44
387.138	466.44
387.363	452.44
387.588	444.44
387.813	466.44
388.038	450.44
388.263	463.44
388.488	472.44
388.713	464.44
388.938	452.44
389.163	448.44
389.387	462.44
389.612	435.44
389.837	455.44
390.062	449.44
390.287	476.44
390.512	461.44
390.736	477.44
390.961	458.44
391.186	452.44
391.411	478.44
391.636	494.44
391.86	477.44
392.085	472.44
392.31	505.44
392.534	478.44
392.759	464.44
392.984	470.44
393.208	473.44
393.433	478.44
393.658	480.44
393.882	455.44
394.107	474.44
394.331	476.44
394.556	479.44
394.78	455.44
395.005	472.44
395.229	479.44
395.454	491.44
395.678	502.44
395.903	495.44
396.127	506.44
396.352	520.44
396.576	479.44
396.801	489.44
397.025	481.44
397.249	507.44
397.474	514.44
397.698	498.44
397.922	503.44
398.147	542.44
398.371	548.44
398.595	557.44
398.82	542.44
399.044	534.44
399.268	564.44
399.492	589.44
399.717	635.44
399.941	667.44
400.165	678.44
400.389	677.44
400.613	613.44
400.837	559.44
401.062	575.44
401.286	564.44
401.51	549.44
401.734	544.44
401.958	559.44
402.182	547.44
402.406	558.44
402.63	555.44
402.854	561.44
403.078	574.44
403.302	564.44
403.526	563.44
403.75	583.44
403.974	566.44
404.198	564.44
404.422	571.44
404.645	581.44
404.869	572.44
405.093	593.44
405.317	648.44
405.541	656.44
405.765	619.44
405.988	611.44
406.212	602.44
406.436	622.44
406.66	642.44
406.883	636.44
407.107	656.44
407.331	654.44
407.555	749.44
407.778	714.44
408.002	691.44
408.226	640.44
408.449	636.44
408.673	595.44
408.896	632.44
409.12	687.44
409.344	660.44
409.567	596.44
409.791	590.44
410.014	584.44
410.238	565.44
410.461	589.44
410.685	583.44
410.908	588.44
411.132	599.44
411.355	630.44
411.578	624.44
411.802	556.44
412.025	578.44
412.249	602.44
412.472	615.44
412.695	616.44
412.919	623.44
413.142	566.44
413.365	562.44
413.589	573.44
413.812	541.44
414.035	569.44
414.258	545.44
414.482	542.44
414.705	540.44
414.928	574.44
415.151	530.44
415.374	558.44
415.597	572.44
415.821	538.44
416.044	549.44
416.267	540.44
416.49	525.44
416.713	538.44
416.936	540.44
417.159	542.44
417.382	564.44
417.605	554.44
417.828	562.44
418.051	548.44
418.274	563.44
418.497	537.44
418.72	536.44
418.943	539.44
419.166	580.44
419.389	590.44
419.611	599.44
419.834	583.44
420.057	579.44
420.28	562.44
420.503	540.44
420.726	550.44
420.948	588.44
421.171	614.44
421.394	617.44
421.617	568.44
421.839	560.44
422.062	577.44
422.285	572.44
422.507	644.44
422.73	710.44
422.953	673.44
423.175	587.44
423.398	588.44
423.621	578.44
423.843	604.44
424.066	604.44
424.288	601.44
424.511	601.44
424.733	667.44
424.956	719.44
425.178	678.44
425.401	697.44
425.623	738.44
425.846	628.44
426.068	608.44
426.291	598.44
426.513	597.44
426.735	592.44
426.958	621.44
427.18	717.44
427.402	830.44
427.625	931.44
427.847	816.44
428.069	686.44
428.292	647.44
428.514	582.44
428.736	566.44
428.958	585.44
429.181	546.44
429.403	542.44
429.625	570.44
429.847	596.44
430.069	650.44
430.292	650.44
430.514	565.44
430.736	566.44
430.958	540.44
431.18	536.44
431.402	527.44
431.624	540.44
431.846	528.44
432.068	524.44
432.29	529.44
432.512	534.44
432.734	537.44
432.956	528.44
433.178	544.44
433.4	538.44
433.622	540.44
433.844	549.44
434.066	540.44
434.287	531.44
434.509	547.44
434.731	554.44
434.953	568.44
435.175	568.44
435.397	580.44
435.618	591.44
435.84	637.44
436.062	710.44
436.284	752.44
436.505	656.44
436.727	599.44
436.949	563.44
437.17	555.44
437.392	562.44
437.614	554.44
437.835	570.44
438.057	651.44
438.278	773.44
438.5	751.44
438.721	815.44
438.943	804.44
439.165	654.44
439.386	619.44
439.608	602.44
439.829	572.44
440.05	596.44
440.272	667.44
440.493	618.44
440.715	584.44
440.936	557.44
441.158	548.44
441.379	582.44
441.6	596.44
441.822	603.44
442.043	621.44
442.264	688.44
442.486	749.44
442.707	648.44
442.928	606.44
443.149	620.44
443.371	630.44
443.592	654.44
443.813	728.44
444.034	816.44
444.255	666.44
444.476	617.44
444.698	618.44
444.919	626.44
445.14	714.44
445.361	672.44
445.582	644.44
445.803	687.44
446.024	776.44
446.245	801.44
446.466	724.44
446.687	600.44
446.908	587.44
447.129	569.44
447.35	541.44
447.571	542.44
447.792	544.44
448.013	551.44
448.234	572.44
448.455	598.44
448.675	711.44
448.896	824.44
449.117	690.44
449.338	644.44
449.559	760.44
449.779	876.44
450	670.44
450.221	583.44
450.442	564.44
450.662	518.44
450.883	538.44
451.104	526.44
451.324	565.44
451.545	506.44
451.766	490.44
451.986	492.44
452.207	491.44
452.428	472.44
452.648	505.44
452.869	484.44
453.089	496.44
453.31	511.44
453.53	496.44
453.751	502.44
453.971	503.44
454.192	504.44
454.412	499.44
454.633	491.44
454.853	500.44
455.073	478.44
455.294	500.44
455.514	562.44
455.734	564.44
455.955	479.44
456.175	492.44
456.395	444.44
456.616	479.44
456.836	459.44
457.056	463.44
457.276	466.44
457.497	458.44
457.717	477.44
457.937	473.44
458.157	492.44
458.377	500.44
458.598	478.44
458.818	565.44
459.038	608.44
459.258	645.44
459.478	574.44
459.698	534.44
459.918	532.44
460.138	532.44
460.358	547.44
460.578	557.44
460.798	569.44
461.018	569.44
461.238	550.44
461.458	557.44
461.678	569.44
461.898	558.44
462.118	573.44
462.338	574.44
462.558	566.44
462.777	588.44
462.997	604.44
463.217	626.44
463.437	609.44
463.657	618.44
463.876	593.44
464.096	604.44
464.316	589.44
464.536	591.44
464.755	596.44
464.975	580.44
465.195	639.44
465.414	674.44
465.634	614.44
465.854	570.44
466.073	546.44
466.293	543.44
466.512	531.44
466.732	530.44
466.951	536.44
467.171	507.44
467.391	510.44
467.61	535.44
467.829	543.44
468.049	530.44
468.268	497.44
468.488	491.44
468.707	498.44
468.927	504.44
469.146	503.44
469.365	529.44
469.585	495.44
469.804	516.44
470.023	511.44
470.243	512.44
470.462	532.44
470.681	540.44
470.901	522.44
471.12	512.44
471.339	514.44
471.558	514.44
471.777	543.44
471.997	514.44
472.216	518.44
472.435	523.44
472.654	555.44
472.873	517.44
473.092	508.44
473.311	524.44
473.53	504.44
473.749	512.44
473.968	567.44
474.187	644.44
474.406	660.44
474.625	551.44
474.844	525.44
475.063	521.44
475.282	528.44
475.501	505.44
475.72	541.44
475.939	528.44
476.158	553.44
476.377	531.44
476.596	533.44
476.814	555.44
477.033	548.44
477.252	551.44
477.471	565.44
477.69	564.44
477.908	558.44
478.127	582.44
478.346	579.44
478.564	566.44
478.783	590.44
479.002	593.44
479.22	602.44
479.439	623.44
479.658	611.44
479.876	594.44
480.095	619.44
480.313	682.44
480.532	638.44
480.751	622.44
480.969	651.44
481.188	703.44
481.406	728.44
481.624	651.44
481.843	620.44
482.061	642.44
482.28	618.44
482.498	616.44
482.717	562.44
482.935	617.44
483.153	611.44
483.372	606.44
483.59	602.44
483.808	633.44
484.027	608.44
484.245	626.44
484.463	610.44
484.681	604.44
484.9	627.44
485.118	627.44
485.336	632.44
485.554	615.44
485.772	634.44
485.99	623.44
486.209	632.44
486.427	638.44
486.645	635.44
486.863	639.44
487.081	605.44
487.299	648.44
487.517	652.44
487.735	656.44
487.953	649.44
488.171	641.44
488.389	632.44
488.607	630.44
488.825	629.44
489.043	640.44
489.261	668.44
489.479	666.44
489.696	620.44
489.914	681.44
490.132	660.44
490.35	667.44
490.568	685.44
490.786	682.44
491.003	680.44
491.221	687.44
491.439	687.44
491.657	716.44
491.874	725.44
492.092	721.44
492.31	741.44
492.527	707.44
492.745	718.44
492.963	761.44
493.18	738.44
493.398	733.44
493.615	749.44
493.833	769.44
494.05	752.44
494.268	786.44
494.485	742.44
494.703	733.44
494.92	763.44
495.138	732.44
495.355	755.44
495.573	758.44
495.79	757.44
496.008	763.44
496.225	754.44
496.442	765.44
496.66	769.44
496.877	751.44
497.094	762.44
497.312	778.44
497.529	796.44
497.746	805.44
497.963	831.44
498.181	845.44
498.398	849.44
498.615	868.44
498.832	906.44
499.049	908.44
499.267	964.44
499.484	1000.44
499.701	1049.44
499.918	1066.44
500.135	1118.44
500.352	1200.44
500.569	1206.44
500.786	1207.44
501.003	1174.44
501.22	1148.44
501.437	1099.44
501.654	1030.44
501.871	1036.44
