Data from 1979.PennyLincolnUp.Lamp.En5.5.200Scan.071719.P1_HRD10591_16-20-06-863.txt Node
Date: Thu Jul 18 16:20:06 EDT 2019
User: cochatt
Spectrometer: HR+D1059
Trigger mode: 1
Integration Time (sec): 1.000000E-1
Scans to average: 1
Electric dark correction enabled: true
Nonlinearity correction enabled: false
Boxcar width: 0
XAxis mode: Wavelengths
Number of Pixels in Spectrum: 2048
>>>>>Begin Spectral Data<<<<<
223.165	-17.06
223.4	-17.06
223.635	-17.06
223.869	-19.06
224.104	-15.06
224.338	-11.06
224.573	-10.06
224.808	-14.06
225.042	-1.06
225.277	-3.06
225.511	-4.06
225.746	0.94
225.98	15.94
226.215	9.94
226.449	7.94
226.683	18.94
226.918	9.94
227.152	30.94
227.387	29.94
227.621	21.94
227.856	28.94
228.09	36.94
228.324	38.94
228.559	46.94
228.793	61.94
229.027	87.94
229.262	93.94
229.496	99.94
229.73	129.94
229.964	150.94
230.199	115.94
230.433	110.94
230.667	105.94
230.901	107.94
231.136	120.94
231.37	103.94
231.604	88.94
231.838	94.94
232.072	92.94
232.306	104.94
232.541	109.94
232.775	106.94
233.009	118.94
233.243	109.94
233.477	105.94
233.711	108.94
233.945	120.94
234.179	136.94
234.413	112.94
234.647	103.94
234.881	112.94
235.115	102.94
235.349	100.94
235.583	124.94
235.817	111.94
236.051	116.94
236.285	132.94
236.519	122.94
236.753	128.94
236.987	143.94
237.221	161.94
237.455	199.94
237.689	170.94
237.922	126.94
238.156	122.94
238.39	116.94
238.624	113.94
238.858	138.94
239.091	118.94
239.325	123.94
239.559	112.94
239.793	116.94
240.027	130.94
240.26	128.94
240.494	137.94
240.728	128.94
240.961	133.94
241.195	124.94
241.429	123.94
241.662	136.94
241.896	130.94
242.13	121.94
242.363	131.94
242.597	120.94
242.83	134.94
243.064	135.94
243.298	134.94
243.531	130.94
243.765	144.94
243.998	128.94
244.232	145.94
244.465	132.94
244.699	156.94
244.932	130.94
245.166	126.94
245.399	146.94
245.633	127.94
245.866	146.94
246.099	145.94
246.333	135.94
246.566	155.94
246.8	145.94
247.033	138.94
247.266	156.94
247.5	145.94
247.733	158.94
247.966	167.94
248.2	148.94
248.433	166.94
248.666	172.94
248.899	164.94
249.133	184.94
249.366	194.94
249.599	186.94
249.832	186.94
250.066	182.94
250.299	182.94
250.532	178.94
250.765	198.94
250.998	188.94
251.231	205.94
251.465	187.94
251.698	185.94
251.931	196.94
252.164	188.94
252.397	183.94
252.63	179.94
252.863	186.94
253.096	197.94
253.329	211.94
253.562	202.94
253.795	201.94
254.028	194.94
254.261	188.94
254.494	185.94
254.727	229.94
254.96	255.94
255.193	238.94
255.426	233.94
255.659	205.94
255.892	207.94
256.124	205.94
256.357	216.94
256.59	206.94
256.823	194.94
257.056	210.94
257.289	196.94
257.521	184.94
257.754	181.94
257.987	203.94
258.22	192.94
258.452	188.94
258.685	208.94
258.918	206.94
259.151	202.94
259.383	213.94
259.616	207.94
259.849	224.94
260.081	217.94
260.314	231.94
260.547	240.94
260.779	225.94
261.012	207.94
261.244	216.94
261.477	209.94
261.71	212.94
261.942	217.94
262.175	228.94
262.407	217.94
262.64	203.94
262.872	186.94
263.105	213.94
263.337	192.94
263.57	188.94
263.802	203.94
264.035	202.94
264.267	198.94
264.499	198.94
264.732	211.94
264.964	214.94
265.197	196.94
265.429	204.94
265.661	184.94
265.894	213.94
266.126	202.94
266.358	203.94
266.591	227.94
266.823	223.94
267.055	202.94
267.287	225.94
267.52	207.94
267.752	230.94
267.984	202.94
268.216	212.94
268.448	207.94
268.681	218.94
268.913	233.94
269.145	232.94
269.377	257.94
269.609	244.94
269.841	246.94
270.073	249.94
270.306	256.94
270.538	276.94
270.77	295.94
271.002	278.94
271.234	260.94
271.466	267.94
271.698	276.94
271.93	283.94
272.162	259.94
272.394	312.94
272.626	272.94
272.858	281.94
273.09	262.94
273.322	261.94
273.553	264.94
273.785	261.94
274.017	270.94
274.249	253.94
274.481	271.94
274.713	260.94
274.945	246.94
275.176	260.94
275.408	271.94
275.64	257.94
275.872	254.94
276.104	259.94
276.335	258.94
276.567	267.94
276.799	290.94
277.031	274.94
277.262	296.94
277.494	310.94
277.726	280.94
277.957	285.94
278.189	248.94
278.421	276.94
278.652	247.94
278.884	249.94
279.115	239.94
279.347	244.94
279.579	273.94
279.81	247.94
280.042	244.94
280.273	244.94
280.505	253.94
280.736	260.94
280.968	261.94
281.199	263.94
281.431	268.94
281.662	244.94
281.894	248.94
282.125	262.94
282.356	279.94
282.588	296.94
282.819	297.94
283.051	296.94
283.282	258.94
283.513	261.94
283.745	241.94
283.976	260.94
284.207	242.94
284.439	259.94
284.67	288.94
284.901	261.94
285.132	270.94
285.364	242.94
285.595	271.94
285.826	273.94
286.057	273.94
286.288	264.94
286.52	264.94
286.751	265.94
286.982	270.94
287.213	280.94
287.444	273.94
287.675	269.94
287.906	284.94
288.138	293.94
288.369	302.94
288.6	308.94
288.831	300.94
289.062	282.94
289.293	282.94
289.524	286.94
289.755	276.94
289.986	272.94
290.217	270.94
290.448	286.94
290.679	278.94
290.91	272.94
291.141	264.94
291.371	266.94
291.602	290.94
291.833	296.94
292.064	280.94
292.295	288.94
292.526	282.94
292.757	265.94
292.987	271.94
293.218	296.94
293.449	293.94
293.68	283.94
293.91	296.94
294.141	274.94
294.372	263.94
294.603	279.94
294.833	280.94
295.064	293.94
295.295	283.94
295.525	270.94
295.756	290.94
295.987	309.94
296.217	315.94
296.448	341.94
296.679	307.94
296.909	285.94
297.14	294.94
297.37	292.94
297.601	303.94
297.831	286.94
298.062	282.94
298.292	293.94
298.523	304.94
298.753	306.94
298.984	297.94
299.214	282.94
299.445	308.94
299.675	302.94
299.905	297.94
300.136	311.94
300.366	313.94
300.597	313.94
300.827	316.94
301.057	335.94
301.288	314.94
301.518	302.94
301.748	310.94
301.979	318.94
302.209	334.94
302.439	338.94
302.669	309.94
302.9	309.94
303.13	311.94
303.36	335.94
303.59	322.94
303.82	338.94
304.051	335.94
304.281	316.94
304.511	327.94
304.741	313.94
304.971	339.94
305.201	322.94
305.431	298.94
305.661	316.94
305.891	326.94
306.121	342.94
306.352	343.94
306.582	340.94
306.812	333.94
307.042	311.94
307.272	313.94
307.502	308.94
307.731	308.94
307.961	309.94
308.191	313.94
308.421	314.94
308.651	326.94
308.881	330.94
309.111	342.94
309.341	319.94
309.571	353.94
309.8	340.94
310.03	355.94
310.26	362.94
310.49	344.94
310.72	372.94
310.949	380.94
311.179	381.94
311.409	389.94
311.639	394.94
311.868	384.94
312.098	345.94
312.328	359.94
312.557	385.94
312.787	388.94
313.017	378.94
313.246	361.94
313.476	372.94
313.706	370.94
313.935	374.94
314.165	394.94
314.394	391.94
314.624	400.94
314.853	376.94
315.083	356.94
315.312	386.94
315.542	378.94
315.771	372.94
316.001	377.94
316.23	379.94
316.46	382.94
316.689	368.94
316.919	365.94
317.148	372.94
317.377	360.94
317.607	368.94
317.836	377.94
318.065	358.94
318.295	374.94
318.524	372.94
318.753	372.94
318.983	366.94
319.212	375.94
319.441	381.94
319.67	380.94
319.9	374.94
320.129	369.94
320.358	370.94
320.587	395.94
320.816	376.94
321.046	417.94
321.275	392.94
321.504	406.94
321.733	384.94
321.962	402.94
322.191	400.94
322.42	410.94
322.649	421.94
322.878	444.94
323.108	460.94
323.337	468.94
323.566	479.94
323.795	489.94
324.024	549.94
324.253	652.94
324.482	921.94
324.71	1460.94
324.939	2126.94
325.168	1839.94
325.397	908.94
325.626	620.94
325.855	528.94
326.084	488.94
326.313	480.94
326.542	489.94
326.77	519.94
326.999	624.94
327.228	836.94
327.457	1360.94
327.686	1635.94
327.914	1048.94
328.143	672.94
328.372	592.94
328.6	599.94
328.829	534.94
329.058	554.94
329.287	530.94
329.515	537.94
329.744	488.94
329.972	476.94
330.201	504.94
330.43	535.94
330.658	573.94
330.887	596.94
331.115	581.94
331.344	482.94
331.572	480.94
331.801	470.94
332.03	478.94
332.258	453.94
332.486	454.94
332.715	445.94
332.943	445.94
333.172	457.94
333.4	439.94
333.629	464.94
333.857	474.94
334.085	509.94
334.314	508.94
334.542	528.94
334.771	569.94
334.999	515.94
335.227	496.94
335.455	451.94
335.684	447.94
335.912	456.94
336.14	456.94
336.369	437.94
336.597	454.94
336.825	437.94
337.053	456.94
337.281	453.94
337.51	435.94
337.738	461.94
337.966	438.94
338.194	444.94
338.422	447.94
338.65	453.94
338.878	430.94
339.106	421.94
339.334	421.94
339.562	425.94
339.79	421.94
340.018	431.94
340.246	420.94
340.474	447.94
340.702	429.94
340.93	434.94
341.158	425.94
341.386	438.94
341.614	439.94
341.842	421.94
342.07	428.94
342.298	434.94
342.526	417.94
342.754	431.94
342.981	411.94
343.209	396.94
343.437	423.94
343.665	413.94
343.893	429.94
344.12	457.94
344.348	436.94
344.576	438.94
344.804	438.94
345.031	425.94
345.259	446.94
345.487	433.94
345.714	429.94
345.942	423.94
346.17	438.94
346.397	425.94
346.625	406.94
346.853	426.94
347.08	425.94
347.308	409.94
347.535	426.94
347.763	444.94
347.99	425.94
348.218	405.94
348.445	434.94
348.673	424.94
348.9	426.94
349.128	410.94
349.355	418.94
349.583	415.94
349.81	416.94
350.037	389.94
350.265	396.94
350.492	405.94
350.72	419.94
350.947	404.94
351.174	405.94
351.402	429.94
351.629	417.94
351.856	414.94
352.083	423.94
352.311	444.94
352.538	441.94
352.765	455.94
352.992	423.94
353.22	424.94
353.447	397.94
353.674	422.94
353.901	422.94
354.128	397.94
354.355	395.94
354.583	395.94
354.81	382.94
355.037	402.94
355.264	398.94
355.491	393.94
355.718	370.94
355.945	392.94
356.172	386.94
356.399	385.94
356.626	410.94
356.853	412.94
357.08	382.94
357.307	396.94
357.534	400.94
357.761	381.94
357.988	376.94
358.215	410.94
358.441	390.94
358.668	406.94
358.895	402.94
359.122	409.94
359.349	417.94
359.576	424.94
359.802	446.94
360.029	461.94
360.256	487.94
360.483	464.94
360.709	431.94
360.936	432.94
361.163	416.94
361.39	434.94
361.616	417.94
361.843	435.94
362.07	416.94
362.296	439.94
362.523	402.94
362.749	428.94
362.976	382.94
363.203	400.94
363.429	400.94
363.656	400.94
363.882	410.94
364.109	404.94
364.335	386.94
364.562	393.94
364.788	390.94
365.015	387.94
365.241	400.94
365.468	421.94
365.694	417.94
365.92	428.94
366.147	421.94
366.373	407.94
366.599	395.94
366.826	414.94
367.052	386.94
367.278	400.94
367.505	421.94
367.731	400.94
367.957	397.94
368.184	386.94
368.41	397.94
368.636	420.94
368.862	431.94
369.089	421.94
369.315	417.94
369.541	406.94
369.767	425.94
369.993	394.94
370.219	429.94
370.445	414.94
370.672	418.94
370.898	424.94
371.124	417.94
371.35	406.94
371.576	407.94
371.802	416.94
372.028	395.94
372.254	400.94
372.48	403.94
372.706	407.94
372.932	416.94
373.158	426.94
373.384	421.94
373.61	407.94
373.835	426.94
374.061	424.94
374.287	426.94
374.513	430.94
374.739	432.94
374.965	448.94
375.191	453.94
375.416	424.94
375.642	430.94
375.868	437.94
376.094	419.94
376.319	423.94
376.545	416.94
376.771	423.94
376.997	419.94
377.222	414.94
377.448	414.94
377.674	405.94
377.899	420.94
378.125	415.94
378.35	410.94
378.576	415.94
378.802	421.94
379.027	402.94
379.253	432.94
379.478	400.94
379.704	410.94
379.929	414.94
380.155	402.94
380.38	398.94
380.606	429.94
380.831	411.94
381.057	410.94
381.282	401.94
381.507	436.94
381.733	416.94
381.958	420.94
382.184	429.94
382.409	426.94
382.634	426.94
382.86	432.94
383.085	444.94
383.31	430.94
383.535	442.94
383.761	445.94
383.986	440.94
384.211	441.94
384.436	456.94
384.662	447.94
384.887	457.94
385.112	440.94
385.337	458.94
385.562	449.94
385.787	454.94
386.013	475.94
386.238	457.94
386.463	470.94
386.688	466.94
386.913	453.94
387.138	473.94
387.363	466.94
387.588	444.94
387.813	467.94
388.038	449.94
388.263	465.94
388.488	464.94
388.713	466.94
388.938	468.94
389.163	454.94
389.387	458.94
389.612	454.94
389.837	454.94
390.062	465.94
390.287	460.94
390.512	469.94
390.736	469.94
390.961	440.94
391.186	475.94
391.411	459.94
391.636	474.94
391.86	483.94
392.085	478.94
392.31	470.94
392.534	494.94
392.759	472.94
392.984	482.94
393.208	487.94
393.433	497.94
393.658	507.94
393.882	493.94
394.107	481.94
394.331	488.94
394.556	457.94
394.78	490.94
395.005	479.94
395.229	514.94
395.454	505.94
395.678	492.94
395.903	519.94
396.127	535.94
396.352	536.94
396.576	478.94
396.801	504.94
397.025	500.94
397.249	504.94
397.474	517.94
397.698	514.94
397.922	518.94
398.147	520.94
398.371	546.94
398.595	548.94
398.82	538.94
399.044	548.94
399.268	580.94
399.492	633.94
399.717	648.94
399.941	692.94
400.165	708.94
400.389	685.94
400.613	606.94
400.837	599.94
401.062	564.94
401.286	596.94
401.51	574.94
401.734	554.94
401.958	553.94
402.182	534.94
402.406	563.94
402.63	593.94
402.854	581.94
403.078	586.94
403.302	574.94
403.526	619.94
403.75	583.94
403.974	592.94
404.198	590.94
404.422	584.94
404.645	582.94
404.869	598.94
405.093	608.94
405.317	648.94
405.541	692.94
405.765	648.94
405.988	603.94
406.212	636.94
406.436	627.94
406.66	648.94
406.883	655.94
407.107	660.94
407.331	718.94
407.555	752.94
407.778	741.94
408.002	712.94
408.226	650.94
408.449	662.94
408.673	646.94
408.896	656.94
409.12	722.94
409.344	651.94
409.567	617.94
409.791	611.94
410.014	590.94
410.238	580.94
410.461	597.94
410.685	595.94
410.908	605.94
411.132	622.94
411.355	664.94
411.578	650.94
411.802	595.94
412.025	582.94
412.249	584.94
412.472	607.94
412.695	632.94
412.919	618.94
413.142	594.94
413.365	549.94
413.589	572.94
413.812	562.94
414.035	593.94
414.258	549.94
414.482	559.94
414.705	556.94
414.928	542.94
415.151	527.94
415.374	589.94
415.597	582.94
415.821	541.94
416.044	539.94
416.267	551.94
416.49	562.94
416.713	540.94
416.936	527.94
417.159	542.94
417.382	580.94
417.605	538.94
417.828	589.94
418.051	570.94
418.274	575.94
418.497	538.94
418.72	543.94
418.943	534.94
419.166	565.94
419.389	628.94
419.611	596.94
419.834	588.94
420.057	588.94
420.28	585.94
420.503	556.94
420.726	581.94
420.948	559.94
421.171	611.94
421.394	641.94
421.617	597.94
421.839	568.94
422.062	593.94
422.285	566.94
422.507	655.94
422.73	722.94
422.953	679.94
423.175	624.94
423.398	607.94
423.621	601.94
423.843	619.94
424.066	627.94
424.288	615.94
424.511	630.94
424.733	684.94
424.956	766.94
425.178	736.94
425.401	698.94
425.623	755.94
425.846	670.94
426.068	613.94
426.291	588.94
426.513	610.94
426.735	630.94
426.958	650.94
427.18	743.94
427.402	878.94
427.625	950.94
427.847	828.94
428.069	717.94
428.292	653.94
428.514	608.94
428.736	584.94
428.958	574.94
429.181	557.94
429.403	558.94
429.625	553.94
429.847	590.94
430.069	658.94
430.292	680.94
430.514	574.94
430.736	559.94
430.958	556.94
431.18	524.94
431.402	541.94
431.624	539.94
431.846	540.94
432.068	530.94
432.29	531.94
432.512	546.94
432.734	543.94
432.956	541.94
433.178	561.94
433.4	567.94
433.622	523.94
433.844	516.94
434.066	538.94
434.287	560.94
434.509	563.94
434.731	541.94
434.953	566.94
435.175	566.94
435.397	591.94
435.618	608.94
435.84	645.94
436.062	738.94
436.284	807.94
436.505	672.94
436.727	622.94
436.949	590.94
437.17	551.94
437.392	558.94
437.614	568.94
437.835	594.94
438.057	698.94
438.278	806.94
438.5	821.94
438.721	893.94
438.943	812.94
439.165	678.94
439.386	611.94
439.608	620.94
439.829	612.94
440.05	640.94
440.272	694.94
440.493	638.94
440.715	597.94
440.936	584.94
441.158	582.94
441.379	565.94
441.6	581.94
441.822	597.94
442.043	649.94
442.264	734.94
442.486	737.94
442.707	653.94
442.928	640.94
443.149	625.94
443.371	644.94
443.592	667.94
443.813	779.94
444.034	857.94
444.255	698.94
444.476	659.94
444.698	632.94
444.919	613.94
445.14	706.94
445.361	654.94
445.582	645.94
445.803	708.94
446.024	810.94
446.245	822.94
446.466	722.94
446.687	654.94
446.908	616.94
447.129	574.94
447.35	558.94
447.571	569.94
447.792	580.94
448.013	562.94
448.234	561.94
448.455	622.94
448.675	735.94
448.896	847.94
449.117	730.94
449.338	698.94
449.559	785.94
449.779	878.94
450	725.94
450.221	607.94
450.442	580.94
450.662	567.94
450.883	560.94
451.104	578.94
451.324	567.94
451.545	529.94
451.766	517.94
451.986	509.94
452.207	497.94
452.428	485.94
452.648	515.94
452.869	506.94
453.089	506.94
453.31	538.94
453.53	513.94
453.751	483.94
453.971	490.94
454.192	513.94
454.412	518.94
454.633	497.94
454.853	507.94
455.073	506.94
455.294	530.94
455.514	572.94
455.734	579.94
455.955	511.94
456.175	492.94
456.395	464.94
456.616	485.94
456.836	470.94
457.056	465.94
457.276	452.94
457.497	508.94
457.717	470.94
457.937	501.94
458.157	474.94
458.377	489.94
458.598	516.94
458.818	553.94
459.038	652.94
459.258	669.94
459.478	614.94
459.698	552.94
459.918	512.94
460.138	547.94
460.358	550.94
460.578	569.94
460.798	546.94
461.018	545.94
461.238	569.94
461.458	580.94
461.678	576.94
461.898	544.94
462.118	557.94
462.338	600.94
462.558	573.94
462.777	590.94
462.997	614.94
463.217	666.94
463.437	640.94
463.657	617.94
463.876	620.94
464.096	620.94
464.316	618.94
464.536	598.94
464.755	623.94
464.975	615.94
465.195	641.94
465.414	710.94
465.634	618.94
465.854	592.94
466.073	559.94
466.293	549.94
466.512	515.94
466.732	530.94
466.951	534.94
467.171	540.94
467.391	489.94
467.61	532.94
467.829	534.94
468.049	514.94
468.268	552.94
468.488	523.94
468.707	508.94
468.927	530.94
469.146	509.94
469.365	508.94
469.585	505.94
469.804	547.94
470.023	536.94
470.243	537.94
470.462	529.94
470.681	550.94
470.901	573.94
471.12	537.94
471.339	526.94
471.558	528.94
471.777	545.94
471.997	535.94
472.216	531.94
472.435	564.94
472.654	544.94
472.873	542.94
473.092	545.94
473.311	517.94
473.53	509.94
473.749	561.94
473.968	559.94
474.187	658.94
474.406	694.94
474.625	575.94
474.844	547.94
475.063	535.94
475.282	521.94
475.501	512.94
475.72	538.94
475.939	518.94
476.158	533.94
476.377	558.94
476.596	566.94
476.814	573.94
477.033	554.94
477.252	590.94
477.471	551.94
477.69	588.94
477.908	580.94
478.127	593.94
478.346	572.94
478.564	593.94
478.783	604.94
479.002	625.94
479.22	601.94
479.439	620.94
479.658	630.94
479.876	646.94
480.095	629.94
480.313	686.94
480.532	647.94
480.751	646.94
480.969	677.94
481.188	709.94
481.406	745.94
481.624	657.94
481.843	661.94
482.061	641.94
482.28	646.94
482.498	611.94
482.717	617.94
482.935	615.94
483.153	617.94
483.372	609.94
483.59	598.94
483.808	608.94
484.027	603.94
484.245	634.94
484.463	616.94
484.681	642.94
484.9	643.94
485.118	642.94
485.336	632.94
485.554	615.94
485.772	642.94
485.99	652.94
486.209	630.94
486.427	644.94
486.645	642.94
486.863	677.94
487.081	671.94
487.299	668.94
487.517	664.94
487.735	678.94
487.953	676.94
488.171	666.94
488.389	652.94
488.607	673.94
488.825	675.94
489.043	689.94
489.261	685.94
489.479	676.94
489.696	680.94
489.914	700.94
490.132	695.94
490.35	696.94
490.568	694.94
490.786	679.94
491.003	678.94
491.221	716.94
491.439	712.94
491.657	737.94
491.874	728.94
492.092	739.94
492.31	752.94
492.527	762.94
492.745	764.94
492.963	745.94
493.18	764.94
493.398	786.94
493.615	772.94
493.833	790.94
494.05	769.94
494.268	776.94
494.485	757.94
494.703	759.94
494.92	785.94
495.138	775.94
495.355	776.94
495.573	776.94
495.79	778.94
496.008	787.94
496.225	774.94
496.442	762.94
496.66	796.94
496.877	777.94
497.094	783.94
497.312	800.94
497.529	784.94
497.746	824.94
497.963	846.94
498.181	876.94
498.398	870.94
498.615	894.94
498.832	921.94
499.049	933.94
499.267	956.94
499.484	1013.94
499.701	1033.94
499.918	1081.94
500.135	1166.94
500.352	1193.94
500.569	1238.94
500.786	1220.94
501.003	1196.94
501.22	1158.94
501.437	1136.94
501.654	1061.94
501.871	1065.94
