Data from 1979.PennyLincolnUp.Lamp.En5.5.200Scan.071719.P1_HRD10591_16-20-00-863.txt Node
Date: Thu Jul 18 16:20:00 EDT 2019
User: cochatt
Spectrometer: HR+D1059
Trigger mode: 1
Integration Time (sec): 1.000000E-1
Scans to average: 1
Electric dark correction enabled: true
Nonlinearity correction enabled: false
Boxcar width: 0
XAxis mode: Wavelengths
Number of Pixels in Spectrum: 2048
>>>>>Begin Spectral Data<<<<<
223.165	-15.5
223.4	-15.5
223.635	-15.5
223.869	-21.5
224.104	-19.5
224.338	-8.5
224.573	-4.5
224.808	-11.5
225.042	-2.5
225.277	-15.5
225.511	4.5
225.746	6.5
225.98	11.5
226.215	3.5
226.449	11.5
226.683	21.5
226.918	24.5
227.152	15.5
227.387	23.5
227.621	29.5
227.856	40.5
228.09	48.5
228.324	35.5
228.559	58.5
228.793	54.5
229.027	101.5
229.262	117.5
229.496	124.5
229.73	135.5
229.964	156.5
230.199	131.5
230.433	107.5
230.667	122.5
230.901	122.5
231.136	107.5
231.37	105.5
231.604	95.5
231.838	108.5
232.072	125.5
232.306	110.5
232.541	123.5
232.775	119.5
233.009	115.5
233.243	127.5
233.477	108.5
233.711	105.5
233.945	110.5
234.179	106.5
234.413	128.5
234.647	108.5
234.881	124.5
235.115	101.5
235.349	103.5
235.583	113.5
235.817	107.5
236.051	123.5
236.285	118.5
236.519	124.5
236.753	115.5
236.987	140.5
237.221	165.5
237.455	219.5
237.689	178.5
237.922	127.5
238.156	137.5
238.39	128.5
238.624	115.5
238.858	114.5
239.091	121.5
239.325	123.5
239.559	119.5
239.793	119.5
240.027	141.5
240.26	141.5
240.494	152.5
240.728	151.5
240.961	163.5
241.195	135.5
241.429	139.5
241.662	125.5
241.896	130.5
242.13	126.5
242.363	134.5
242.597	146.5
242.83	122.5
243.064	140.5
243.298	131.5
243.531	124.5
243.765	149.5
243.998	148.5
244.232	132.5
244.465	140.5
244.699	147.5
244.932	147.5
245.166	142.5
245.399	149.5
245.633	152.5
245.866	152.5
246.099	146.5
246.333	149.5
246.566	153.5
246.8	152.5
247.033	162.5
247.266	141.5
247.5	160.5
247.733	172.5
247.966	172.5
248.2	183.5
248.433	162.5
248.666	163.5
248.899	181.5
249.133	186.5
249.366	210.5
249.599	208.5
249.832	168.5
250.066	170.5
250.299	195.5
250.532	180.5
250.765	194.5
250.998	214.5
251.231	209.5
251.465	220.5
251.698	190.5
251.931	191.5
252.164	200.5
252.397	186.5
252.63	194.5
252.863	198.5
253.096	202.5
253.329	218.5
253.562	198.5
253.795	187.5
254.028	214.5
254.261	212.5
254.494	199.5
254.727	241.5
254.96	259.5
255.193	240.5
255.426	232.5
255.659	203.5
255.892	212.5
256.124	213.5
256.357	219.5
256.59	216.5
256.823	211.5
257.056	206.5
257.289	209.5
257.521	206.5
257.754	197.5
257.987	200.5
258.22	206.5
258.452	206.5
258.685	203.5
258.918	198.5
259.151	209.5
259.383	222.5
259.616	192.5
259.849	217.5
260.081	248.5
260.314	242.5
260.547	236.5
260.779	235.5
261.012	222.5
261.244	219.5
261.477	232.5
261.71	217.5
261.942	227.5
262.175	231.5
262.407	220.5
262.64	208.5
262.872	208.5
263.105	204.5
263.337	207.5
263.57	193.5
263.802	213.5
264.035	207.5
264.267	214.5
264.499	204.5
264.732	212.5
264.964	197.5
265.197	196.5
265.429	205.5
265.661	215.5
265.894	199.5
266.126	207.5
266.358	213.5
266.591	211.5
266.823	216.5
267.055	217.5
267.287	187.5
267.52	200.5
267.752	229.5
267.984	224.5
268.216	197.5
268.448	230.5
268.681	232.5
268.913	242.5
269.145	231.5
269.377	250.5
269.609	250.5
269.841	248.5
270.073	256.5
270.306	277.5
270.538	298.5
270.77	312.5
271.002	289.5
271.234	268.5
271.466	278.5
271.698	301.5
271.93	273.5
272.162	311.5
272.394	296.5
272.626	285.5
272.858	264.5
273.09	267.5
273.322	258.5
273.553	251.5
273.785	265.5
274.017	262.5
274.249	249.5
274.481	255.5
274.713	267.5
274.945	275.5
275.176	256.5
275.408	262.5
275.64	255.5
275.872	256.5
276.104	268.5
276.335	250.5
276.567	254.5
276.799	267.5
277.031	295.5
277.262	297.5
277.494	315.5
277.726	302.5
277.957	278.5
278.189	266.5
278.421	267.5
278.652	265.5
278.884	269.5
279.115	270.5
279.347	265.5
279.579	259.5
279.81	269.5
280.042	260.5
280.273	268.5
280.505	248.5
280.736	270.5
280.968	278.5
281.199	270.5
281.431	278.5
281.662	275.5
281.894	275.5
282.125	260.5
282.356	278.5
282.588	276.5
282.819	318.5
283.051	272.5
283.282	265.5
283.513	282.5
283.745	281.5
283.976	270.5
284.207	284.5
284.439	282.5
284.67	283.5
284.901	282.5
285.132	265.5
285.364	270.5
285.595	269.5
285.826	279.5
286.057	274.5
286.288	275.5
286.52	276.5
286.751	271.5
286.982	287.5
287.213	275.5
287.444	292.5
287.675	294.5
287.906	290.5
288.138	285.5
288.369	318.5
288.6	315.5
288.831	295.5
289.062	269.5
289.293	315.5
289.524	273.5
289.755	270.5
289.986	294.5
290.217	292.5
290.448	295.5
290.679	289.5
290.91	276.5
291.141	290.5
291.371	295.5
291.602	293.5
291.833	291.5
292.064	277.5
292.295	291.5
292.526	308.5
292.757	283.5
292.987	287.5
293.218	305.5
293.449	297.5
293.68	282.5
293.91	278.5
294.141	289.5
294.372	300.5
294.603	286.5
294.833	296.5
295.064	299.5
295.295	297.5
295.525	283.5
295.756	319.5
295.987	320.5
296.217	330.5
296.448	333.5
296.679	303.5
296.909	292.5
297.14	310.5
297.37	320.5
297.601	296.5
297.831	295.5
298.062	306.5
298.292	300.5
298.523	304.5
298.753	306.5
298.984	288.5
299.214	326.5
299.445	330.5
299.675	302.5
299.905	307.5
300.136	322.5
300.366	300.5
300.597	314.5
300.827	311.5
301.057	339.5
301.288	337.5
301.518	314.5
301.748	325.5
301.979	329.5
302.209	340.5
302.439	339.5
302.669	331.5
302.9	337.5
303.13	329.5
303.36	330.5
303.59	342.5
303.82	356.5
304.051	334.5
304.281	344.5
304.511	333.5
304.741	327.5
304.971	347.5
305.201	339.5
305.431	337.5
305.661	334.5
305.891	320.5
306.121	333.5
306.352	332.5
306.582	326.5
306.812	336.5
307.042	328.5
307.272	326.5
307.502	331.5
307.731	346.5
307.961	338.5
308.191	326.5
308.421	326.5
308.651	340.5
308.881	322.5
309.111	346.5
309.341	342.5
309.571	371.5
309.8	348.5
310.03	370.5
310.26	363.5
310.49	377.5
310.72	392.5
310.949	399.5
311.179	400.5
311.409	371.5
311.639	352.5
311.868	380.5
312.098	371.5
312.328	381.5
312.557	418.5
312.787	400.5
313.017	404.5
313.246	416.5
313.476	394.5
313.706	411.5
313.935	382.5
314.165	394.5
314.394	385.5
314.624	386.5
314.853	380.5
315.083	374.5
315.312	385.5
315.542	389.5
315.771	374.5
316.001	376.5
316.23	378.5
316.46	381.5
316.689	369.5
316.919	397.5
317.148	396.5
317.377	396.5
317.607	361.5
317.836	376.5
318.065	381.5
318.295	378.5
318.524	379.5
318.753	384.5
318.983	382.5
319.212	382.5
319.441	372.5
319.67	394.5
319.9	378.5
320.129	381.5
320.358	410.5
320.587	387.5
320.816	382.5
321.046	400.5
321.275	400.5
321.504	399.5
321.733	413.5
321.962	394.5
322.191	421.5
322.42	430.5
322.649	455.5
322.878	444.5
323.108	451.5
323.337	461.5
323.566	480.5
323.795	514.5
324.024	539.5
324.253	649.5
324.482	916.5
324.71	1430.5
324.939	2183.5
325.168	1862.5
325.397	916.5
325.626	625.5
325.855	545.5
326.084	522.5
326.313	491.5
326.542	486.5
326.77	522.5
326.999	625.5
327.228	854.5
327.457	1314.5
327.686	1641.5
327.914	1067.5
328.143	686.5
328.372	607.5
328.6	582.5
328.829	548.5
329.058	572.5
329.287	578.5
329.515	535.5
329.744	513.5
329.972	499.5
330.201	502.5
330.43	546.5
330.658	557.5
330.887	576.5
331.115	583.5
331.344	513.5
331.572	497.5
331.801	504.5
332.03	497.5
332.258	483.5
332.486	464.5
332.715	475.5
332.943	448.5
333.172	453.5
333.4	486.5
333.629	484.5
333.857	493.5
334.085	498.5
334.314	532.5
334.542	554.5
334.771	544.5
334.999	517.5
335.227	473.5
335.455	466.5
335.684	457.5
335.912	454.5
336.14	466.5
336.369	456.5
336.597	484.5
336.825	483.5
337.053	460.5
337.281	438.5
337.51	454.5
337.738	456.5
337.966	460.5
338.194	456.5
338.422	458.5
338.65	427.5
338.878	443.5
339.106	449.5
339.334	433.5
339.562	437.5
339.79	429.5
340.018	450.5
340.246	429.5
340.474	452.5
340.702	462.5
340.93	436.5
341.158	432.5
341.386	453.5
341.614	453.5
341.842	444.5
342.07	423.5
342.298	435.5
342.526	445.5
342.754	426.5
342.981	424.5
343.209	433.5
343.437	433.5
343.665	451.5
343.893	444.5
344.12	475.5
344.348	460.5
344.576	445.5
344.804	452.5
345.031	478.5
345.259	472.5
345.487	453.5
345.714	428.5
345.942	427.5
346.17	400.5
346.397	407.5
346.625	441.5
346.853	431.5
347.08	407.5
347.308	426.5
347.535	439.5
347.763	439.5
347.99	443.5
348.218	439.5
348.445	435.5
348.673	418.5
348.9	417.5
349.128	402.5
349.355	421.5
349.583	422.5
349.81	412.5
350.037	410.5
350.265	392.5
350.492	402.5
350.72	401.5
350.947	423.5
351.174	413.5
351.402	425.5
351.629	400.5
351.856	420.5
352.083	441.5
352.311	456.5
352.538	446.5
352.765	444.5
352.992	443.5
353.22	438.5
353.447	422.5
353.674	416.5
353.901	380.5
354.128	390.5
354.355	393.5
354.583	406.5
354.81	422.5
355.037	402.5
355.264	389.5
355.491	402.5
355.718	401.5
355.945	401.5
356.172	400.5
356.399	410.5
356.626	428.5
356.853	385.5
357.08	395.5
357.307	408.5
357.534	396.5
357.761	392.5
357.988	415.5
358.215	408.5
358.441	402.5
358.668	394.5
358.895	410.5
359.122	409.5
359.349	416.5
359.576	424.5
359.802	446.5
360.029	464.5
360.256	488.5
360.483	466.5
360.709	449.5
360.936	422.5
361.163	439.5
361.39	435.5
361.616	447.5
361.843	419.5
362.07	440.5
362.296	454.5
362.523	430.5
362.749	432.5
362.976	414.5
363.203	430.5
363.429	422.5
363.656	400.5
363.882	411.5
364.109	413.5
364.335	425.5
364.562	385.5
364.788	425.5
365.015	423.5
365.241	392.5
365.468	402.5
365.694	428.5
365.92	413.5
366.147	415.5
366.373	419.5
366.599	416.5
366.826	428.5
367.052	418.5
367.278	408.5
367.505	422.5
367.731	408.5
367.957	417.5
368.184	420.5
368.41	412.5
368.636	423.5
368.862	434.5
369.089	451.5
369.315	419.5
369.541	428.5
369.767	419.5
369.993	413.5
370.219	417.5
370.445	422.5
370.672	424.5
370.898	420.5
371.124	422.5
371.35	427.5
371.576	436.5
371.802	434.5
372.028	433.5
372.254	427.5
372.48	422.5
372.706	432.5
372.932	432.5
373.158	445.5
373.384	448.5
373.61	406.5
373.835	412.5
374.061	424.5
374.287	419.5
374.513	423.5
374.739	452.5
374.965	437.5
375.191	436.5
375.416	445.5
375.642	420.5
375.868	448.5
376.094	436.5
376.319	403.5
376.545	436.5
376.771	433.5
376.997	441.5
377.222	415.5
377.448	428.5
377.674	404.5
377.899	418.5
378.125	444.5
378.35	440.5
378.576	425.5
378.802	427.5
379.027	434.5
379.253	419.5
379.478	427.5
379.704	437.5
379.929	425.5
380.155	412.5
380.38	427.5
380.606	411.5
380.831	417.5
381.057	429.5
381.282	428.5
381.507	426.5
381.733	441.5
381.958	423.5
382.184	436.5
382.409	447.5
382.634	438.5
382.86	441.5
383.085	423.5
383.31	434.5
383.535	440.5
383.761	466.5
383.986	453.5
384.211	444.5
384.436	458.5
384.662	454.5
384.887	460.5
385.112	463.5
385.337	466.5
385.562	474.5
385.787	470.5
386.013	468.5
386.238	454.5
386.463	497.5
386.688	487.5
386.913	468.5
387.138	472.5
387.363	483.5
387.588	473.5
387.813	488.5
388.038	479.5
388.263	469.5
388.488	496.5
388.713	478.5
388.938	475.5
389.163	490.5
389.387	461.5
389.612	474.5
389.837	485.5
390.062	482.5
390.287	469.5
390.512	473.5
390.736	480.5
390.961	467.5
391.186	503.5
391.411	501.5
391.636	486.5
391.86	488.5
392.085	506.5
392.31	492.5
392.534	492.5
392.759	477.5
392.984	504.5
393.208	491.5
393.433	493.5
393.658	508.5
393.882	478.5
394.107	475.5
394.331	478.5
394.556	489.5
394.78	509.5
395.005	481.5
395.229	483.5
395.454	500.5
395.678	502.5
395.903	493.5
396.127	538.5
396.352	540.5
396.576	525.5
396.801	532.5
397.025	524.5
397.249	512.5
397.474	514.5
397.698	507.5
397.922	529.5
398.147	578.5
398.371	565.5
398.595	551.5
398.82	561.5
399.044	567.5
399.268	604.5
399.492	631.5
399.717	660.5
399.941	680.5
400.165	714.5
400.389	719.5
400.613	630.5
400.837	595.5
401.062	589.5
401.286	590.5
401.51	575.5
401.734	573.5
401.958	566.5
402.182	563.5
402.406	597.5
402.63	589.5
402.854	576.5
403.078	597.5
403.302	577.5
403.526	584.5
403.75	605.5
403.974	595.5
404.198	594.5
404.422	586.5
404.645	615.5
404.869	609.5
405.093	632.5
405.317	666.5
405.541	694.5
405.765	658.5
405.988	626.5
406.212	637.5
406.436	658.5
406.66	626.5
406.883	635.5
407.107	646.5
407.331	713.5
407.555	788.5
407.778	778.5
408.002	718.5
408.226	681.5
408.449	654.5
408.673	663.5
408.896	661.5
409.12	698.5
409.344	657.5
409.567	623.5
409.791	610.5
410.014	601.5
410.238	615.5
410.461	612.5
410.685	597.5
410.908	621.5
411.132	617.5
411.355	660.5
411.578	678.5
411.802	611.5
412.025	598.5
412.249	645.5
412.472	637.5
412.695	662.5
412.919	638.5
413.142	610.5
413.365	600.5
413.589	573.5
413.812	593.5
414.035	581.5
414.258	558.5
414.482	549.5
414.705	573.5
414.928	554.5
415.151	550.5
415.374	577.5
415.597	576.5
415.821	543.5
416.044	573.5
416.267	570.5
416.49	556.5
416.713	551.5
416.936	577.5
417.159	566.5
417.382	549.5
417.605	568.5
417.828	587.5
418.051	581.5
418.274	596.5
418.497	565.5
418.72	565.5
418.943	565.5
419.166	599.5
419.389	617.5
419.611	605.5
419.834	589.5
420.057	598.5
420.28	608.5
420.503	581.5
420.726	570.5
420.948	605.5
421.171	633.5
421.394	682.5
421.617	612.5
421.839	587.5
422.062	591.5
422.285	599.5
422.507	663.5
422.73	746.5
422.953	688.5
423.175	624.5
423.398	623.5
423.621	625.5
423.843	646.5
424.066	626.5
424.288	632.5
424.511	636.5
424.733	701.5
424.956	788.5
425.178	742.5
425.401	745.5
425.623	758.5
425.846	662.5
426.068	639.5
426.291	616.5
426.513	617.5
426.735	637.5
426.958	662.5
427.18	733.5
427.402	866.5
427.625	959.5
427.847	820.5
428.069	715.5
428.292	669.5
428.514	628.5
428.736	585.5
428.958	586.5
429.181	588.5
429.403	585.5
429.625	566.5
429.847	608.5
430.069	696.5
430.292	669.5
430.514	612.5
430.736	586.5
430.958	554.5
431.18	552.5
431.402	552.5
431.624	561.5
431.846	542.5
432.068	549.5
432.29	552.5
432.512	532.5
432.734	550.5
432.956	548.5
433.178	586.5
433.4	565.5
433.622	551.5
433.844	548.5
434.066	526.5
434.287	542.5
434.509	560.5
434.731	592.5
434.953	591.5
435.175	600.5
435.397	641.5
435.618	592.5
435.84	652.5
436.062	752.5
436.284	811.5
436.505	681.5
436.727	617.5
436.949	609.5
437.17	570.5
437.392	586.5
437.614	591.5
437.835	596.5
438.057	674.5
438.278	802.5
438.5	797.5
438.721	882.5
438.943	861.5
439.165	681.5
439.386	648.5
439.608	649.5
439.829	612.5
440.05	664.5
440.272	714.5
440.493	658.5
440.715	618.5
440.936	568.5
441.158	603.5
441.379	605.5
441.6	580.5
441.822	604.5
442.043	649.5
442.264	734.5
442.486	784.5
442.707	649.5
442.928	626.5
443.149	647.5
443.371	665.5
443.592	691.5
443.813	805.5
444.034	856.5
444.255	728.5
444.476	653.5
444.698	636.5
444.919	647.5
445.14	742.5
445.361	686.5
445.582	681.5
445.803	744.5
446.024	858.5
446.245	862.5
446.466	764.5
446.687	651.5
446.908	604.5
447.129	572.5
447.35	569.5
447.571	578.5
447.792	543.5
448.013	565.5
448.234	581.5
448.455	639.5
448.675	753.5
448.896	871.5
449.117	729.5
449.338	694.5
449.559	782.5
449.779	927.5
450	744.5
450.221	626.5
450.442	598.5
450.662	558.5
450.883	568.5
451.104	555.5
451.324	548.5
451.545	568.5
451.766	520.5
451.986	510.5
452.207	519.5
452.428	499.5
452.648	515.5
452.869	511.5
453.089	517.5
453.31	549.5
453.53	536.5
453.751	527.5
453.971	511.5
454.192	536.5
454.412	509.5
454.633	508.5
454.853	514.5
455.073	489.5
455.294	536.5
455.514	612.5
455.734	572.5
455.955	491.5
456.175	492.5
456.395	480.5
456.616	495.5
456.836	485.5
457.056	504.5
457.276	476.5
457.497	484.5
457.717	488.5
457.937	480.5
458.157	496.5
458.377	536.5
458.598	542.5
458.818	584.5
459.038	642.5
459.258	695.5
459.478	594.5
459.698	554.5
459.918	563.5
460.138	530.5
460.358	558.5
460.578	577.5
460.798	585.5
461.018	564.5
461.238	564.5
461.458	582.5
461.678	576.5
461.898	587.5
462.118	589.5
462.338	593.5
462.558	610.5
462.777	624.5
462.997	636.5
463.217	652.5
463.437	658.5
463.657	634.5
463.876	621.5
464.096	634.5
464.316	617.5
464.536	620.5
464.755	621.5
464.975	625.5
465.195	634.5
465.414	717.5
465.634	653.5
465.854	579.5
466.073	584.5
466.293	553.5
466.512	548.5
466.732	553.5
466.951	530.5
467.171	536.5
467.391	533.5
467.61	546.5
467.829	552.5
468.049	546.5
468.268	548.5
468.488	535.5
468.707	535.5
468.927	519.5
469.146	516.5
469.365	531.5
469.585	507.5
469.804	536.5
470.023	524.5
470.243	564.5
470.462	561.5
470.681	542.5
470.901	547.5
471.12	524.5
471.339	531.5
471.558	555.5
471.777	532.5
471.997	524.5
472.216	526.5
472.435	585.5
472.654	572.5
472.873	536.5
473.092	561.5
473.311	525.5
473.53	540.5
473.749	540.5
473.968	557.5
474.187	661.5
474.406	691.5
474.625	566.5
474.844	540.5
475.063	553.5
475.282	529.5
475.501	532.5
475.72	545.5
475.939	543.5
476.158	532.5
476.377	558.5
476.596	560.5
476.814	584.5
477.033	566.5
477.252	566.5
477.471	556.5
477.69	586.5
477.908	588.5
478.127	588.5
478.346	582.5
478.564	619.5
478.783	604.5
479.002	613.5
479.22	614.5
479.439	627.5
479.658	640.5
479.876	660.5
480.095	659.5
480.313	683.5
480.532	678.5
480.751	643.5
480.969	664.5
481.188	724.5
481.406	725.5
481.624	686.5
481.843	662.5
482.061	638.5
482.28	635.5
482.498	629.5
482.717	633.5
482.935	615.5
483.153	627.5
483.372	612.5
483.59	644.5
483.808	628.5
484.027	634.5
484.245	640.5
484.463	625.5
484.681	638.5
484.9	640.5
485.118	644.5
485.336	655.5
485.554	650.5
485.772	652.5
485.99	678.5
486.209	655.5
486.427	659.5
486.645	678.5
486.863	680.5
487.081	694.5
487.299	670.5
487.517	710.5
487.735	688.5
487.953	671.5
488.171	669.5
488.389	661.5
488.607	676.5
488.825	667.5
489.043	673.5
489.261	670.5
489.479	663.5
489.696	688.5
489.914	695.5
490.132	684.5
490.35	678.5
490.568	707.5
490.786	712.5
491.003	721.5
491.221	730.5
491.439	724.5
491.657	752.5
491.874	757.5
492.092	752.5
492.31	797.5
492.527	790.5
492.745	788.5
492.963	761.5
493.18	770.5
493.398	791.5
493.615	806.5
493.833	788.5
494.05	786.5
494.268	789.5
494.485	797.5
494.703	782.5
494.92	789.5
495.138	795.5
495.355	798.5
495.573	778.5
495.79	795.5
496.008	782.5
496.225	803.5
496.442	816.5
496.66	818.5
496.877	812.5
497.094	816.5
497.312	805.5
497.529	824.5
497.746	840.5
497.963	849.5
498.181	897.5
498.398	900.5
498.615	925.5
498.832	932.5
499.049	957.5
499.267	976.5
499.484	1036.5
499.701	1079.5
499.918	1093.5
500.135	1183.5
500.352	1244.5
500.569	1245.5
500.786	1265.5
501.003	1226.5
501.22	1190.5
501.437	1138.5
501.654	1115.5
501.871	1080.5
502.088	1051.5
502.305	1005.5
502.522	958.5
502.739	936.5
502.956	887.5
503.172	861.5
503.389	842.5
503.606	848.5
503.823	845.5
504.04	842.5
504.256	805.5
504.473	843.5
504.69	828.5
504.907	801.5
505.123	811.5
505.34	793.5
505.557	766.5
505.773	748.5
505.99	771.5
506.207	746.5
506.423	776.5
506.64	737.5
506.856	752.5
507.073	722.5
507.289	743.5
507.506	736.5
507.722	756.5
507.939	771.5
508.155	710.5
508.372	731.5
508.588	693.5
508.805	696.5
509.021	692.5
509.238	738.5
509.454	717.5
509.67	731.5
509.887	690.5
510.103	692.5
510.319	712.5
510.536	794.5
510.752	1333.5
510.968	1084.5
511.184	690.5
511.401	682.5
511.617	663.5
511.833	704.5
512.049	670.5
512.265	681.5
512.481	652.5
512.698	694.5
512.914	668.5
513.13	689.5
513.346	670.5
513.562	659.5
513.778	668.5
513.994	682.5
514.21	684.5
514.426	701.5
514.642	743.5
514.858	760.5
515.074	799.5
515.29	925.5
515.506	1356.5
515.721	1127.5
515.937	825.5
516.153	736.5
516.369	728.5
516.585	741.5
516.801	694.5
517.016	713.5
517.232	711.5
517.448	742.5
517.664	735.5
517.879	761.5
518.095	739.5
518.311	719.5
518.527	694.5
518.742	717.5
518.958	690.5
519.173	694.5
519.389	700.5
519.605	710.5
