Data from 1979.PennyLincolnUp.Lamp.En5.5.200Scan.071719.P1_HRD10591_16-18-37-863.txt Node
Date: Thu Jul 18 16:18:37 EDT 2019
User: cochatt
Spectrometer: HR+D1059
Trigger mode: 1
Integration Time (sec): 1.000000E-1
Scans to average: 1
Electric dark correction enabled: true
Nonlinearity correction enabled: false
Boxcar width: 0
XAxis mode: Wavelengths
Number of Pixels in Spectrum: 2048
>>>>>Begin Spectral Data<<<<<
223.165	-14.94
223.4	-14.94
223.635	-14.94
223.869	-18.94
224.104	-16.94
224.338	-22.94
224.573	-16.94
224.808	-11.94
225.042	-9.94
225.277	-6.94
225.511	1.06
225.746	4.06
225.98	3.06
226.215	12.06
226.449	13.06
226.683	27.06
226.918	26.06
227.152	33.06
227.387	22.06
227.621	21.06
227.856	32.06
228.09	40.06
228.324	48.06
228.559	54.06
228.793	71.06
229.027	93.06
229.262	97.06
229.496	116.06
229.73	124.06
229.964	156.06
230.199	122.06
230.433	125.06
230.667	120.06
230.901	103.06
231.136	122.06
231.37	103.06
231.604	96.06
231.838	111.06
232.072	104.06
232.306	111.06
232.541	97.06
232.775	104.06
233.009	116.06
233.243	110.06
233.477	113.06
233.711	111.06
233.945	116.06
234.179	100.06
234.413	117.06
234.647	112.06
234.881	112.06
235.115	133.06
235.349	120.06
235.583	112.06
235.817	125.06
236.051	129.06
236.285	121.06
236.519	132.06
236.753	128.06
236.987	144.06
237.221	160.06
237.455	209.06
237.689	168.06
237.922	144.06
238.156	125.06
238.39	117.06
238.624	117.06
238.858	121.06
239.091	127.06
239.325	125.06
239.559	125.06
239.793	116.06
240.027	136.06
240.26	125.06
240.494	140.06
240.728	142.06
240.961	146.06
241.195	151.06
241.429	144.06
241.662	127.06
241.896	120.06
242.13	128.06
242.363	133.06
242.597	125.06
242.83	130.06
243.064	130.06
243.298	128.06
243.531	125.06
243.765	142.06
243.998	130.06
244.232	149.06
244.465	147.06
244.699	161.06
244.932	125.06
245.166	138.06
245.399	129.06
245.633	143.06
245.866	144.06
246.099	140.06
246.333	140.06
246.566	146.06
246.8	140.06
247.033	150.06
247.266	140.06
247.5	152.06
247.733	157.06
247.966	157.06
248.2	158.06
248.433	157.06
248.666	159.06
248.899	180.06
249.133	180.06
249.366	194.06
249.599	175.06
249.832	166.06
250.066	168.06
250.299	170.06
250.532	178.06
250.765	184.06
250.998	191.06
251.231	185.06
251.465	193.06
251.698	176.06
251.931	197.06
252.164	186.06
252.397	162.06
252.63	191.06
252.863	197.06
253.096	187.06
253.329	204.06
253.562	216.06
253.795	195.06
254.028	194.06
254.261	191.06
254.494	194.06
254.727	223.06
254.96	235.06
255.193	231.06
255.426	219.06
255.659	198.06
255.892	210.06
256.124	208.06
256.357	209.06
256.59	191.06
256.823	206.06
257.056	178.06
257.289	195.06
257.521	193.06
257.754	202.06
257.987	193.06
258.22	216.06
258.452	197.06
258.685	198.06
258.918	198.06
259.151	191.06
259.383	186.06
259.616	224.06
259.849	204.06
260.081	210.06
260.314	237.06
260.547	227.06
260.779	219.06
261.012	218.06
261.244	209.06
261.477	201.06
261.71	210.06
261.942	206.06
262.175	217.06
262.407	228.06
262.64	202.06
262.872	208.06
263.105	200.06
263.337	205.06
263.57	196.06
263.802	211.06
264.035	202.06
264.267	201.06
264.499	194.06
264.732	210.06
264.964	212.06
265.197	210.06
265.429	196.06
265.661	191.06
265.894	207.06
266.126	205.06
266.358	221.06
266.591	212.06
266.823	217.06
267.055	210.06
267.287	215.06
267.52	194.06
267.752	206.06
267.984	210.06
268.216	211.06
268.448	222.06
268.681	218.06
268.913	246.06
269.145	224.06
269.377	246.06
269.609	254.06
269.841	237.06
270.073	262.06
270.306	256.06
270.538	275.06
270.77	284.06
271.002	270.06
271.234	251.06
271.466	257.06
271.698	260.06
271.93	286.06
272.162	273.06
272.394	269.06
272.626	283.06
272.858	249.06
273.09	264.06
273.322	261.06
273.553	246.06
273.785	226.06
274.017	251.06
274.249	256.06
274.481	246.06
274.713	249.06
274.945	241.06
275.176	246.06
275.408	242.06
275.64	240.06
275.872	246.06
276.104	258.06
276.335	244.06
276.567	251.06
276.799	256.06
277.031	280.06
277.262	276.06
277.494	293.06
277.726	273.06
277.957	254.06
278.189	264.06
278.421	252.06
278.652	248.06
278.884	255.06
279.115	259.06
279.347	230.06
279.579	250.06
279.81	247.06
280.042	261.06
280.273	257.06
280.505	245.06
280.736	248.06
280.968	240.06
281.199	247.06
281.431	257.06
281.662	249.06
281.894	245.06
282.125	272.06
282.356	272.06
282.588	297.06
282.819	296.06
283.051	276.06
283.282	256.06
283.513	261.06
283.745	266.06
283.976	277.06
284.207	261.06
284.439	272.06
284.67	271.06
284.901	271.06
285.132	257.06
285.364	244.06
285.595	252.06
285.826	256.06
286.057	266.06
286.288	268.06
286.52	289.06
286.751	247.06
286.982	253.06
287.213	258.06
287.444	273.06
287.675	257.06
287.906	271.06
288.138	272.06
288.369	296.06
288.6	295.06
288.831	297.06
289.062	273.06
289.293	285.06
289.524	283.06
289.755	293.06
289.986	292.06
290.217	269.06
290.448	284.06
290.679	269.06
290.91	254.06
291.141	284.06
291.371	300.06
291.602	272.06
291.833	279.06
292.064	286.06
292.295	269.06
292.526	257.06
292.757	277.06
292.987	282.06
293.218	279.06
293.449	286.06
293.68	286.06
293.91	277.06
294.141	276.06
294.372	274.06
294.603	281.06
294.833	271.06
295.064	287.06
295.295	271.06
295.525	290.06
295.756	278.06
295.987	293.06
296.217	314.06
296.448	302.06
296.679	290.06
296.909	273.06
297.14	289.06
297.37	297.06
297.601	289.06
297.831	288.06
298.062	293.06
298.292	288.06
298.523	306.06
298.753	301.06
298.984	281.06
299.214	294.06
299.445	312.06
299.675	285.06
299.905	306.06
300.136	296.06
300.366	303.06
300.597	300.06
300.827	308.06
301.057	314.06
301.288	332.06
301.518	312.06
301.748	309.06
301.979	318.06
302.209	316.06
302.439	315.06
302.669	328.06
302.9	318.06
303.13	326.06
303.36	308.06
303.59	331.06
303.82	326.06
304.051	318.06
304.281	321.06
304.511	328.06
304.741	318.06
304.971	300.06
305.201	329.06
305.431	320.06
305.661	330.06
305.891	320.06
306.121	300.06
306.352	331.06
306.582	331.06
306.812	315.06
307.042	325.06
307.272	334.06
307.502	325.06
307.731	317.06
307.961	301.06
308.191	329.06
308.421	316.06
308.651	314.06
308.881	332.06
309.111	340.06
309.341	348.06
309.571	347.06
309.8	317.06
310.03	333.06
310.26	349.06
310.49	346.06
310.72	351.06
310.949	372.06
311.179	378.06
311.409	353.06
311.639	351.06
311.868	346.06
312.098	349.06
312.328	377.06
312.557	377.06
312.787	377.06
313.017	385.06
313.246	358.06
313.476	355.06
313.706	360.06
313.935	344.06
314.165	379.06
314.394	376.06
314.624	364.06
314.853	360.06
315.083	353.06
315.312	340.06
315.542	360.06
315.771	340.06
316.001	339.06
316.23	359.06
316.46	337.06
316.689	345.06
316.919	349.06
317.148	366.06
317.377	366.06
317.607	377.06
317.836	372.06
318.065	361.06
318.295	369.06
318.524	353.06
318.753	351.06
318.983	361.06
319.212	354.06
319.441	378.06
319.67	384.06
319.9	369.06
320.129	359.06
320.358	384.06
320.587	358.06
320.816	361.06
321.046	387.06
321.275	369.06
321.504	364.06
321.733	372.06
321.962	384.06
322.191	386.06
322.42	403.06
322.649	398.06
322.878	406.06
323.108	415.06
323.337	457.06
323.566	445.06
323.795	472.06
324.024	504.06
324.253	601.06
324.482	822.06
324.71	1261.06
324.939	1863.06
325.168	1617.06
325.397	780.06
325.626	558.06
325.855	528.06
326.084	489.06
326.313	451.06
326.542	444.06
326.77	484.06
326.999	571.06
327.228	761.06
327.457	1144.06
327.686	1417.06
327.914	934.06
328.143	634.06
328.372	564.06
328.6	536.06
328.829	502.06
329.058	508.06
329.287	528.06
329.515	495.06
329.744	450.06
329.972	465.06
330.201	449.06
330.43	506.06
330.658	515.06
330.887	528.06
331.115	535.06
331.344	470.06
331.572	462.06
331.801	439.06
332.03	465.06
332.258	448.06
332.486	424.06
332.715	408.06
332.943	425.06
333.172	446.06
333.4	468.06
333.629	458.06
333.857	461.06
334.085	464.06
334.314	497.06
334.542	506.06
334.771	498.06
334.999	496.06
335.227	469.06
335.455	466.06
335.684	438.06
335.912	441.06
336.14	436.06
336.369	436.06
336.597	451.06
336.825	429.06
337.053	433.06
337.281	421.06
337.51	427.06
337.738	430.06
337.966	453.06
338.194	429.06
338.422	425.06
338.65	416.06
338.878	431.06
339.106	426.06
339.334	418.06
339.562	416.06
339.79	404.06
340.018	416.06
340.246	409.06
340.474	442.06
340.702	430.06
340.93	418.06
341.158	421.06
341.386	407.06
341.614	401.06
341.842	427.06
342.07	390.06
342.298	406.06
342.526	386.06
342.754	388.06
342.981	409.06
343.209	408.06
343.437	412.06
343.665	408.06
343.893	444.06
344.12	413.06
344.348	430.06
344.576	418.06
344.804	450.06
345.031	399.06
345.259	449.06
345.487	458.06
345.714	418.06
345.942	421.06
346.17	398.06
346.397	396.06
346.625	409.06
346.853	406.06
347.08	409.06
347.308	410.06
347.535	401.06
347.763	431.06
347.99	412.06
348.218	384.06
348.445	411.06
348.673	398.06
348.9	415.06
349.128	378.06
349.355	387.06
349.583	391.06
349.81	390.06
350.037	397.06
350.265	384.06
350.492	391.06
350.72	402.06
350.947	398.06
351.174	426.06
351.402	423.06
351.629	418.06
351.856	394.06
352.083	406.06
352.311	402.06
352.538	404.06
352.765	417.06
352.992	410.06
353.22	414.06
353.447	414.06
353.674	413.06
353.901	403.06
354.128	389.06
354.355	394.06
354.583	383.06
354.81	382.06
355.037	379.06
355.264	382.06
355.491	357.06
355.718	394.06
355.945	395.06
356.172	375.06
356.399	377.06
356.626	359.06
356.853	394.06
357.08	388.06
357.307	400.06
357.534	394.06
357.761	373.06
357.988	390.06
358.215	370.06
358.441	390.06
358.668	414.06
358.895	379.06
359.122	381.06
359.349	386.06
359.576	408.06
359.802	414.06
360.029	450.06
360.256	424.06
360.483	429.06
360.709	411.06
360.936	428.06
361.163	388.06
361.39	408.06
361.616	411.06
361.843	410.06
362.07	411.06
362.296	415.06
362.523	417.06
362.749	406.06
362.976	395.06
363.203	416.06
363.429	412.06
363.656	403.06
363.882	396.06
364.109	390.06
364.335	405.06
364.562	385.06
364.788	387.06
365.015	398.06
365.241	386.06
365.468	407.06
365.694	403.06
365.92	403.06
366.147	410.06
366.373	398.06
366.599	398.06
366.826	402.06
367.052	383.06
367.278	392.06
367.505	378.06
367.731	408.06
367.957	415.06
368.184	392.06
368.41	397.06
368.636	396.06
368.862	426.06
369.089	412.06
369.315	386.06
369.541	398.06
369.767	414.06
369.993	400.06
370.219	391.06
370.445	394.06
370.672	405.06
370.898	392.06
371.124	394.06
371.35	403.06
371.576	401.06
371.802	412.06
372.028	402.06
372.254	400.06
372.48	405.06
372.706	414.06
372.932	400.06
373.158	409.06
373.384	416.06
373.61	414.06
373.835	396.06
374.061	422.06
374.287	424.06
374.513	416.06
374.739	409.06
374.965	424.06
375.191	433.06
375.416	424.06
375.642	425.06
375.868	421.06
376.094	432.06
376.319	412.06
376.545	421.06
376.771	415.06
376.997	412.06
377.222	416.06
377.448	392.06
377.674	409.06
377.899	410.06
378.125	388.06
378.35	412.06
378.576	388.06
378.802	382.06
379.027	392.06
379.253	420.06
379.478	402.06
379.704	406.06
379.929	392.06
380.155	405.06
380.38	422.06
380.606	429.06
380.831	416.06
381.057	408.06
381.282	390.06
381.507	414.06
381.733	424.06
381.958	400.06
382.184	415.06
382.409	415.06
382.634	410.06
382.86	409.06
383.085	404.06
383.31	457.06
383.535	420.06
383.761	431.06
383.986	426.06
384.211	456.06
384.436	442.06
384.662	443.06
384.887	438.06
385.112	450.06
385.337	448.06
385.562	452.06
385.787	471.06
386.013	470.06
386.238	446.06
386.463	464.06
386.688	464.06
386.913	440.06
387.138	453.06
387.363	470.06
387.588	444.06
387.813	438.06
388.038	471.06
388.263	448.06
388.488	459.06
388.713	462.06
388.938	448.06
389.163	448.06
389.387	448.06
389.612	460.06
389.837	452.06
390.062	450.06
390.287	431.06
390.512	473.06
390.736	464.06
390.961	460.06
391.186	457.06
391.411	460.06
391.636	488.06
391.86	455.06
392.085	475.06
392.31	484.06
392.534	478.06
392.759	470.06
392.984	473.06
393.208	476.06
393.433	468.06
393.658	468.06
393.882	472.06
394.107	450.06
394.331	466.06
394.556	465.06
394.78	453.06
395.005	484.06
395.229	465.06
395.454	466.06
395.678	469.06
395.903	481.06
396.127	507.06
396.352	516.06
396.576	497.06
396.801	502.06
397.025	488.06
397.249	498.06
397.474	483.06
397.698	494.06
397.922	502.06
398.147	516.06
398.371	525.06
398.595	530.06
398.82	543.06
399.044	540.06
399.268	539.06
399.492	600.06
399.717	622.06
399.941	652.06
400.165	663.06
400.389	662.06
400.613	625.06
400.837	551.06
401.062	559.06
401.286	549.06
401.51	553.06
401.734	529.06
401.958	550.06
402.182	556.06
402.406	554.06
402.63	559.06
402.854	549.06
403.078	575.06
403.302	577.06
403.526	579.06
403.75	567.06
403.974	571.06
404.198	559.06
404.422	552.06
404.645	575.06
404.869	580.06
405.093	591.06
405.317	640.06
405.541	656.06
405.765	626.06
405.988	607.06
406.212	597.06
406.436	601.06
406.66	632.06
406.883	599.06
407.107	638.06
407.331	677.06
407.555	747.06
407.778	729.06
408.002	685.06
408.226	636.06
408.449	613.06
408.673	614.06
408.896	618.06
409.12	666.06
409.344	637.06
409.567	591.06
409.791	577.06
410.014	570.06
410.238	557.06
410.461	577.06
410.685	573.06
410.908	586.06
411.132	602.06
411.355	639.06
411.578	612.06
411.802	583.06
412.025	570.06
412.249	584.06
412.472	605.06
412.695	604.06
412.919	629.06
413.142	556.06
413.365	538.06
413.589	580.06
413.812	554.06
414.035	543.06
414.258	542.06
414.482	545.06
414.705	555.06
414.928	553.06
415.151	512.06
415.374	508.06
415.597	541.06
415.821	509.06
416.044	514.06
416.267	546.06
416.49	545.06
416.713	536.06
416.936	554.06
417.159	537.06
417.382	538.06
417.605	513.06
417.828	545.06
418.051	539.06
418.274	538.06
418.497	540.06
418.72	545.06
418.943	521.06
419.166	559.06
419.389	577.06
419.611	605.06
419.834	578.06
420.057	545.06
420.28	550.06
420.503	556.06
420.726	550.06
420.948	544.06
421.171	618.06
421.394	627.06
421.617	544.06
421.839	552.06
422.062	534.06
422.285	554.06
422.507	609.06
422.73	680.06
422.953	662.06
423.175	578.06
423.398	564.06
423.621	561.06
423.843	595.06
424.066	607.06
424.288	591.06
424.511	620.06
424.733	652.06
424.956	715.06
425.178	711.06
425.401	685.06
425.623	713.06
425.846	622.06
426.068	604.06
426.291	568.06
426.513	594.06
426.735	581.06
426.958	625.06
427.18	694.06
427.402	810.06
427.625	857.06
427.847	792.06
428.069	680.06
428.292	610.06
428.514	562.06
428.736	556.06
428.958	564.06
429.181	566.06
429.403	553.06
429.625	566.06
429.847	591.06
430.069	628.06
430.292	624.06
430.514	560.06
430.736	550.06
430.958	550.06
431.18	520.06
431.402	525.06
431.624	528.06
431.846	500.06
432.068	517.06
432.29	528.06
432.512	513.06
432.734	511.06
432.956	550.06
433.178	551.06
433.4	544.06
433.622	543.06
433.844	526.06
434.066	510.06
434.287	542.06
434.509	518.06
434.731	544.06
434.953	527.06
435.175	564.06
435.397	590.06
435.618	562.06
435.84	612.06
436.062	700.06
436.284	738.06
436.505	631.06
436.727	592.06
436.949	591.06
437.17	561.06
437.392	554.06
437.614	561.06
437.835	581.06
438.057	661.06
438.278	764.06
438.5	738.06
438.721	802.06
438.943	767.06
439.165	605.06
439.386	584.06
439.608	601.06
439.829	582.06
440.05	597.06
440.272	637.06
440.493	620.06
440.715	584.06
440.936	564.06
441.158	560.06
441.379	549.06
441.6	562.06
441.822	597.06
442.043	628.06
442.264	685.06
442.486	702.06
442.707	621.06
442.928	597.06
443.149	609.06
443.371	620.06
443.592	630.06
443.813	737.06
444.034	797.06
444.255	673.06
444.476	633.06
444.698	608.06
444.919	615.06
445.14	752.06
445.361	669.06
445.582	637.06
445.803	706.06
446.024	779.06
446.245	784.06
446.466	697.06
446.687	598.06
446.908	579.06
447.129	571.06
447.35	538.06
447.571	554.06
447.792	553.06
448.013	513.06
448.234	557.06
448.455	576.06
448.675	693.06
448.896	794.06
449.117	682.06
449.338	665.06
449.559	736.06
449.779	839.06
450	693.06
450.221	583.06
450.442	534.06
450.662	532.06
450.883	509.06
451.104	526.06
451.324	530.06
451.545	508.06
451.766	451.06
451.986	474.06
452.207	508.06
452.428	486.06
452.648	466.06
452.869	449.06
453.089	486.06
453.31	486.06
453.53	491.06
453.751	482.06
453.971	471.06
454.192	509.06
454.412	473.06
454.633	480.06
454.853	474.06
455.073	470.06
455.294	490.06
455.514	564.06
455.734	536.06
455.955	466.06
456.175	461.06
456.395	443.06
456.616	462.06
456.836	447.06
457.056	442.06
457.276	495.06
457.497	466.06
457.717	479.06
457.937	486.06
458.157	456.06
458.377	498.06
458.598	516.06
458.818	528.06
459.038	605.06
459.258	621.06
459.478	576.06
459.698	533.06
459.918	504.06
460.138	527.06
460.358	540.06
460.578	555.06
460.798	555.06
461.018	544.06
461.238	544.06
461.458	538.06
461.678	541.06
461.898	545.06
462.118	530.06
462.338	583.06
462.558	580.06
462.777	564.06
462.997	605.06
463.217	635.06
463.437	626.06
463.657	616.06
463.876	561.06
464.096	607.06
464.316	587.06
464.536	612.06
464.755	601.06
464.975	599.06
465.195	600.06
465.414	645.06
465.634	590.06
465.854	552.06
466.073	529.06
466.293	523.06
466.512	490.06
466.732	496.06
466.951	532.06
467.171	485.06
467.391	504.06
467.61	529.06
467.829	541.06
468.049	484.06
468.268	527.06
468.488	495.06
468.707	490.06
468.927	504.06
469.146	488.06
469.365	485.06
469.585	490.06
469.804	534.06
470.023	522.06
470.243	510.06
470.462	524.06
470.681	522.06
470.901	542.06
471.12	518.06
471.339	495.06
471.558	494.06
471.777	503.06
471.997	497.06
472.216	538.06
472.435	535.06
472.654	529.06
472.873	520.06
473.092	506.06
473.311	493.06
473.53	496.06
473.749	513.06
473.968	542.06
474.187	624.06
474.406	648.06
474.625	549.06
474.844	498.06
475.063	531.06
475.282	516.06
475.501	513.06
475.72	528.06
475.939	543.06
476.158	540.06
476.377	530.06
476.596	529.06
476.814	524.06
477.033	527.06
477.252	536.06
477.471	540.06
477.69	539.06
477.908	557.06
478.127	555.06
478.346	551.06
478.564	547.06
478.783	572.06
479.002	632.06
479.22	608.06
479.439	609.06
479.658	622.06
479.876	604.06
480.095	629.06
480.313	639.06
480.532	657.06
480.751	660.06
480.969	645.06
481.188	664.06
481.406	715.06
481.624	643.06
481.843	630.06
482.061	598.06
482.28	624.06
482.498	584.06
482.717	604.06
482.935	606.06
483.153	590.06
483.372	585.06
483.59	602.06
483.808	590.06
484.027	617.06
484.245	609.06
484.463	610.06
484.681	618.06
484.9	604.06
485.118	593.06
485.336	616.06
485.554	601.06
485.772	604.06
485.99	613.06
486.209	617.06
486.427	604.06
486.645	630.06
486.863	632.06
487.081	631.06
487.299	641.06
487.517	650.06
487.735	608.06
487.953	656.06
488.171	664.06
488.389	632.06
488.607	636.06
488.825	629.06
489.043	622.06
489.261	645.06
489.479	640.06
489.696	634.06
489.914	646.06
490.132	654.06
490.35	663.06
490.568	648.06
490.786	667.06
491.003	684.06
491.221	695.06
491.439	698.06
491.657	719.06
491.874	702.06
492.092	696.06
492.31	701.06
492.527	696.06
492.745	733.06
492.963	714.06
493.18	705.06
493.398	760.06
493.615	766.06
493.833	724.06
494.05	751.06
494.268	711.06
494.485	757.06
494.703	737.06
494.92	749.06
495.138	748.06
495.355	728.06
495.573	735.06
495.79	732.06
496.008	751.06
496.225	735.06
496.442	744.06
496.66	737.06
496.877	757.06
497.094	782.06
497.312	781.06
497.529	785.06
497.746	797.06
497.963	798.06
498.181	846.06
498.398	853.06
498.615	844.06
498.832	857.06
499.049	884.06
499.267	928.06
499.484	963.06
499.701	1040.06
499.918	1054.06
500.135	1110.06
500.352	1172.06
500.569	1168.06
500.786	1213.06
501.003	1172.06
501.22	1112.06
501.437	1086.06
501.654	1026.06
501.871	1014.06
