Data from 1979.PennyLincolnUp.Lamp.En5.5.200Scan.071719.P1_HRD10591_16-18-47-863.txt Node
Date: Thu Jul 18 16:18:47 EDT 2019
User: cochatt
Spectrometer: HR+D1059
Trigger mode: 1
Integration Time (sec): 1.000000E-1
Scans to average: 1
Electric dark correction enabled: true
Nonlinearity correction enabled: false
Boxcar width: 0
XAxis mode: Wavelengths
Number of Pixels in Spectrum: 2048
>>>>>Begin Spectral Data<<<<<
223.165	-5.62
223.4	-5.62
223.635	-5.62
223.869	-22.62
224.104	-12.62
224.338	-7.62
224.573	-15.62
224.808	-1.62
225.042	-16.62
225.277	-11.62
225.511	-3.62
225.746	14.38
225.98	5.38
226.215	8.38
226.449	12.38
226.683	15.38
226.918	24.38
227.152	17.38
227.387	39.38
227.621	45.38
227.856	53.38
228.09	52.38
228.324	30.38
228.559	44.38
228.793	60.38
229.027	102.38
229.262	111.38
229.496	119.38
229.73	120.38
229.964	152.38
230.199	128.38
230.433	101.38
230.667	116.38
230.901	122.38
231.136	110.38
231.37	119.38
231.604	111.38
231.838	109.38
232.072	120.38
232.306	114.38
232.541	116.38
232.775	118.38
233.009	115.38
233.243	122.38
233.477	123.38
233.711	105.38
233.945	110.38
234.179	115.38
234.413	116.38
234.647	122.38
234.881	116.38
235.115	128.38
235.349	115.38
235.583	97.38
235.817	114.38
236.051	130.38
236.285	115.38
236.519	124.38
236.753	128.38
236.987	135.38
237.221	172.38
237.455	216.38
237.689	173.38
237.922	142.38
238.156	128.38
238.39	120.38
238.624	117.38
238.858	109.38
239.091	112.38
239.325	111.38
239.559	118.38
239.793	125.38
240.027	134.38
240.26	132.38
240.494	139.38
240.728	152.38
240.961	144.38
241.195	122.38
241.429	114.38
241.662	140.38
241.896	147.38
242.13	120.38
242.363	124.38
242.597	133.38
242.83	128.38
243.064	136.38
243.298	117.38
243.531	144.38
243.765	135.38
243.998	139.38
244.232	143.38
244.465	144.38
244.699	151.38
244.932	156.38
245.166	156.38
245.399	136.38
245.633	168.38
245.866	156.38
246.099	162.38
246.333	135.38
246.566	138.38
246.8	146.38
247.033	150.38
247.266	145.38
247.5	159.38
247.733	164.38
247.966	152.38
248.2	160.38
248.433	173.38
248.666	157.38
248.899	193.38
249.133	192.38
249.366	183.38
249.599	186.38
249.832	166.38
250.066	179.38
250.299	184.38
250.532	190.38
250.765	195.38
250.998	213.38
251.231	198.38
251.465	199.38
251.698	185.38
251.931	198.38
252.164	180.38
252.397	181.38
252.63	190.38
252.863	203.38
253.096	191.38
253.329	207.38
253.562	216.38
253.795	192.38
254.028	199.38
254.261	202.38
254.494	217.38
254.727	222.38
254.96	259.38
255.193	253.38
255.426	228.38
255.659	202.38
255.892	204.38
256.124	225.38
256.357	221.38
256.59	219.38
256.823	225.38
257.056	206.38
257.289	201.38
257.521	213.38
257.754	207.38
257.987	212.38
258.22	218.38
258.452	204.38
258.685	188.38
258.918	201.38
259.151	199.38
259.383	215.38
259.616	208.38
259.849	219.38
260.081	207.38
260.314	211.38
260.547	224.38
260.779	234.38
261.012	209.38
261.244	218.38
261.477	210.38
261.71	203.38
261.942	203.38
262.175	222.38
262.407	225.38
262.64	204.38
262.872	208.38
263.105	203.38
263.337	204.38
263.57	226.38
263.802	202.38
264.035	198.38
264.267	204.38
264.499	200.38
264.732	236.38
264.964	204.38
265.197	219.38
265.429	212.38
265.661	189.38
265.894	190.38
266.126	211.38
266.358	221.38
266.591	206.38
266.823	228.38
267.055	221.38
267.287	221.38
267.52	224.38
267.752	219.38
267.984	223.38
268.216	227.38
268.448	226.38
268.681	229.38
268.913	242.38
269.145	233.38
269.377	259.38
269.609	249.38
269.841	244.38
270.073	248.38
270.306	260.38
270.538	278.38
270.77	281.38
271.002	283.38
271.234	266.38
271.466	272.38
271.698	282.38
271.93	308.38
272.162	286.38
272.394	290.38
272.626	286.38
272.858	273.38
273.09	278.38
273.322	271.38
273.553	239.38
273.785	248.38
274.017	236.38
274.249	244.38
274.481	256.38
274.713	235.38
274.945	270.38
275.176	257.38
275.408	262.38
275.64	254.38
275.872	250.38
276.104	267.38
276.335	263.38
276.567	272.38
276.799	272.38
277.031	279.38
277.262	296.38
277.494	294.38
277.726	266.38
277.957	266.38
278.189	283.38
278.421	252.38
278.652	267.38
278.884	249.38
279.115	257.38
279.347	249.38
279.579	268.38
279.81	259.38
280.042	243.38
280.273	272.38
280.505	250.38
280.736	271.38
280.968	253.38
281.199	270.38
281.431	270.38
281.662	268.38
281.894	260.38
282.125	264.38
282.356	274.38
282.588	300.38
282.819	287.38
283.051	266.38
283.282	251.38
283.513	258.38
283.745	267.38
283.976	251.38
284.207	252.38
284.439	262.38
284.67	283.38
284.901	279.38
285.132	277.38
285.364	285.38
285.595	272.38
285.826	246.38
286.057	256.38
286.288	280.38
286.52	273.38
286.751	273.38
286.982	275.38
287.213	258.38
287.444	284.38
287.675	278.38
287.906	279.38
288.138	296.38
288.369	303.38
288.6	298.38
288.831	300.38
289.062	290.38
289.293	287.38
289.524	272.38
289.755	297.38
289.986	282.38
290.217	291.38
290.448	271.38
290.679	294.38
290.91	299.38
291.141	291.38
291.371	283.38
291.602	291.38
291.833	278.38
292.064	278.38
292.295	284.38
292.526	278.38
292.757	313.38
292.987	294.38
293.218	265.38
293.449	275.38
293.68	290.38
293.91	283.38
294.141	278.38
294.372	287.38
294.603	278.38
294.833	298.38
295.064	302.38
295.295	311.38
295.525	294.38
295.756	296.38
295.987	323.38
296.217	313.38
296.448	333.38
296.679	320.38
296.909	286.38
297.14	287.38
297.37	291.38
297.601	312.38
297.831	297.38
298.062	299.38
298.292	312.38
298.523	298.38
298.753	302.38
298.984	300.38
299.214	296.38
299.445	318.38
299.675	298.38
299.905	320.38
300.136	315.38
300.366	324.38
300.597	325.38
300.827	298.38
301.057	324.38
301.288	334.38
301.518	304.38
301.748	311.38
301.979	298.38
302.209	340.38
302.439	306.38
302.669	322.38
302.9	331.38
303.13	321.38
303.36	346.38
303.59	313.38
303.82	348.38
304.051	342.38
304.281	334.38
304.511	330.38
304.741	319.38
304.971	331.38
305.201	326.38
305.431	300.38
305.661	332.38
305.891	333.38
306.121	325.38
306.352	334.38
306.582	325.38
306.812	334.38
307.042	334.38
307.272	314.38
307.502	316.38
307.731	345.38
307.961	319.38
308.191	335.38
308.421	339.38
308.651	325.38
308.881	328.38
309.111	356.38
309.341	347.38
309.571	356.38
309.8	334.38
310.03	356.38
310.26	358.38
310.49	378.38
310.72	378.38
310.949	371.38
311.179	384.38
311.409	387.38
311.639	353.38
311.868	380.38
312.098	373.38
312.328	362.38
312.557	396.38
312.787	390.38
313.017	383.38
313.246	385.38
313.476	374.38
313.706	361.38
313.935	372.38
314.165	388.38
314.394	398.38
314.624	389.38
314.853	380.38
315.083	368.38
315.312	378.38
315.542	376.38
315.771	375.38
316.001	364.38
316.23	370.38
316.46	378.38
316.689	379.38
316.919	359.38
317.148	400.38
317.377	390.38
317.607	366.38
317.836	376.38
318.065	364.38
318.295	365.38
318.524	365.38
318.753	361.38
318.983	373.38
319.212	361.38
319.441	388.38
319.67	386.38
319.9	379.38
320.129	376.38
320.358	374.38
320.587	370.38
320.816	364.38
321.046	388.38
321.275	389.38
321.504	395.38
321.733	395.38
321.962	393.38
322.191	400.38
322.42	443.38
322.649	427.38
322.878	401.38
323.108	437.38
323.337	463.38
323.566	477.38
323.795	470.38
324.024	543.38
324.253	621.38
324.482	878.38
324.71	1369.38
324.939	2062.38
325.168	1760.38
325.397	879.38
325.626	589.38
325.855	539.38
326.084	468.38
326.313	465.38
326.542	464.38
326.77	530.38
326.999	590.38
327.228	810.38
327.457	1251.38
327.686	1581.38
327.914	1010.38
328.143	658.38
328.372	578.38
328.6	551.38
328.829	516.38
329.058	544.38
329.287	534.38
329.515	533.38
329.744	485.38
329.972	470.38
330.201	475.38
330.43	523.38
330.658	544.38
330.887	553.38
331.115	556.38
331.344	496.38
331.572	489.38
331.801	472.38
332.03	502.38
332.258	444.38
332.486	463.38
332.715	451.38
332.943	456.38
333.172	446.38
333.4	476.38
333.629	492.38
333.857	498.38
334.085	469.38
334.314	519.38
334.542	504.38
334.771	548.38
334.999	488.38
335.227	482.38
335.455	484.38
335.684	459.38
335.912	453.38
336.14	472.38
336.369	453.38
336.597	450.38
336.825	483.38
337.053	463.38
337.281	445.38
337.51	448.38
337.738	441.38
337.966	438.38
338.194	442.38
338.422	442.38
338.65	435.38
338.878	443.38
339.106	439.38
339.334	437.38
339.562	423.38
339.79	426.38
340.018	415.38
340.246	445.38
340.474	448.38
340.702	453.38
340.93	426.38
341.158	438.38
341.386	427.38
341.614	422.38
341.842	424.38
342.07	440.38
342.298	424.38
342.526	415.38
342.754	415.38
342.981	422.38
343.209	415.38
343.437	426.38
343.665	436.38
343.893	455.38
344.12	442.38
344.348	441.38
344.576	450.38
344.804	459.38
345.031	454.38
345.259	460.38
345.487	448.38
345.714	445.38
345.942	430.38
346.17	430.38
346.397	409.38
346.625	413.38
346.853	399.38
347.08	430.38
347.308	423.38
347.535	427.38
347.763	438.38
347.99	431.38
348.218	430.38
348.445	439.38
348.673	438.38
348.9	415.38
349.128	413.38
349.355	422.38
349.583	411.38
349.81	419.38
350.037	404.38
350.265	415.38
350.492	408.38
350.72	382.38
350.947	414.38
351.174	414.38
351.402	441.38
351.629	427.38
351.856	425.38
352.083	440.38
352.311	417.38
352.538	425.38
352.765	421.38
352.992	435.38
353.22	424.38
353.447	412.38
353.674	436.38
353.901	420.38
354.128	382.38
354.355	386.38
354.583	392.38
354.81	394.38
355.037	383.38
355.264	391.38
355.491	389.38
355.718	397.38
355.945	391.38
356.172	401.38
356.399	406.38
356.626	405.38
356.853	396.38
357.08	408.38
357.307	404.38
357.534	388.38
357.761	409.38
357.988	398.38
358.215	392.38
358.441	408.38
358.668	397.38
358.895	398.38
359.122	430.38
359.349	397.38
359.576	419.38
359.802	454.38
360.029	459.38
360.256	473.38
360.483	448.38
360.709	426.38
360.936	427.38
361.163	423.38
361.39	429.38
361.616	438.38
361.843	426.38
362.07	405.38
362.296	431.38
362.523	418.38
362.749	410.38
362.976	419.38
363.203	400.38
363.429	416.38
363.656	405.38
363.882	415.38
364.109	405.38
364.335	390.38
364.562	420.38
364.788	408.38
365.015	417.38
365.241	391.38
365.468	404.38
365.694	428.38
365.92	416.38
366.147	414.38
366.373	425.38
366.599	408.38
366.826	423.38
367.052	411.38
367.278	412.38
367.505	392.38
367.731	418.38
367.957	426.38
368.184	416.38
368.41	427.38
368.636	406.38
368.862	442.38
369.089	421.38
369.315	413.38
369.541	425.38
369.767	421.38
369.993	417.38
370.219	413.38
370.445	400.38
370.672	422.38
370.898	396.38
371.124	415.38
371.35	390.38
371.576	398.38
371.802	421.38
372.028	407.38
372.254	421.38
372.48	408.38
372.706	438.38
372.932	422.38
373.158	420.38
373.384	420.38
373.61	424.38
373.835	414.38
374.061	420.38
374.287	428.38
374.513	434.38
374.739	427.38
374.965	452.38
375.191	429.38
375.416	436.38
375.642	440.38
375.868	431.38
376.094	419.38
376.319	425.38
376.545	417.38
376.771	421.38
376.997	415.38
377.222	430.38
377.448	423.38
377.674	430.38
377.899	397.38
378.125	418.38
378.35	404.38
378.576	408.38
378.802	425.38
379.027	423.38
379.253	416.38
379.478	411.38
379.704	420.38
379.929	426.38
380.155	423.38
380.38	444.38
380.606	415.38
380.831	418.38
381.057	426.38
381.282	440.38
381.507	434.38
381.733	422.38
381.958	428.38
382.184	428.38
382.409	437.38
382.634	435.38
382.86	417.38
383.085	444.38
383.31	422.38
383.535	428.38
383.761	421.38
383.986	442.38
384.211	440.38
384.436	443.38
384.662	445.38
384.887	460.38
385.112	484.38
385.337	458.38
385.562	477.38
385.787	464.38
386.013	490.38
386.238	485.38
386.463	469.38
386.688	460.38
386.913	458.38
387.138	455.38
387.363	475.38
387.588	477.38
387.813	502.38
388.038	483.38
388.263	474.38
388.488	489.38
388.713	458.38
388.938	463.38
389.163	478.38
389.387	462.38
389.612	476.38
389.837	485.38
390.062	466.38
390.287	467.38
390.512	468.38
390.736	477.38
390.961	484.38
391.186	467.38
391.411	483.38
391.636	468.38
391.86	500.38
392.085	517.38
392.31	491.38
392.534	489.38
392.759	470.38
392.984	480.38
393.208	471.38
393.433	475.38
393.658	490.38
393.882	485.38
394.107	489.38
394.331	474.38
394.556	471.38
394.78	487.38
395.005	493.38
395.229	500.38
395.454	515.38
395.678	480.38
395.903	503.38
396.127	525.38
396.352	536.38
396.576	501.38
396.801	490.38
397.025	518.38
397.249	514.38
397.474	501.38
397.698	514.38
397.922	518.38
398.147	556.38
398.371	555.38
398.595	542.38
398.82	552.38
399.044	578.38
399.268	589.38
399.492	638.38
399.717	654.38
399.941	672.38
400.165	712.38
400.389	679.38
400.613	629.38
400.837	576.38
401.062	574.38
401.286	563.38
401.51	574.38
401.734	543.38
401.958	575.38
402.182	572.38
402.406	555.38
402.63	582.38
402.854	556.38
403.078	580.38
403.302	578.38
403.526	580.38
403.75	596.38
403.974	581.38
404.198	591.38
404.422	586.38
404.645	606.38
404.869	612.38
405.093	646.38
405.317	652.38
405.541	674.38
405.765	648.38
405.988	623.38
406.212	631.38
406.436	648.38
406.66	678.38
406.883	633.38
407.107	644.38
407.331	681.38
407.555	759.38
407.778	760.38
408.002	698.38
408.226	656.38
408.449	670.38
408.673	656.38
408.896	646.38
409.12	703.38
409.344	683.38
409.567	595.38
409.791	620.38
410.014	615.38
410.238	591.38
410.461	582.38
410.685	581.38
410.908	596.38
411.132	628.38
411.355	642.38
411.578	630.38
411.802	616.38
412.025	580.38
412.249	620.38
412.472	627.38
412.695	660.38
412.919	638.38
413.142	590.38
413.365	588.38
413.589	586.38
413.812	559.38
414.035	580.38
414.258	556.38
414.482	542.38
414.705	568.38
414.928	585.38
415.151	573.38
415.374	562.38
415.597	550.38
415.821	556.38
416.044	545.38
416.267	555.38
416.49	552.38
416.713	546.38
416.936	546.38
417.159	552.38
417.382	567.38
417.605	565.38
417.828	573.38
418.051	578.38
418.274	565.38
418.497	557.38
418.72	569.38
418.943	572.38
419.166	584.38
419.389	618.38
419.611	610.38
419.834	591.38
420.057	592.38
420.28	565.38
420.503	568.38
420.726	574.38
420.948	596.38
421.171	620.38
421.394	642.38
421.617	579.38
421.839	586.38
422.062	583.38
422.285	588.38
422.507	617.38
422.73	710.38
422.953	700.38
423.175	621.38
423.398	591.38
423.621	615.38
423.843	608.38
424.066	626.38
424.288	598.38
424.511	640.38
424.733	669.38
424.956	748.38
425.178	703.38
425.401	712.38
425.623	735.38
425.846	642.38
426.068	626.38
426.291	604.38
426.513	610.38
426.735	628.38
426.958	636.38
427.18	718.38
427.402	863.38
427.625	912.38
427.847	834.38
428.069	720.38
428.292	638.38
428.514	615.38
428.736	568.38
428.958	576.38
429.181	561.38
429.403	580.38
429.625	564.38
429.847	616.38
430.069	664.38
430.292	650.38
430.514	569.38
430.736	563.38
430.958	560.38
431.18	530.38
431.402	541.38
431.624	535.38
431.846	515.38
432.068	521.38
432.29	556.38
432.512	536.38
432.734	575.38
432.956	527.38
433.178	546.38
433.4	543.38
433.622	562.38
433.844	550.38
434.066	510.38
434.287	540.38
434.509	536.38
434.731	543.38
434.953	585.38
435.175	566.38
435.397	604.38
435.618	614.38
435.84	626.38
436.062	748.38
436.284	840.38
436.505	704.38
436.727	622.38
436.949	580.38
437.17	566.38
437.392	570.38
437.614	587.38
437.835	596.38
438.057	687.38
438.278	777.38
438.5	774.38
438.721	871.38
438.943	849.38
439.165	684.38
439.386	608.38
439.608	607.38
439.829	607.38
440.05	637.38
440.272	692.38
440.493	638.38
440.715	607.38
440.936	587.38
441.158	593.38
441.379	572.38
441.6	572.38
441.822	611.38
442.043	659.38
442.264	710.38
442.486	743.38
442.707	657.38
442.928	653.38
443.149	621.38
443.371	639.38
443.592	686.38
443.813	769.38
444.034	808.38
444.255	686.38
444.476	646.38
444.698	655.38
444.919	643.38
445.14	718.38
445.361	690.38
445.582	651.38
445.803	705.38
446.024	814.38
446.245	804.38
446.466	732.38
446.687	653.38
446.908	586.38
447.129	570.38
447.35	544.38
447.571	545.38
447.792	558.38
448.013	539.38
448.234	570.38
448.455	607.38
448.675	708.38
448.896	830.38
449.117	692.38
449.338	674.38
449.559	777.38
449.779	895.38
450	725.38
450.221	601.38
450.442	570.38
450.662	559.38
450.883	547.38
451.104	556.38
451.324	550.38
451.545	541.38
451.766	512.38
451.986	503.38
452.207	491.38
452.428	500.38
452.648	492.38
452.869	489.38
453.089	488.38
453.31	528.38
453.53	489.38
453.751	501.38
453.971	521.38
454.192	519.38
454.412	503.38
454.633	492.38
454.853	507.38
455.073	514.38
455.294	520.38
455.514	588.38
455.734	570.38
455.955	485.38
456.175	512.38
456.395	483.38
456.616	476.38
456.836	496.38
457.056	474.38
457.276	474.38
457.497	457.38
457.717	481.38
457.937	488.38
458.157	484.38
458.377	486.38
458.598	531.38
458.818	566.38
459.038	623.38
459.258	643.38
459.478	573.38
459.698	534.38
459.918	563.38
460.138	549.38
460.358	571.38
460.578	567.38
460.798	566.38
461.018	576.38
461.238	555.38
461.458	580.38
461.678	562.38
461.898	573.38
462.118	572.38
462.338	596.38
462.558	607.38
462.777	592.38
462.997	632.38
463.217	624.38
463.437	636.38
463.657	635.38
463.876	615.38
464.096	626.38
464.316	616.38
464.536	611.38
464.755	628.38
464.975	617.38
465.195	628.38
465.414	714.38
465.634	633.38
465.854	585.38
466.073	549.38
466.293	538.38
466.512	533.38
466.732	525.38
466.951	532.38
467.171	535.38
467.391	547.38
467.61	534.38
467.829	539.38
468.049	524.38
468.268	548.38
468.488	528.38
468.707	508.38
468.927	519.38
469.146	524.38
469.365	497.38
469.585	502.38
469.804	533.38
470.023	541.38
470.243	513.38
470.462	542.38
470.681	572.38
470.901	570.38
471.12	540.38
471.339	520.38
471.558	544.38
471.777	559.38
471.997	520.38
472.216	541.38
472.435	551.38
472.654	562.38
472.873	536.38
473.092	534.38
473.311	542.38
473.53	548.38
473.749	550.38
473.968	567.38
474.187	662.38
474.406	694.38
474.625	568.38
474.844	532.38
475.063	546.38
475.282	526.38
475.501	539.38
475.72	525.38
475.939	553.38
476.158	557.38
476.377	565.38
476.596	555.38
476.814	543.38
477.033	550.38
477.252	566.38
477.471	593.38
477.69	588.38
477.908	570.38
478.127	574.38
478.346	604.38
478.564	589.38
478.783	574.38
479.002	597.38
479.22	615.38
479.439	614.38
479.658	625.38
479.876	650.38
480.095	651.38
480.313	677.38
480.532	663.38
480.751	644.38
480.969	679.38
481.188	697.38
481.406	732.38
481.624	660.38
481.843	640.38
482.061	637.38
482.28	619.38
482.498	602.38
482.717	630.38
482.935	623.38
483.153	621.38
483.372	605.38
483.59	622.38
483.808	623.38
484.027	606.38
484.245	613.38
484.463	619.38
484.681	630.38
484.9	632.38
485.118	610.38
485.336	630.38
485.554	662.38
485.772	636.38
485.99	645.38
486.209	630.38
486.427	659.38
486.645	654.38
486.863	665.38
487.081	650.38
487.299	674.38
487.517	635.38
487.735	632.38
487.953	647.38
488.171	674.38
488.389	653.38
488.607	664.38
488.825	684.38
489.043	663.38
489.261	668.38
489.479	672.38
489.696	674.38
489.914	672.38
490.132	681.38
490.35	707.38
490.568	718.38
490.786	698.38
491.003	711.38
491.221	719.38
491.439	726.38
491.657	738.38
491.874	745.38
492.092	744.38
492.31	728.38
492.527	745.38
492.745	777.38
492.963	760.38
493.18	750.38
493.398	768.38
493.615	782.38
493.833	792.38
494.05	764.38
494.268	751.38
494.485	745.38
494.703	755.38
494.92	772.38
495.138	763.38
495.355	770.38
495.573	750.38
495.79	774.38
496.008	790.38
496.225	754.38
496.442	763.38
496.66	768.38
496.877	770.38
497.094	746.38
497.312	795.38
497.529	808.38
497.746	810.38
497.963	837.38
498.181	854.38
498.398	864.38
498.615	861.38
498.832	898.38
499.049	926.38
499.267	993.38
499.484	999.38
499.701	1060.38
499.918	1108.38
500.135	1135.38
500.352	1214.38
500.569	1245.38
500.786	1245.38
501.003	1191.38
501.22	1162.38
501.437	1110.38
501.654	1071.38
501.871	1038.38
