Data from 1979.PennyLincolnUp.Lamp.En5.5.200Scan.071719.P1_HRD10591_16-17-38-863.txt Node
Date: Thu Jul 18 16:17:38 EDT 2019
User: cochatt
Spectrometer: HR+D1059
Trigger mode: 1
Integration Time (sec): 1.000000E-1
Scans to average: 1
Electric dark correction enabled: true
Nonlinearity correction enabled: false
Boxcar width: 0
XAxis mode: Wavelengths
Number of Pixels in Spectrum: 2048
>>>>>Begin Spectral Data<<<<<
223.165	-22.25
223.4	-22.25
223.635	-22.25
223.869	-18.25
224.104	-21.25
224.338	-9.25
224.573	-8.25
224.808	-6.25
225.042	-12.25
225.277	-0.25
225.511	4.75
225.746	-6.25
225.98	9.75
226.215	8.75
226.449	9.75
226.683	2.75
226.918	26.75
227.152	41.75
227.387	25.75
227.621	23.75
227.856	36.75
228.09	49.75
228.324	37.75
228.559	56.75
228.793	51.75
229.027	77.75
229.262	85.75
229.496	87.75
229.73	109.75
229.964	123.75
230.199	114.75
230.433	102.75
230.667	111.75
230.901	111.75
231.136	107.75
231.37	90.75
231.604	100.75
231.838	105.75
232.072	102.75
232.306	125.75
232.541	113.75
232.775	107.75
233.009	104.75
233.243	104.75
233.477	102.75
233.711	98.75
233.945	114.75
234.179	97.75
234.413	111.75
234.647	118.75
234.881	107.75
235.115	122.75
235.349	112.75
235.583	110.75
235.817	102.75
236.051	112.75
236.285	103.75
236.519	114.75
236.753	105.75
236.987	129.75
237.221	139.75
237.455	165.75
237.689	151.75
237.922	121.75
238.156	113.75
238.39	111.75
238.624	125.75
238.858	111.75
239.091	109.75
239.325	113.75
239.559	107.75
239.793	117.75
240.027	116.75
240.26	110.75
240.494	127.75
240.728	116.75
240.961	125.75
241.195	127.75
241.429	125.75
241.662	125.75
241.896	135.75
242.13	121.75
242.363	124.75
242.597	125.75
242.83	126.75
243.064	127.75
243.298	122.75
243.531	118.75
243.765	133.75
243.998	123.75
244.232	126.75
244.465	125.75
244.699	120.75
244.932	140.75
245.166	125.75
245.399	131.75
245.633	141.75
245.866	139.75
246.099	132.75
246.333	139.75
246.566	122.75
246.8	134.75
247.033	127.75
247.266	135.75
247.5	150.75
247.733	144.75
247.966	150.75
248.2	155.75
248.433	142.75
248.666	154.75
248.899	161.75
249.133	170.75
249.366	163.75
249.599	164.75
249.832	169.75
250.066	157.75
250.299	157.75
250.532	156.75
250.765	174.75
250.998	184.75
251.231	176.75
251.465	166.75
251.698	173.75
251.931	157.75
252.164	166.75
252.397	170.75
252.63	166.75
252.863	192.75
253.096	187.75
253.329	183.75
253.562	193.75
253.795	174.75
254.028	166.75
254.261	181.75
254.494	189.75
254.727	195.75
254.96	212.75
255.193	193.75
255.426	199.75
255.659	197.75
255.892	193.75
256.124	155.75
256.357	198.75
256.59	205.75
256.823	173.75
257.056	177.75
257.289	189.75
257.521	170.75
257.754	181.75
257.987	165.75
258.22	183.75
258.452	167.75
258.685	196.75
258.918	168.75
259.151	170.75
259.383	178.75
259.616	179.75
259.849	195.75
260.081	186.75
260.314	191.75
260.547	211.75
260.779	210.75
261.012	204.75
261.244	204.75
261.477	200.75
261.71	192.75
261.942	195.75
262.175	190.75
262.407	174.75
262.64	183.75
262.872	185.75
263.105	169.75
263.337	194.75
263.57	173.75
263.802	185.75
264.035	197.75
264.267	185.75
264.499	181.75
264.732	188.75
264.964	181.75
265.197	177.75
265.429	184.75
265.661	181.75
265.894	175.75
266.126	198.75
266.358	189.75
266.591	180.75
266.823	188.75
267.055	197.75
267.287	187.75
267.52	196.75
267.752	179.75
267.984	199.75
268.216	193.75
268.448	210.75
268.681	197.75
268.913	205.75
269.145	200.75
269.377	229.75
269.609	207.75
269.841	223.75
270.073	218.75
270.306	236.75
270.538	220.75
270.77	227.75
271.002	235.75
271.234	217.75
271.466	229.75
271.698	240.75
271.93	245.75
272.162	234.75
272.394	245.75
272.626	233.75
272.858	238.75
273.09	217.75
273.322	215.75
273.553	226.75
273.785	212.75
274.017	210.75
274.249	214.75
274.481	216.75
274.713	222.75
274.945	220.75
275.176	228.75
275.408	231.75
275.64	218.75
275.872	228.75
276.104	214.75
276.335	200.75
276.567	225.75
276.799	228.75
277.031	250.75
277.262	253.75
277.494	244.75
277.726	250.75
277.957	237.75
278.189	236.75
278.421	226.75
278.652	220.75
278.884	219.75
279.115	221.75
279.347	238.75
279.579	229.75
279.81	246.75
280.042	227.75
280.273	227.75
280.505	224.75
280.736	241.75
280.968	223.75
281.199	225.75
281.431	238.75
281.662	223.75
281.894	222.75
282.125	234.75
282.356	235.75
282.588	256.75
282.819	257.75
283.051	213.75
283.282	232.75
283.513	252.75
283.745	241.75
283.976	235.75
284.207	220.75
284.439	233.75
284.67	229.75
284.901	235.75
285.132	257.75
285.364	227.75
285.595	246.75
285.826	259.75
286.057	244.75
286.288	233.75
286.52	238.75
286.751	235.75
286.982	238.75
287.213	259.75
287.444	245.75
287.675	246.75
287.906	257.75
288.138	258.75
288.369	258.75
288.6	236.75
288.831	242.75
289.062	265.75
289.293	266.75
289.524	255.75
289.755	250.75
289.986	258.75
290.217	270.75
290.448	235.75
290.679	270.75
290.91	265.75
291.141	255.75
291.371	263.75
291.602	253.75
291.833	260.75
292.064	246.75
292.295	247.75
292.526	262.75
292.757	273.75
292.987	255.75
293.218	253.75
293.449	252.75
293.68	243.75
293.91	252.75
294.141	267.75
294.372	248.75
294.603	253.75
294.833	263.75
295.064	279.75
295.295	235.75
295.525	234.75
295.756	254.75
295.987	250.75
296.217	289.75
296.448	283.75
296.679	257.75
296.909	257.75
297.14	258.75
297.37	269.75
297.601	256.75
297.831	270.75
298.062	268.75
298.292	250.75
298.523	292.75
298.753	271.75
298.984	269.75
299.214	272.75
299.445	270.75
299.675	256.75
299.905	281.75
300.136	276.75
300.366	274.75
300.597	266.75
300.827	275.75
301.057	275.75
301.288	280.75
301.518	271.75
301.748	279.75
301.979	290.75
302.209	275.75
302.439	270.75
302.669	280.75
302.9	283.75
303.13	275.75
303.36	293.75
303.59	285.75
303.82	292.75
304.051	305.75
304.281	295.75
304.511	281.75
304.741	282.75
304.971	279.75
305.201	283.75
305.431	302.75
305.661	291.75
305.891	289.75
306.121	300.75
306.352	309.75
306.582	293.75
306.812	283.75
307.042	290.75
307.272	277.75
307.502	285.75
307.731	288.75
307.961	291.75
308.191	295.75
308.421	294.75
308.651	289.75
308.881	289.75
309.111	300.75
309.341	301.75
309.571	297.75
309.8	315.75
310.03	302.75
310.26	303.75
310.49	310.75
310.72	311.75
310.949	344.75
311.179	318.75
311.409	319.75
311.639	298.75
311.868	306.75
312.098	303.75
312.328	296.75
312.557	320.75
312.787	331.75
313.017	343.75
313.246	312.75
313.476	316.75
313.706	297.75
313.935	309.75
314.165	317.75
314.394	324.75
314.624	330.75
314.853	326.75
315.083	313.75
315.312	332.75
315.542	320.75
315.771	325.75
316.001	300.75
316.23	321.75
316.46	313.75
316.689	311.75
316.919	302.75
317.148	341.75
317.377	325.75
317.607	335.75
317.836	327.75
318.065	311.75
318.295	310.75
318.524	309.75
318.753	319.75
318.983	326.75
319.212	322.75
319.441	338.75
319.67	327.75
319.9	326.75
320.129	324.75
320.358	331.75
320.587	327.75
320.816	322.75
321.046	325.75
321.275	329.75
321.504	335.75
321.733	339.75
321.962	345.75
322.191	342.75
322.42	336.75
322.649	358.75
322.878	371.75
323.108	345.75
323.337	358.75
323.566	385.75
323.795	395.75
324.024	406.75
324.253	481.75
324.482	629.75
324.71	991.75
324.939	1450.75
325.168	1230.75
325.397	637.75
325.626	437.75
325.855	414.75
326.084	389.75
326.313	366.75
326.542	378.75
326.77	413.75
326.999	473.75
327.228	614.75
327.457	895.75
327.686	1113.75
327.914	715.75
328.143	490.75
328.372	460.75
328.6	422.75
328.829	403.75
329.058	415.75
329.287	429.75
329.515	392.75
329.744	403.75
329.972	392.75
330.201	408.75
330.43	418.75
330.658	427.75
330.887	453.75
331.115	444.75
331.344	417.75
331.572	404.75
331.801	380.75
332.03	407.75
332.258	394.75
332.486	391.75
332.715	381.75
332.943	389.75
333.172	385.75
333.4	392.75
333.629	391.75
333.857	403.75
334.085	399.75
334.314	422.75
334.542	433.75
334.771	449.75
334.999	422.75
335.227	404.75
335.455	422.75
335.684	405.75
335.912	390.75
336.14	394.75
336.369	390.75
336.597	382.75
336.825	387.75
337.053	392.75
337.281	407.75
337.51	374.75
337.738	394.75
337.966	377.75
338.194	368.75
338.422	386.75
338.65	391.75
338.878	380.75
339.106	377.75
339.334	384.75
339.562	382.75
339.79	377.75
340.018	381.75
340.246	377.75
340.474	381.75
340.702	380.75
340.93	378.75
341.158	381.75
341.386	376.75
341.614	358.75
341.842	359.75
342.07	364.75
342.298	379.75
342.526	364.75
342.754	359.75
342.981	383.75
343.209	363.75
343.437	373.75
343.665	393.75
343.893	375.75
344.12	398.75
344.348	418.75
344.576	388.75
344.804	376.75
345.031	381.75
345.259	382.75
345.487	380.75
345.714	388.75
345.942	380.75
346.17	374.75
346.397	385.75
346.625	358.75
346.853	356.75
347.08	355.75
347.308	389.75
347.535	385.75
347.763	350.75
347.99	357.75
348.218	365.75
348.445	352.75
348.673	375.75
348.9	362.75
349.128	369.75
349.355	341.75
349.583	346.75
349.81	350.75
350.037	348.75
350.265	345.75
350.492	346.75
350.72	364.75
350.947	352.75
351.174	365.75
351.402	375.75
351.629	365.75
351.856	361.75
352.083	391.75
352.311	383.75
352.538	353.75
352.765	351.75
352.992	374.75
353.22	361.75
353.447	353.75
353.674	356.75
353.901	352.75
354.128	353.75
354.355	353.75
354.583	337.75
354.81	362.75
355.037	354.75
355.264	335.75
355.491	352.75
355.718	363.75
355.945	360.75
356.172	354.75
356.399	351.75
356.626	327.75
356.853	317.75
357.08	346.75
357.307	334.75
357.534	325.75
357.761	344.75
357.988	336.75
358.215	361.75
358.441	353.75
358.668	348.75
358.895	361.75
359.122	358.75
359.349	344.75
359.576	364.75
359.802	381.75
360.029	383.75
360.256	393.75
360.483	369.75
360.709	362.75
360.936	367.75
361.163	352.75
361.39	346.75
361.616	364.75
361.843	341.75
362.07	353.75
362.296	367.75
362.523	366.75
362.749	362.75
362.976	362.75
363.203	346.75
363.429	357.75
363.656	350.75
363.882	362.75
364.109	352.75
364.335	350.75
364.562	371.75
364.788	381.75
365.015	363.75
365.241	361.75
365.468	361.75
365.694	381.75
365.92	378.75
366.147	362.75
366.373	357.75
366.599	364.75
366.826	345.75
367.052	365.75
367.278	363.75
367.505	348.75
367.731	356.75
367.957	355.75
368.184	370.75
368.41	372.75
368.636	382.75
368.862	385.75
369.089	377.75
369.315	370.75
369.541	372.75
369.767	377.75
369.993	386.75
370.219	355.75
370.445	379.75
370.672	362.75
370.898	359.75
371.124	381.75
371.35	381.75
371.576	372.75
371.802	358.75
372.028	364.75
372.254	381.75
372.48	383.75
372.706	393.75
372.932	364.75
373.158	389.75
373.384	391.75
373.61	388.75
373.835	382.75
374.061	376.75
374.287	396.75
374.513	388.75
374.739	391.75
374.965	385.75
375.191	381.75
375.416	374.75
375.642	372.75
375.868	370.75
376.094	383.75
376.319	370.75
376.545	399.75
376.771	373.75
376.997	373.75
377.222	378.75
377.448	371.75
377.674	377.75
377.899	363.75
378.125	373.75
378.35	387.75
378.576	359.75
378.802	358.75
379.027	357.75
379.253	372.75
379.478	369.75
379.704	385.75
379.929	381.75
380.155	383.75
380.38	379.75
380.606	396.75
380.831	374.75
381.057	392.75
381.282	385.75
381.507	372.75
381.733	381.75
381.958	390.75
382.184	392.75
382.409	393.75
382.634	397.75
382.86	383.75
383.085	393.75
383.31	384.75
383.535	401.75
383.761	391.75
383.986	399.75
384.211	427.75
384.436	399.75
384.662	396.75
384.887	411.75
385.112	417.75
385.337	423.75
385.562	414.75
385.787	419.75
386.013	445.75
386.238	413.75
386.463	412.75
386.688	442.75
386.913	426.75
387.138	424.75
387.363	402.75
387.588	405.75
387.813	426.75
388.038	434.75
388.263	431.75
388.488	436.75
388.713	420.75
388.938	420.75
389.163	422.75
389.387	415.75
389.612	422.75
389.837	423.75
390.062	400.75
390.287	436.75
390.512	406.75
390.736	421.75
390.961	415.75
391.186	425.75
391.411	427.75
391.636	440.75
391.86	455.75
392.085	445.75
392.31	451.75
392.534	449.75
392.759	443.75
392.984	440.75
393.208	443.75
393.433	443.75
393.658	455.75
393.882	434.75
394.107	414.75
394.331	427.75
394.556	447.75
394.78	428.75
395.005	429.75
395.229	426.75
395.454	444.75
395.678	468.75
395.903	475.75
396.127	459.75
396.352	469.75
396.576	465.75
396.801	462.75
397.025	456.75
397.249	469.75
397.474	463.75
397.698	457.75
397.922	468.75
398.147	490.75
398.371	500.75
398.595	507.75
398.82	491.75
399.044	507.75
399.268	517.75
399.492	553.75
399.717	588.75
399.941	630.75
400.165	621.75
400.389	612.75
400.613	561.75
400.837	535.75
401.062	515.75
401.286	517.75
401.51	499.75
401.734	475.75
401.958	503.75
402.182	501.75
402.406	478.75
402.63	533.75
402.854	512.75
403.078	501.75
403.302	521.75
403.526	510.75
403.75	513.75
403.974	501.75
404.198	509.75
404.422	518.75
404.645	535.75
404.869	531.75
405.093	566.75
405.317	588.75
405.541	590.75
405.765	575.75
405.988	546.75
406.212	533.75
406.436	567.75
406.66	562.75
406.883	547.75
407.107	597.75
407.331	597.75
407.555	662.75
407.778	671.75
408.002	596.75
408.226	605.75
408.449	565.75
408.673	563.75
408.896	604.75
409.12	618.75
409.344	582.75
409.567	567.75
409.791	538.75
410.014	541.75
410.238	539.75
410.461	534.75
410.685	522.75
410.908	543.75
411.132	565.75
411.355	604.75
411.578	575.75
411.802	538.75
412.025	537.75
412.249	518.75
412.472	520.75
412.695	561.75
412.919	554.75
413.142	542.75
413.365	533.75
413.589	541.75
413.812	488.75
414.035	494.75
414.258	479.75
414.482	512.75
414.705	521.75
414.928	495.75
415.151	499.75
415.374	497.75
415.597	502.75
415.821	489.75
416.044	492.75
416.267	512.75
416.49	513.75
416.713	493.75
416.936	502.75
417.159	497.75
417.382	491.75
417.605	493.75
417.828	498.75
418.051	500.75
418.274	490.75
418.497	470.75
418.72	493.75
418.943	492.75
419.166	538.75
419.389	563.75
419.611	548.75
419.834	532.75
420.057	533.75
420.28	519.75
420.503	494.75
420.726	498.75
420.948	527.75
421.171	566.75
421.394	577.75
421.617	530.75
421.839	509.75
422.062	495.75
422.285	533.75
422.507	579.75
422.73	633.75
422.953	593.75
423.175	562.75
423.398	518.75
423.621	506.75
423.843	553.75
424.066	548.75
424.288	526.75
424.511	539.75
424.733	580.75
424.956	673.75
425.178	650.75
425.401	602.75
425.623	625.75
425.846	592.75
426.068	528.75
426.291	522.75
426.513	537.75
426.735	522.75
426.958	559.75
427.18	637.75
427.402	682.75
427.625	791.75
427.847	653.75
428.069	613.75
428.292	550.75
428.514	531.75
428.736	517.75
428.958	509.75
429.181	495.75
429.403	502.75
429.625	515.75
429.847	500.75
430.069	589.75
430.292	566.75
430.514	490.75
430.736	490.75
430.958	479.75
431.18	489.75
431.402	466.75
431.624	471.75
431.846	474.75
432.068	452.75
432.29	481.75
432.512	481.75
432.734	491.75
432.956	497.75
433.178	473.75
433.4	489.75
433.622	488.75
433.844	492.75
434.066	476.75
434.287	481.75
434.509	475.75
434.731	486.75
434.953	490.75
435.175	499.75
435.397	517.75
435.618	526.75
435.84	569.75
436.062	622.75
436.284	699.75
436.505	577.75
436.727	541.75
436.949	515.75
437.17	517.75
437.392	477.75
437.614	501.75
437.835	537.75
438.057	588.75
438.278	657.75
438.5	669.75
438.721	739.75
438.943	706.75
439.165	570.75
439.386	522.75
439.608	525.75
439.829	531.75
440.05	532.75
440.272	577.75
440.493	541.75
440.715	521.75
440.936	512.75
441.158	515.75
441.379	497.75
441.6	516.75
441.822	533.75
442.043	563.75
442.264	614.75
442.486	656.75
442.707	567.75
442.928	542.75
443.149	538.75
443.371	553.75
443.592	591.75
443.813	690.75
444.034	694.75
444.255	613.75
444.476	570.75
444.698	543.75
444.919	574.75
445.14	681.75
445.361	612.75
445.582	565.75
445.803	607.75
446.024	673.75
446.245	689.75
446.466	602.75
446.687	573.75
446.908	520.75
447.129	509.75
447.35	478.75
447.571	491.75
447.792	489.75
448.013	491.75
448.234	488.75
448.455	538.75
448.675	627.75
448.896	701.75
449.117	595.75
449.338	552.75
449.559	668.75
449.779	722.75
450	593.75
450.221	507.75
450.442	461.75
450.662	459.75
450.883	458.75
451.104	486.75
451.324	457.75
451.545	449.75
451.766	472.75
451.986	426.75
452.207	433.75
452.428	437.75
452.648	449.75
452.869	447.75
453.089	453.75
453.31	450.75
453.53	434.75
453.751	452.75
453.971	458.75
454.192	444.75
454.412	451.75
454.633	430.75
454.853	427.75
455.073	432.75
455.294	443.75
455.514	491.75
455.734	468.75
455.955	430.75
456.175	426.75
456.395	437.75
456.616	423.75
456.836	454.75
457.056	437.75
457.276	426.75
457.497	426.75
457.717	415.75
457.937	428.75
458.157	420.75
458.377	459.75
458.598	462.75
458.818	482.75
459.038	531.75
459.258	547.75
459.478	505.75
459.698	485.75
459.918	478.75
460.138	499.75
460.358	500.75
460.578	488.75
460.798	489.75
461.018	510.75
461.238	527.75
461.458	523.75
461.678	508.75
461.898	521.75
462.118	510.75
462.338	532.75
462.558	523.75
462.777	549.75
462.997	549.75
463.217	575.75
463.437	585.75
463.657	565.75
463.876	563.75
464.096	552.75
464.316	554.75
464.536	539.75
464.755	534.75
464.975	548.75
465.195	557.75
465.414	570.75
465.634	539.75
465.854	499.75
466.073	481.75
466.293	486.75
466.512	470.75
466.732	483.75
466.951	475.75
467.171	486.75
467.391	469.75
467.61	451.75
467.829	469.75
468.049	488.75
468.268	469.75
468.488	471.75
468.707	442.75
468.927	454.75
469.146	449.75
469.365	471.75
469.585	471.75
469.804	474.75
470.023	449.75
470.243	466.75
470.462	477.75
470.681	488.75
470.901	486.75
471.12	466.75
471.339	473.75
471.558	450.75
471.777	497.75
471.997	471.75
472.216	453.75
472.435	504.75
472.654	471.75
472.873	456.75
473.092	476.75
473.311	450.75
473.53	457.75
473.749	455.75
473.968	497.75
474.187	540.75
474.406	574.75
474.625	491.75
474.844	481.75
475.063	457.75
475.282	485.75
475.501	500.75
475.72	499.75
475.939	486.75
476.158	480.75
476.377	476.75
476.596	469.75
476.814	514.75
477.033	500.75
477.252	497.75
477.471	510.75
477.69	524.75
477.908	526.75
478.127	515.75
478.346	525.75
478.564	517.75
478.783	530.75
479.002	536.75
479.22	538.75
479.439	544.75
479.658	549.75
479.876	565.75
480.095	575.75
480.313	580.75
480.532	588.75
480.751	591.75
480.969	587.75
481.188	586.75
481.406	639.75
481.624	585.75
481.843	557.75
482.061	554.75
482.28	561.75
482.498	545.75
482.717	543.75
482.935	556.75
483.153	560.75
483.372	539.75
483.59	577.75
483.808	558.75
484.027	537.75
484.245	542.75
484.463	537.75
484.681	579.75
484.9	562.75
485.118	563.75
485.336	572.75
485.554	575.75
485.772	542.75
485.99	561.75
486.209	571.75
486.427	577.75
486.645	589.75
486.863	561.75
487.081	594.75
487.299	586.75
487.517	575.75
487.735	589.75
487.953	579.75
488.171	582.75
488.389	589.75
488.607	580.75
488.825	581.75
489.043	586.75
489.261	591.75
489.479	571.75
489.696	588.75
489.914	585.75
490.132	606.75
490.35	611.75
490.568	605.75
490.786	612.75
491.003	618.75
491.221	632.75
491.439	641.75
491.657	638.75
491.874	647.75
492.092	665.75
492.31	656.75
492.527	649.75
492.745	635.75
492.963	651.75
493.18	661.75
493.398	639.75
493.615	671.75
493.833	656.75
494.05	656.75
494.268	667.75
494.485	648.75
494.703	655.75
494.92	670.75
495.138	660.75
495.355	676.75
495.573	670.75
495.79	660.75
496.008	672.75
496.225	676.75
496.442	698.75
496.66	708.75
496.877	689.75
497.094	705.75
497.312	712.75
497.529	728.75
497.746	719.75
497.963	733.75
498.181	770.75
498.398	760.75
498.615	801.75
498.832	806.75
499.049	848.75
499.267	893.75
499.484	910.75
499.701	957.75
499.918	995.75
500.135	1048.75
500.352	1117.75
500.569	1119.75
500.786	1124.75
501.003	1091.75
501.22	1048.75
501.437	995.75
501.654	953.75
501.871	942.75
502.088	885.75
