Data from 1979.PennyLincolnUp.Lamp.En5.5.200Scan.071719.P1_HRD10591_16-17-56-863.txt Node
Date: Thu Jul 18 16:17:56 EDT 2019
User: cochatt
Spectrometer: HR+D1059
Trigger mode: 1
Integration Time (sec): 1.000000E-1
Scans to average: 1
Electric dark correction enabled: true
Nonlinearity correction enabled: false
Boxcar width: 0
XAxis mode: Wavelengths
Number of Pixels in Spectrum: 2048
>>>>>Begin Spectral Data<<<<<
223.165	-14.88
223.4	-14.88
223.635	-14.88
223.869	-9.88
224.104	-18.88
224.338	-18.88
224.573	-14.88
224.808	-2.88
225.042	-5.88
225.277	-14.88
225.511	-11.88
225.746	3.12
225.98	-8.88
226.215	18.12
226.449	17.12
226.683	22.12
226.918	31.12
227.152	30.12
227.387	28.12
227.621	36.12
227.856	31.12
228.09	46.12
228.324	41.12
228.559	57.12
228.793	67.12
229.027	83.12
229.262	98.12
229.496	110.12
229.73	113.12
229.964	124.12
230.199	125.12
230.433	108.12
230.667	111.12
230.901	113.12
231.136	87.12
231.37	105.12
231.604	105.12
231.838	106.12
232.072	114.12
232.306	89.12
232.541	103.12
232.775	110.12
233.009	117.12
233.243	116.12
233.477	111.12
233.711	100.12
233.945	103.12
234.179	121.12
234.413	110.12
234.647	107.12
234.881	113.12
235.115	109.12
235.349	124.12
235.583	117.12
235.817	118.12
236.051	124.12
236.285	117.12
236.519	103.12
236.753	117.12
236.987	121.12
237.221	150.12
237.455	198.12
237.689	150.12
237.922	124.12
238.156	124.12
238.39	121.12
238.624	130.12
238.858	126.12
239.091	128.12
239.325	122.12
239.559	122.12
239.793	111.12
240.027	119.12
240.26	129.12
240.494	132.12
240.728	124.12
240.961	149.12
241.195	146.12
241.429	123.12
241.662	128.12
241.896	121.12
242.13	125.12
242.363	119.12
242.597	131.12
242.83	129.12
243.064	127.12
243.298	138.12
243.531	130.12
243.765	119.12
243.998	136.12
244.232	138.12
244.465	140.12
244.699	144.12
244.932	125.12
245.166	139.12
245.399	139.12
245.633	142.12
245.866	134.12
246.099	141.12
246.333	128.12
246.566	151.12
246.8	140.12
247.033	143.12
247.266	134.12
247.5	147.12
247.733	150.12
247.966	146.12
248.2	156.12
248.433	157.12
248.666	163.12
248.899	159.12
249.133	159.12
249.366	183.12
249.599	157.12
249.832	161.12
250.066	178.12
250.299	169.12
250.532	172.12
250.765	170.12
250.998	183.12
251.231	189.12
251.465	190.12
251.698	181.12
251.931	179.12
252.164	183.12
252.397	190.12
252.63	175.12
252.863	193.12
253.096	201.12
253.329	192.12
253.562	200.12
253.795	196.12
254.028	202.12
254.261	185.12
254.494	201.12
254.727	217.12
254.96	222.12
255.193	222.12
255.426	202.12
255.659	189.12
255.892	198.12
256.124	204.12
256.357	218.12
256.59	184.12
256.823	188.12
257.056	196.12
257.289	192.12
257.521	190.12
257.754	203.12
257.987	168.12
258.22	191.12
258.452	195.12
258.685	197.12
258.918	202.12
259.151	195.12
259.383	197.12
259.616	194.12
259.849	196.12
260.081	212.12
260.314	200.12
260.547	212.12
260.779	216.12
261.012	215.12
261.244	199.12
261.477	201.12
261.71	208.12
261.942	195.12
262.175	206.12
262.407	205.12
262.64	168.12
262.872	198.12
263.105	198.12
263.337	201.12
263.57	189.12
263.802	211.12
264.035	204.12
264.267	203.12
264.499	181.12
264.732	193.12
264.964	192.12
265.197	195.12
265.429	186.12
265.661	202.12
265.894	195.12
266.126	182.12
266.358	197.12
266.591	204.12
266.823	207.12
267.055	210.12
267.287	199.12
267.52	213.12
267.752	206.12
267.984	194.12
268.216	218.12
268.448	218.12
268.681	198.12
268.913	219.12
269.145	233.12
269.377	230.12
269.609	241.12
269.841	219.12
270.073	229.12
270.306	244.12
270.538	247.12
270.77	255.12
271.002	238.12
271.234	247.12
271.466	254.12
271.698	255.12
271.93	271.12
272.162	231.12
272.394	267.12
272.626	227.12
272.858	241.12
273.09	235.12
273.322	245.12
273.553	237.12
273.785	250.12
274.017	252.12
274.249	211.12
274.481	232.12
274.713	234.12
274.945	246.12
275.176	235.12
275.408	232.12
275.64	236.12
275.872	233.12
276.104	234.12
276.335	247.12
276.567	221.12
276.799	232.12
277.031	264.12
277.262	271.12
277.494	261.12
277.726	247.12
277.957	248.12
278.189	233.12
278.421	249.12
278.652	238.12
278.884	241.12
279.115	243.12
279.347	207.12
279.579	253.12
279.81	241.12
280.042	247.12
280.273	250.12
280.505	235.12
280.736	229.12
280.968	234.12
281.199	238.12
281.431	222.12
281.662	227.12
281.894	228.12
282.125	257.12
282.356	249.12
282.588	265.12
282.819	292.12
283.051	254.12
283.282	239.12
283.513	244.12
283.745	249.12
283.976	257.12
284.207	257.12
284.439	234.12
284.67	239.12
284.901	258.12
285.132	245.12
285.364	248.12
285.595	243.12
285.826	257.12
286.057	238.12
286.288	244.12
286.52	260.12
286.751	261.12
286.982	251.12
287.213	259.12
287.444	255.12
287.675	270.12
287.906	271.12
288.138	270.12
288.369	273.12
288.6	289.12
288.831	278.12
289.062	247.12
289.293	272.12
289.524	265.12
289.755	251.12
289.986	263.12
290.217	263.12
290.448	246.12
290.679	247.12
290.91	256.12
291.141	258.12
291.371	261.12
291.602	246.12
291.833	266.12
292.064	271.12
292.295	252.12
292.526	256.12
292.757	270.12
292.987	272.12
293.218	263.12
293.449	267.12
293.68	264.12
293.91	264.12
294.141	282.12
294.372	257.12
294.603	269.12
294.833	259.12
295.064	252.12
295.295	255.12
295.525	260.12
295.756	267.12
295.987	283.12
296.217	293.12
296.448	275.12
296.679	276.12
296.909	273.12
297.14	277.12
297.37	275.12
297.601	278.12
297.831	279.12
298.062	284.12
298.292	267.12
298.523	284.12
298.753	300.12
298.984	293.12
299.214	266.12
299.445	289.12
299.675	279.12
299.905	279.12
300.136	285.12
300.366	286.12
300.597	279.12
300.827	294.12
301.057	302.12
301.288	316.12
301.518	307.12
301.748	285.12
301.979	297.12
302.209	309.12
302.439	311.12
302.669	294.12
302.9	314.12
303.13	291.12
303.36	313.12
303.59	314.12
303.82	309.12
304.051	302.12
304.281	308.12
304.511	296.12
304.741	306.12
304.971	313.12
305.201	321.12
305.431	297.12
305.661	289.12
305.891	302.12
306.121	293.12
306.352	293.12
306.582	297.12
306.812	318.12
307.042	311.12
307.272	313.12
307.502	302.12
307.731	295.12
307.961	295.12
308.191	312.12
308.421	317.12
308.651	328.12
308.881	311.12
309.111	325.12
309.341	311.12
309.571	322.12
309.8	330.12
310.03	333.12
310.26	330.12
310.49	341.12
310.72	329.12
310.949	328.12
311.179	334.12
311.409	347.12
311.639	329.12
311.868	337.12
312.098	329.12
312.328	343.12
312.557	356.12
312.787	349.12
313.017	341.12
313.246	346.12
313.476	330.12
313.706	341.12
313.935	356.12
314.165	355.12
314.394	358.12
314.624	370.12
314.853	346.12
315.083	354.12
315.312	341.12
315.542	335.12
315.771	363.12
316.001	347.12
316.23	331.12
316.46	315.12
316.689	331.12
316.919	329.12
317.148	341.12
317.377	358.12
317.607	356.12
317.836	353.12
318.065	349.12
318.295	333.12
318.524	370.12
318.753	338.12
318.983	330.12
319.212	328.12
319.441	331.12
319.67	359.12
319.9	353.12
320.129	341.12
320.358	331.12
320.587	335.12
320.816	340.12
321.046	362.12
321.275	358.12
321.504	363.12
321.733	376.12
321.962	373.12
322.191	345.12
322.42	373.12
322.649	376.12
322.878	373.12
323.108	377.12
323.337	410.12
323.566	415.12
323.795	460.12
324.024	469.12
324.253	530.12
324.482	744.12
324.71	1155.12
324.939	1700.12
325.168	1455.12
325.397	726.12
325.626	522.12
325.855	461.12
326.084	431.12
326.313	414.12
326.542	409.12
326.77	443.12
326.999	502.12
327.228	683.12
327.457	1043.12
327.686	1321.12
327.914	876.12
328.143	582.12
328.372	497.12
328.6	472.12
328.829	462.12
329.058	456.12
329.287	494.12
329.515	472.12
329.744	446.12
329.972	435.12
330.201	449.12
330.43	467.12
330.658	478.12
330.887	484.12
331.115	477.12
331.344	459.12
331.572	418.12
331.801	419.12
332.03	438.12
332.258	401.12
332.486	419.12
332.715	413.12
332.943	423.12
333.172	408.12
333.4	418.12
333.629	430.12
333.857	418.12
334.085	445.12
334.314	473.12
334.542	470.12
334.771	493.12
334.999	447.12
335.227	449.12
335.455	425.12
335.684	416.12
335.912	406.12
336.14	412.12
336.369	410.12
336.597	425.12
336.825	427.12
337.053	405.12
337.281	406.12
337.51	379.12
337.738	407.12
337.966	402.12
338.194	403.12
338.422	407.12
338.65	404.12
338.878	393.12
339.106	383.12
339.334	409.12
339.562	391.12
339.79	383.12
340.018	385.12
340.246	377.12
340.474	392.12
340.702	404.12
340.93	393.12
341.158	391.12
341.386	388.12
341.614	395.12
341.842	399.12
342.07	384.12
342.298	381.12
342.526	385.12
342.754	379.12
342.981	386.12
343.209	403.12
343.437	395.12
343.665	423.12
343.893	415.12
344.12	425.12
344.348	421.12
344.576	413.12
344.804	412.12
345.031	397.12
345.259	417.12
345.487	390.12
345.714	393.12
345.942	375.12
346.17	393.12
346.397	386.12
346.625	369.12
346.853	399.12
347.08	383.12
347.308	398.12
347.535	423.12
347.763	398.12
347.99	403.12
348.218	380.12
348.445	391.12
348.673	369.12
348.9	372.12
349.128	394.12
349.355	365.12
349.583	369.12
349.81	360.12
350.037	371.12
350.265	373.12
350.492	377.12
350.72	391.12
350.947	383.12
351.174	383.12
351.402	404.12
351.629	380.12
351.856	380.12
352.083	393.12
352.311	376.12
352.538	390.12
352.765	379.12
352.992	395.12
353.22	372.12
353.447	381.12
353.674	386.12
353.901	361.12
354.128	365.12
354.355	377.12
354.583	369.12
354.81	366.12
355.037	361.12
355.264	367.12
355.491	366.12
355.718	373.12
355.945	352.12
356.172	357.12
356.399	367.12
356.626	367.12
356.853	364.12
357.08	393.12
357.307	382.12
357.534	358.12
357.761	373.12
357.988	371.12
358.215	365.12
358.441	380.12
358.668	372.12
358.895	367.12
359.122	369.12
359.349	363.12
359.576	377.12
359.802	413.12
360.029	403.12
360.256	397.12
360.483	406.12
360.709	396.12
360.936	387.12
361.163	380.12
361.39	402.12
361.616	399.12
361.843	383.12
362.07	373.12
362.296	394.12
362.523	366.12
362.749	392.12
362.976	385.12
363.203	396.12
363.429	369.12
363.656	378.12
363.882	357.12
364.109	377.12
364.335	381.12
364.562	395.12
364.788	391.12
365.015	387.12
365.241	382.12
365.468	381.12
365.694	383.12
365.92	364.12
366.147	398.12
366.373	387.12
366.599	378.12
366.826	377.12
367.052	362.12
367.278	362.12
367.505	375.12
367.731	393.12
367.957	357.12
368.184	393.12
368.41	369.12
368.636	390.12
368.862	383.12
369.089	398.12
369.315	389.12
369.541	366.12
369.767	387.12
369.993	390.12
370.219	381.12
370.445	397.12
370.672	383.12
370.898	390.12
371.124	398.12
371.35	402.12
371.576	386.12
371.802	375.12
372.028	385.12
372.254	424.12
372.48	390.12
372.706	387.12
372.932	406.12
373.158	403.12
373.384	385.12
373.61	411.12
373.835	389.12
374.061	406.12
374.287	411.12
374.513	381.12
374.739	406.12
374.965	396.12
375.191	414.12
375.416	396.12
375.642	379.12
375.868	398.12
376.094	407.12
376.319	405.12
376.545	410.12
376.771	398.12
376.997	382.12
377.222	388.12
377.448	395.12
377.674	382.12
377.899	399.12
378.125	390.12
378.35	371.12
378.576	385.12
378.802	388.12
379.027	386.12
379.253	376.12
379.478	372.12
379.704	383.12
379.929	376.12
380.155	391.12
380.38	379.12
380.606	381.12
380.831	410.12
381.057	397.12
381.282	394.12
381.507	387.12
381.733	414.12
381.958	405.12
382.184	413.12
382.409	417.12
382.634	416.12
382.86	390.12
383.085	415.12
383.31	408.12
383.535	421.12
383.761	426.12
383.986	432.12
384.211	421.12
384.436	418.12
384.662	429.12
384.887	467.12
385.112	442.12
385.337	460.12
385.562	432.12
385.787	433.12
386.013	449.12
386.238	426.12
386.463	437.12
386.688	436.12
386.913	437.12
387.138	439.12
387.363	438.12
387.588	451.12
387.813	437.12
388.038	449.12
388.263	448.12
388.488	413.12
388.713	444.12
388.938	421.12
389.163	456.12
389.387	439.12
389.612	439.12
389.837	430.12
390.062	425.12
390.287	455.12
390.512	439.12
390.736	445.12
390.961	457.12
391.186	449.12
391.411	441.12
391.636	437.12
391.86	458.12
392.085	462.12
392.31	451.12
392.534	452.12
392.759	431.12
392.984	447.12
393.208	450.12
393.433	462.12
393.658	468.12
393.882	454.12
394.107	443.12
394.331	453.12
394.556	426.12
394.78	454.12
395.005	466.12
395.229	469.12
395.454	443.12
395.678	464.12
395.903	481.12
396.127	490.12
396.352	507.12
396.576	473.12
396.801	463.12
397.025	477.12
397.249	498.12
397.474	476.12
397.698	493.12
397.922	498.12
398.147	485.12
398.371	490.12
398.595	499.12
398.82	517.12
399.044	531.12
399.268	555.12
399.492	574.12
399.717	628.12
399.941	645.12
400.165	648.12
400.389	639.12
400.613	606.12
400.837	539.12
401.062	542.12
401.286	522.12
401.51	515.12
401.734	522.12
401.958	504.12
402.182	523.12
402.406	530.12
402.63	528.12
402.854	533.12
403.078	525.12
403.302	511.12
403.526	533.12
403.75	547.12
403.974	549.12
404.198	540.12
404.422	545.12
404.645	530.12
404.869	565.12
405.093	584.12
405.317	587.12
405.541	645.12
405.765	583.12
405.988	562.12
406.212	570.12
406.436	630.12
406.66	597.12
406.883	568.12
407.107	616.12
407.331	622.12
407.555	701.12
407.778	694.12
408.002	664.12
408.226	599.12
408.449	580.12
408.673	600.12
408.896	613.12
409.12	654.12
409.344	609.12
409.567	579.12
409.791	543.12
410.014	549.12
410.238	537.12
410.461	553.12
410.685	579.12
410.908	531.12
411.132	579.12
411.355	601.12
411.578	574.12
411.802	557.12
412.025	545.12
412.249	538.12
412.472	596.12
412.695	602.12
412.919	598.12
413.142	555.12
413.365	531.12
413.589	527.12
413.812	525.12
414.035	518.12
414.258	509.12
414.482	515.12
414.705	517.12
414.928	524.12
415.151	523.12
415.374	533.12
415.597	513.12
415.821	492.12
416.044	517.12
416.267	510.12
416.49	531.12
416.713	519.12
416.936	525.12
417.159	492.12
417.382	512.12
417.605	499.12
417.828	521.12
418.051	538.12
418.274	535.12
418.497	525.12
418.72	519.12
418.943	507.12
419.166	518.12
419.389	586.12
419.611	559.12
419.834	539.12
420.057	553.12
420.28	532.12
420.503	524.12
420.726	526.12
420.948	523.12
421.171	559.12
421.394	579.12
421.617	537.12
421.839	531.12
422.062	537.12
422.285	547.12
422.507	599.12
422.73	642.12
422.953	631.12
423.175	576.12
423.398	541.12
423.621	553.12
423.843	560.12
424.066	580.12
424.288	556.12
424.511	581.12
424.733	622.12
424.956	682.12
425.178	651.12
425.401	656.12
425.623	669.12
425.846	598.12
426.068	555.12
426.291	545.12
426.513	543.12
426.735	577.12
426.958	584.12
427.18	659.12
427.402	781.12
427.625	827.12
427.847	728.12
428.069	652.12
428.292	604.12
428.514	573.12
428.736	521.12
428.958	527.12
429.181	535.12
429.403	518.12
429.625	526.12
429.847	554.12
430.069	614.12
430.292	606.12
430.514	525.12
430.736	514.12
430.958	547.12
431.18	516.12
431.402	497.12
431.624	490.12
431.846	484.12
432.068	491.12
432.29	494.12
432.512	505.12
432.734	501.12
432.956	495.12
433.178	511.12
433.4	511.12
433.622	503.12
433.844	497.12
434.066	495.12
434.287	499.12
434.509	508.12
434.731	521.12
434.953	551.12
435.175	548.12
435.397	545.12
435.618	547.12
435.84	598.12
436.062	658.12
436.284	710.12
436.505	603.12
436.727	573.12
436.949	530.12
437.17	519.12
437.392	504.12
437.614	537.12
437.835	549.12
438.057	637.12
438.278	697.12
438.5	696.12
438.721	770.12
438.943	747.12
439.165	618.12
439.386	549.12
439.608	573.12
439.829	551.12
440.05	554.12
440.272	591.12
440.493	577.12
440.715	548.12
440.936	527.12
441.158	527.12
441.379	563.12
441.6	547.12
441.822	565.12
442.043	597.12
442.264	625.12
442.486	686.12
442.707	615.12
442.928	573.12
443.149	565.12
443.371	567.12
443.592	595.12
443.813	713.12
444.034	752.12
444.255	622.12
444.476	597.12
444.698	589.12
444.919	587.12
445.14	705.12
445.361	639.12
445.582	606.12
445.803	643.12
446.024	714.12
446.245	742.12
446.466	663.12
446.687	580.12
446.908	545.12
447.129	519.12
447.35	522.12
447.571	527.12
447.792	505.12
448.013	502.12
448.234	549.12
448.455	573.12
448.675	668.12
448.896	756.12
449.117	637.12
449.338	611.12
449.559	691.12
449.779	795.12
450	623.12
450.221	543.12
450.442	533.12
450.662	493.12
450.883	507.12
451.104	493.12
451.324	492.12
451.545	489.12
451.766	491.12
451.986	469.12
452.207	447.12
452.428	456.12
452.648	459.12
452.869	448.12
453.089	469.12
453.31	482.12
453.53	453.12
453.751	456.12
453.971	461.12
454.192	476.12
454.412	474.12
454.633	438.12
454.853	446.12
455.073	450.12
455.294	463.12
455.514	556.12
455.734	515.12
455.955	469.12
456.175	441.12
456.395	442.12
456.616	452.12
456.836	429.12
457.056	442.12
457.276	431.12
457.497	447.12
457.717	428.12
457.937	454.12
458.157	456.12
458.377	461.12
458.598	483.12
458.818	530.12
459.038	568.12
459.258	621.12
459.478	555.12
459.698	514.12
459.918	514.12
460.138	518.12
460.358	494.12
460.578	507.12
460.798	517.12
461.018	557.12
461.238	550.12
461.458	537.12
461.678	507.12
461.898	549.12
462.118	523.12
462.338	548.12
462.558	563.12
462.777	565.12
462.997	589.12
463.217	602.12
463.437	599.12
463.657	586.12
463.876	559.12
464.096	565.12
464.316	546.12
464.536	578.12
464.755	560.12
464.975	571.12
465.195	593.12
465.414	633.12
465.634	583.12
465.854	565.12
466.073	519.12
466.293	495.12
466.512	480.12
466.732	477.12
466.951	490.12
467.171	496.12
467.391	492.12
467.61	494.12
467.829	500.12
468.049	511.12
468.268	468.12
468.488	494.12
468.707	458.12
468.927	493.12
469.146	466.12
469.365	474.12
469.585	449.12
469.804	479.12
470.023	510.12
470.243	493.12
470.462	504.12
470.681	491.12
470.901	491.12
471.12	492.12
471.339	479.12
471.558	488.12
471.777	466.12
471.997	470.12
472.216	474.12
472.435	517.12
472.654	503.12
472.873	485.12
473.092	501.12
473.311	477.12
473.53	494.12
473.749	489.12
473.968	493.12
474.187	587.12
474.406	599.12
474.625	514.12
474.844	492.12
475.063	515.12
475.282	507.12
475.501	517.12
475.72	508.12
475.939	508.12
476.158	492.12
476.377	512.12
476.596	502.12
476.814	517.12
477.033	519.12
477.252	516.12
477.471	516.12
477.69	520.12
477.908	539.12
478.127	550.12
478.346	533.12
478.564	558.12
478.783	546.12
479.002	589.12
479.22	565.12
479.439	583.12
479.658	576.12
479.876	595.12
480.095	610.12
480.313	633.12
480.532	613.12
480.751	605.12
480.969	637.12
481.188	643.12
481.406	684.12
481.624	629.12
481.843	603.12
482.061	596.12
482.28	576.12
482.498	576.12
482.717	576.12
482.935	586.12
483.153	590.12
483.372	565.12
483.59	577.12
483.808	595.12
484.027	571.12
484.245	575.12
484.463	584.12
484.681	591.12
484.9	568.12
485.118	602.12
485.336	592.12
485.554	583.12
485.772	586.12
485.99	591.12
486.209	600.12
486.427	597.12
486.645	609.12
486.863	617.12
487.081	630.12
487.299	603.12
487.517	595.12
487.735	626.12
487.953	635.12
488.171	596.12
488.389	607.12
488.607	628.12
488.825	637.12
489.043	619.12
489.261	625.12
489.479	623.12
489.696	613.12
489.914	602.12
490.132	620.12
490.35	635.12
490.568	634.12
490.786	645.12
491.003	639.12
491.221	642.12
491.439	664.12
491.657	653.12
491.874	665.12
492.092	682.12
492.31	660.12
492.527	666.12
492.745	707.12
492.963	694.12
493.18	699.12
493.398	674.12
493.615	696.12
493.833	701.12
494.05	716.12
494.268	704.12
494.485	694.12
494.703	690.12
494.92	693.12
495.138	711.12
495.355	686.12
495.573	701.12
495.79	709.12
496.008	713.12
496.225	717.12
496.442	710.12
496.66	692.12
496.877	737.12
497.094	733.12
497.312	755.12
497.529	740.12
497.746	761.12
497.963	791.12
498.181	777.12
498.398	829.12
498.615	820.12
498.832	837.12
499.049	865.12
499.267	897.12
499.484	947.12
499.701	980.12
499.918	999.12
500.135	1059.12
500.352	1116.12
500.569	1161.12
500.786	1189.12
501.003	1140.12
501.22	1063.12
501.437	1036.12
501.654	997.12
501.871	961.12
