Data from 1979.PennyLincolnUp.Lamp.En5.5.200Scan.071719.P1_HRD10591_16-20-04-863.txt Node
Date: Thu Jul 18 16:20:04 EDT 2019
User: cochatt
Spectrometer: HR+D1059
Trigger mode: 1
Integration Time (sec): 1.000000E-1
Scans to average: 1
Electric dark correction enabled: true
Nonlinearity correction enabled: false
Boxcar width: 0
XAxis mode: Wavelengths
Number of Pixels in Spectrum: 2048
>>>>>Begin Spectral Data<<<<<
223.165	-20.06
223.4	-20.06
223.635	-20.06
223.869	-22.06
224.104	-16.06
224.338	-25.06
224.573	-19.06
224.808	-12.06
225.042	-15.06
225.277	-3.06
225.511	-7.06
225.746	10.94
225.98	17.94
226.215	11.94
226.449	21.94
226.683	25.94
226.918	26.94
227.152	23.94
227.387	44.94
227.621	34.94
227.856	48.94
228.09	47.94
228.324	45.94
228.559	52.94
228.793	62.94
229.027	102.94
229.262	110.94
229.496	119.94
229.73	128.94
229.964	151.94
230.199	126.94
230.433	101.94
230.667	112.94
230.901	127.94
231.136	102.94
231.37	113.94
231.604	102.94
231.838	100.94
232.072	106.94
232.306	105.94
232.541	107.94
232.775	105.94
233.009	118.94
233.243	126.94
233.477	108.94
233.711	122.94
233.945	111.94
234.179	103.94
234.413	108.94
234.647	119.94
234.881	112.94
235.115	113.94
235.349	108.94
235.583	112.94
235.817	122.94
236.051	108.94
236.285	112.94
236.519	129.94
236.753	131.94
236.987	142.94
237.221	170.94
237.455	221.94
237.689	176.94
237.922	130.94
238.156	131.94
238.39	132.94
238.624	123.94
238.858	134.94
239.091	111.94
239.325	114.94
239.559	122.94
239.793	128.94
240.027	124.94
240.26	143.94
240.494	144.94
240.728	139.94
240.961	153.94
241.195	146.94
241.429	128.94
241.662	139.94
241.896	132.94
242.13	134.94
242.363	136.94
242.597	126.94
242.83	135.94
243.064	147.94
243.298	137.94
243.531	140.94
243.765	141.94
243.998	123.94
244.232	140.94
244.465	156.94
244.699	144.94
244.932	143.94
245.166	147.94
245.399	136.94
245.633	155.94
245.866	152.94
246.099	145.94
246.333	154.94
246.566	139.94
246.8	155.94
247.033	141.94
247.266	167.94
247.5	158.94
247.733	172.94
247.966	157.94
248.2	141.94
248.433	174.94
248.666	155.94
248.899	172.94
249.133	185.94
249.366	206.94
249.599	208.94
249.832	190.94
250.066	163.94
250.299	188.94
250.532	200.94
250.765	184.94
250.998	214.94
251.231	218.94
251.465	213.94
251.698	187.94
251.931	194.94
252.164	207.94
252.397	204.94
252.63	182.94
252.863	187.94
253.096	196.94
253.329	222.94
253.562	210.94
253.795	196.94
254.028	202.94
254.261	194.94
254.494	211.94
254.727	215.94
254.96	250.94
255.193	254.94
255.426	222.94
255.659	219.94
255.892	215.94
256.124	212.94
256.357	207.94
256.59	206.94
256.823	203.94
257.056	190.94
257.289	214.94
257.521	200.94
257.754	198.94
257.987	197.94
258.22	216.94
258.452	206.94
258.685	192.94
258.918	214.94
259.151	207.94
259.383	197.94
259.616	209.94
259.849	222.94
260.081	207.94
260.314	242.94
260.547	234.94
260.779	229.94
261.012	219.94
261.244	220.94
261.477	220.94
261.71	221.94
261.942	208.94
262.175	218.94
262.407	217.94
262.64	214.94
262.872	222.94
263.105	194.94
263.337	220.94
263.57	216.94
263.802	218.94
264.035	193.94
264.267	209.94
264.499	207.94
264.732	199.94
264.964	210.94
265.197	211.94
265.429	203.94
265.661	196.94
265.894	211.94
266.126	212.94
266.358	213.94
266.591	208.94
266.823	202.94
267.055	236.94
267.287	213.94
267.52	218.94
267.752	219.94
267.984	226.94
268.216	209.94
268.448	236.94
268.681	218.94
268.913	212.94
269.145	246.94
269.377	238.94
269.609	280.94
269.841	266.94
270.073	230.94
270.306	278.94
270.538	284.94
270.77	284.94
271.002	295.94
271.234	293.94
271.466	269.94
271.698	294.94
271.93	307.94
272.162	303.94
272.394	306.94
272.626	293.94
272.858	271.94
273.09	268.94
273.322	262.94
273.553	253.94
273.785	243.94
274.017	239.94
274.249	239.94
274.481	255.94
274.713	254.94
274.945	251.94
275.176	269.94
275.408	264.94
275.64	262.94
275.872	242.94
276.104	254.94
276.335	264.94
276.567	262.94
276.799	262.94
277.031	303.94
277.262	303.94
277.494	299.94
277.726	286.94
277.957	273.94
278.189	282.94
278.421	261.94
278.652	249.94
278.884	264.94
279.115	260.94
279.347	272.94
279.579	272.94
279.81	263.94
280.042	248.94
280.273	248.94
280.505	262.94
280.736	282.94
280.968	271.94
281.199	272.94
281.431	269.94
281.662	243.94
281.894	248.94
282.125	272.94
282.356	268.94
282.588	281.94
282.819	302.94
283.051	286.94
283.282	273.94
283.513	278.94
283.745	279.94
283.976	276.94
284.207	257.94
284.439	291.94
284.67	267.94
284.901	252.94
285.132	275.94
285.364	277.94
285.595	268.94
285.826	256.94
286.057	297.94
286.288	256.94
286.52	290.94
286.751	279.94
286.982	270.94
287.213	278.94
287.444	267.94
287.675	270.94
287.906	294.94
288.138	290.94
288.369	278.94
288.6	294.94
288.831	278.94
289.062	302.94
289.293	311.94
289.524	292.94
289.755	290.94
289.986	293.94
290.217	287.94
290.448	293.94
290.679	284.94
290.91	295.94
291.141	290.94
291.371	292.94
291.602	286.94
291.833	285.94
292.064	287.94
292.295	288.94
292.526	287.94
292.757	286.94
292.987	276.94
293.218	288.94
293.449	299.94
293.68	293.94
293.91	284.94
294.141	302.94
294.372	308.94
294.603	297.94
294.833	303.94
295.064	301.94
295.295	285.94
295.525	298.94
295.756	289.94
295.987	279.94
296.217	331.94
296.448	322.94
296.679	340.94
296.909	294.94
297.14	293.94
297.37	296.94
297.601	309.94
297.831	285.94
298.062	297.94
298.292	318.94
298.523	303.94
298.753	303.94
298.984	304.94
299.214	306.94
299.445	314.94
299.675	332.94
299.905	319.94
300.136	325.94
300.366	304.94
300.597	287.94
300.827	331.94
301.057	320.94
301.288	331.94
301.518	331.94
301.748	315.94
301.979	321.94
302.209	322.94
302.439	340.94
302.669	330.94
302.9	336.94
303.13	310.94
303.36	328.94
303.59	330.94
303.82	357.94
304.051	342.94
304.281	339.94
304.511	318.94
304.741	312.94
304.971	313.94
305.201	318.94
305.431	324.94
305.661	319.94
305.891	338.94
306.121	324.94
306.352	321.94
306.582	364.94
306.812	331.94
307.042	334.94
307.272	340.94
307.502	342.94
307.731	319.94
307.961	334.94
308.191	338.94
308.421	330.94
308.651	334.94
308.881	345.94
309.111	362.94
309.341	328.94
309.571	350.94
309.8	350.94
310.03	361.94
310.26	378.94
310.49	361.94
310.72	370.94
310.949	394.94
311.179	377.94
311.409	377.94
311.639	368.94
311.868	368.94
312.098	385.94
312.328	400.94
312.557	382.94
312.787	393.94
313.017	410.94
313.246	397.94
313.476	374.94
313.706	376.94
313.935	389.94
314.165	403.94
314.394	395.94
314.624	394.94
314.853	387.94
315.083	375.94
315.312	361.94
315.542	386.94
315.771	360.94
316.001	376.94
316.23	371.94
316.46	379.94
316.689	363.94
316.919	366.94
317.148	381.94
317.377	402.94
317.607	387.94
317.836	379.94
318.065	383.94
318.295	386.94
318.524	376.94
318.753	367.94
318.983	382.94
319.212	356.94
319.441	422.94
319.67	387.94
319.9	374.94
320.129	369.94
320.358	386.94
320.587	377.94
320.816	402.94
321.046	386.94
321.275	387.94
321.504	403.94
321.733	382.94
321.962	412.94
322.191	410.94
322.42	407.94
322.649	442.94
322.878	440.94
323.108	439.94
323.337	476.94
323.566	483.94
323.795	526.94
324.024	534.94
324.253	655.94
324.482	954.94
324.71	1400.94
324.939	2133.94
325.168	1852.94
325.397	887.94
325.626	632.94
325.855	532.94
326.084	471.94
326.313	486.94
326.542	485.94
326.77	540.94
326.999	619.94
327.228	857.94
327.457	1331.94
327.686	1636.94
327.914	1058.94
328.143	675.94
328.372	600.94
328.6	558.94
328.829	524.94
329.058	564.94
329.287	577.94
329.515	540.94
329.744	498.94
329.972	506.94
330.201	500.94
330.43	551.94
330.658	580.94
330.887	580.94
331.115	599.94
331.344	525.94
331.572	464.94
331.801	512.94
332.03	492.94
332.258	478.94
332.486	480.94
332.715	458.94
332.943	470.94
333.172	475.94
333.4	474.94
333.629	477.94
333.857	502.94
334.085	518.94
334.314	514.94
334.542	527.94
334.771	564.94
334.999	526.94
335.227	488.94
335.455	462.94
335.684	459.94
335.912	457.94
336.14	458.94
336.369	491.94
336.597	456.94
336.825	455.94
337.053	469.94
337.281	463.94
337.51	459.94
337.738	467.94
337.966	449.94
338.194	458.94
338.422	457.94
338.65	448.94
338.878	460.94
339.106	447.94
339.334	441.94
339.562	441.94
339.79	423.94
340.018	460.94
340.246	433.94
340.474	440.94
340.702	454.94
340.93	432.94
341.158	445.94
341.386	424.94
341.614	450.94
341.842	450.94
342.07	450.94
342.298	440.94
342.526	412.94
342.754	451.94
342.981	420.94
343.209	420.94
343.437	444.94
343.665	447.94
343.893	440.94
344.12	464.94
344.348	461.94
344.576	449.94
344.804	464.94
345.031	461.94
345.259	445.94
345.487	452.94
345.714	453.94
345.942	420.94
346.17	451.94
346.397	429.94
346.625	434.94
346.853	441.94
347.08	407.94
347.308	422.94
347.535	431.94
347.763	446.94
347.99	434.94
348.218	434.94
348.445	429.94
348.673	447.94
348.9	428.94
349.128	419.94
349.355	403.94
349.583	438.94
349.81	437.94
350.037	394.94
350.265	428.94
350.492	401.94
350.72	402.94
350.947	415.94
351.174	428.94
351.402	439.94
351.629	423.94
351.856	421.94
352.083	440.94
352.311	426.94
352.538	456.94
352.765	456.94
352.992	431.94
353.22	442.94
353.447	424.94
353.674	423.94
353.901	411.94
354.128	414.94
354.355	410.94
354.583	400.94
354.81	408.94
355.037	410.94
355.264	414.94
355.491	394.94
355.718	400.94
355.945	390.94
356.172	408.94
356.399	395.94
356.626	389.94
356.853	416.94
357.08	400.94
357.307	399.94
357.534	393.94
357.761	404.94
357.988	393.94
358.215	400.94
358.441	388.94
358.668	412.94
358.895	415.94
359.122	410.94
359.349	403.94
359.576	427.94
359.802	444.94
360.029	452.94
360.256	469.94
360.483	446.94
360.709	424.94
360.936	413.94
361.163	422.94
361.39	414.94
361.616	411.94
361.843	403.94
362.07	429.94
362.296	432.94
362.523	409.94
362.749	406.94
362.976	420.94
363.203	418.94
363.429	411.94
363.656	444.94
363.882	438.94
364.109	404.94
364.335	425.94
364.562	409.94
364.788	423.94
365.015	407.94
365.241	404.94
365.468	413.94
365.694	408.94
365.92	436.94
366.147	413.94
366.373	414.94
366.599	420.94
366.826	418.94
367.052	425.94
367.278	429.94
367.505	408.94
367.731	424.94
367.957	424.94
368.184	404.94
368.41	422.94
368.636	428.94
368.862	456.94
369.089	442.94
369.315	438.94
369.541	392.94
369.767	406.94
369.993	414.94
370.219	426.94
370.445	443.94
370.672	424.94
370.898	414.94
371.124	424.94
371.35	419.94
371.576	411.94
371.802	410.94
372.028	421.94
372.254	419.94
372.48	423.94
372.706	436.94
372.932	435.94
373.158	425.94
373.384	427.94
373.61	441.94
373.835	426.94
374.061	416.94
374.287	420.94
374.513	428.94
374.739	446.94
374.965	454.94
375.191	430.94
375.416	439.94
375.642	436.94
375.868	432.94
376.094	427.94
376.319	423.94
376.545	434.94
376.771	413.94
376.997	446.94
377.222	444.94
377.448	426.94
377.674	412.94
377.899	426.94
378.125	427.94
378.35	410.94
378.576	428.94
378.802	414.94
379.027	418.94
379.253	421.94
379.478	426.94
379.704	422.94
379.929	415.94
380.155	414.94
380.38	413.94
380.606	426.94
380.831	411.94
381.057	433.94
381.282	437.94
381.507	422.94
381.733	443.94
381.958	419.94
382.184	461.94
382.409	438.94
382.634	438.94
382.86	450.94
383.085	454.94
383.31	459.94
383.535	432.94
383.761	454.94
383.986	469.94
384.211	470.94
384.436	464.94
384.662	455.94
384.887	460.94
385.112	455.94
385.337	476.94
385.562	475.94
385.787	473.94
386.013	484.94
386.238	459.94
386.463	472.94
386.688	474.94
386.913	460.94
387.138	433.94
387.363	474.94
387.588	486.94
387.813	467.94
388.038	469.94
388.263	468.94
388.488	482.94
388.713	452.94
388.938	482.94
389.163	477.94
389.387	482.94
389.612	452.94
389.837	489.94
390.062	487.94
390.287	482.94
390.512	482.94
390.736	470.94
390.961	473.94
391.186	481.94
391.411	483.94
391.636	484.94
391.86	495.94
392.085	499.94
392.31	494.94
392.534	502.94
392.759	502.94
392.984	488.94
393.208	467.94
393.433	491.94
393.658	480.94
393.882	459.94
394.107	465.94
394.331	482.94
394.556	476.94
394.78	493.94
395.005	493.94
395.229	490.94
395.454	476.94
395.678	510.94
395.903	502.94
396.127	541.94
396.352	541.94
396.576	518.94
396.801	500.94
397.025	493.94
397.249	516.94
397.474	499.94
397.698	494.94
397.922	554.94
398.147	560.94
398.371	551.94
398.595	555.94
398.82	552.94
399.044	573.94
399.268	546.94
399.492	622.94
399.717	644.94
399.941	695.94
400.165	699.94
400.389	676.94
400.613	659.94
400.837	601.94
401.062	594.94
401.286	562.94
401.51	564.94
401.734	567.94
401.958	599.94
402.182	568.94
402.406	579.94
402.63	580.94
402.854	605.94
403.078	574.94
403.302	614.94
403.526	594.94
403.75	610.94
403.974	603.94
404.198	590.94
404.422	590.94
404.645	624.94
404.869	584.94
405.093	619.94
405.317	655.94
405.541	715.94
405.765	675.94
405.988	618.94
406.212	646.94
406.436	623.94
406.66	648.94
406.883	634.94
407.107	655.94
407.331	710.94
407.555	763.94
407.778	776.94
408.002	728.94
408.226	656.94
408.449	656.94
408.673	650.94
408.896	685.94
409.12	722.94
409.344	676.94
409.567	623.94
409.791	600.94
410.014	603.94
410.238	607.94
410.461	583.94
410.685	610.94
410.908	619.94
411.132	644.94
411.355	667.94
411.578	652.94
411.802	593.94
412.025	584.94
412.249	612.94
412.472	604.94
412.695	638.94
412.919	631.94
413.142	591.94
413.365	606.94
413.589	589.94
413.812	573.94
414.035	551.94
414.258	559.94
414.482	556.94
414.705	564.94
414.928	547.94
415.151	557.94
415.374	575.94
415.597	564.94
415.821	530.94
416.044	559.94
416.267	566.94
416.49	543.94
416.713	549.94
416.936	554.94
417.159	553.94
417.382	548.94
417.605	569.94
417.828	559.94
418.051	572.94
418.274	583.94
418.497	554.94
418.72	560.94
418.943	569.94
419.166	567.94
419.389	612.94
419.611	619.94
419.834	600.94
420.057	605.94
420.28	596.94
420.503	589.94
420.726	591.94
420.948	588.94
421.171	642.94
421.394	650.94
421.617	596.94
421.839	577.94
422.062	576.94
422.285	597.94
422.507	653.94
422.73	718.94
422.953	691.94
423.175	644.94
423.398	619.94
423.621	626.94
423.843	623.94
424.066	630.94
424.288	628.94
424.511	646.94
424.733	686.94
424.956	791.94
425.178	758.94
425.401	723.94
425.623	784.94
425.846	670.94
426.068	621.94
426.291	605.94
426.513	608.94
426.735	627.94
426.958	684.94
427.18	739.94
427.402	879.94
427.625	946.94
427.847	825.94
428.069	747.94
428.292	667.94
428.514	603.94
428.736	590.94
428.958	583.94
429.181	585.94
429.403	560.94
429.625	589.94
429.847	602.94
430.069	673.94
430.292	676.94
430.514	616.94
430.736	591.94
430.958	547.94
431.18	555.94
431.402	545.94
431.624	527.94
431.846	542.94
432.068	540.94
432.29	560.94
432.512	532.94
432.734	553.94
432.956	555.94
433.178	587.94
433.4	589.94
433.622	587.94
433.844	558.94
434.066	546.94
434.287	561.94
434.509	545.94
434.731	566.94
434.953	582.94
435.175	606.94
435.397	624.94
435.618	619.94
435.84	650.94
436.062	735.94
436.284	818.94
436.505	690.94
436.727	630.94
436.949	599.94
437.17	586.94
437.392	575.94
437.614	580.94
437.835	621.94
438.057	691.94
438.278	813.94
438.5	824.94
438.721	871.94
438.943	830.94
439.165	680.94
439.386	602.94
439.608	598.94
439.829	611.94
440.05	639.94
440.272	694.94
440.493	644.94
440.715	600.94
440.936	588.94
441.158	587.94
441.379	591.94
441.6	611.94
441.822	612.94
442.043	646.94
442.264	722.94
442.486	782.94
442.707	693.94
442.928	645.94
443.149	639.94
443.371	665.94
443.592	721.94
443.813	798.94
444.034	849.94
444.255	704.94
444.476	656.94
444.698	656.94
444.919	655.94
445.14	719.94
445.361	699.94
445.582	690.94
445.803	731.94
446.024	836.94
446.245	835.94
446.466	778.94
446.687	664.94
446.908	631.94
447.129	583.94
447.35	571.94
447.571	586.94
447.792	555.94
448.013	555.94
448.234	568.94
448.455	624.94
448.675	774.94
448.896	882.94
449.117	718.94
449.338	675.94
449.559	790.94
449.779	911.94
450	719.94
450.221	615.94
450.442	558.94
450.662	573.94
450.883	573.94
451.104	570.94
451.324	569.94
451.545	529.94
451.766	539.94
451.986	520.94
452.207	524.94
452.428	515.94
452.648	498.94
452.869	527.94
453.089	519.94
453.31	543.94
453.53	527.94
453.751	484.94
453.971	507.94
454.192	535.94
454.412	510.94
454.633	518.94
454.853	492.94
455.073	494.94
455.294	508.94
455.514	592.94
455.734	560.94
455.955	508.94
456.175	488.94
456.395	468.94
456.616	486.94
456.836	492.94
457.056	494.94
457.276	466.94
457.497	491.94
457.717	474.94
457.937	495.94
458.157	512.94
458.377	468.94
458.598	536.94
458.818	597.94
459.038	672.94
459.258	644.94
459.478	589.94
459.698	572.94
459.918	565.94
460.138	548.94
460.358	584.94
460.578	566.94
460.798	598.94
461.018	596.94
461.238	561.94
461.458	591.94
461.678	564.94
461.898	562.94
462.118	558.94
462.338	587.94
462.558	604.94
462.777	622.94
462.997	611.94
463.217	644.94
463.437	623.94
463.657	629.94
463.876	605.94
464.096	606.94
464.316	637.94
464.536	621.94
464.755	629.94
464.975	626.94
465.195	646.94
465.414	700.94
465.634	636.94
465.854	580.94
466.073	572.94
466.293	536.94
466.512	525.94
466.732	536.94
466.951	537.94
467.171	532.94
467.391	516.94
467.61	575.94
467.829	574.94
468.049	536.94
468.268	551.94
468.488	533.94
468.707	514.94
468.927	533.94
469.146	528.94
469.365	514.94
469.585	516.94
469.804	527.94
470.023	537.94
470.243	532.94
470.462	540.94
470.681	558.94
470.901	538.94
471.12	548.94
471.339	546.94
471.558	568.94
471.777	533.94
471.997	538.94
472.216	513.94
472.435	564.94
472.654	552.94
472.873	554.94
473.092	522.94
473.311	518.94
473.53	498.94
473.749	524.94
473.968	572.94
474.187	665.94
474.406	698.94
474.625	603.94
474.844	552.94
475.063	545.94
475.282	519.94
475.501	541.94
475.72	555.94
475.939	555.94
476.158	567.94
476.377	542.94
476.596	570.94
476.814	562.94
477.033	547.94
477.252	565.94
477.471	572.94
477.69	594.94
477.908	573.94
478.127	586.94
478.346	578.94
478.564	605.94
478.783	595.94
479.002	628.94
479.22	623.94
479.439	649.94
479.658	630.94
479.876	632.94
480.095	631.94
480.313	680.94
480.532	662.94
480.751	652.94
480.969	654.94
481.188	725.94
481.406	762.94
481.624	656.94
481.843	664.94
482.061	667.94
482.28	619.94
482.498	637.94
482.717	638.94
482.935	638.94
483.153	611.94
483.372	600.94
483.59	619.94
483.808	623.94
484.027	627.94
484.245	629.94
484.463	620.94
484.681	625.94
484.9	629.94
485.118	644.94
485.336	652.94
485.554	635.94
485.772	649.94
485.99	638.94
486.209	670.94
486.427	657.94
486.645	693.94
486.863	666.94
487.081	687.94
487.299	649.94
487.517	701.94
487.735	650.94
487.953	647.94
488.171	682.94
488.389	692.94
488.607	701.94
488.825	672.94
489.043	677.94
489.261	680.94
489.479	679.94
489.696	676.94
489.914	679.94
490.132	659.94
490.35	688.94
490.568	715.94
490.786	728.94
491.003	695.94
491.221	752.94
491.439	739.94
491.657	750.94
491.874	741.94
492.092	738.94
492.31	760.94
492.527	749.94
492.745	770.94
492.963	768.94
493.18	769.94
493.398	776.94
493.615	782.94
493.833	755.94
494.05	780.94
494.268	778.94
494.485	758.94
494.703	783.94
494.92	775.94
495.138	804.94
495.355	763.94
495.573	781.94
495.79	809.94
496.008	782.94
496.225	784.94
496.442	795.94
496.66	808.94
496.877	781.94
497.094	805.94
497.312	797.94
497.529	815.94
497.746	853.94
497.963	853.94
498.181	852.94
498.398	914.94
498.615	910.94
498.832	923.94
499.049	961.94
499.267	991.94
499.484	1007.94
499.701	1062.94
499.918	1099.94
500.135	1174.94
500.352	1222.94
500.569	1253.94
500.786	1246.94
501.003	1233.94
501.22	1177.94
501.437	1118.94
501.654	1106.94
