Data from 1979.PennyLincolnUp.Lamp.En5.5.200Scan.071719.P1_HRD10591_16-20-11-864.txt Node
Date: Thu Jul 18 16:20:11 EDT 2019
User: cochatt
Spectrometer: HR+D1059
Trigger mode: 1
Integration Time (sec): 1.000000E-1
Scans to average: 1
Electric dark correction enabled: true
Nonlinearity correction enabled: false
Boxcar width: 0
XAxis mode: Wavelengths
Number of Pixels in Spectrum: 2048
>>>>>Begin Spectral Data<<<<<
223.165	-9.38
223.4	-9.38
223.635	-9.38
223.869	-18.38
224.104	-17.38
224.338	-12.38
224.573	-6.38
224.808	-9.38
225.042	-23.38
225.277	-11.38
225.511	-6.38
225.746	-5.38
225.98	9.62
226.215	4.62
226.449	15.62
226.683	10.62
226.918	35.62
227.152	43.62
227.387	19.62
227.621	39.62
227.856	29.62
228.09	49.62
228.324	43.62
228.559	62.62
228.793	75.62
229.027	88.62
229.262	110.62
229.496	105.62
229.73	123.62
229.964	140.62
230.199	122.62
230.433	124.62
230.667	109.62
230.901	112.62
231.136	117.62
231.37	114.62
231.604	102.62
231.838	108.62
232.072	96.62
232.306	114.62
232.541	111.62
232.775	103.62
233.009	110.62
233.243	117.62
233.477	111.62
233.711	112.62
233.945	119.62
234.179	119.62
234.413	123.62
234.647	120.62
234.881	124.62
235.115	107.62
235.349	128.62
235.583	117.62
235.817	126.62
236.051	123.62
236.285	114.62
236.519	116.62
236.753	121.62
236.987	135.62
237.221	167.62
237.455	210.62
237.689	195.62
237.922	141.62
238.156	133.62
238.39	137.62
238.624	133.62
238.858	134.62
239.091	120.62
239.325	120.62
239.559	129.62
239.793	134.62
240.027	134.62
240.26	125.62
240.494	151.62
240.728	135.62
240.961	152.62
241.195	137.62
241.429	144.62
241.662	126.62
241.896	135.62
242.13	140.62
242.363	127.62
242.597	136.62
242.83	141.62
243.064	135.62
243.298	148.62
243.531	132.62
243.765	158.62
243.998	141.62
244.232	131.62
244.465	143.62
244.699	150.62
244.932	164.62
245.166	158.62
245.399	138.62
245.633	150.62
245.866	151.62
246.099	142.62
246.333	131.62
246.566	156.62
246.8	157.62
247.033	143.62
247.266	146.62
247.5	172.62
247.733	181.62
247.966	188.62
248.2	162.62
248.433	180.62
248.666	167.62
248.899	176.62
249.133	177.62
249.366	190.62
249.599	203.62
249.832	172.62
250.066	187.62
250.299	193.62
250.532	176.62
250.765	183.62
250.998	217.62
251.231	222.62
251.465	204.62
251.698	210.62
251.931	192.62
252.164	196.62
252.397	190.62
252.63	193.62
252.863	206.62
253.096	205.62
253.329	225.62
253.562	232.62
253.795	218.62
254.028	204.62
254.261	219.62
254.494	224.62
254.727	250.62
254.96	265.62
255.193	238.62
255.426	233.62
255.659	224.62
255.892	219.62
256.124	229.62
256.357	217.62
256.59	225.62
256.823	223.62
257.056	202.62
257.289	193.62
257.521	214.62
257.754	204.62
257.987	213.62
258.22	203.62
258.452	200.62
258.685	194.62
258.918	188.62
259.151	207.62
259.383	214.62
259.616	213.62
259.849	213.62
260.081	241.62
260.314	254.62
260.547	244.62
260.779	223.62
261.012	210.62
261.244	200.62
261.477	220.62
261.71	213.62
261.942	216.62
262.175	206.62
262.407	214.62
262.64	204.62
262.872	218.62
263.105	195.62
263.337	211.62
263.57	209.62
263.802	218.62
264.035	203.62
264.267	196.62
264.499	207.62
264.732	225.62
264.964	220.62
265.197	202.62
265.429	210.62
265.661	211.62
265.894	228.62
266.126	225.62
266.358	217.62
266.591	211.62
266.823	221.62
267.055	204.62
267.287	234.62
267.52	228.62
267.752	227.62
267.984	219.62
268.216	230.62
268.448	219.62
268.681	227.62
268.913	226.62
269.145	241.62
269.377	249.62
269.609	253.62
269.841	261.62
270.073	263.62
270.306	262.62
270.538	295.62
270.77	286.62
271.002	285.62
271.234	284.62
271.466	278.62
271.698	278.62
271.93	299.62
272.162	290.62
272.394	289.62
272.626	264.62
272.858	280.62
273.09	276.62
273.322	257.62
273.553	268.62
273.785	258.62
274.017	253.62
274.249	241.62
274.481	242.62
274.713	263.62
274.945	237.62
275.176	258.62
275.408	276.62
275.64	265.62
275.872	256.62
276.104	268.62
276.335	264.62
276.567	258.62
276.799	265.62
277.031	268.62
277.262	305.62
277.494	294.62
277.726	280.62
277.957	278.62
278.189	262.62
278.421	256.62
278.652	255.62
278.884	249.62
279.115	253.62
279.347	285.62
279.579	262.62
279.81	249.62
280.042	264.62
280.273	282.62
280.505	278.62
280.736	265.62
280.968	277.62
281.199	281.62
281.431	278.62
281.662	269.62
281.894	274.62
282.125	278.62
282.356	282.62
282.588	310.62
282.819	315.62
283.051	289.62
283.282	266.62
283.513	272.62
283.745	283.62
283.976	289.62
284.207	283.62
284.439	256.62
284.67	274.62
284.901	288.62
285.132	255.62
285.364	273.62
285.595	292.62
285.826	290.62
286.057	290.62
286.288	283.62
286.52	270.62
286.751	280.62
286.982	273.62
287.213	273.62
287.444	290.62
287.675	293.62
287.906	299.62
288.138	304.62
288.369	304.62
288.6	308.62
288.831	304.62
289.062	310.62
289.293	299.62
289.524	273.62
289.755	294.62
289.986	284.62
290.217	308.62
290.448	306.62
290.679	293.62
290.91	306.62
291.141	294.62
291.371	292.62
291.602	276.62
291.833	283.62
292.064	284.62
292.295	301.62
292.526	283.62
292.757	307.62
292.987	278.62
293.218	288.62
293.449	313.62
293.68	297.62
293.91	275.62
294.141	303.62
294.372	286.62
294.603	292.62
294.833	313.62
295.064	288.62
295.295	300.62
295.525	290.62
295.756	301.62
295.987	297.62
296.217	324.62
296.448	344.62
296.679	303.62
296.909	285.62
297.14	315.62
297.37	297.62
297.601	311.62
297.831	309.62
298.062	320.62
298.292	320.62
298.523	305.62
298.753	314.62
298.984	316.62
299.214	312.62
299.445	324.62
299.675	324.62
299.905	336.62
300.136	308.62
300.366	306.62
300.597	298.62
300.827	295.62
301.057	321.62
301.288	353.62
301.518	321.62
301.748	326.62
301.979	346.62
302.209	327.62
302.439	316.62
302.669	330.62
302.9	336.62
303.13	332.62
303.36	332.62
303.59	334.62
303.82	328.62
304.051	329.62
304.281	345.62
304.511	315.62
304.741	322.62
304.971	338.62
305.201	338.62
305.431	329.62
305.661	325.62
305.891	336.62
306.121	321.62
306.352	312.62
306.582	330.62
306.812	333.62
307.042	354.62
307.272	355.62
307.502	323.62
307.731	349.62
307.961	332.62
308.191	336.62
308.421	336.62
308.651	359.62
308.881	336.62
309.111	350.62
309.341	349.62
309.571	345.62
309.8	354.62
310.03	366.62
310.26	370.62
310.49	388.62
310.72	373.62
310.949	384.62
311.179	397.62
311.409	370.62
311.639	373.62
311.868	358.62
312.098	392.62
312.328	389.62
312.557	404.62
312.787	391.62
313.017	405.62
313.246	393.62
313.476	384.62
313.706	370.62
313.935	384.62
314.165	385.62
314.394	388.62
314.624	403.62
314.853	414.62
315.083	397.62
315.312	386.62
315.542	378.62
315.771	379.62
316.001	380.62
316.23	364.62
316.46	378.62
316.689	379.62
316.919	377.62
317.148	389.62
317.377	387.62
317.607	396.62
317.836	383.62
318.065	366.62
318.295	380.62
318.524	390.62
318.753	392.62
318.983	394.62
319.212	366.62
319.441	392.62
319.67	389.62
319.9	402.62
320.129	389.62
320.358	377.62
320.587	388.62
320.816	418.62
321.046	382.62
321.275	397.62
321.504	403.62
321.733	402.62
321.962	386.62
322.191	417.62
322.42	425.62
322.649	440.62
322.878	461.62
323.108	464.62
323.337	470.62
323.566	474.62
323.795	509.62
324.024	556.62
324.253	641.62
324.482	927.62
324.71	1386.62
324.939	2161.62
325.168	1856.62
325.397	912.62
325.626	600.62
325.855	516.62
326.084	490.62
326.313	484.62
326.542	484.62
326.77	541.62
326.999	594.62
327.228	832.62
327.457	1315.62
327.686	1651.62
327.914	1037.62
328.143	683.62
328.372	580.62
328.6	557.62
328.829	539.62
329.058	547.62
329.287	570.62
329.515	514.62
329.744	492.62
329.972	482.62
330.201	520.62
330.43	547.62
330.658	573.62
330.887	598.62
331.115	571.62
331.344	518.62
331.572	498.62
331.801	493.62
332.03	484.62
332.258	476.62
332.486	475.62
332.715	461.62
332.943	451.62
333.172	460.62
333.4	452.62
333.629	474.62
333.857	497.62
334.085	502.62
334.314	513.62
334.542	566.62
334.771	564.62
334.999	509.62
335.227	502.62
335.455	493.62
335.684	468.62
335.912	465.62
336.14	456.62
336.369	454.62
336.597	470.62
336.825	468.62
337.053	467.62
337.281	458.62
337.51	456.62
337.738	450.62
337.966	453.62
338.194	478.62
338.422	472.62
338.65	470.62
338.878	452.62
339.106	421.62
339.334	426.62
339.562	437.62
339.79	442.62
340.018	461.62
340.246	412.62
340.474	454.62
340.702	434.62
340.93	436.62
341.158	450.62
341.386	451.62
341.614	430.62
341.842	446.62
342.07	438.62
342.298	451.62
342.526	428.62
342.754	429.62
342.981	435.62
343.209	419.62
343.437	459.62
343.665	445.62
343.893	460.62
344.12	468.62
344.348	460.62
344.576	461.62
344.804	470.62
345.031	462.62
345.259	456.62
345.487	453.62
345.714	439.62
345.942	420.62
346.17	424.62
346.397	439.62
346.625	419.62
346.853	424.62
347.08	412.62
347.308	421.62
347.535	429.62
347.763	438.62
347.99	430.62
348.218	426.62
348.445	444.62
348.673	432.62
348.9	417.62
349.128	427.62
349.355	426.62
349.583	426.62
349.81	435.62
350.037	437.62
350.265	439.62
350.492	419.62
350.72	426.62
350.947	416.62
351.174	434.62
351.402	429.62
351.629	444.62
351.856	415.62
352.083	457.62
352.311	441.62
352.538	456.62
352.765	451.62
352.992	438.62
353.22	425.62
353.447	439.62
353.674	436.62
353.901	404.62
354.128	411.62
354.355	418.62
354.583	418.62
354.81	425.62
355.037	388.62
355.264	400.62
355.491	411.62
355.718	418.62
355.945	390.62
356.172	418.62
356.399	401.62
356.626	394.62
356.853	412.62
357.08	421.62
357.307	417.62
357.534	394.62
357.761	423.62
357.988	411.62
358.215	412.62
358.441	417.62
358.668	398.62
358.895	408.62
359.122	416.62
359.349	427.62
359.576	439.62
359.802	442.62
360.029	470.62
360.256	484.62
360.483	475.62
360.709	436.62
360.936	425.62
361.163	406.62
361.39	450.62
361.616	430.62
361.843	435.62
362.07	414.62
362.296	441.62
362.523	438.62
362.749	417.62
362.976	437.62
363.203	424.62
363.429	413.62
363.656	426.62
363.882	418.62
364.109	411.62
364.335	432.62
364.562	442.62
364.788	414.62
365.015	414.62
365.241	430.62
365.468	416.62
365.694	421.62
365.92	436.62
366.147	421.62
366.373	432.62
366.599	415.62
366.826	424.62
367.052	397.62
367.278	410.62
367.505	399.62
367.731	428.62
367.957	430.62
368.184	421.62
368.41	415.62
368.636	451.62
368.862	433.62
369.089	427.62
369.315	434.62
369.541	429.62
369.767	420.62
369.993	452.62
370.219	425.62
370.445	422.62
370.672	416.62
370.898	428.62
371.124	426.62
371.35	440.62
371.576	424.62
371.802	437.62
372.028	423.62
372.254	421.62
372.48	404.62
372.706	408.62
372.932	448.62
373.158	444.62
373.384	452.62
373.61	402.62
373.835	448.62
374.061	434.62
374.287	425.62
374.513	430.62
374.739	429.62
374.965	440.62
375.191	448.62
375.416	447.62
375.642	433.62
375.868	434.62
376.094	419.62
376.319	416.62
376.545	438.62
376.771	434.62
376.997	415.62
377.222	416.62
377.448	427.62
377.674	422.62
377.899	438.62
378.125	427.62
378.35	427.62
378.576	430.62
378.802	416.62
379.027	411.62
379.253	435.62
379.478	421.62
379.704	410.62
379.929	427.62
380.155	425.62
380.38	415.62
380.606	437.62
380.831	424.62
381.057	425.62
381.282	420.62
381.507	426.62
381.733	446.62
381.958	423.62
382.184	444.62
382.409	444.62
382.634	449.62
382.86	438.62
383.085	452.62
383.31	428.62
383.535	463.62
383.761	468.62
383.986	448.62
384.211	454.62
384.436	458.62
384.662	472.62
384.887	473.62
385.112	470.62
385.337	469.62
385.562	473.62
385.787	449.62
386.013	479.62
386.238	487.62
386.463	485.62
386.688	473.62
386.913	471.62
387.138	483.62
387.363	480.62
387.588	461.62
387.813	488.62
388.038	488.62
388.263	462.62
388.488	474.62
388.713	499.62
388.938	478.62
389.163	500.62
389.387	480.62
389.612	465.62
389.837	487.62
390.062	480.62
390.287	478.62
390.512	485.62
390.736	496.62
390.961	470.62
391.186	486.62
391.411	497.62
391.636	482.62
391.86	510.62
392.085	495.62
392.31	483.62
392.534	502.62
392.759	491.62
392.984	508.62
393.208	485.62
393.433	466.62
393.658	489.62
393.882	472.62
394.107	474.62
394.331	481.62
394.556	477.62
394.78	480.62
395.005	500.62
395.229	513.62
395.454	509.62
395.678	525.62
395.903	538.62
396.127	548.62
396.352	541.62
396.576	522.62
396.801	525.62
397.025	526.62
397.249	518.62
397.474	536.62
397.698	514.62
397.922	520.62
398.147	543.62
398.371	547.62
398.595	564.62
398.82	556.62
399.044	564.62
399.268	582.62
399.492	635.62
399.717	691.62
399.941	704.62
400.165	731.62
400.389	704.62
400.613	636.62
400.837	619.62
401.062	581.62
401.286	588.62
401.51	588.62
401.734	568.62
401.958	596.62
402.182	591.62
402.406	571.62
402.63	577.62
402.854	586.62
403.078	598.62
403.302	592.62
403.526	599.62
403.75	589.62
403.974	582.62
404.198	604.62
404.422	601.62
404.645	638.62
404.869	617.62
405.093	638.62
405.317	682.62
405.541	757.62
405.765	672.62
405.988	635.62
406.212	626.62
406.436	672.62
406.66	669.62
406.883	658.62
407.107	671.62
407.331	693.62
407.555	778.62
407.778	788.62
408.002	727.62
408.226	678.62
408.449	665.62
408.673	652.62
408.896	665.62
409.12	736.62
409.344	683.62
409.567	627.62
409.791	601.62
410.014	608.62
410.238	611.62
410.461	612.62
410.685	588.62
410.908	609.62
411.132	646.62
411.355	681.62
411.578	667.62
411.802	632.62
412.025	598.62
412.249	603.62
412.472	642.62
412.695	654.62
412.919	637.62
413.142	625.62
413.365	619.62
413.589	624.62
413.812	583.62
414.035	573.62
414.258	563.62
414.482	573.62
414.705	556.62
414.928	566.62
415.151	560.62
415.374	575.62
415.597	572.62
415.821	558.62
416.044	586.62
416.267	595.62
416.49	590.62
416.713	552.62
416.936	556.62
417.159	580.62
417.382	560.62
417.605	568.62
417.828	559.62
418.051	588.62
418.274	589.62
418.497	556.62
418.72	592.62
418.943	583.62
419.166	587.62
419.389	648.62
419.611	606.62
419.834	623.62
420.057	600.62
420.28	596.62
420.503	583.62
420.726	589.62
420.948	619.62
421.171	638.62
421.394	672.62
421.617	601.62
421.839	588.62
422.062	601.62
422.285	604.62
422.507	660.62
422.73	747.62
422.953	722.62
423.175	660.62
423.398	621.62
423.621	628.62
423.843	613.62
424.066	644.62
424.288	637.62
424.511	640.62
424.733	709.62
424.956	743.62
425.178	733.62
425.401	721.62
425.623	778.62
425.846	660.62
426.068	628.62
426.291	625.62
426.513	612.62
426.735	604.62
426.958	670.62
427.18	748.62
427.402	862.62
427.625	948.62
427.847	837.62
428.069	740.62
428.292	664.62
428.514	604.62
428.736	578.62
428.958	587.62
429.181	568.62
429.403	557.62
429.625	582.62
429.847	621.62
430.069	681.62
430.292	686.62
430.514	591.62
430.736	578.62
430.958	581.62
431.18	548.62
431.402	536.62
431.624	541.62
431.846	535.62
432.068	541.62
432.29	569.62
432.512	561.62
432.734	578.62
432.956	553.62
433.178	562.62
433.4	588.62
433.622	569.62
433.844	567.62
434.066	565.62
434.287	556.62
434.509	547.62
434.731	605.62
434.953	595.62
435.175	606.62
435.397	635.62
435.618	617.62
435.84	644.62
436.062	762.62
436.284	826.62
436.505	697.62
436.727	651.62
436.949	597.62
437.17	572.62
437.392	575.62
437.614	589.62
437.835	626.62
438.057	726.62
438.278	790.62
438.5	796.62
438.721	893.62
438.943	851.62
439.165	694.62
439.386	638.62
439.608	630.62
439.829	613.62
440.05	669.62
440.272	697.62
440.493	644.62
440.715	613.62
440.936	614.62
441.158	605.62
441.379	587.62
441.6	601.62
441.822	624.62
442.043	674.62
442.264	746.62
442.486	801.62
442.707	659.62
442.928	650.62
443.149	626.62
443.371	660.62
443.592	698.62
443.813	789.62
444.034	877.62
444.255	713.62
444.476	660.62
444.698	654.62
444.919	654.62
445.14	722.62
445.361	679.62
445.582	701.62
445.803	722.62
446.024	854.62
446.245	840.62
446.466	757.62
446.687	648.62
446.908	635.62
447.129	593.62
447.35	564.62
447.571	556.62
447.792	556.62
448.013	560.62
448.234	591.62
448.455	657.62
448.675	762.62
448.896	873.62
449.117	735.62
449.338	696.62
449.559	841.62
449.779	912.62
450	734.62
450.221	601.62
450.442	575.62
450.662	551.62
450.883	566.62
451.104	582.62
451.324	553.62
451.545	560.62
451.766	526.62
451.986	520.62
452.207	489.62
452.428	501.62
452.648	514.62
452.869	531.62
453.089	524.62
453.31	547.62
453.53	526.62
453.751	522.62
453.971	517.62
454.192	507.62
454.412	529.62
454.633	503.62
454.853	504.62
455.073	508.62
455.294	539.62
455.514	611.62
455.734	598.62
455.955	520.62
456.175	483.62
456.395	470.62
456.616	470.62
456.836	501.62
457.056	477.62
457.276	491.62
457.497	489.62
457.717	469.62
457.937	512.62
458.157	500.62
458.377	520.62
458.598	518.62
458.818	577.62
459.038	660.62
459.258	677.62
459.478	590.62
459.698	562.62
459.918	551.62
460.138	570.62
460.358	573.62
460.578	563.62
460.798	566.62
461.018	588.62
461.238	602.62
461.458	576.62
461.678	560.62
461.898	598.62
462.118	597.62
462.338	600.62
462.558	598.62
462.777	633.62
462.997	660.62
463.217	657.62
463.437	669.62
463.657	661.62
463.876	635.62
464.096	642.62
464.316	638.62
464.536	631.62
464.755	635.62
464.975	639.62
465.195	663.62
465.414	699.62
465.634	639.62
465.854	586.62
466.073	577.62
466.293	561.62
466.512	553.62
466.732	548.62
466.951	540.62
467.171	539.62
467.391	551.62
467.61	548.62
467.829	538.62
468.049	542.62
468.268	545.62
468.488	514.62
468.707	533.62
468.927	520.62
469.146	525.62
469.365	541.62
469.585	521.62
469.804	555.62
470.023	542.62
470.243	533.62
470.462	564.62
470.681	562.62
470.901	546.62
471.12	565.62
471.339	520.62
471.558	520.62
471.777	547.62
471.997	548.62
472.216	555.62
472.435	560.62
472.654	578.62
472.873	556.62
473.092	565.62
473.311	542.62
473.53	544.62
473.749	562.62
473.968	574.62
474.187	669.62
474.406	696.62
474.625	598.62
474.844	549.62
475.063	560.62
475.282	565.62
475.501	568.62
475.72	554.62
475.939	541.62
476.158	564.62
476.377	553.62
476.596	562.62
476.814	568.62
477.033	580.62
477.252	564.62
477.471	582.62
477.69	585.62
477.908	586.62
478.127	603.62
478.346	599.62
478.564	596.62
478.783	613.62
479.002	626.62
479.22	627.62
479.439	635.62
479.658	649.62
479.876	651.62
480.095	668.62
480.313	676.62
480.532	672.62
480.751	680.62
480.969	669.62
481.188	718.62
481.406	763.62
481.624	696.62
481.843	668.62
482.061	638.62
482.28	661.62
482.498	620.62
482.717	607.62
482.935	638.62
483.153	632.62
483.372	636.62
483.59	637.62
483.808	620.62
484.027	626.62
484.245	641.62
484.463	634.62
484.681	662.62
484.9	638.62
485.118	632.62
485.336	657.62
485.554	650.62
485.772	678.62
485.99	648.62
486.209	662.62
486.427	656.62
486.645	672.62
486.863	669.62
487.081	678.62
487.299	694.62
487.517	654.62
487.735	699.62
487.953	678.62
488.171	695.62
488.389	683.62
488.607	684.62
488.825	680.62
489.043	700.62
489.261	706.62
489.479	703.62
489.696	690.62
489.914	709.62
490.132	691.62
490.35	686.62
490.568	704.62
490.786	722.62
491.003	731.62
491.221	748.62
491.439	763.62
491.657	745.62
491.874	754.62
492.092	759.62
492.31	759.62
492.527	796.62
492.745	772.62
492.963	761.62
493.18	801.62
493.398	806.62
493.615	795.62
493.833	818.62
494.05	787.62
494.268	789.62
494.485	770.62
494.703	776.62
494.92	791.62
495.138	804.62
495.355	805.62
495.573	792.62
495.79	784.62
496.008	806.62
496.225	774.62
496.442	805.62
496.66	816.62
496.877	816.62
497.094	791.62
497.312	840.62
497.529	874.62
497.746	829.62
497.963	857.62
498.181	863.62
498.398	898.62
498.615	904.62
498.832	929.62
499.049	954.62
499.267	961.62
499.484	1024.62
499.701	1081.62
499.918	1126.62
500.135	1240.62
500.352	1251.62
500.569	1258.62
500.786	1274.62
501.003	1246.62
501.22	1203.62
501.437	1169.62
501.654	1083.62
501.871	1074.62
