Data from 1979.PennyLincolnUp.Lamp.En5.5.200Scan.071719.P1_HRD10591_16-19-03-864.txt Node
Date: Thu Jul 18 16:19:03 EDT 2019
User: cochatt
Spectrometer: HR+D1059
Trigger mode: 1
Integration Time (sec): 1.000000E-1
Scans to average: 1
Electric dark correction enabled: true
Nonlinearity correction enabled: false
Boxcar width: 0
XAxis mode: Wavelengths
Number of Pixels in Spectrum: 2048
>>>>>Begin Spectral Data<<<<<
223.165	-18.88
223.4	-18.88
223.635	-18.88
223.869	-22.88
224.104	-18.88
224.338	-17.88
224.573	-18.88
224.808	0.12
225.042	-20.88
225.277	9.12
225.511	3.12
225.746	-8.88
225.98	17.12
226.215	14.12
226.449	10.12
226.683	8.12
226.918	34.12
227.152	31.12
227.387	33.12
227.621	27.12
227.856	47.12
228.09	44.12
228.324	50.12
228.559	58.12
228.793	73.12
229.027	84.12
229.262	90.12
229.496	118.12
229.73	125.12
229.964	134.12
230.199	128.12
230.433	101.12
230.667	117.12
230.901	111.12
231.136	108.12
231.37	120.12
231.604	108.12
231.838	127.12
232.072	115.12
232.306	117.12
232.541	118.12
232.775	107.12
233.009	100.12
233.243	110.12
233.477	92.12
233.711	132.12
233.945	112.12
234.179	116.12
234.413	107.12
234.647	130.12
234.881	101.12
235.115	114.12
235.349	104.12
235.583	108.12
235.817	118.12
236.051	122.12
236.285	128.12
236.519	113.12
236.753	132.12
236.987	153.12
237.221	172.12
237.455	193.12
237.689	162.12
237.922	136.12
238.156	125.12
238.39	123.12
238.624	128.12
238.858	114.12
239.091	133.12
239.325	125.12
239.559	122.12
239.793	146.12
240.027	144.12
240.26	138.12
240.494	150.12
240.728	143.12
240.961	148.12
241.195	146.12
241.429	132.12
241.662	135.12
241.896	136.12
242.13	135.12
242.363	134.12
242.597	149.12
242.83	130.12
243.064	122.12
243.298	130.12
243.531	138.12
243.765	142.12
243.998	143.12
244.232	141.12
244.465	151.12
244.699	138.12
244.932	148.12
245.166	142.12
245.399	150.12
245.633	145.12
245.866	138.12
246.099	143.12
246.333	141.12
246.566	147.12
246.8	162.12
247.033	162.12
247.266	143.12
247.5	160.12
247.733	155.12
247.966	158.12
248.2	160.12
248.433	180.12
248.666	169.12
248.899	178.12
249.133	180.12
249.366	182.12
249.599	197.12
249.832	167.12
250.066	180.12
250.299	175.12
250.532	181.12
250.765	192.12
250.998	192.12
251.231	196.12
251.465	195.12
251.698	211.12
251.931	197.12
252.164	173.12
252.397	190.12
252.63	183.12
252.863	191.12
253.096	207.12
253.329	204.12
253.562	208.12
253.795	209.12
254.028	202.12
254.261	187.12
254.494	204.12
254.727	236.12
254.96	248.12
255.193	239.12
255.426	242.12
255.659	210.12
255.892	214.12
256.124	195.12
256.357	218.12
256.59	214.12
256.823	208.12
257.056	209.12
257.289	216.12
257.521	207.12
257.754	201.12
257.987	204.12
258.22	202.12
258.452	202.12
258.685	196.12
258.918	177.12
259.151	210.12
259.383	203.12
259.616	187.12
259.849	199.12
260.081	211.12
260.314	230.12
260.547	250.12
260.779	222.12
261.012	213.12
261.244	221.12
261.477	215.12
261.71	209.12
261.942	216.12
262.175	212.12
262.407	219.12
262.64	196.12
262.872	204.12
263.105	195.12
263.337	197.12
263.57	205.12
263.802	212.12
264.035	208.12
264.267	193.12
264.499	198.12
264.732	202.12
264.964	203.12
265.197	203.12
265.429	216.12
265.661	214.12
265.894	219.12
266.126	217.12
266.358	205.12
266.591	215.12
266.823	229.12
267.055	227.12
267.287	204.12
267.52	218.12
267.752	218.12
267.984	220.12
268.216	212.12
268.448	212.12
268.681	242.12
268.913	223.12
269.145	235.12
269.377	251.12
269.609	252.12
269.841	250.12
270.073	245.12
270.306	264.12
270.538	269.12
270.77	280.12
271.002	264.12
271.234	245.12
271.466	259.12
271.698	277.12
271.93	276.12
272.162	281.12
272.394	269.12
272.626	286.12
272.858	275.12
273.09	247.12
273.322	244.12
273.553	235.12
273.785	239.12
274.017	243.12
274.249	236.12
274.481	246.12
274.713	246.12
274.945	246.12
275.176	247.12
275.408	246.12
275.64	254.12
275.872	250.12
276.104	267.12
276.335	241.12
276.567	265.12
276.799	269.12
277.031	279.12
277.262	296.12
277.494	291.12
277.726	296.12
277.957	264.12
278.189	266.12
278.421	279.12
278.652	253.12
278.884	262.12
279.115	249.12
279.347	258.12
279.579	261.12
279.81	250.12
280.042	251.12
280.273	237.12
280.505	239.12
280.736	252.12
280.968	244.12
281.199	259.12
281.431	255.12
281.662	267.12
281.894	271.12
282.125	248.12
282.356	288.12
282.588	285.12
282.819	304.12
283.051	292.12
283.282	239.12
283.513	268.12
283.745	270.12
283.976	251.12
284.207	278.12
284.439	264.12
284.67	283.12
284.901	265.12
285.132	262.12
285.364	245.12
285.595	265.12
285.826	256.12
286.057	274.12
286.288	278.12
286.52	269.12
286.751	264.12
286.982	266.12
287.213	278.12
287.444	300.12
287.675	286.12
287.906	280.12
288.138	288.12
288.369	298.12
288.6	292.12
288.831	282.12
289.062	287.12
289.293	290.12
289.524	304.12
289.755	278.12
289.986	278.12
290.217	277.12
290.448	288.12
290.679	285.12
290.91	280.12
291.141	301.12
291.371	286.12
291.602	283.12
291.833	270.12
292.064	276.12
292.295	282.12
292.526	259.12
292.757	273.12
292.987	267.12
293.218	284.12
293.449	266.12
293.68	272.12
293.91	277.12
294.141	293.12
294.372	264.12
294.603	275.12
294.833	293.12
295.064	294.12
295.295	263.12
295.525	291.12
295.756	296.12
295.987	276.12
296.217	330.12
296.448	314.12
296.679	300.12
296.909	282.12
297.14	299.12
297.37	293.12
297.601	306.12
297.831	288.12
298.062	304.12
298.292	298.12
298.523	309.12
298.753	302.12
298.984	286.12
299.214	316.12
299.445	289.12
299.675	311.12
299.905	304.12
300.136	308.12
300.366	325.12
300.597	288.12
300.827	323.12
301.057	319.12
301.288	329.12
301.518	321.12
301.748	318.12
301.979	310.12
302.209	301.12
302.439	318.12
302.669	307.12
302.9	343.12
303.13	325.12
303.36	310.12
303.59	313.12
303.82	329.12
304.051	347.12
304.281	343.12
304.511	309.12
304.741	307.12
304.971	312.12
305.201	312.12
305.431	309.12
305.661	324.12
305.891	322.12
306.121	330.12
306.352	330.12
306.582	326.12
306.812	322.12
307.042	332.12
307.272	321.12
307.502	327.12
307.731	319.12
307.961	345.12
308.191	331.12
308.421	318.12
308.651	313.12
308.881	328.12
309.111	323.12
309.341	325.12
309.571	334.12
309.8	341.12
310.03	356.12
310.26	360.12
310.49	358.12
310.72	367.12
310.949	391.12
311.179	359.12
311.409	357.12
311.639	364.12
311.868	335.12
312.098	357.12
312.328	348.12
312.557	389.12
312.787	382.12
313.017	379.12
313.246	366.12
313.476	370.12
313.706	389.12
313.935	375.12
314.165	385.12
314.394	382.12
314.624	376.12
314.853	370.12
315.083	360.12
315.312	366.12
315.542	373.12
315.771	355.12
316.001	364.12
316.23	381.12
316.46	347.12
316.689	358.12
316.919	363.12
317.148	362.12
317.377	373.12
317.607	384.12
317.836	372.12
318.065	360.12
318.295	360.12
318.524	366.12
318.753	358.12
318.983	371.12
319.212	357.12
319.441	345.12
319.67	386.12
319.9	374.12
320.129	385.12
320.358	388.12
320.587	383.12
320.816	373.12
321.046	354.12
321.275	384.12
321.504	374.12
321.733	381.12
321.962	401.12
322.191	399.12
322.42	400.12
322.649	436.12
322.878	413.12
323.108	451.12
323.337	460.12
323.566	455.12
323.795	507.12
324.024	522.12
324.253	611.12
324.482	856.12
324.71	1355.12
324.939	2007.12
325.168	1734.12
325.397	852.12
325.626	595.12
325.855	506.12
326.084	470.12
326.313	468.12
326.542	472.12
326.77	525.12
326.999	582.12
327.228	823.12
327.457	1253.12
327.686	1531.12
327.914	996.12
328.143	636.12
328.372	564.12
328.6	554.12
328.829	527.12
329.058	517.12
329.287	513.12
329.515	490.12
329.744	491.12
329.972	472.12
330.201	499.12
330.43	517.12
330.658	565.12
330.887	552.12
331.115	557.12
331.344	503.12
331.572	474.12
331.801	482.12
332.03	462.12
332.258	450.12
332.486	459.12
332.715	422.12
332.943	444.12
333.172	452.12
333.4	437.12
333.629	454.12
333.857	471.12
334.085	456.12
334.314	496.12
334.542	541.12
334.771	549.12
334.999	518.12
335.227	483.12
335.455	483.12
335.684	453.12
335.912	455.12
336.14	442.12
336.369	458.12
336.597	471.12
336.825	479.12
337.053	456.12
337.281	424.12
337.51	431.12
337.738	438.12
337.966	450.12
338.194	430.12
338.422	445.12
338.65	439.12
338.878	428.12
339.106	427.12
339.334	426.12
339.562	431.12
339.79	432.12
340.018	440.12
340.246	444.12
340.474	451.12
340.702	415.12
340.93	445.12
341.158	398.12
341.386	407.12
341.614	418.12
341.842	392.12
342.07	399.12
342.298	423.12
342.526	404.12
342.754	419.12
342.981	415.12
343.209	418.12
343.437	432.12
343.665	405.12
343.893	430.12
344.12	445.12
344.348	442.12
344.576	439.12
344.804	438.12
345.031	454.12
345.259	453.12
345.487	430.12
345.714	452.12
345.942	410.12
346.17	440.12
346.397	413.12
346.625	422.12
346.853	414.12
347.08	423.12
347.308	414.12
347.535	430.12
347.763	447.12
347.99	421.12
348.218	410.12
348.445	434.12
348.673	428.12
348.9	402.12
349.128	403.12
349.355	404.12
349.583	410.12
349.81	399.12
350.037	389.12
350.265	411.12
350.492	386.12
350.72	435.12
350.947	418.12
351.174	411.12
351.402	419.12
351.629	425.12
351.856	422.12
352.083	420.12
352.311	427.12
352.538	417.12
352.765	438.12
352.992	438.12
353.22	391.12
353.447	401.12
353.674	410.12
353.901	394.12
354.128	421.12
354.355	406.12
354.583	401.12
354.81	379.12
355.037	376.12
355.264	405.12
355.491	401.12
355.718	395.12
355.945	386.12
356.172	383.12
356.399	409.12
356.626	401.12
356.853	379.12
357.08	379.12
357.307	392.12
357.534	384.12
357.761	408.12
357.988	399.12
358.215	391.12
358.441	407.12
358.668	397.12
358.895	395.12
359.122	394.12
359.349	403.12
359.576	398.12
359.802	422.12
360.029	455.12
360.256	491.12
360.483	445.12
360.709	409.12
360.936	406.12
361.163	409.12
361.39	410.12
361.616	427.12
361.843	416.12
362.07	423.12
362.296	414.12
362.523	410.12
362.749	417.12
362.976	410.12
363.203	426.12
363.429	415.12
363.656	395.12
363.882	414.12
364.109	393.12
364.335	393.12
364.562	406.12
364.788	388.12
365.015	416.12
365.241	410.12
365.468	400.12
365.694	424.12
365.92	412.12
366.147	406.12
366.373	406.12
366.599	409.12
366.826	408.12
367.052	393.12
367.278	395.12
367.505	432.12
367.731	437.12
367.957	400.12
368.184	390.12
368.41	405.12
368.636	389.12
368.862	422.12
369.089	448.12
369.315	421.12
369.541	405.12
369.767	418.12
369.993	394.12
370.219	408.12
370.445	420.12
370.672	410.12
370.898	398.12
371.124	406.12
371.35	408.12
371.576	412.12
371.802	407.12
372.028	411.12
372.254	399.12
372.48	405.12
372.706	423.12
372.932	422.12
373.158	408.12
373.384	420.12
373.61	417.12
373.835	412.12
374.061	421.12
374.287	416.12
374.513	429.12
374.739	436.12
374.965	450.12
375.191	432.12
375.416	424.12
375.642	441.12
375.868	422.12
376.094	419.12
376.319	406.12
376.545	432.12
376.771	408.12
376.997	418.12
377.222	407.12
377.448	410.12
377.674	400.12
377.899	402.12
378.125	410.12
378.35	405.12
378.576	412.12
378.802	394.12
379.027	388.12
379.253	427.12
379.478	435.12
379.704	413.12
379.929	396.12
380.155	405.12
380.38	426.12
380.606	422.12
380.831	403.12
381.057	422.12
381.282	406.12
381.507	416.12
381.733	402.12
381.958	438.12
382.184	413.12
382.409	424.12
382.634	430.12
382.86	437.12
383.085	442.12
383.31	428.12
383.535	440.12
383.761	419.12
383.986	456.12
384.211	442.12
384.436	438.12
384.662	446.12
384.887	447.12
385.112	464.12
385.337	443.12
385.562	433.12
385.787	462.12
386.013	484.12
386.238	478.12
386.463	474.12
386.688	456.12
386.913	449.12
387.138	475.12
387.363	470.12
387.588	459.12
387.813	454.12
388.038	466.12
388.263	450.12
388.488	472.12
388.713	463.12
388.938	473.12
389.163	449.12
389.387	468.12
389.612	480.12
389.837	473.12
390.062	478.12
390.287	476.12
390.512	454.12
390.736	450.12
390.961	466.12
391.186	457.12
391.411	455.12
391.636	485.12
391.86	472.12
392.085	487.12
392.31	486.12
392.534	485.12
392.759	467.12
392.984	500.12
393.208	480.12
393.433	491.12
393.658	492.12
393.882	492.12
394.107	471.12
394.331	488.12
394.556	482.12
394.78	484.12
395.005	478.12
395.229	477.12
395.454	491.12
395.678	515.12
395.903	516.12
396.127	525.12
396.352	512.12
396.576	492.12
396.801	486.12
397.025	500.12
397.249	501.12
397.474	512.12
397.698	512.12
397.922	529.12
398.147	527.12
398.371	528.12
398.595	531.12
398.82	552.12
399.044	558.12
399.268	570.12
399.492	618.12
399.717	645.12
399.941	654.12
400.165	696.12
400.389	644.12
400.613	612.12
400.837	586.12
401.062	576.12
401.286	563.12
401.51	555.12
401.734	543.12
401.958	578.12
402.182	559.12
402.406	566.12
402.63	565.12
402.854	577.12
403.078	572.12
403.302	591.12
403.526	556.12
403.75	589.12
403.974	590.12
404.198	556.12
404.422	588.12
404.645	583.12
404.869	575.12
405.093	614.12
405.317	648.12
405.541	692.12
405.765	655.12
405.988	621.12
406.212	617.12
406.436	622.12
406.66	655.12
406.883	631.12
407.107	640.12
407.331	709.12
407.555	772.12
407.778	748.12
408.002	688.12
408.226	642.12
408.449	641.12
408.673	613.12
408.896	656.12
409.12	694.12
409.344	645.12
409.567	615.12
409.791	615.12
410.014	608.12
410.238	577.12
410.461	576.12
410.685	593.12
410.908	596.12
411.132	617.12
411.355	658.12
411.578	612.12
411.802	599.12
412.025	581.12
412.249	593.12
412.472	617.12
412.695	660.12
412.919	626.12
413.142	582.12
413.365	551.12
413.589	543.12
413.812	552.12
414.035	562.12
414.258	571.12
414.482	549.12
414.705	567.12
414.928	542.12
415.151	569.12
415.374	546.12
415.597	559.12
415.821	548.12
416.044	571.12
416.267	538.12
416.49	527.12
416.713	560.12
416.936	536.12
417.159	540.12
417.382	541.12
417.605	545.12
417.828	552.12
418.051	572.12
418.274	532.12
418.497	544.12
418.72	554.12
418.943	558.12
419.166	598.12
419.389	586.12
419.611	581.12
419.834	586.12
420.057	584.12
420.28	586.12
420.503	582.12
420.726	580.12
420.948	568.12
421.171	622.12
421.394	667.12
421.617	583.12
421.839	559.12
422.062	572.12
422.285	583.12
422.507	630.12
422.73	694.12
422.953	659.12
423.175	619.12
423.398	576.12
423.621	567.12
423.843	586.12
424.066	612.12
424.288	599.12
424.511	602.12
424.733	660.12
424.956	776.12
425.178	699.12
425.401	720.12
425.623	755.12
425.846	650.12
426.068	607.12
426.291	591.12
426.513	588.12
426.735	580.12
426.958	648.12
427.18	712.12
427.402	866.12
427.625	898.12
427.847	810.12
428.069	675.12
428.292	642.12
428.514	588.12
428.736	576.12
428.958	562.12
429.181	572.12
429.403	552.12
429.625	569.12
429.847	596.12
430.069	628.12
430.292	640.12
430.514	591.12
430.736	560.12
430.958	566.12
431.18	534.12
431.402	510.12
431.624	537.12
431.846	511.12
432.068	511.12
432.29	545.12
432.512	529.12
432.734	532.12
432.956	545.12
433.178	566.12
433.4	538.12
433.622	547.12
433.844	528.12
434.066	542.12
434.287	548.12
434.509	547.12
434.731	556.12
434.953	553.12
435.175	544.12
435.397	573.12
435.618	600.12
435.84	647.12
436.062	728.12
436.284	763.12
436.505	680.12
436.727	586.12
436.949	584.12
437.17	551.12
437.392	544.12
437.614	570.12
437.835	597.12
438.057	653.12
438.278	780.12
438.5	778.12
438.721	861.12
438.943	808.12
439.165	632.12
439.386	584.12
439.608	610.12
439.829	588.12
440.05	618.12
440.272	660.12
440.493	610.12
440.715	601.12
440.936	559.12
441.158	568.12
441.379	558.12
441.6	582.12
441.822	607.12
442.043	638.12
442.264	717.12
442.486	740.12
442.707	620.12
442.928	606.12
443.149	635.12
443.371	628.12
443.592	649.12
443.813	744.12
444.034	830.12
444.255	699.12
444.476	635.12
444.698	611.12
444.919	623.12
445.14	710.12
445.361	652.12
445.582	649.12
445.803	687.12
446.024	806.12
446.245	790.12
446.466	726.12
446.687	618.12
446.908	589.12
447.129	538.12
447.35	560.12
447.571	546.12
447.792	554.12
448.013	575.12
448.234	559.12
448.455	594.12
448.675	690.12
448.896	833.12
449.117	716.12
449.338	666.12
449.559	781.12
449.779	885.12
450	694.12
450.221	585.12
450.442	562.12
450.662	546.12
450.883	531.12
451.104	562.12
451.324	524.12
451.545	516.12
451.766	487.12
451.986	501.12
452.207	502.12
452.428	493.12
452.648	478.12
452.869	464.12
453.089	493.12
453.31	484.12
453.53	478.12
453.751	514.12
453.971	518.12
454.192	507.12
454.412	512.12
454.633	486.12
454.853	495.12
455.073	486.12
455.294	502.12
455.514	582.12
455.734	543.12
455.955	495.12
456.175	473.12
456.395	468.12
456.616	459.12
456.836	470.12
457.056	475.12
457.276	471.12
457.497	457.12
457.717	452.12
457.937	476.12
458.157	474.12
458.377	490.12
458.598	503.12
458.818	558.12
459.038	623.12
459.258	636.12
459.478	572.12
459.698	565.12
459.918	555.12
460.138	553.12
460.358	545.12
460.578	552.12
460.798	578.12
461.018	550.12
461.238	547.12
461.458	565.12
461.678	540.12
461.898	537.12
462.118	578.12
462.338	578.12
462.558	574.12
462.777	571.12
462.997	596.12
463.217	644.12
463.437	629.12
463.657	621.12
463.876	621.12
464.096	614.12
464.316	607.12
464.536	590.12
464.755	630.12
464.975	608.12
465.195	644.12
465.414	700.12
465.634	617.12
465.854	574.12
466.073	572.12
466.293	534.12
466.512	534.12
466.732	520.12
466.951	531.12
467.171	516.12
467.391	537.12
467.61	534.12
467.829	533.12
468.049	528.12
468.268	515.12
468.488	526.12
468.707	506.12
468.927	521.12
469.146	520.12
469.365	486.12
469.585	495.12
469.804	525.12
470.023	548.12
470.243	534.12
470.462	506.12
470.681	546.12
470.901	549.12
471.12	517.12
471.339	500.12
471.558	508.12
471.777	516.12
471.997	525.12
472.216	527.12
472.435	554.12
472.654	551.12
472.873	529.12
473.092	518.12
473.311	524.12
473.53	525.12
473.749	538.12
473.968	583.12
474.187	651.12
474.406	650.12
474.625	544.12
474.844	519.12
475.063	530.12
475.282	527.12
475.501	542.12
475.72	542.12
475.939	540.12
476.158	547.12
476.377	531.12
476.596	547.12
476.814	557.12
477.033	535.12
477.252	572.12
477.471	561.12
477.69	572.12
477.908	576.12
478.127	583.12
478.346	574.12
478.564	595.12
478.783	584.12
479.002	613.12
479.22	616.12
479.439	639.12
479.658	611.12
479.876	622.12
480.095	665.12
480.313	645.12
480.532	679.12
480.751	632.12
480.969	650.12
481.188	694.12
481.406	718.12
481.624	649.12
481.843	628.12
482.061	616.12
482.28	633.12
482.498	608.12
482.717	594.12
482.935	601.12
483.153	601.12
483.372	597.12
483.59	617.12
483.808	614.12
484.027	625.12
484.245	623.12
484.463	607.12
484.681	617.12
484.9	603.12
485.118	634.12
485.336	619.12
485.554	625.12
485.772	660.12
485.99	646.12
486.209	646.12
486.427	640.12
486.645	644.12
486.863	644.12
487.081	668.12
487.299	649.12
487.517	642.12
487.735	659.12
487.953	650.12
488.171	650.12
488.389	676.12
488.607	664.12
488.825	637.12
489.043	642.12
489.261	665.12
489.479	671.12
489.696	654.12
489.914	684.12
490.132	663.12
490.35	676.12
490.568	699.12
490.786	699.12
491.003	685.12
491.221	712.12
491.439	714.12
491.657	695.12
491.874	741.12
492.092	735.12
492.31	744.12
492.527	751.12
492.745	739.12
492.963	728.12
493.18	749.12
493.398	768.12
493.615	760.12
493.833	744.12
494.05	760.12
494.268	767.12
494.485	741.12
494.703	767.12
494.92	757.12
495.138	755.12
495.355	759.12
495.573	778.12
495.79	757.12
496.008	782.12
496.225	788.12
496.442	734.12
496.66	749.12
496.877	774.12
497.094	788.12
497.312	802.12
497.529	800.12
497.746	808.12
497.963	840.12
498.181	842.12
498.398	847.12
498.615	859.12
498.832	894.12
499.049	910.12
499.267	957.12
499.484	1012.12
499.701	1040.12
499.918	1107.12
500.135	1127.12
500.352	1192.12
500.569	1236.12
500.786	1230.12
501.003	1190.12
501.22	1147.12
501.437	1116.12
501.654	1056.12
501.871	1054.12
