Data from 1979.PennyLincolnUp.Lamp.En5.5.200Scan.071719.P1_HRD10591_16-17-44-863.txt Node
Date: Thu Jul 18 16:17:44 EDT 2019
User: cochatt
Spectrometer: HR+D1059
Trigger mode: 1
Integration Time (sec): 1.000000E-1
Scans to average: 1
Electric dark correction enabled: true
Nonlinearity correction enabled: false
Boxcar width: 0
XAxis mode: Wavelengths
Number of Pixels in Spectrum: 2048
>>>>>Begin Spectral Data<<<<<
223.165	-20.06
223.4	-20.06
223.635	-20.06
223.869	-11.06
224.104	-21.06
224.338	-15.06
224.573	-24.06
224.808	-9.06
225.042	0.94
225.277	-7.06
225.511	-8.06
225.746	6.94
225.98	4.94
226.215	0.94
226.449	15.94
226.683	32.94
226.918	26.94
227.152	25.94
227.387	15.94
227.621	35.94
227.856	45.94
228.09	54.94
228.324	47.94
228.559	50.94
228.793	58.94
229.027	77.94
229.262	91.94
229.496	104.94
229.73	109.94
229.964	134.94
230.199	115.94
230.433	109.94
230.667	101.94
230.901	92.94
231.136	106.94
231.37	102.94
231.604	109.94
231.838	106.94
232.072	117.94
232.306	115.94
232.541	108.94
232.775	99.94
233.009	90.94
233.243	105.94
233.477	107.94
233.711	129.94
233.945	111.94
234.179	102.94
234.413	104.94
234.647	105.94
234.881	105.94
235.115	113.94
235.349	113.94
235.583	117.94
235.817	106.94
236.051	105.94
236.285	101.94
236.519	111.94
236.753	126.94
236.987	137.94
237.221	167.94
237.455	187.94
237.689	146.94
237.922	129.94
238.156	118.94
238.39	114.94
238.624	123.94
238.858	132.94
239.091	113.94
239.325	123.94
239.559	120.94
239.793	96.94
240.027	121.94
240.26	133.94
240.494	149.94
240.728	129.94
240.961	110.94
241.195	128.94
241.429	123.94
241.662	120.94
241.896	121.94
242.13	122.94
242.363	128.94
242.597	130.94
242.83	106.94
243.064	137.94
243.298	122.94
243.531	126.94
243.765	142.94
243.998	134.94
244.232	124.94
244.465	128.94
244.699	138.94
244.932	132.94
245.166	142.94
245.399	142.94
245.633	133.94
245.866	138.94
246.099	141.94
246.333	128.94
246.566	142.94
246.8	135.94
247.033	143.94
247.266	149.94
247.5	146.94
247.733	133.94
247.966	143.94
248.2	150.94
248.433	158.94
248.666	151.94
248.899	147.94
249.133	178.94
249.366	195.94
249.599	176.94
249.832	177.94
250.066	168.94
250.299	166.94
250.532	169.94
250.765	184.94
250.998	185.94
251.231	185.94
251.465	182.94
251.698	159.94
251.931	160.94
252.164	167.94
252.397	162.94
252.63	179.94
252.863	184.94
253.096	199.94
253.329	184.94
253.562	205.94
253.795	186.94
254.028	194.94
254.261	195.94
254.494	187.94
254.727	195.94
254.96	228.94
255.193	223.94
255.426	196.94
255.659	185.94
255.892	182.94
256.124	190.94
256.357	189.94
256.59	190.94
256.823	187.94
257.056	174.94
257.289	178.94
257.521	182.94
257.754	183.94
257.987	178.94
258.22	189.94
258.452	169.94
258.685	176.94
258.918	182.94
259.151	178.94
259.383	175.94
259.616	184.94
259.849	184.94
260.081	206.94
260.314	219.94
260.547	214.94
260.779	197.94
261.012	200.94
261.244	191.94
261.477	196.94
261.71	198.94
261.942	196.94
262.175	199.94
262.407	206.94
262.64	193.94
262.872	212.94
263.105	181.94
263.337	185.94
263.57	170.94
263.802	203.94
264.035	189.94
264.267	198.94
264.499	180.94
264.732	191.94
264.964	188.94
265.197	194.94
265.429	203.94
265.661	207.94
265.894	198.94
266.126	192.94
266.358	198.94
266.591	195.94
266.823	205.94
267.055	206.94
267.287	202.94
267.52	173.94
267.752	191.94
267.984	185.94
268.216	188.94
268.448	205.94
268.681	209.94
268.913	211.94
269.145	201.94
269.377	236.94
269.609	224.94
269.841	227.94
270.073	203.94
270.306	230.94
270.538	248.94
270.77	244.94
271.002	253.94
271.234	240.94
271.466	236.94
271.698	246.94
271.93	249.94
272.162	262.94
272.394	267.94
272.626	248.94
272.858	246.94
273.09	242.94
273.322	220.94
273.553	224.94
273.785	227.94
274.017	222.94
274.249	240.94
274.481	224.94
274.713	221.94
274.945	240.94
275.176	258.94
275.408	240.94
275.64	233.94
275.872	222.94
276.104	220.94
276.335	219.94
276.567	235.94
276.799	227.94
277.031	254.94
277.262	260.94
277.494	254.94
277.726	247.94
277.957	253.94
278.189	233.94
278.421	243.94
278.652	227.94
278.884	240.94
279.115	248.94
279.347	228.94
279.579	235.94
279.81	227.94
280.042	222.94
280.273	257.94
280.505	243.94
280.736	233.94
280.968	241.94
281.199	228.94
281.431	235.94
281.662	237.94
281.894	258.94
282.125	263.94
282.356	247.94
282.588	249.94
282.819	282.94
283.051	248.94
283.282	231.94
283.513	246.94
283.745	238.94
283.976	246.94
284.207	252.94
284.439	259.94
284.67	239.94
284.901	232.94
285.132	266.94
285.364	259.94
285.595	239.94
285.826	247.94
286.057	250.94
286.288	253.94
286.52	265.94
286.751	240.94
286.982	255.94
287.213	249.94
287.444	250.94
287.675	247.94
287.906	243.94
288.138	268.94
288.369	271.94
288.6	264.94
288.831	250.94
289.062	284.94
289.293	238.94
289.524	262.94
289.755	284.94
289.986	257.94
290.217	248.94
290.448	270.94
290.679	249.94
290.91	257.94
291.141	282.94
291.371	269.94
291.602	259.94
291.833	262.94
292.064	271.94
292.295	261.94
292.526	272.94
292.757	264.94
292.987	277.94
293.218	265.94
293.449	274.94
293.68	251.94
293.91	266.94
294.141	259.94
294.372	264.94
294.603	258.94
294.833	275.94
295.064	300.94
295.295	248.94
295.525	262.94
295.756	273.94
295.987	276.94
296.217	276.94
296.448	291.94
296.679	300.94
296.909	276.94
297.14	277.94
297.37	271.94
297.601	263.94
297.831	256.94
298.062	263.94
298.292	277.94
298.523	294.94
298.753	301.94
298.984	265.94
299.214	280.94
299.445	307.94
299.675	293.94
299.905	278.94
300.136	285.94
300.366	273.94
300.597	290.94
300.827	291.94
301.057	296.94
301.288	314.94
301.518	284.94
301.748	298.94
301.979	308.94
302.209	304.94
302.439	315.94
302.669	304.94
302.9	292.94
303.13	279.94
303.36	299.94
303.59	300.94
303.82	318.94
304.051	312.94
304.281	308.94
304.511	293.94
304.741	290.94
304.971	298.94
305.201	301.94
305.431	298.94
305.661	292.94
305.891	304.94
306.121	290.94
306.352	290.94
306.582	309.94
306.812	291.94
307.042	293.94
307.272	284.94
307.502	298.94
307.731	306.94
307.961	310.94
308.191	294.94
308.421	309.94
308.651	297.94
308.881	290.94
309.111	282.94
309.341	302.94
309.571	312.94
309.8	326.94
310.03	313.94
310.26	330.94
310.49	320.94
310.72	333.94
310.949	346.94
311.179	341.94
311.409	326.94
311.639	326.94
311.868	330.94
312.098	329.94
312.328	331.94
312.557	342.94
312.787	340.94
313.017	365.94
313.246	345.94
313.476	320.94
313.706	330.94
313.935	319.94
314.165	350.94
314.394	350.94
314.624	356.94
314.853	328.94
315.083	346.94
315.312	346.94
315.542	329.94
315.771	332.94
316.001	318.94
316.23	341.94
316.46	330.94
316.689	328.94
316.919	361.94
317.148	344.94
317.377	356.94
317.607	325.94
317.836	333.94
318.065	353.94
318.295	347.94
318.524	333.94
318.753	345.94
318.983	338.94
319.212	334.94
319.441	343.94
319.67	338.94
319.9	323.94
320.129	328.94
320.358	320.94
320.587	353.94
320.816	345.94
321.046	342.94
321.275	346.94
321.504	338.94
321.733	365.94
321.962	358.94
322.191	364.94
322.42	362.94
322.649	380.94
322.878	380.94
323.108	375.94
323.337	396.94
323.566	413.94
323.795	424.94
324.024	449.94
324.253	532.94
324.482	712.94
324.71	1092.94
324.939	1588.94
325.168	1355.94
325.397	692.94
325.626	488.94
325.855	448.94
326.084	415.94
326.313	426.94
326.542	404.94
326.77	432.94
326.999	511.94
327.228	677.94
327.457	1024.94
327.686	1238.94
327.914	803.94
328.143	548.94
328.372	472.94
328.6	460.94
328.829	445.94
329.058	435.94
329.287	448.94
329.515	448.94
329.744	420.94
329.972	410.94
330.201	408.94
330.43	459.94
330.658	470.94
330.887	480.94
331.115	486.94
331.344	430.94
331.572	427.94
331.801	407.94
332.03	417.94
332.258	412.94
332.486	406.94
332.715	388.94
332.943	409.94
333.172	414.94
333.4	419.94
333.629	424.94
333.857	428.94
334.085	445.94
334.314	454.94
334.542	477.94
334.771	472.94
334.999	448.94
335.227	442.94
335.455	436.94
335.684	421.94
335.912	410.94
336.14	420.94
336.369	394.94
336.597	426.94
336.825	398.94
337.053	410.94
337.281	402.94
337.51	398.94
337.738	410.94
337.966	395.94
338.194	404.94
338.422	414.94
338.65	378.94
338.878	385.94
339.106	379.94
339.334	369.94
339.562	382.94
339.79	404.94
340.018	422.94
340.246	395.94
340.474	404.94
340.702	396.94
340.93	404.94
341.158	382.94
341.386	401.94
341.614	393.94
341.842	396.94
342.07	389.94
342.298	395.94
342.526	383.94
342.754	384.94
342.981	390.94
343.209	381.94
343.437	394.94
343.665	410.94
343.893	410.94
344.12	422.94
344.348	425.94
344.576	432.94
344.804	388.94
345.031	408.94
345.259	407.94
345.487	399.94
345.714	405.94
345.942	386.94
346.17	380.94
346.397	376.94
346.625	374.94
346.853	369.94
347.08	364.94
347.308	380.94
347.535	379.94
347.763	391.94
347.99	364.94
348.218	382.94
348.445	378.94
348.673	393.94
348.9	378.94
349.128	392.94
349.355	375.94
349.583	383.94
349.81	368.94
350.037	370.94
350.265	371.94
350.492	373.94
350.72	370.94
350.947	374.94
351.174	386.94
351.402	377.94
351.629	384.94
351.856	391.94
352.083	388.94
352.311	387.94
352.538	379.94
352.765	389.94
352.992	384.94
353.22	359.94
353.447	380.94
353.674	364.94
353.901	368.94
354.128	370.94
354.355	368.94
354.583	380.94
354.81	374.94
355.037	378.94
355.264	378.94
355.491	353.94
355.718	362.94
355.945	349.94
356.172	358.94
356.399	378.94
356.626	360.94
356.853	376.94
357.08	376.94
357.307	361.94
357.534	358.94
357.761	352.94
357.988	362.94
358.215	371.94
358.441	374.94
358.668	376.94
358.895	367.94
359.122	360.94
359.349	378.94
359.576	386.94
359.802	397.94
360.029	406.94
360.256	415.94
360.483	398.94
360.709	404.94
360.936	393.94
361.163	392.94
361.39	380.94
361.616	390.94
361.843	377.94
362.07	378.94
362.296	393.94
362.523	375.94
362.749	374.94
362.976	380.94
363.203	378.94
363.429	379.94
363.656	371.94
363.882	376.94
364.109	368.94
364.335	372.94
364.562	359.94
364.788	360.94
365.015	376.94
365.241	363.94
365.468	384.94
365.694	376.94
365.92	374.94
366.147	377.94
366.373	370.94
366.599	380.94
366.826	359.94
367.052	358.94
367.278	362.94
367.505	369.94
367.731	365.94
367.957	359.94
368.184	374.94
368.41	380.94
368.636	384.94
368.862	385.94
369.089	380.94
369.315	365.94
369.541	367.94
369.767	372.94
369.993	380.94
370.219	397.94
370.445	394.94
370.672	377.94
370.898	381.94
371.124	373.94
371.35	380.94
371.576	407.94
371.802	398.94
372.028	376.94
372.254	374.94
372.48	392.94
372.706	372.94
372.932	377.94
373.158	404.94
373.384	386.94
373.61	391.94
373.835	391.94
374.061	389.94
374.287	388.94
374.513	406.94
374.739	411.94
374.965	411.94
375.191	400.94
375.416	419.94
375.642	402.94
375.868	406.94
376.094	389.94
376.319	393.94
376.545	397.94
376.771	387.94
376.997	387.94
377.222	390.94
377.448	380.94
377.674	398.94
377.899	395.94
378.125	364.94
378.35	397.94
378.576	370.94
378.802	402.94
379.027	386.94
379.253	401.94
379.478	408.94
379.704	385.94
379.929	390.94
380.155	406.94
380.38	391.94
380.606	386.94
380.831	386.94
381.057	387.94
381.282	394.94
381.507	396.94
381.733	383.94
381.958	387.94
382.184	409.94
382.409	382.94
382.634	392.94
382.86	406.94
383.085	405.94
383.31	407.94
383.535	394.94
383.761	410.94
383.986	409.94
384.211	423.94
384.436	418.94
384.662	423.94
384.887	428.94
385.112	444.94
385.337	439.94
385.562	427.94
385.787	439.94
386.013	444.94
386.238	418.94
386.463	432.94
386.688	437.94
386.913	455.94
387.138	449.94
387.363	445.94
387.588	452.94
387.813	442.94
388.038	466.94
388.263	435.94
388.488	426.94
388.713	432.94
388.938	438.94
389.163	435.94
389.387	424.94
389.612	427.94
389.837	428.94
390.062	428.94
390.287	435.94
390.512	432.94
390.736	416.94
390.961	441.94
391.186	446.94
391.411	462.94
391.636	446.94
391.86	451.94
392.085	445.94
392.31	449.94
392.534	449.94
392.759	463.94
392.984	453.94
393.208	461.94
393.433	470.94
393.658	478.94
393.882	451.94
394.107	460.94
394.331	459.94
394.556	458.94
394.78	436.94
395.005	440.94
395.229	470.94
395.454	460.94
395.678	467.94
395.903	478.94
396.127	475.94
396.352	466.94
396.576	461.94
396.801	479.94
397.025	470.94
397.249	476.94
397.474	488.94
397.698	496.94
397.922	477.94
398.147	483.94
398.371	506.94
398.595	492.94
398.82	519.94
399.044	550.94
399.268	542.94
399.492	585.94
399.717	607.94
399.941	647.94
400.165	631.94
400.389	610.94
400.613	590.94
400.837	548.94
401.062	527.94
401.286	529.94
401.51	497.94
401.734	521.94
401.958	512.94
402.182	523.94
402.406	525.94
402.63	533.94
402.854	556.94
403.078	518.94
403.302	551.94
403.526	553.94
403.75	533.94
403.974	547.94
404.198	553.94
404.422	544.94
404.645	562.94
404.869	560.94
405.093	565.94
405.317	598.94
405.541	629.94
405.765	595.94
405.988	558.94
406.212	561.94
406.436	571.94
406.66	602.94
406.883	587.94
407.107	612.94
407.331	646.94
407.555	700.94
407.778	722.94
408.002	649.94
408.226	581.94
408.449	604.94
408.673	598.94
408.896	615.94
409.12	637.94
409.344	632.94
409.567	557.94
409.791	564.94
410.014	559.94
410.238	551.94
410.461	562.94
410.685	558.94
410.908	555.94
411.132	579.94
411.355	617.94
411.578	577.94
411.802	549.94
412.025	512.94
412.249	550.94
412.472	556.94
412.695	595.94
412.919	590.94
413.142	565.94
413.365	537.94
413.589	533.94
413.812	521.94
414.035	515.94
414.258	509.94
414.482	534.94
414.705	534.94
414.928	529.94
415.151	518.94
415.374	529.94
415.597	516.94
415.821	532.94
416.044	534.94
416.267	521.94
416.49	502.94
416.713	508.94
416.936	499.94
417.159	507.94
417.382	505.94
417.605	533.94
417.828	516.94
418.051	536.94
418.274	536.94
418.497	505.94
418.72	517.94
418.943	512.94
419.166	531.94
419.389	568.94
419.611	561.94
419.834	548.94
420.057	532.94
420.28	547.94
420.503	525.94
420.726	534.94
420.948	552.94
421.171	566.94
421.394	594.94
421.617	511.94
421.839	533.94
422.062	521.94
422.285	523.94
422.507	583.94
422.73	632.94
422.953	639.94
423.175	583.94
423.398	567.94
423.621	563.94
423.843	554.94
424.066	563.94
424.288	570.94
424.511	566.94
424.733	628.94
424.956	686.94
425.178	658.94
425.401	674.94
425.623	683.94
425.846	556.94
426.068	558.94
426.291	552.94
426.513	563.94
426.735	560.94
426.958	600.94
427.18	658.94
427.402	754.94
427.625	827.94
427.847	708.94
428.069	633.94
428.292	570.94
428.514	525.94
428.736	523.94
428.958	514.94
429.181	512.94
429.403	505.94
429.625	541.94
429.847	550.94
430.069	584.94
430.292	582.94
430.514	532.94
430.736	523.94
430.958	516.94
431.18	493.94
431.402	475.94
431.624	478.94
431.846	498.94
432.068	472.94
432.29	496.94
432.512	483.94
432.734	533.94
432.956	500.94
433.178	501.94
433.4	512.94
433.622	500.94
433.844	519.94
434.066	501.94
434.287	504.94
434.509	513.94
434.731	501.94
434.953	529.94
435.175	551.94
435.397	545.94
435.618	555.94
435.84	581.94
436.062	628.94
436.284	722.94
436.505	610.94
436.727	568.94
436.949	526.94
437.17	519.94
437.392	507.94
437.614	534.94
437.835	543.94
438.057	644.94
438.278	684.94
438.5	661.94
438.721	768.94
438.943	746.94
439.165	590.94
439.386	533.94
439.608	537.94
439.829	570.94
440.05	564.94
440.272	592.94
440.493	587.94
440.715	532.94
440.936	516.94
441.158	521.94
441.379	526.94
441.6	545.94
441.822	558.94
442.043	593.94
442.264	657.94
442.486	690.94
442.707	589.94
442.928	576.94
443.149	577.94
443.371	578.94
443.592	626.94
443.813	692.94
444.034	739.94
444.255	637.94
444.476	600.94
444.698	584.94
444.919	603.94
445.14	695.94
445.361	619.94
445.582	618.94
445.803	631.94
446.024	698.94
446.245	705.94
446.466	646.94
446.687	594.94
446.908	568.94
447.129	524.94
447.35	514.94
447.571	512.94
447.792	506.94
448.013	503.94
448.234	508.94
448.455	568.94
448.675	659.94
448.896	738.94
449.117	632.94
449.338	602.94
449.559	697.94
449.779	785.94
450	621.94
450.221	505.94
450.442	512.94
450.662	497.94
450.883	490.94
451.104	500.94
451.324	485.94
451.545	489.94
451.766	480.94
451.986	457.94
452.207	458.94
452.428	429.94
452.648	450.94
452.869	453.94
453.089	467.94
453.31	468.94
453.53	453.94
453.751	449.94
453.971	450.94
454.192	464.94
454.412	467.94
454.633	435.94
454.853	449.94
455.073	477.94
455.294	459.94
455.514	534.94
455.734	503.94
455.955	452.94
456.175	456.94
456.395	432.94
456.616	451.94
456.836	444.94
457.056	433.94
457.276	428.94
457.497	452.94
457.717	452.94
457.937	449.94
458.157	474.94
458.377	465.94
458.598	477.94
458.818	508.94
459.038	569.94
459.258	584.94
459.478	521.94
459.698	509.94
459.918	502.94
460.138	517.94
460.358	527.94
460.578	520.94
460.798	534.94
461.018	537.94
461.238	521.94
461.458	506.94
461.678	524.94
461.898	532.94
462.118	527.94
462.338	542.94
462.558	566.94
462.777	576.94
462.997	608.94
463.217	596.94
463.437	610.94
463.657	570.94
463.876	587.94
464.096	563.94
464.316	564.94
464.536	589.94
464.755	577.94
464.975	550.94
465.195	570.94
465.414	612.94
465.634	558.94
465.854	531.94
466.073	524.94
466.293	515.94
466.512	494.94
466.732	469.94
466.951	477.94
467.171	477.94
467.391	507.94
467.61	480.94
467.829	484.94
468.049	513.94
468.268	480.94
468.488	505.94
468.707	470.94
468.927	462.94
469.146	505.94
469.365	496.94
469.585	467.94
469.804	466.94
470.023	482.94
470.243	477.94
470.462	482.94
470.681	515.94
470.901	506.94
471.12	494.94
471.339	495.94
471.558	482.94
471.777	493.94
471.997	500.94
472.216	485.94
472.435	514.94
472.654	497.94
472.873	482.94
473.092	509.94
473.311	473.94
473.53	502.94
473.749	495.94
473.968	530.94
474.187	572.94
474.406	572.94
474.625	518.94
474.844	487.94
475.063	477.94
475.282	482.94
475.501	499.94
475.72	505.94
475.939	477.94
476.158	502.94
476.377	508.94
476.596	498.94
476.814	519.94
477.033	517.94
477.252	502.94
477.471	514.94
477.69	515.94
477.908	544.94
478.127	535.94
478.346	539.94
478.564	560.94
478.783	550.94
479.002	572.94
479.22	565.94
479.439	566.94
479.658	572.94
479.876	591.94
480.095	575.94
480.313	613.94
480.532	602.94
480.751	615.94
480.969	625.94
481.188	646.94
481.406	653.94
481.624	597.94
481.843	575.94
482.061	569.94
482.28	588.94
482.498	589.94
482.717	566.94
482.935	568.94
483.153	587.94
483.372	582.94
483.59	572.94
483.808	585.94
484.027	550.94
484.245	586.94
484.463	567.94
484.681	600.94
484.9	558.94
485.118	608.94
485.336	593.94
485.554	605.94
485.772	606.94
485.99	595.94
486.209	603.94
486.427	609.94
486.645	579.94
486.863	611.94
487.081	604.94
487.299	603.94
487.517	613.94
487.735	588.94
487.953	605.94
488.171	603.94
488.389	621.94
488.607	597.94
488.825	591.94
489.043	580.94
489.261	608.94
489.479	616.94
489.696	601.94
489.914	649.94
490.132	645.94
490.35	628.94
490.568	639.94
490.786	659.94
491.003	632.94
491.221	648.94
491.439	667.94
491.657	663.94
491.874	655.94
492.092	680.94
492.31	669.94
492.527	686.94
492.745	652.94
492.963	694.94
493.18	667.94
493.398	694.94
493.615	660.94
493.833	692.94
494.05	728.94
494.268	706.94
494.485	689.94
494.703	711.94
494.92	689.94
495.138	696.94
495.355	676.94
495.573	700.94
495.79	703.94
496.008	733.94
496.225	699.94
496.442	749.94
496.66	716.94
496.877	724.94
497.094	718.94
497.312	764.94
497.529	756.94
497.746	747.94
497.963	756.94
498.181	779.94
498.398	811.94
498.615	832.94
498.832	837.94
499.049	878.94
499.267	894.94
499.484	933.94
499.701	971.94
499.918	1020.94
500.135	1107.94
500.352	1108.94
500.569	1159.94
500.786	1168.94
501.003	1138.94
501.22	1082.94
501.437	1062.94
501.654	1002.94
501.871	977.94
