Data from 1979.PennyLincolnUp.Lamp.En5.5.200Scan.071719.P1_HRD10591_16-19-15-863.txt Node
Date: Thu Jul 18 16:19:15 EDT 2019
User: cochatt
Spectrometer: HR+D1059
Trigger mode: 1
Integration Time (sec): 1.000000E-1
Scans to average: 1
Electric dark correction enabled: true
Nonlinearity correction enabled: false
Boxcar width: 0
XAxis mode: Wavelengths
Number of Pixels in Spectrum: 2048
>>>>>Begin Spectral Data<<<<<
223.165	-18.12
223.4	-18.12
223.635	-18.12
223.869	-19.12
224.104	-24.12
224.338	-7.12
224.573	-20.12
224.808	-13.12
225.042	0.88
225.277	-1.12
225.511	2.88
225.746	1.88
225.98	-3.12
226.215	14.88
226.449	15.88
226.683	22.88
226.918	25.88
227.152	20.88
227.387	20.88
227.621	27.88
227.856	37.88
228.09	27.88
228.324	56.88
228.559	54.88
228.793	66.88
229.027	89.88
229.262	105.88
229.496	121.88
229.73	130.88
229.964	141.88
230.199	100.88
230.433	117.88
230.667	112.88
230.901	99.88
231.136	101.88
231.37	109.88
231.604	107.88
231.838	110.88
232.072	121.88
232.306	107.88
232.541	102.88
232.775	107.88
233.009	114.88
233.243	117.88
233.477	114.88
233.711	93.88
233.945	110.88
234.179	117.88
234.413	109.88
234.647	111.88
234.881	121.88
235.115	115.88
235.349	110.88
235.583	121.88
235.817	116.88
236.051	128.88
236.285	119.88
236.519	110.88
236.753	121.88
236.987	143.88
237.221	160.88
237.455	217.88
237.689	171.88
237.922	132.88
238.156	125.88
238.39	122.88
238.624	134.88
238.858	125.88
239.091	124.88
239.325	108.88
239.559	130.88
239.793	139.88
240.027	134.88
240.26	126.88
240.494	133.88
240.728	142.88
240.961	135.88
241.195	141.88
241.429	130.88
241.662	131.88
241.896	138.88
242.13	119.88
242.363	119.88
242.597	134.88
242.83	127.88
243.064	123.88
243.298	141.88
243.531	138.88
243.765	123.88
243.998	138.88
244.232	140.88
244.465	143.88
244.699	130.88
244.932	134.88
245.166	146.88
245.399	136.88
245.633	160.88
245.866	140.88
246.099	140.88
246.333	148.88
246.566	139.88
246.8	156.88
247.033	142.88
247.266	139.88
247.5	153.88
247.733	170.88
247.966	160.88
248.2	150.88
248.433	142.88
248.666	171.88
248.899	183.88
249.133	196.88
249.366	182.88
249.599	186.88
249.832	180.88
250.066	168.88
250.299	168.88
250.532	186.88
250.765	188.88
250.998	204.88
251.231	200.88
251.465	198.88
251.698	200.88
251.931	191.88
252.164	208.88
252.397	195.88
252.63	203.88
252.863	195.88
253.096	207.88
253.329	198.88
253.562	198.88
253.795	208.88
254.028	182.88
254.261	181.88
254.494	199.88
254.727	234.88
254.96	249.88
255.193	232.88
255.426	205.88
255.659	201.88
255.892	222.88
256.124	218.88
256.357	204.88
256.59	189.88
256.823	200.88
257.056	212.88
257.289	211.88
257.521	201.88
257.754	206.88
257.987	172.88
258.22	196.88
258.452	194.88
258.685	187.88
258.918	200.88
259.151	190.88
259.383	202.88
259.616	214.88
259.849	207.88
260.081	224.88
260.314	241.88
260.547	221.88
260.779	220.88
261.012	219.88
261.244	204.88
261.477	211.88
261.71	222.88
261.942	210.88
262.175	215.88
262.407	219.88
262.64	216.88
262.872	195.88
263.105	193.88
263.337	208.88
263.57	201.88
263.802	206.88
264.035	209.88
264.267	217.88
264.499	209.88
264.732	196.88
264.964	189.88
265.197	196.88
265.429	202.88
265.661	201.88
265.894	203.88
266.126	198.88
266.358	203.88
266.591	211.88
266.823	203.88
267.055	209.88
267.287	217.88
267.52	194.88
267.752	214.88
267.984	218.88
268.216	220.88
268.448	222.88
268.681	216.88
268.913	227.88
269.145	247.88
269.377	243.88
269.609	243.88
269.841	244.88
270.073	261.88
270.306	279.88
270.538	279.88
270.77	267.88
271.002	274.88
271.234	255.88
271.466	269.88
271.698	290.88
271.93	273.88
272.162	270.88
272.394	302.88
272.626	273.88
272.858	272.88
273.09	255.88
273.322	267.88
273.553	247.88
273.785	250.88
274.017	261.88
274.249	272.88
274.481	254.88
274.713	247.88
274.945	256.88
275.176	256.88
275.408	256.88
275.64	255.88
275.872	253.88
276.104	255.88
276.335	254.88
276.567	274.88
276.799	254.88
277.031	305.88
277.262	298.88
277.494	297.88
277.726	281.88
277.957	276.88
278.189	273.88
278.421	255.88
278.652	260.88
278.884	250.88
279.115	263.88
279.347	262.88
279.579	247.88
279.81	247.88
280.042	246.88
280.273	236.88
280.505	265.88
280.736	242.88
280.968	269.88
281.199	257.88
281.431	258.88
281.662	258.88
281.894	255.88
282.125	270.88
282.356	278.88
282.588	287.88
282.819	297.88
283.051	257.88
283.282	250.88
283.513	258.88
283.745	251.88
283.976	267.88
284.207	258.88
284.439	270.88
284.67	261.88
284.901	272.88
285.132	269.88
285.364	269.88
285.595	278.88
285.826	281.88
286.057	279.88
286.288	267.88
286.52	274.88
286.751	267.88
286.982	273.88
287.213	266.88
287.444	292.88
287.675	279.88
287.906	290.88
288.138	296.88
288.369	292.88
288.6	300.88
288.831	278.88
289.062	287.88
289.293	286.88
289.524	294.88
289.755	286.88
289.986	272.88
290.217	279.88
290.448	272.88
290.679	297.88
290.91	279.88
291.141	282.88
291.371	270.88
291.602	267.88
291.833	283.88
292.064	295.88
292.295	282.88
292.526	295.88
292.757	282.88
292.987	278.88
293.218	287.88
293.449	290.88
293.68	299.88
293.91	287.88
294.141	292.88
294.372	274.88
294.603	291.88
294.833	304.88
295.064	296.88
295.295	280.88
295.525	318.88
295.756	295.88
295.987	286.88
296.217	334.88
296.448	327.88
296.679	321.88
296.909	292.88
297.14	295.88
297.37	300.88
297.601	289.88
297.831	303.88
298.062	328.88
298.292	291.88
298.523	293.88
298.753	293.88
298.984	300.88
299.214	314.88
299.445	307.88
299.675	302.88
299.905	310.88
300.136	312.88
300.366	291.88
300.597	304.88
300.827	331.88
301.057	302.88
301.288	324.88
301.518	331.88
301.748	326.88
301.979	334.88
302.209	324.88
302.439	327.88
302.669	334.88
302.9	340.88
303.13	315.88
303.36	329.88
303.59	316.88
303.82	339.88
304.051	335.88
304.281	318.88
304.511	325.88
304.741	337.88
304.971	312.88
305.201	327.88
305.431	323.88
305.661	297.88
305.891	327.88
306.121	327.88
306.352	325.88
306.582	320.88
306.812	337.88
307.042	338.88
307.272	339.88
307.502	329.88
307.731	331.88
307.961	340.88
308.191	326.88
308.421	336.88
308.651	338.88
308.881	335.88
309.111	331.88
309.341	332.88
309.571	363.88
309.8	343.88
310.03	355.88
310.26	341.88
310.49	367.88
310.72	354.88
310.949	374.88
311.179	381.88
311.409	382.88
311.639	371.88
311.868	366.88
312.098	366.88
312.328	363.88
312.557	392.88
312.787	384.88
313.017	370.88
313.246	369.88
313.476	360.88
313.706	359.88
313.935	385.88
314.165	384.88
314.394	370.88
314.624	396.88
314.853	381.88
315.083	371.88
315.312	355.88
315.542	376.88
315.771	370.88
316.001	358.88
316.23	374.88
316.46	365.88
316.689	362.88
316.919	369.88
317.148	384.88
317.377	384.88
317.607	378.88
317.836	384.88
318.065	370.88
318.295	382.88
318.524	383.88
318.753	388.88
318.983	368.88
319.212	370.88
319.441	375.88
319.67	376.88
319.9	386.88
320.129	387.88
320.358	401.88
320.587	378.88
320.816	383.88
321.046	383.88
321.275	386.88
321.504	386.88
321.733	382.88
321.962	381.88
322.191	424.88
322.42	404.88
322.649	422.88
322.878	424.88
323.108	448.88
323.337	446.88
323.566	475.88
323.795	494.88
324.024	522.88
324.253	631.88
324.482	873.88
324.71	1332.88
324.939	2028.88
325.168	1749.88
325.397	858.88
325.626	606.88
325.855	508.88
326.084	506.88
326.313	459.88
326.542	483.88
326.77	519.88
326.999	589.88
327.228	827.88
327.457	1222.88
327.686	1536.88
327.914	1004.88
328.143	655.88
328.372	573.88
328.6	560.88
328.829	531.88
329.058	562.88
329.287	562.88
329.515	511.88
329.744	470.88
329.972	471.88
330.201	535.88
330.43	556.88
330.658	568.88
330.887	548.88
331.115	574.88
331.344	516.88
331.572	485.88
331.801	472.88
332.03	478.88
332.258	444.88
332.486	465.88
332.715	451.88
332.943	455.88
333.172	482.88
333.4	473.88
333.629	472.88
333.857	481.88
334.085	498.88
334.314	506.88
334.542	536.88
334.771	556.88
334.999	500.88
335.227	475.88
335.455	470.88
335.684	469.88
335.912	460.88
336.14	455.88
336.369	463.88
336.597	469.88
336.825	478.88
337.053	444.88
337.281	440.88
337.51	424.88
337.738	439.88
337.966	432.88
338.194	442.88
338.422	448.88
338.65	475.88
338.878	439.88
339.106	447.88
339.334	431.88
339.562	421.88
339.79	438.88
340.018	426.88
340.246	410.88
340.474	436.88
340.702	455.88
340.93	452.88
341.158	435.88
341.386	425.88
341.614	438.88
341.842	408.88
342.07	434.88
342.298	410.88
342.526	420.88
342.754	401.88
342.981	415.88
343.209	423.88
343.437	416.88
343.665	432.88
343.893	464.88
344.12	458.88
344.348	442.88
344.576	465.88
344.804	467.88
345.031	461.88
345.259	442.88
345.487	430.88
345.714	434.88
345.942	424.88
346.17	423.88
346.397	395.88
346.625	400.88
346.853	433.88
347.08	408.88
347.308	418.88
347.535	444.88
347.763	412.88
347.99	408.88
348.218	419.88
348.445	428.88
348.673	421.88
348.9	422.88
349.128	416.88
349.355	405.88
349.583	402.88
349.81	410.88
350.037	393.88
350.265	435.88
350.492	395.88
350.72	402.88
350.947	392.88
351.174	415.88
351.402	430.88
351.629	430.88
351.856	431.88
352.083	427.88
352.311	434.88
352.538	448.88
352.765	463.88
352.992	424.88
353.22	402.88
353.447	420.88
353.674	411.88
353.901	402.88
354.128	425.88
354.355	398.88
354.583	395.88
354.81	418.88
355.037	386.88
355.264	397.88
355.491	394.88
355.718	379.88
355.945	380.88
356.172	395.88
356.399	381.88
356.626	413.88
356.853	387.88
357.08	394.88
357.307	411.88
357.534	410.88
357.761	398.88
357.988	392.88
358.215	389.88
358.441	395.88
358.668	405.88
358.895	415.88
359.122	400.88
359.349	406.88
359.576	420.88
359.802	431.88
360.029	466.88
360.256	458.88
360.483	448.88
360.709	415.88
360.936	422.88
361.163	426.88
361.39	427.88
361.616	428.88
361.843	409.88
362.07	412.88
362.296	404.88
362.523	432.88
362.749	410.88
362.976	422.88
363.203	406.88
363.429	394.88
363.656	407.88
363.882	403.88
364.109	390.88
364.335	420.88
364.562	403.88
364.788	391.88
365.015	434.88
365.241	406.88
365.468	401.88
365.694	403.88
365.92	421.88
366.147	410.88
366.373	406.88
366.599	414.88
366.826	418.88
367.052	393.88
367.278	410.88
367.505	427.88
367.731	410.88
367.957	398.88
368.184	404.88
368.41	411.88
368.636	427.88
368.862	417.88
369.089	451.88
369.315	406.88
369.541	427.88
369.767	422.88
369.993	416.88
370.219	418.88
370.445	398.88
370.672	419.88
370.898	387.88
371.124	411.88
371.35	412.88
371.576	435.88
371.802	424.88
372.028	416.88
372.254	409.88
372.48	432.88
372.706	404.88
372.932	429.88
373.158	438.88
373.384	448.88
373.61	433.88
373.835	435.88
374.061	433.88
374.287	424.88
374.513	418.88
374.739	431.88
374.965	416.88
375.191	417.88
375.416	418.88
375.642	417.88
375.868	446.88
376.094	416.88
376.319	425.88
376.545	423.88
376.771	422.88
376.997	430.88
377.222	443.88
377.448	411.88
377.674	418.88
377.899	414.88
378.125	409.88
378.35	412.88
378.576	424.88
378.802	414.88
379.027	431.88
379.253	422.88
379.478	407.88
379.704	418.88
379.929	422.88
380.155	423.88
380.38	407.88
380.606	402.88
380.831	420.88
381.057	417.88
381.282	420.88
381.507	430.88
381.733	422.88
381.958	420.88
382.184	445.88
382.409	441.88
382.634	450.88
382.86	425.88
383.085	434.88
383.31	424.88
383.535	438.88
383.761	441.88
383.986	449.88
384.211	437.88
384.436	448.88
384.662	444.88
384.887	441.88
385.112	440.88
385.337	466.88
385.562	468.88
385.787	473.88
386.013	496.88
386.238	478.88
386.463	481.88
386.688	465.88
386.913	459.88
387.138	458.88
387.363	468.88
387.588	450.88
387.813	458.88
388.038	450.88
388.263	454.88
388.488	465.88
388.713	483.88
388.938	455.88
389.163	486.88
389.387	473.88
389.612	457.88
389.837	471.88
390.062	483.88
390.287	466.88
390.512	458.88
390.736	459.88
390.961	497.88
391.186	482.88
391.411	471.88
391.636	481.88
391.86	487.88
392.085	497.88
392.31	496.88
392.534	490.88
392.759	466.88
392.984	479.88
393.208	484.88
393.433	497.88
393.658	485.88
393.882	469.88
394.107	499.88
394.331	481.88
394.556	474.88
394.78	471.88
395.005	484.88
395.229	480.88
395.454	506.88
395.678	496.88
395.903	487.88
396.127	507.88
396.352	503.88
396.576	498.88
396.801	518.88
397.025	495.88
397.249	498.88
397.474	514.88
397.698	538.88
397.922	516.88
398.147	548.88
398.371	538.88
398.595	549.88
398.82	546.88
399.044	550.88
399.268	576.88
399.492	620.88
399.717	658.88
399.941	674.88
400.165	705.88
400.389	697.88
400.613	627.88
400.837	599.88
401.062	585.88
401.286	558.88
401.51	578.88
401.734	554.88
401.958	566.88
402.182	540.88
402.406	549.88
402.63	570.88
402.854	579.88
403.078	576.88
403.302	591.88
403.526	576.88
403.75	579.88
403.974	599.88
404.198	587.88
404.422	573.88
404.645	594.88
404.869	589.88
405.093	632.88
405.317	664.88
405.541	717.88
405.765	633.88
405.988	611.88
406.212	625.88
406.436	630.88
406.66	664.88
406.883	646.88
407.107	647.88
407.331	677.88
407.555	760.88
407.778	747.88
408.002	712.88
408.226	666.88
408.449	642.88
408.673	638.88
408.896	653.88
409.12	708.88
409.344	663.88
409.567	622.88
409.791	622.88
410.014	594.88
410.238	599.88
410.461	603.88
410.685	599.88
410.908	597.88
411.132	639.88
411.355	656.88
411.578	636.88
411.802	606.88
412.025	605.88
412.249	567.88
412.472	641.88
412.695	627.88
412.919	627.88
413.142	586.88
413.365	578.88
413.589	589.88
413.812	562.88
414.035	564.88
414.258	566.88
414.482	571.88
414.705	551.88
414.928	567.88
415.151	553.88
415.374	566.88
415.597	560.88
415.821	576.88
416.044	542.88
416.267	555.88
416.49	546.88
416.713	547.88
416.936	548.88
417.159	538.88
417.382	574.88
417.605	553.88
417.828	562.88
418.051	583.88
418.274	574.88
418.497	547.88
418.72	566.88
418.943	568.88
419.166	594.88
419.389	606.88
419.611	599.88
419.834	593.88
420.057	586.88
420.28	580.88
420.503	572.88
420.726	584.88
420.948	580.88
421.171	633.88
421.394	654.88
421.617	590.88
421.839	570.88
422.062	573.88
422.285	594.88
422.507	638.88
422.73	716.88
422.953	682.88
423.175	625.88
423.398	600.88
423.621	603.88
423.843	614.88
424.066	592.88
424.288	601.88
424.511	636.88
424.733	707.88
424.956	739.88
425.178	714.88
425.401	724.88
425.623	739.88
425.846	652.88
426.068	613.88
426.291	616.88
426.513	599.88
426.735	605.88
426.958	625.88
427.18	714.88
427.402	881.88
427.625	912.88
427.847	819.88
428.069	684.88
428.292	658.88
428.514	593.88
428.736	581.88
428.958	571.88
429.181	565.88
429.403	569.88
429.625	588.88
429.847	616.88
430.069	639.88
430.292	665.88
430.514	583.88
430.736	564.88
430.958	535.88
431.18	540.88
431.402	557.88
431.624	512.88
431.846	516.88
432.068	540.88
432.29	536.88
432.512	527.88
432.734	576.88
432.956	537.88
433.178	553.88
433.4	567.88
433.622	546.88
433.844	538.88
434.066	557.88
434.287	560.88
434.509	554.88
434.731	577.88
434.953	572.88
435.175	576.88
435.397	617.88
435.618	605.88
435.84	653.88
436.062	722.88
436.284	818.88
436.505	670.88
436.727	625.88
436.949	589.88
437.17	576.88
437.392	554.88
437.614	559.88
437.835	590.88
438.057	695.88
438.278	811.88
438.5	804.88
438.721	854.88
438.943	827.88
439.165	661.88
439.386	624.88
439.608	595.88
439.829	610.88
440.05	626.88
440.272	668.88
440.493	608.88
440.715	609.88
440.936	587.88
441.158	579.88
441.379	578.88
441.6	589.88
441.822	620.88
442.043	623.88
442.264	688.88
442.486	766.88
442.707	659.88
442.928	619.88
443.149	637.88
443.371	630.88
443.592	710.88
443.813	768.88
444.034	838.88
444.255	689.88
444.476	643.88
444.698	620.88
444.919	631.88
445.14	715.88
445.361	679.88
445.582	664.88
445.803	716.88
446.024	806.88
446.245	814.88
446.466	746.88
446.687	646.88
446.908	612.88
447.129	574.88
447.35	570.88
447.571	559.88
447.792	558.88
448.013	558.88
448.234	573.88
448.455	607.88
448.675	734.88
448.896	842.88
449.117	706.88
449.338	675.88
449.559	766.88
449.779	879.88
450	706.88
450.221	600.88
450.442	550.88
450.662	528.88
450.883	531.88
451.104	563.88
451.324	550.88
451.545	523.88
451.766	530.88
451.986	523.88
452.207	475.88
452.428	511.88
452.648	508.88
452.869	470.88
453.089	511.88
453.31	525.88
453.53	497.88
453.751	508.88
453.971	502.88
454.192	518.88
454.412	517.88
454.633	486.88
454.853	496.88
455.073	502.88
455.294	551.88
455.514	601.88
455.734	587.88
455.955	494.88
456.175	471.88
456.395	468.88
456.616	490.88
456.836	489.88
457.056	450.88
457.276	460.88
457.497	482.88
457.717	474.88
457.937	496.88
458.157	492.88
458.377	498.88
458.598	531.88
458.818	568.88
459.038	660.88
459.258	642.88
459.478	554.88
459.698	556.88
459.918	548.88
460.138	539.88
460.358	583.88
460.578	538.88
460.798	561.88
461.018	554.88
461.238	579.88
461.458	546.88
461.678	553.88
461.898	566.88
462.118	567.88
462.338	604.88
462.558	603.88
462.777	584.88
462.997	646.88
463.217	663.88
463.437	657.88
463.657	641.88
463.876	610.88
464.096	624.88
464.316	614.88
464.536	630.88
464.755	611.88
464.975	617.88
465.195	648.88
465.414	694.88
465.634	634.88
465.854	596.88
466.073	578.88
466.293	523.88
466.512	530.88
466.732	535.88
466.951	534.88
467.171	499.88
467.391	534.88
467.61	542.88
467.829	545.88
468.049	543.88
468.268	535.88
468.488	516.88
468.707	521.88
468.927	523.88
469.146	506.88
469.365	522.88
469.585	502.88
469.804	518.88
470.023	539.88
470.243	529.88
470.462	525.88
470.681	558.88
470.901	544.88
471.12	528.88
471.339	543.88
471.558	530.88
471.777	544.88
471.997	522.88
472.216	545.88
472.435	571.88
472.654	538.88
472.873	523.88
473.092	507.88
473.311	536.88
473.53	526.88
473.749	523.88
473.968	560.88
474.187	658.88
474.406	664.88
474.625	594.88
474.844	543.88
475.063	537.88
475.282	545.88
475.501	511.88
475.72	543.88
475.939	564.88
476.158	544.88
476.377	546.88
476.596	530.88
476.814	546.88
477.033	548.88
477.252	574.88
477.471	550.88
477.69	562.88
477.908	560.88
478.127	584.88
478.346	579.88
478.564	592.88
478.783	583.88
479.002	607.88
479.22	598.88
479.439	634.88
479.658	628.88
479.876	638.88
480.095	649.88
480.313	681.88
480.532	695.88
480.751	661.88
480.969	656.88
481.188	694.88
481.406	754.88
481.624	662.88
481.843	661.88
482.061	645.88
482.28	642.88
482.498	640.88
482.717	628.88
482.935	609.88
483.153	616.88
483.372	605.88
483.59	616.88
483.808	612.88
484.027	620.88
484.245	611.88
484.463	619.88
484.681	626.88
484.9	615.88
485.118	626.88
485.336	642.88
485.554	636.88
485.772	649.88
485.99	623.88
486.209	627.88
486.427	656.88
486.645	664.88
486.863	641.88
487.081	658.88
487.299	656.88
487.517	663.88
487.735	651.88
487.953	658.88
488.171	654.88
488.389	651.88
488.607	647.88
488.825	648.88
489.043	648.88
489.261	660.88
489.479	653.88
489.696	670.88
489.914	675.88
490.132	663.88
490.35	677.88
490.568	687.88
490.786	709.88
491.003	683.88
491.221	714.88
491.439	716.88
491.657	709.88
491.874	739.88
492.092	730.88
492.31	754.88
492.527	731.88
492.745	746.88
492.963	758.88
493.18	766.88
493.398	754.88
493.615	798.88
493.833	766.88
494.05	766.88
494.268	784.88
494.485	757.88
494.703	775.88
494.92	770.88
495.138	786.88
495.355	784.88
495.573	770.88
495.79	776.88
496.008	774.88
496.225	777.88
496.442	777.88
496.66	804.88
496.877	804.88
497.094	790.88
497.312	784.88
497.529	810.88
497.746	828.88
497.963	830.88
498.181	883.88
498.398	904.88
498.615	867.88
498.832	915.88
499.049	954.88
499.267	980.88
499.484	978.88
499.701	1074.88
499.918	1064.88
500.135	1152.88
500.352	1232.88
500.569	1250.88
500.786	1249.88
501.003	1199.88
501.22	1189.88
501.437	1108.88
501.654	1083.88
501.871	1041.88
