Data from 1979.PennyLincolnUp.Lamp.En5.5.200Scan.071719.P1_HRD10591_16-20-26-863.txt Node
Date: Thu Jul 18 16:20:26 EDT 2019
User: cochatt
Spectrometer: HR+D1059
Trigger mode: 1
Integration Time (sec): 1.000000E-1
Scans to average: 1
Electric dark correction enabled: true
Nonlinearity correction enabled: false
Boxcar width: 0
XAxis mode: Wavelengths
Number of Pixels in Spectrum: 2048
>>>>>Begin Spectral Data<<<<<
223.165	-20.75
223.4	-20.75
223.635	-20.75
223.869	-18.75
224.104	-14.75
224.338	-15.75
224.573	-1.75
224.808	-10.75
225.042	-10.75
225.277	-16.75
225.511	3.25
225.746	-8.75
225.98	14.25
226.215	8.25
226.449	15.25
226.683	12.25
226.918	33.25
227.152	32.25
227.387	27.25
227.621	49.25
227.856	44.25
228.09	40.25
228.324	42.25
228.559	59.25
228.793	51.25
229.027	98.25
229.262	87.25
229.496	103.25
229.73	114.25
229.964	151.25
230.199	115.25
230.433	116.25
230.667	113.25
230.901	113.25
231.136	111.25
231.37	115.25
231.604	92.25
231.838	121.25
232.072	117.25
232.306	128.25
232.541	116.25
232.775	116.25
233.009	110.25
233.243	97.25
233.477	126.25
233.711	128.25
233.945	121.25
234.179	121.25
234.413	123.25
234.647	124.25
234.881	116.25
235.115	129.25
235.349	131.25
235.583	118.25
235.817	127.25
236.051	123.25
236.285	121.25
236.519	123.25
236.753	125.25
236.987	130.25
237.221	168.25
237.455	222.25
237.689	189.25
237.922	143.25
238.156	138.25
238.39	135.25
238.624	125.25
238.858	124.25
239.091	130.25
239.325	132.25
239.559	132.25
239.793	128.25
240.027	139.25
240.26	147.25
240.494	154.25
240.728	161.25
240.961	151.25
241.195	127.25
241.429	141.25
241.662	131.25
241.896	132.25
242.13	128.25
242.363	135.25
242.597	148.25
242.83	139.25
243.064	146.25
243.298	135.25
243.531	139.25
243.765	142.25
243.998	153.25
244.232	143.25
244.465	157.25
244.699	144.25
244.932	152.25
245.166	152.25
245.399	150.25
245.633	147.25
245.866	146.25
246.099	150.25
246.333	148.25
246.566	170.25
246.8	145.25
247.033	137.25
247.266	149.25
247.5	142.25
247.733	167.25
247.966	161.25
248.2	186.25
248.433	165.25
248.666	175.25
248.899	193.25
249.133	198.25
249.366	214.25
249.599	179.25
249.832	189.25
250.066	183.25
250.299	182.25
250.532	196.25
250.765	191.25
250.998	205.25
251.231	195.25
251.465	191.25
251.698	193.25
251.931	203.25
252.164	185.25
252.397	200.25
252.63	208.25
252.863	210.25
253.096	211.25
253.329	222.25
253.562	220.25
253.795	209.25
254.028	197.25
254.261	195.25
254.494	222.25
254.727	244.25
254.96	278.25
255.193	272.25
255.426	243.25
255.659	207.25
255.892	223.25
256.124	223.25
256.357	217.25
256.59	223.25
256.823	192.25
257.056	207.25
257.289	201.25
257.521	225.25
257.754	221.25
257.987	212.25
258.22	210.25
258.452	191.25
258.685	205.25
258.918	206.25
259.151	206.25
259.383	230.25
259.616	214.25
259.849	209.25
260.081	235.25
260.314	256.25
260.547	251.25
260.779	241.25
261.012	226.25
261.244	222.25
261.477	222.25
261.71	208.25
261.942	223.25
262.175	236.25
262.407	233.25
262.64	222.25
262.872	217.25
263.105	203.25
263.337	208.25
263.57	208.25
263.802	206.25
264.035	202.25
264.267	204.25
264.499	197.25
264.732	215.25
264.964	222.25
265.197	198.25
265.429	205.25
265.661	216.25
265.894	223.25
266.126	219.25
266.358	220.25
266.591	227.25
266.823	235.25
267.055	226.25
267.287	231.25
267.52	234.25
267.752	222.25
267.984	219.25
268.216	227.25
268.448	249.25
268.681	232.25
268.913	223.25
269.145	248.25
269.377	273.25
269.609	273.25
269.841	254.25
270.073	268.25
270.306	272.25
270.538	269.25
270.77	307.25
271.002	291.25
271.234	275.25
271.466	284.25
271.698	277.25
271.93	290.25
272.162	302.25
272.394	311.25
272.626	286.25
272.858	255.25
273.09	277.25
273.322	252.25
273.553	262.25
273.785	277.25
274.017	251.25
274.249	246.25
274.481	265.25
274.713	264.25
274.945	267.25
275.176	266.25
275.408	281.25
275.64	275.25
275.872	280.25
276.104	262.25
276.335	261.25
276.567	266.25
276.799	283.25
277.031	286.25
277.262	315.25
277.494	307.25
277.726	290.25
277.957	280.25
278.189	262.25
278.421	269.25
278.652	265.25
278.884	282.25
279.115	274.25
279.347	255.25
279.579	263.25
279.81	259.25
280.042	244.25
280.273	267.25
280.505	263.25
280.736	246.25
280.968	262.25
281.199	269.25
281.431	268.25
281.662	277.25
281.894	277.25
282.125	276.25
282.356	287.25
282.588	311.25
282.819	320.25
283.051	279.25
283.282	267.25
283.513	271.25
283.745	281.25
283.976	263.25
284.207	292.25
284.439	284.25
284.67	291.25
284.901	276.25
285.132	280.25
285.364	268.25
285.595	291.25
285.826	281.25
286.057	292.25
286.288	293.25
286.52	283.25
286.751	283.25
286.982	264.25
287.213	283.25
287.444	277.25
287.675	290.25
287.906	299.25
288.138	299.25
288.369	306.25
288.6	297.25
288.831	295.25
289.062	287.25
289.293	297.25
289.524	299.25
289.755	277.25
289.986	289.25
290.217	301.25
290.448	302.25
290.679	284.25
290.91	277.25
291.141	295.25
291.371	279.25
291.602	282.25
291.833	318.25
292.064	294.25
292.295	294.25
292.526	295.25
292.757	297.25
292.987	308.25
293.218	286.25
293.449	300.25
293.68	303.25
293.91	297.25
294.141	297.25
294.372	309.25
294.603	293.25
294.833	306.25
295.064	307.25
295.295	293.25
295.525	299.25
295.756	316.25
295.987	315.25
296.217	312.25
296.448	329.25
296.679	311.25
296.909	316.25
297.14	295.25
297.37	319.25
297.601	304.25
297.831	315.25
298.062	302.25
298.292	311.25
298.523	318.25
298.753	327.25
298.984	306.25
299.214	300.25
299.445	313.25
299.675	336.25
299.905	330.25
300.136	319.25
300.366	311.25
300.597	323.25
300.827	324.25
301.057	334.25
301.288	321.25
301.518	334.25
301.748	321.25
301.979	341.25
302.209	340.25
302.439	342.25
302.669	333.25
302.9	329.25
303.13	333.25
303.36	348.25
303.59	326.25
303.82	346.25
304.051	336.25
304.281	326.25
304.511	326.25
304.741	319.25
304.971	334.25
305.201	347.25
305.431	334.25
305.661	331.25
305.891	326.25
306.121	328.25
306.352	345.25
306.582	355.25
306.812	342.25
307.042	346.25
307.272	352.25
307.502	334.25
307.731	354.25
307.961	357.25
308.191	333.25
308.421	336.25
308.651	352.25
308.881	351.25
309.111	348.25
309.341	361.25
309.571	353.25
309.8	351.25
310.03	372.25
310.26	372.25
310.49	356.25
310.72	387.25
310.949	389.25
311.179	409.25
311.409	389.25
311.639	385.25
311.868	370.25
312.098	377.25
312.328	383.25
312.557	387.25
312.787	417.25
313.017	425.25
313.246	392.25
313.476	377.25
313.706	393.25
313.935	404.25
314.165	395.25
314.394	403.25
314.624	402.25
314.853	380.25
315.083	389.25
315.312	384.25
315.542	376.25
315.771	367.25
316.001	379.25
316.23	379.25
316.46	405.25
316.689	395.25
316.919	392.25
317.148	388.25
317.377	392.25
317.607	402.25
317.836	385.25
318.065	376.25
318.295	379.25
318.524	414.25
318.753	389.25
318.983	375.25
319.212	386.25
319.441	381.25
319.67	399.25
319.9	391.25
320.129	394.25
320.358	407.25
320.587	383.25
320.816	417.25
321.046	411.25
321.275	413.25
321.504	396.25
321.733	397.25
321.962	416.25
322.191	419.25
322.42	431.25
322.649	459.25
322.878	445.25
323.108	449.25
323.337	482.25
323.566	513.25
323.795	526.25
324.024	558.25
324.253	651.25
324.482	959.25
324.71	1502.25
324.939	2183.25
325.168	1874.25
325.397	926.25
325.626	605.25
325.855	544.25
326.084	510.25
326.313	487.25
326.542	514.25
326.77	539.25
326.999	628.25
327.228	870.25
327.457	1343.25
327.686	1646.25
327.914	1075.25
328.143	683.25
328.372	614.25
328.6	583.25
328.829	552.25
329.058	563.25
329.287	572.25
329.515	529.25
329.744	537.25
329.972	483.25
330.201	529.25
330.43	553.25
330.658	572.25
330.887	596.25
331.115	577.25
331.344	527.25
331.572	488.25
331.801	496.25
332.03	475.25
332.258	469.25
332.486	463.25
332.715	463.25
332.943	476.25
333.172	475.25
333.4	478.25
333.629	493.25
333.857	494.25
334.085	523.25
334.314	518.25
334.542	533.25
334.771	547.25
334.999	540.25
335.227	483.25
335.455	476.25
335.684	477.25
335.912	491.25
336.14	464.25
336.369	471.25
336.597	476.25
336.825	458.25
337.053	464.25
337.281	470.25
337.51	456.25
337.738	453.25
337.966	436.25
338.194	461.25
338.422	464.25
338.65	445.25
338.878	446.25
339.106	462.25
339.334	447.25
339.562	439.25
339.79	456.25
340.018	423.25
340.246	454.25
340.474	462.25
340.702	452.25
340.93	447.25
341.158	437.25
341.386	420.25
341.614	451.25
341.842	450.25
342.07	430.25
342.298	432.25
342.526	455.25
342.754	396.25
342.981	423.25
343.209	423.25
343.437	456.25
343.665	446.25
343.893	463.25
344.12	477.25
344.348	484.25
344.576	468.25
344.804	451.25
345.031	455.25
345.259	473.25
345.487	453.25
345.714	437.25
345.942	455.25
346.17	440.25
346.397	420.25
346.625	419.25
346.853	435.25
347.08	445.25
347.308	426.25
347.535	444.25
347.763	438.25
347.99	418.25
348.218	451.25
348.445	421.25
348.673	427.25
348.9	445.25
349.128	411.25
349.355	408.25
349.583	414.25
349.81	409.25
350.037	427.25
350.265	429.25
350.492	437.25
350.72	409.25
350.947	396.25
351.174	420.25
351.402	447.25
351.629	447.25
351.856	438.25
352.083	429.25
352.311	441.25
352.538	437.25
352.765	448.25
352.992	447.25
353.22	426.25
353.447	430.25
353.674	413.25
353.901	418.25
354.128	412.25
354.355	405.25
354.583	408.25
354.81	421.25
355.037	389.25
355.264	397.25
355.491	397.25
355.718	405.25
355.945	409.25
356.172	400.25
356.399	407.25
356.626	412.25
356.853	390.25
357.08	416.25
357.307	405.25
357.534	399.25
357.761	421.25
357.988	413.25
358.215	416.25
358.441	418.25
358.668	413.25
358.895	419.25
359.122	407.25
359.349	424.25
359.576	423.25
359.802	455.25
360.029	493.25
360.256	486.25
360.483	454.25
360.709	435.25
360.936	438.25
361.163	421.25
361.39	438.25
361.616	435.25
361.843	439.25
362.07	428.25
362.296	424.25
362.523	420.25
362.749	458.25
362.976	436.25
363.203	426.25
363.429	425.25
363.656	424.25
363.882	423.25
364.109	440.25
364.335	423.25
364.562	397.25
364.788	409.25
365.015	438.25
365.241	419.25
365.468	416.25
365.694	426.25
365.92	417.25
366.147	437.25
366.373	429.25
366.599	439.25
366.826	421.25
367.052	415.25
367.278	424.25
367.505	418.25
367.731	440.25
367.957	419.25
368.184	428.25
368.41	428.25
368.636	417.25
368.862	421.25
369.089	435.25
369.315	426.25
369.541	435.25
369.767	426.25
369.993	406.25
370.219	411.25
370.445	425.25
370.672	419.25
370.898	398.25
371.124	435.25
371.35	443.25
371.576	412.25
371.802	441.25
372.028	447.25
372.254	424.25
372.48	429.25
372.706	439.25
372.932	441.25
373.158	449.25
373.384	445.25
373.61	434.25
373.835	414.25
374.061	432.25
374.287	415.25
374.513	455.25
374.739	457.25
374.965	448.25
375.191	452.25
375.416	460.25
375.642	427.25
375.868	424.25
376.094	446.25
376.319	431.25
376.545	423.25
376.771	427.25
376.997	432.25
377.222	441.25
377.448	430.25
377.674	417.25
377.899	420.25
378.125	429.25
378.35	431.25
378.576	426.25
378.802	402.25
379.027	425.25
379.253	437.25
379.478	439.25
379.704	405.25
379.929	420.25
380.155	426.25
380.38	425.25
380.606	440.25
380.831	419.25
381.057	445.25
381.282	436.25
381.507	413.25
381.733	428.25
381.958	447.25
382.184	446.25
382.409	443.25
382.634	455.25
382.86	444.25
383.085	432.25
383.31	438.25
383.535	471.25
383.761	454.25
383.986	445.25
384.211	443.25
384.436	462.25
384.662	479.25
384.887	477.25
385.112	453.25
385.337	477.25
385.562	455.25
385.787	483.25
386.013	493.25
386.238	491.25
386.463	487.25
386.688	489.25
386.913	472.25
387.138	487.25
387.363	466.25
387.588	481.25
387.813	485.25
388.038	461.25
388.263	471.25
388.488	483.25
388.713	471.25
388.938	491.25
389.163	490.25
389.387	493.25
389.612	474.25
389.837	492.25
390.062	491.25
390.287	483.25
390.512	484.25
390.736	475.25
390.961	483.25
391.186	454.25
391.411	492.25
391.636	493.25
391.86	522.25
392.085	507.25
392.31	499.25
392.534	496.25
392.759	500.25
392.984	506.25
393.208	487.25
393.433	507.25
393.658	499.25
393.882	484.25
394.107	494.25
394.331	480.25
394.556	499.25
394.78	480.25
395.005	488.25
395.229	496.25
395.454	516.25
395.678	507.25
395.903	523.25
396.127	542.25
396.352	529.25
396.576	529.25
396.801	506.25
397.025	533.25
397.249	497.25
397.474	517.25
397.698	541.25
397.922	555.25
398.147	548.25
398.371	549.25
398.595	552.25
398.82	567.25
399.044	585.25
399.268	605.25
399.492	629.25
399.717	647.25
399.941	701.25
400.165	723.25
400.389	703.25
400.613	660.25
400.837	610.25
401.062	585.25
401.286	600.25
401.51	587.25
401.734	560.25
401.958	572.25
402.182	589.25
402.406	581.25
402.63	598.25
402.854	587.25
403.078	595.25
403.302	611.25
403.526	621.25
403.75	590.25
403.974	571.25
404.198	575.25
404.422	612.25
404.645	603.25
404.869	607.25
405.093	650.25
405.317	691.25
405.541	715.25
405.765	651.25
405.988	632.25
406.212	634.25
406.436	669.25
406.66	676.25
406.883	645.25
407.107	674.25
407.331	720.25
407.555	788.25
407.778	774.25
408.002	719.25
408.226	688.25
408.449	671.25
408.673	648.25
408.896	675.25
409.12	734.25
409.344	668.25
409.567	640.25
409.791	608.25
410.014	618.25
410.238	599.25
410.461	602.25
410.685	612.25
410.908	623.25
411.132	651.25
411.355	696.25
411.578	657.25
411.802	623.25
412.025	587.25
412.249	615.25
412.472	640.25
412.695	671.25
412.919	650.25
413.142	622.25
413.365	588.25
413.589	598.25
413.812	575.25
414.035	550.25
414.258	569.25
414.482	565.25
414.705	576.25
414.928	588.25
415.151	556.25
415.374	582.25
415.597	563.25
415.821	588.25
416.044	567.25
416.267	572.25
416.49	565.25
416.713	557.25
416.936	555.25
417.159	580.25
417.382	567.25
417.605	584.25
417.828	603.25
418.051	613.25
418.274	597.25
418.497	548.25
418.72	566.25
418.943	565.25
419.166	575.25
419.389	616.25
419.611	622.25
419.834	628.25
420.057	587.25
420.28	603.25
420.503	588.25
420.726	587.25
420.948	608.25
421.171	638.25
421.394	685.25
421.617	615.25
421.839	600.25
422.062	591.25
422.285	599.25
422.507	650.25
422.73	731.25
422.953	697.25
423.175	627.25
423.398	605.25
423.621	618.25
423.843	616.25
424.066	632.25
424.288	627.25
424.511	665.25
424.733	721.25
424.956	797.25
425.178	749.25
425.401	732.25
425.623	784.25
425.846	679.25
426.068	631.25
426.291	606.25
426.513	613.25
426.735	619.25
426.958	677.25
427.18	791.25
427.402	879.25
427.625	1006.25
427.847	856.25
428.069	740.25
428.292	668.25
428.514	615.25
428.736	585.25
428.958	607.25
429.181	588.25
429.403	573.25
429.625	596.25
429.847	600.25
430.069	689.25
430.292	697.25
430.514	581.25
430.736	595.25
430.958	555.25
431.18	553.25
431.402	535.25
431.624	545.25
431.846	536.25
432.068	568.25
432.29	561.25
432.512	544.25
432.734	558.25
432.956	570.25
433.178	575.25
433.4	556.25
433.622	573.25
433.844	537.25
434.066	556.25
434.287	542.25
434.509	601.25
434.731	589.25
434.953	587.25
435.175	615.25
435.397	616.25
435.618	615.25
435.84	698.25
436.062	759.25
436.284	857.25
436.505	718.25
436.727	621.25
436.949	606.25
437.17	587.25
437.392	581.25
437.614	596.25
437.835	636.25
438.057	724.25
438.278	822.25
438.5	829.25
438.721	888.25
438.943	877.25
439.165	702.25
439.386	624.25
439.608	639.25
439.829	624.25
440.05	648.25
440.272	683.25
440.493	652.25
440.715	620.25
440.936	609.25
441.158	593.25
441.379	596.25
441.6	618.25
441.822	637.25
442.043	675.25
442.264	747.25
442.486	787.25
442.707	717.25
442.928	634.25
443.149	645.25
443.371	680.25
443.592	704.25
443.813	789.25
444.034	908.25
444.255	743.25
444.476	665.25
444.698	662.25
444.919	652.25
445.14	723.25
445.361	693.25
445.582	663.25
445.803	732.25
446.024	827.25
446.245	845.25
446.466	753.25
446.687	679.25
446.908	632.25
447.129	583.25
447.35	575.25
447.571	578.25
447.792	568.25
448.013	555.25
448.234	587.25
448.455	640.25
448.675	746.25
448.896	893.25
449.117	731.25
449.338	699.25
449.559	807.25
449.779	919.25
450	742.25
450.221	603.25
450.442	602.25
450.662	551.25
450.883	555.25
451.104	567.25
451.324	577.25
451.545	561.25
451.766	549.25
451.986	509.25
452.207	535.25
452.428	501.25
452.648	527.25
452.869	522.25
453.089	517.25
453.31	526.25
453.53	535.25
453.751	534.25
453.971	528.25
454.192	537.25
454.412	499.25
454.633	499.25
454.853	514.25
455.073	500.25
455.294	533.25
455.514	600.25
455.734	600.25
455.955	528.25
456.175	490.25
456.395	489.25
456.616	492.25
456.836	495.25
457.056	478.25
457.276	466.25
457.497	478.25
457.717	474.25
457.937	519.25
458.157	512.25
458.377	532.25
458.598	528.25
458.818	589.25
459.038	647.25
459.258	681.25
459.478	604.25
459.698	593.25
459.918	573.25
460.138	567.25
460.358	576.25
460.578	586.25
460.798	558.25
461.018	614.25
461.238	568.25
461.458	575.25
461.678	580.25
461.898	578.25
462.118	569.25
462.338	625.25
462.558	607.25
462.777	615.25
462.997	641.25
463.217	618.25
463.437	649.25
463.657	640.25
463.876	612.25
464.096	613.25
464.316	624.25
464.536	622.25
464.755	631.25
464.975	633.25
465.195	642.25
465.414	736.25
465.634	643.25
465.854	612.25
466.073	589.25
466.293	556.25
466.512	550.25
466.732	541.25
466.951	540.25
467.171	529.25
467.391	539.25
467.61	552.25
467.829	542.25
468.049	531.25
468.268	541.25
468.488	553.25
468.707	536.25
468.927	566.25
469.146	511.25
469.365	540.25
469.585	523.25
469.804	555.25
470.023	541.25
470.243	555.25
470.462	549.25
470.681	559.25
470.901	571.25
471.12	551.25
471.339	541.25
471.558	541.25
471.777	568.25
471.997	539.25
472.216	542.25
472.435	577.25
472.654	561.25
472.873	537.25
473.092	549.25
473.311	527.25
473.53	517.25
473.749	559.25
473.968	596.25
474.187	686.25
474.406	699.25
474.625	572.25
474.844	562.25
475.063	548.25
475.282	547.25
475.501	527.25
475.72	561.25
475.939	551.25
476.158	558.25
476.377	563.25
476.596	560.25
476.814	589.25
477.033	550.25
477.252	598.25
477.471	580.25
477.69	571.25
477.908	597.25
478.127	635.25
478.346	603.25
478.564	586.25
478.783	591.25
479.002	621.25
479.22	637.25
479.439	649.25
479.658	644.25
479.876	653.25
480.095	639.25
480.313	688.25
480.532	680.25
480.751	664.25
480.969	649.25
481.188	747.25
481.406	779.25
481.624	671.25
481.843	647.25
482.061	631.25
482.28	621.25
482.498	639.25
482.717	629.25
482.935	643.25
483.153	658.25
483.372	622.25
483.59	659.25
483.808	606.25
484.027	651.25
484.245	655.25
484.463	634.25
484.681	642.25
484.9	652.25
485.118	644.25
485.336	669.25
485.554	647.25
485.772	647.25
485.99	667.25
486.209	663.25
486.427	677.25
486.645	680.25
486.863	676.25
487.081	680.25
487.299	669.25
487.517	677.25
487.735	671.25
487.953	681.25
488.171	669.25
488.389	679.25
488.607	675.25
488.825	699.25
489.043	684.25
489.261	697.25
489.479	677.25
489.696	704.25
489.914	674.25
490.132	700.25
490.35	713.25
490.568	702.25
490.786	718.25
491.003	725.25
491.221	744.25
491.439	804.25
491.657	769.25
491.874	745.25
492.092	767.25
492.31	779.25
492.527	783.25
492.745	802.25
492.963	792.25
493.18	807.25
493.398	802.25
493.615	801.25
493.833	806.25
494.05	791.25
494.268	803.25
494.485	777.25
494.703	797.25
494.92	809.25
495.138	806.25
495.355	813.25
495.573	792.25
495.79	789.25
496.008	826.25
496.225	822.25
496.442	840.25
496.66	801.25
496.877	807.25
497.094	835.25
497.312	824.25
497.529	841.25
497.746	847.25
497.963	878.25
498.181	893.25
498.398	909.25
498.615	916.25
498.832	933.25
499.049	943.25
499.267	1012.25
499.484	1030.25
499.701	1065.25
499.918	1114.25
500.135	1182.25
500.352	1238.25
500.569	1258.25
500.786	1257.25
501.003	1241.25
501.22	1196.25
501.437	1115.25
501.654	1116.25
501.871	1067.25
