Data from 1979.PennyLincolnUp.Lamp.En5.5.200Scan.071719.P1_HRD10591_16-20-13-863.txt Node
Date: Thu Jul 18 16:20:13 EDT 2019
User: cochatt
Spectrometer: HR+D1059
Trigger mode: 1
Integration Time (sec): 1.000000E-1
Scans to average: 1
Electric dark correction enabled: true
Nonlinearity correction enabled: false
Boxcar width: 0
XAxis mode: Wavelengths
Number of Pixels in Spectrum: 2048
>>>>>Begin Spectral Data<<<<<
223.165	-15.81
223.4	-15.81
223.635	-15.81
223.869	-15.81
224.104	-11.81
224.338	-31.81
224.573	-1.81
224.808	-8.81
225.042	-6.81
225.277	-6.81
225.511	-1.81
225.746	-2.81
225.98	11.19
226.215	6.19
226.449	8.19
226.683	36.19
226.918	18.19
227.152	24.19
227.387	27.19
227.621	17.19
227.856	34.19
228.09	48.19
228.324	57.19
228.559	61.19
228.793	63.19
229.027	100.19
229.262	105.19
229.496	104.19
229.73	124.19
229.964	152.19
230.199	113.19
230.433	124.19
230.667	107.19
230.901	122.19
231.136	110.19
231.37	115.19
231.604	106.19
231.838	103.19
232.072	110.19
232.306	109.19
232.541	108.19
232.775	119.19
233.009	112.19
233.243	109.19
233.477	121.19
233.711	117.19
233.945	123.19
234.179	112.19
234.413	123.19
234.647	115.19
234.881	126.19
235.115	122.19
235.349	123.19
235.583	118.19
235.817	120.19
236.051	134.19
236.285	116.19
236.519	122.19
236.753	126.19
236.987	138.19
237.221	177.19
237.455	229.19
237.689	170.19
237.922	138.19
238.156	139.19
238.39	106.19
238.624	111.19
238.858	140.19
239.091	128.19
239.325	127.19
239.559	123.19
239.793	123.19
240.027	129.19
240.26	136.19
240.494	142.19
240.728	149.19
240.961	150.19
241.195	128.19
241.429	132.19
241.662	126.19
241.896	140.19
242.13	138.19
242.363	136.19
242.597	131.19
242.83	125.19
243.064	142.19
243.298	138.19
243.531	153.19
243.765	118.19
243.998	136.19
244.232	132.19
244.465	155.19
244.699	139.19
244.932	132.19
245.166	146.19
245.399	154.19
245.633	137.19
245.866	137.19
246.099	143.19
246.333	136.19
246.566	137.19
246.8	146.19
247.033	146.19
247.266	167.19
247.5	155.19
247.733	167.19
247.966	157.19
248.2	174.19
248.433	176.19
248.666	177.19
248.899	172.19
249.133	199.19
249.366	204.19
249.599	184.19
249.832	192.19
250.066	186.19
250.299	152.19
250.532	189.19
250.765	186.19
250.998	211.19
251.231	196.19
251.465	197.19
251.698	194.19
251.931	178.19
252.164	192.19
252.397	182.19
252.63	197.19
252.863	200.19
253.096	209.19
253.329	218.19
253.562	214.19
253.795	205.19
254.028	213.19
254.261	207.19
254.494	212.19
254.727	224.19
254.96	269.19
255.193	250.19
255.426	237.19
255.659	221.19
255.892	235.19
256.124	235.19
256.357	229.19
256.59	216.19
256.823	219.19
257.056	194.19
257.289	195.19
257.521	216.19
257.754	214.19
257.987	206.19
258.22	206.19
258.452	191.19
258.685	204.19
258.918	202.19
259.151	208.19
259.383	216.19
259.616	218.19
259.849	225.19
260.081	220.19
260.314	254.19
260.547	247.19
260.779	241.19
261.012	224.19
261.244	221.19
261.477	215.19
261.71	218.19
261.942	213.19
262.175	236.19
262.407	240.19
262.64	210.19
262.872	197.19
263.105	209.19
263.337	237.19
263.57	213.19
263.802	199.19
264.035	209.19
264.267	197.19
264.499	217.19
264.732	213.19
264.964	206.19
265.197	207.19
265.429	214.19
265.661	200.19
265.894	221.19
266.126	229.19
266.358	226.19
266.591	226.19
266.823	217.19
267.055	232.19
267.287	229.19
267.52	212.19
267.752	222.19
267.984	203.19
268.216	210.19
268.448	228.19
268.681	230.19
268.913	226.19
269.145	227.19
269.377	280.19
269.609	243.19
269.841	253.19
270.073	260.19
270.306	290.19
270.538	294.19
270.77	286.19
271.002	285.19
271.234	291.19
271.466	283.19
271.698	268.19
271.93	299.19
272.162	297.19
272.394	304.19
272.626	292.19
272.858	282.19
273.09	261.19
273.322	256.19
273.553	253.19
273.785	250.19
274.017	254.19
274.249	248.19
274.481	254.19
274.713	264.19
274.945	280.19
275.176	261.19
275.408	256.19
275.64	263.19
275.872	245.19
276.104	262.19
276.335	262.19
276.567	271.19
276.799	261.19
277.031	296.19
277.262	309.19
277.494	290.19
277.726	286.19
277.957	284.19
278.189	274.19
278.421	263.19
278.652	272.19
278.884	276.19
279.115	262.19
279.347	267.19
279.579	266.19
279.81	265.19
280.042	264.19
280.273	268.19
280.505	241.19
280.736	270.19
280.968	277.19
281.199	262.19
281.431	272.19
281.662	273.19
281.894	254.19
282.125	260.19
282.356	250.19
282.588	293.19
282.819	319.19
283.051	284.19
283.282	262.19
283.513	269.19
283.745	296.19
283.976	302.19
284.207	280.19
284.439	295.19
284.67	277.19
284.901	292.19
285.132	267.19
285.364	272.19
285.595	269.19
285.826	276.19
286.057	272.19
286.288	291.19
286.52	288.19
286.751	291.19
286.982	290.19
287.213	282.19
287.444	284.19
287.675	282.19
287.906	284.19
288.138	302.19
288.369	279.19
288.6	307.19
288.831	287.19
289.062	296.19
289.293	291.19
289.524	287.19
289.755	283.19
289.986	278.19
290.217	273.19
290.448	291.19
290.679	286.19
290.91	297.19
291.141	285.19
291.371	293.19
291.602	285.19
291.833	293.19
292.064	293.19
292.295	288.19
292.526	281.19
292.757	286.19
292.987	264.19
293.218	299.19
293.449	290.19
293.68	290.19
293.91	286.19
294.141	283.19
294.372	293.19
294.603	286.19
294.833	298.19
295.064	307.19
295.295	292.19
295.525	280.19
295.756	296.19
295.987	295.19
296.217	331.19
296.448	325.19
296.679	299.19
296.909	306.19
297.14	314.19
297.37	325.19
297.601	309.19
297.831	307.19
298.062	316.19
298.292	300.19
298.523	305.19
298.753	322.19
298.984	285.19
299.214	313.19
299.445	323.19
299.675	312.19
299.905	308.19
300.136	320.19
300.366	311.19
300.597	322.19
300.827	318.19
301.057	318.19
301.288	320.19
301.518	351.19
301.748	327.19
301.979	347.19
302.209	342.19
302.439	315.19
302.669	325.19
302.9	326.19
303.13	350.19
303.36	324.19
303.59	332.19
303.82	325.19
304.051	341.19
304.281	340.19
304.511	329.19
304.741	316.19
304.971	330.19
305.201	354.19
305.431	337.19
305.661	321.19
305.891	343.19
306.121	328.19
306.352	336.19
306.582	334.19
306.812	326.19
307.042	328.19
307.272	346.19
307.502	323.19
307.731	330.19
307.961	331.19
308.191	337.19
308.421	336.19
308.651	337.19
308.881	340.19
309.111	325.19
309.341	356.19
309.571	368.19
309.8	365.19
310.03	345.19
310.26	356.19
310.49	380.19
310.72	380.19
310.949	378.19
311.179	394.19
311.409	379.19
311.639	357.19
311.868	378.19
312.098	369.19
312.328	376.19
312.557	406.19
312.787	388.19
313.017	422.19
313.246	393.19
313.476	382.19
313.706	381.19
313.935	376.19
314.165	381.19
314.394	409.19
314.624	395.19
314.853	380.19
315.083	381.19
315.312	385.19
315.542	386.19
315.771	376.19
316.001	398.19
316.23	376.19
316.46	369.19
316.689	376.19
316.919	377.19
317.148	388.19
317.377	380.19
317.607	375.19
317.836	379.19
318.065	387.19
318.295	382.19
318.524	374.19
318.753	390.19
318.983	378.19
319.212	375.19
319.441	406.19
319.67	416.19
319.9	386.19
320.129	404.19
320.358	384.19
320.587	390.19
320.816	406.19
321.046	386.19
321.275	396.19
321.504	402.19
321.733	425.19
321.962	403.19
322.191	406.19
322.42	434.19
322.649	432.19
322.878	434.19
323.108	432.19
323.337	469.19
323.566	491.19
323.795	525.19
324.024	524.19
324.253	653.19
324.482	909.19
324.71	1457.19
324.939	2160.19
325.168	1861.19
325.397	896.19
325.626	628.19
325.855	528.19
326.084	504.19
326.313	504.19
326.542	498.19
326.77	556.19
326.999	637.19
327.228	880.19
327.457	1308.19
327.686	1618.19
327.914	1041.19
328.143	702.19
328.372	604.19
328.6	577.19
328.829	546.19
329.058	549.19
329.287	569.19
329.515	560.19
329.744	487.19
329.972	496.19
330.201	534.19
330.43	537.19
330.658	591.19
330.887	610.19
331.115	578.19
331.344	492.19
331.572	480.19
331.801	501.19
332.03	510.19
332.258	490.19
332.486	469.19
332.715	461.19
332.943	490.19
333.172	488.19
333.4	487.19
333.629	482.19
333.857	492.19
334.085	528.19
334.314	516.19
334.542	548.19
334.771	574.19
334.999	505.19
335.227	493.19
335.455	484.19
335.684	469.19
335.912	460.19
336.14	456.19
336.369	448.19
336.597	478.19
336.825	472.19
337.053	470.19
337.281	438.19
337.51	462.19
337.738	452.19
337.966	420.19
338.194	448.19
338.422	447.19
338.65	447.19
338.878	426.19
339.106	438.19
339.334	450.19
339.562	429.19
339.79	436.19
340.018	464.19
340.246	433.19
340.474	436.19
340.702	451.19
340.93	436.19
341.158	413.19
341.386	441.19
341.614	457.19
341.842	436.19
342.07	432.19
342.298	418.19
342.526	425.19
342.754	429.19
342.981	424.19
343.209	417.19
343.437	433.19
343.665	446.19
343.893	461.19
344.12	484.19
344.348	442.19
344.576	466.19
344.804	454.19
345.031	476.19
345.259	480.19
345.487	446.19
345.714	440.19
345.942	450.19
346.17	425.19
346.397	424.19
346.625	442.19
346.853	440.19
347.08	405.19
347.308	433.19
347.535	435.19
347.763	416.19
347.99	423.19
348.218	408.19
348.445	436.19
348.673	440.19
348.9	449.19
349.128	441.19
349.355	417.19
349.583	404.19
349.81	405.19
350.037	436.19
350.265	396.19
350.492	429.19
350.72	437.19
350.947	402.19
351.174	420.19
351.402	453.19
351.629	419.19
351.856	446.19
352.083	453.19
352.311	440.19
352.538	443.19
352.765	442.19
352.992	444.19
353.22	423.19
353.447	439.19
353.674	433.19
353.901	436.19
354.128	409.19
354.355	414.19
354.583	402.19
354.81	397.19
355.037	440.19
355.264	394.19
355.491	402.19
355.718	417.19
355.945	376.19
356.172	387.19
356.399	399.19
356.626	405.19
356.853	401.19
357.08	390.19
357.307	401.19
357.534	418.19
357.761	415.19
357.988	420.19
358.215	405.19
358.441	403.19
358.668	407.19
358.895	420.19
359.122	424.19
359.349	419.19
359.576	431.19
359.802	439.19
360.029	462.19
360.256	480.19
360.483	463.19
360.709	443.19
360.936	448.19
361.163	441.19
361.39	430.19
361.616	455.19
361.843	422.19
362.07	418.19
362.296	433.19
362.523	424.19
362.749	425.19
362.976	435.19
363.203	428.19
363.429	416.19
363.656	424.19
363.882	402.19
364.109	444.19
364.335	425.19
364.562	404.19
364.788	397.19
365.015	404.19
365.241	406.19
365.468	409.19
365.694	440.19
365.92	425.19
366.147	409.19
366.373	427.19
366.599	413.19
366.826	407.19
367.052	417.19
367.278	392.19
367.505	417.19
367.731	436.19
367.957	418.19
368.184	414.19
368.41	429.19
368.636	432.19
368.862	442.19
369.089	429.19
369.315	415.19
369.541	414.19
369.767	432.19
369.993	413.19
370.219	436.19
370.445	427.19
370.672	398.19
370.898	423.19
371.124	427.19
371.35	421.19
371.576	423.19
371.802	428.19
372.028	402.19
372.254	426.19
372.48	425.19
372.706	425.19
372.932	401.19
373.158	423.19
373.384	408.19
373.61	429.19
373.835	431.19
374.061	445.19
374.287	428.19
374.513	450.19
374.739	422.19
374.965	446.19
375.191	412.19
375.416	442.19
375.642	431.19
375.868	433.19
376.094	439.19
376.319	449.19
376.545	440.19
376.771	419.19
376.997	434.19
377.222	442.19
377.448	434.19
377.674	428.19
377.899	412.19
378.125	404.19
378.35	438.19
378.576	415.19
378.802	436.19
379.027	416.19
379.253	414.19
379.478	427.19
379.704	421.19
379.929	437.19
380.155	424.19
380.38	411.19
380.606	430.19
380.831	438.19
381.057	434.19
381.282	422.19
381.507	416.19
381.733	432.19
381.958	425.19
382.184	440.19
382.409	421.19
382.634	439.19
382.86	463.19
383.085	444.19
383.31	441.19
383.535	453.19
383.761	444.19
383.986	439.19
384.211	465.19
384.436	456.19
384.662	456.19
384.887	450.19
385.112	466.19
385.337	474.19
385.562	477.19
385.787	468.19
386.013	496.19
386.238	482.19
386.463	489.19
386.688	490.19
386.913	496.19
387.138	460.19
387.363	469.19
387.588	465.19
387.813	446.19
388.038	476.19
388.263	488.19
388.488	472.19
388.713	478.19
388.938	499.19
389.163	508.19
389.387	482.19
389.612	489.19
389.837	470.19
390.062	477.19
390.287	474.19
390.512	489.19
390.736	492.19
390.961	480.19
391.186	491.19
391.411	475.19
391.636	498.19
391.86	483.19
392.085	527.19
392.31	512.19
392.534	501.19
392.759	494.19
392.984	505.19
393.208	500.19
393.433	470.19
393.658	501.19
393.882	492.19
394.107	504.19
394.331	485.19
394.556	484.19
394.78	490.19
395.005	485.19
395.229	488.19
395.454	523.19
395.678	514.19
395.903	500.19
396.127	528.19
396.352	533.19
396.576	505.19
396.801	530.19
397.025	523.19
397.249	533.19
397.474	494.19
397.698	524.19
397.922	532.19
398.147	554.19
398.371	537.19
398.595	557.19
398.82	550.19
399.044	568.19
399.268	600.19
399.492	629.19
399.717	654.19
399.941	694.19
400.165	706.19
400.389	723.19
400.613	634.19
400.837	612.19
401.062	593.19
401.286	593.19
401.51	581.19
401.734	580.19
401.958	549.19
402.182	591.19
402.406	598.19
402.63	596.19
402.854	585.19
403.078	574.19
403.302	612.19
403.526	629.19
403.75	594.19
403.974	592.19
404.198	603.19
404.422	622.19
404.645	615.19
404.869	636.19
405.093	654.19
405.317	650.19
405.541	724.19
405.765	668.19
405.988	635.19
406.212	624.19
406.436	644.19
406.66	681.19
406.883	658.19
407.107	658.19
407.331	698.19
407.555	779.19
407.778	798.19
408.002	736.19
408.226	703.19
408.449	651.19
408.673	642.19
408.896	675.19
409.12	736.19
409.344	686.19
409.567	606.19
409.791	615.19
410.014	604.19
410.238	604.19
410.461	612.19
410.685	611.19
410.908	616.19
411.132	635.19
411.355	668.19
411.578	657.19
411.802	611.19
412.025	608.19
412.249	597.19
412.472	643.19
412.695	664.19
412.919	641.19
413.142	618.19
413.365	610.19
413.589	587.19
413.812	570.19
414.035	577.19
414.258	544.19
414.482	560.19
414.705	575.19
414.928	580.19
415.151	565.19
415.374	551.19
415.597	563.19
415.821	566.19
416.044	563.19
416.267	572.19
416.49	556.19
416.713	574.19
416.936	576.19
417.159	581.19
417.382	563.19
417.605	572.19
417.828	597.19
418.051	591.19
418.274	610.19
418.497	585.19
418.72	568.19
418.943	572.19
419.166	613.19
419.389	628.19
419.611	642.19
419.834	617.19
420.057	604.19
420.28	606.19
420.503	609.19
420.726	585.19
420.948	624.19
421.171	638.19
421.394	648.19
421.617	599.19
421.839	570.19
422.062	610.19
422.285	588.19
422.507	683.19
422.73	714.19
422.953	731.19
423.175	633.19
423.398	605.19
423.621	605.19
423.843	625.19
424.066	626.19
424.288	614.19
424.511	640.19
424.733	716.19
424.956	782.19
425.178	767.19
425.401	744.19
425.623	797.19
425.846	668.19
426.068	640.19
426.291	640.19
426.513	631.19
426.735	644.19
426.958	651.19
427.18	740.19
427.402	856.19
427.625	973.19
427.847	866.19
428.069	719.19
428.292	647.19
428.514	619.19
428.736	602.19
428.958	584.19
429.181	590.19
429.403	585.19
429.625	576.19
429.847	613.19
430.069	670.19
430.292	670.19
430.514	602.19
430.736	579.19
430.958	574.19
431.18	562.19
431.402	563.19
431.624	562.19
431.846	557.19
432.068	554.19
432.29	557.19
432.512	569.19
432.734	580.19
432.956	545.19
433.178	574.19
433.4	575.19
433.622	566.19
433.844	573.19
434.066	570.19
434.287	577.19
434.509	582.19
434.731	580.19
434.953	591.19
435.175	576.19
435.397	634.19
435.618	604.19
435.84	610.19
436.062	736.19
436.284	832.19
436.505	676.19
436.727	641.19
436.949	622.19
437.17	570.19
437.392	574.19
437.614	597.19
437.835	610.19
438.057	694.19
438.278	819.19
438.5	808.19
438.721	884.19
438.943	853.19
439.165	673.19
439.386	634.19
439.608	612.19
439.829	612.19
440.05	659.19
440.272	700.19
440.493	651.19
440.715	611.19
440.936	585.19
441.158	571.19
441.379	596.19
441.6	612.19
441.822	639.19
442.043	660.19
442.264	731.19
442.486	780.19
442.707	666.19
442.928	641.19
443.149	651.19
443.371	676.19
443.592	692.19
443.813	816.19
444.034	872.19
444.255	714.19
444.476	664.19
444.698	619.19
444.919	656.19
445.14	716.19
445.361	679.19
445.582	677.19
445.803	744.19
446.024	829.19
446.245	845.19
446.466	751.19
446.687	665.19
446.908	640.19
447.129	578.19
447.35	576.19
447.571	582.19
447.792	560.19
448.013	542.19
448.234	600.19
448.455	634.19
448.675	759.19
448.896	865.19
449.117	729.19
449.338	680.19
449.559	776.19
449.779	909.19
450	726.19
450.221	600.19
450.442	582.19
450.662	566.19
450.883	578.19
451.104	584.19
451.324	568.19
451.545	532.19
451.766	538.19
451.986	525.19
452.207	508.19
452.428	524.19
452.648	523.19
452.869	500.19
453.089	534.19
453.31	540.19
453.53	517.19
453.751	498.19
453.971	540.19
454.192	551.19
454.412	520.19
454.633	518.19
454.853	493.19
455.073	480.19
455.294	536.19
455.514	594.19
455.734	587.19
455.955	512.19
456.175	497.19
456.395	484.19
456.616	518.19
456.836	492.19
457.056	488.19
457.276	487.19
457.497	518.19
457.717	477.19
457.937	514.19
458.157	504.19
458.377	500.19
458.598	503.19
458.818	596.19
459.038	653.19
459.258	674.19
459.478	608.19
459.698	551.19
459.918	567.19
460.138	573.19
460.358	590.19
460.578	597.19
460.798	574.19
461.018	588.19
461.238	588.19
461.458	584.19
461.678	601.19
461.898	583.19
462.118	582.19
462.338	602.19
462.558	598.19
462.777	611.19
462.997	630.19
463.217	653.19
463.437	660.19
463.657	635.19
463.876	630.19
464.096	648.19
464.316	625.19
464.536	658.19
464.755	613.19
464.975	643.19
465.195	647.19
465.414	709.19
465.634	655.19
465.854	611.19
466.073	570.19
466.293	560.19
466.512	556.19
466.732	552.19
466.951	541.19
467.171	550.19
467.391	533.19
467.61	542.19
467.829	560.19
468.049	530.19
468.268	570.19
468.488	537.19
468.707	520.19
468.927	517.19
469.146	510.19
469.365	522.19
469.585	514.19
469.804	540.19
470.023	543.19
470.243	541.19
470.462	548.19
470.681	560.19
470.901	565.19
471.12	530.19
471.339	536.19
471.558	548.19
471.777	541.19
471.997	545.19
472.216	560.19
472.435	562.19
472.654	543.19
472.873	543.19
473.092	531.19
473.311	542.19
473.53	525.19
473.749	532.19
473.968	578.19
474.187	657.19
474.406	710.19
474.625	586.19
474.844	551.19
475.063	556.19
475.282	540.19
475.501	542.19
475.72	569.19
475.939	557.19
476.158	524.19
476.377	569.19
476.596	552.19
476.814	584.19
477.033	574.19
477.252	581.19
477.471	570.19
477.69	588.19
477.908	584.19
478.127	593.19
478.346	600.19
478.564	624.19
478.783	627.19
479.002	635.19
479.22	633.19
479.439	638.19
479.658	658.19
479.876	654.19
480.095	664.19
480.313	675.19
480.532	679.19
480.751	679.19
480.969	685.19
481.188	724.19
481.406	745.19
481.624	702.19
481.843	661.19
482.061	644.19
482.28	625.19
482.498	646.19
482.717	639.19
482.935	650.19
483.153	639.19
483.372	627.19
483.59	663.19
483.808	630.19
484.027	625.19
484.245	647.19
484.463	634.19
484.681	651.19
484.9	636.19
485.118	639.19
485.336	649.19
485.554	674.19
485.772	648.19
485.99	675.19
486.209	658.19
486.427	674.19
486.645	680.19
486.863	690.19
487.081	681.19
487.299	692.19
487.517	676.19
487.735	652.19
487.953	670.19
488.171	693.19
488.389	691.19
488.607	682.19
488.825	681.19
489.043	704.19
489.261	686.19
489.479	664.19
489.696	680.19
489.914	705.19
490.132	692.19
490.35	716.19
490.568	713.19
490.786	737.19
491.003	750.19
491.221	736.19
491.439	739.19
491.657	756.19
491.874	758.19
492.092	753.19
492.31	768.19
492.527	808.19
492.745	782.19
492.963	792.19
493.18	797.19
493.398	793.19
493.615	805.19
493.833	801.19
494.05	772.19
494.268	795.19
494.485	769.19
494.703	792.19
494.92	773.19
495.138	804.19
495.355	784.19
495.573	791.19
495.79	790.19
496.008	807.19
496.225	779.19
496.442	813.19
496.66	795.19
496.877	810.19
497.094	832.19
497.312	844.19
497.529	845.19
497.746	828.19
497.963	866.19
498.181	885.19
498.398	900.19
498.615	905.19
498.832	939.19
499.049	988.19
499.267	984.19
499.484	1022.19
499.701	1093.19
499.918	1120.19
500.135	1150.19
500.352	1246.19
500.569	1261.19
500.786	1277.19
501.003	1243.19
501.22	1202.19
501.437	1130.19
501.654	1087.19
501.871	1093.19
