Data from 1979.PennyLincolnUp.Lamp.En5.5.200Scan.071719.P1_HRD10591_16-20-33-863.txt Node
Date: Thu Jul 18 16:20:33 EDT 2019
User: cochatt
Spectrometer: HR+D1059
Trigger mode: 1
Integration Time (sec): 1.000000E-1
Scans to average: 1
Electric dark correction enabled: true
Nonlinearity correction enabled: false
Boxcar width: 0
XAxis mode: Wavelengths
Number of Pixels in Spectrum: 2048
>>>>>Begin Spectral Data<<<<<
223.165	-12.88
223.4	-12.88
223.635	-12.88
223.869	-24.88
224.104	-28.88
224.338	-15.88
224.573	-12.88
224.808	-13.88
225.042	6.12
225.277	-4.88
225.511	-9.88
225.746	16.12
225.98	12.12
226.215	14.12
226.449	24.12
226.683	12.12
226.918	18.12
227.152	21.12
227.387	44.12
227.621	36.12
227.856	48.12
228.09	52.12
228.324	39.12
228.559	58.12
228.793	65.12
229.027	96.12
229.262	110.12
229.496	102.12
229.73	127.12
229.964	131.12
230.199	125.12
230.433	111.12
230.667	115.12
230.901	108.12
231.136	111.12
231.37	109.12
231.604	112.12
231.838	99.12
232.072	96.12
232.306	118.12
232.541	129.12
232.775	101.12
233.009	110.12
233.243	121.12
233.477	110.12
233.711	117.12
233.945	115.12
234.179	124.12
234.413	117.12
234.647	116.12
234.881	115.12
235.115	118.12
235.349	99.12
235.583	123.12
235.817	117.12
236.051	125.12
236.285	131.12
236.519	133.12
236.753	125.12
236.987	136.12
237.221	195.12
237.455	239.12
237.689	165.12
237.922	137.12
238.156	131.12
238.39	125.12
238.624	119.12
238.858	126.12
239.091	141.12
239.325	126.12
239.559	137.12
239.793	118.12
240.027	126.12
240.26	133.12
240.494	148.12
240.728	145.12
240.961	135.12
241.195	152.12
241.429	145.12
241.662	141.12
241.896	132.12
242.13	135.12
242.363	127.12
242.597	144.12
242.83	130.12
243.064	151.12
243.298	145.12
243.531	145.12
243.765	133.12
243.998	135.12
244.232	151.12
244.465	146.12
244.699	135.12
244.932	134.12
245.166	135.12
245.399	147.12
245.633	142.12
245.866	146.12
246.099	139.12
246.333	153.12
246.566	152.12
246.8	144.12
247.033	138.12
247.266	149.12
247.5	159.12
247.733	152.12
247.966	170.12
248.2	160.12
248.433	166.12
248.666	169.12
248.899	177.12
249.133	188.12
249.366	203.12
249.599	204.12
249.832	188.12
250.066	195.12
250.299	177.12
250.532	199.12
250.765	178.12
250.998	191.12
251.231	221.12
251.465	198.12
251.698	201.12
251.931	176.12
252.164	179.12
252.397	171.12
252.63	201.12
252.863	192.12
253.096	211.12
253.329	212.12
253.562	191.12
253.795	216.12
254.028	207.12
254.261	201.12
254.494	219.12
254.727	238.12
254.96	262.12
255.193	239.12
255.426	221.12
255.659	217.12
255.892	228.12
256.124	212.12
256.357	220.12
256.59	235.12
256.823	204.12
257.056	214.12
257.289	207.12
257.521	200.12
257.754	196.12
257.987	203.12
258.22	191.12
258.452	207.12
258.685	194.12
258.918	179.12
259.151	196.12
259.383	192.12
259.616	192.12
259.849	215.12
260.081	213.12
260.314	237.12
260.547	246.12
260.779	227.12
261.012	238.12
261.244	218.12
261.477	216.12
261.71	206.12
261.942	215.12
262.175	217.12
262.407	216.12
262.64	208.12
262.872	212.12
263.105	209.12
263.337	191.12
263.57	205.12
263.802	199.12
264.035	214.12
264.267	195.12
264.499	218.12
264.732	203.12
264.964	193.12
265.197	204.12
265.429	200.12
265.661	181.12
265.894	207.12
266.126	193.12
266.358	211.12
266.591	206.12
266.823	217.12
267.055	228.12
267.287	223.12
267.52	204.12
267.752	207.12
267.984	221.12
268.216	214.12
268.448	209.12
268.681	223.12
268.913	223.12
269.145	262.12
269.377	265.12
269.609	265.12
269.841	263.12
270.073	262.12
270.306	252.12
270.538	282.12
270.77	285.12
271.002	267.12
271.234	269.12
271.466	271.12
271.698	279.12
271.93	292.12
272.162	286.12
272.394	286.12
272.626	264.12
272.858	267.12
273.09	271.12
273.322	263.12
273.553	249.12
273.785	236.12
274.017	241.12
274.249	260.12
274.481	255.12
274.713	258.12
274.945	245.12
275.176	254.12
275.408	260.12
275.64	248.12
275.872	274.12
276.104	237.12
276.335	272.12
276.567	246.12
276.799	252.12
277.031	299.12
277.262	298.12
277.494	285.12
277.726	278.12
277.957	276.12
278.189	278.12
278.421	262.12
278.652	249.12
278.884	255.12
279.115	263.12
279.347	249.12
279.579	250.12
279.81	252.12
280.042	259.12
280.273	258.12
280.505	252.12
280.736	236.12
280.968	241.12
281.199	256.12
281.431	251.12
281.662	263.12
281.894	255.12
282.125	255.12
282.356	278.12
282.588	292.12
282.819	288.12
283.051	280.12
283.282	249.12
283.513	267.12
283.745	270.12
283.976	279.12
284.207	256.12
284.439	259.12
284.67	274.12
284.901	268.12
285.132	273.12
285.364	275.12
285.595	280.12
285.826	280.12
286.057	264.12
286.288	265.12
286.52	267.12
286.751	259.12
286.982	273.12
287.213	255.12
287.444	268.12
287.675	283.12
287.906	277.12
288.138	267.12
288.369	307.12
288.6	294.12
288.831	296.12
289.062	297.12
289.293	274.12
289.524	270.12
289.755	293.12
289.986	293.12
290.217	265.12
290.448	277.12
290.679	287.12
290.91	262.12
291.141	260.12
291.371	281.12
291.602	267.12
291.833	267.12
292.064	284.12
292.295	279.12
292.526	276.12
292.757	271.12
292.987	283.12
293.218	277.12
293.449	273.12
293.68	281.12
293.91	277.12
294.141	289.12
294.372	300.12
294.603	289.12
294.833	279.12
295.064	280.12
295.295	272.12
295.525	287.12
295.756	282.12
295.987	298.12
296.217	307.12
296.448	314.12
296.679	314.12
296.909	292.12
297.14	267.12
297.37	285.12
297.601	263.12
297.831	284.12
298.062	292.12
298.292	306.12
298.523	291.12
298.753	295.12
298.984	294.12
299.214	302.12
299.445	294.12
299.675	290.12
299.905	308.12
300.136	295.12
300.366	311.12
300.597	301.12
300.827	296.12
301.057	300.12
301.288	304.12
301.518	311.12
301.748	299.12
301.979	318.12
302.209	313.12
302.439	319.12
302.669	300.12
302.9	302.12
303.13	319.12
303.36	318.12
303.59	308.12
303.82	325.12
304.051	327.12
304.281	340.12
304.511	307.12
304.741	308.12
304.971	313.12
305.201	320.12
305.431	309.12
305.661	320.12
305.891	301.12
306.121	317.12
306.352	333.12
306.582	338.12
306.812	302.12
307.042	307.12
307.272	313.12
307.502	326.12
307.731	335.12
307.961	337.12
308.191	310.12
308.421	317.12
308.651	326.12
308.881	335.12
309.111	332.12
309.341	333.12
309.571	352.12
309.8	355.12
310.03	349.12
310.26	351.12
310.49	345.12
310.72	389.12
310.949	382.12
311.179	390.12
311.409	360.12
311.639	345.12
311.868	377.12
312.098	368.12
312.328	365.12
312.557	382.12
312.787	398.12
313.017	392.12
313.246	355.12
313.476	349.12
313.706	367.12
313.935	366.12
314.165	380.12
314.394	391.12
314.624	393.12
314.853	384.12
315.083	367.12
315.312	367.12
315.542	375.12
315.771	353.12
316.001	351.12
316.23	366.12
316.46	360.12
316.689	366.12
316.919	375.12
317.148	367.12
317.377	359.12
317.607	375.12
317.836	350.12
318.065	372.12
318.295	359.12
318.524	337.12
318.753	365.12
318.983	349.12
319.212	374.12
319.441	387.12
319.67	373.12
319.9	377.12
320.129	356.12
320.358	385.12
320.587	347.12
320.816	379.12
321.046	393.12
321.275	384.12
321.504	371.12
321.733	379.12
321.962	416.12
322.191	387.12
322.42	408.12
322.649	437.12
322.878	427.12
323.108	446.12
323.337	449.12
323.566	467.12
323.795	503.12
324.024	546.12
324.253	614.12
324.482	887.12
324.71	1447.12
324.939	2130.12
325.168	1830.12
325.397	884.12
325.626	591.12
325.855	499.12
326.084	472.12
326.313	488.12
326.542	479.12
326.77	539.12
326.999	608.12
327.228	830.12
327.457	1294.12
327.686	1620.12
327.914	1023.12
328.143	667.12
328.372	576.12
328.6	557.12
328.829	525.12
329.058	542.12
329.287	553.12
329.515	520.12
329.744	491.12
329.972	479.12
330.201	491.12
330.43	534.12
330.658	568.12
330.887	575.12
331.115	567.12
331.344	497.12
331.572	479.12
331.801	487.12
332.03	463.12
332.258	475.12
332.486	454.12
332.715	441.12
332.943	435.12
333.172	445.12
333.4	452.12
333.629	462.12
333.857	486.12
334.085	483.12
334.314	484.12
334.542	524.12
334.771	521.12
334.999	494.12
335.227	460.12
335.455	478.12
335.684	471.12
335.912	428.12
336.14	421.12
336.369	451.12
336.597	458.12
336.825	455.12
337.053	442.12
337.281	446.12
337.51	426.12
337.738	419.12
337.966	414.12
338.194	440.12
338.422	425.12
338.65	439.12
338.878	437.12
339.106	414.12
339.334	411.12
339.562	424.12
339.79	427.12
340.018	424.12
340.246	414.12
340.474	423.12
340.702	415.12
340.93	426.12
341.158	425.12
341.386	417.12
341.614	444.12
341.842	413.12
342.07	416.12
342.298	413.12
342.526	417.12
342.754	400.12
342.981	413.12
343.209	421.12
343.437	395.12
343.665	429.12
343.893	411.12
344.12	435.12
344.348	443.12
344.576	436.12
344.804	411.12
345.031	460.12
345.259	456.12
345.487	442.12
345.714	422.12
345.942	429.12
346.17	401.12
346.397	421.12
346.625	417.12
346.853	422.12
347.08	396.12
347.308	400.12
347.535	411.12
347.763	417.12
347.99	414.12
348.218	410.12
348.445	436.12
348.673	439.12
348.9	439.12
349.128	416.12
349.355	373.12
349.583	391.12
349.81	393.12
350.037	385.12
350.265	394.12
350.492	383.12
350.72	401.12
350.947	424.12
351.174	411.12
351.402	427.12
351.629	415.12
351.856	421.12
352.083	419.12
352.311	431.12
352.538	420.12
352.765	435.12
352.992	423.12
353.22	425.12
353.447	401.12
353.674	416.12
353.901	400.12
354.128	379.12
354.355	381.12
354.583	393.12
354.81	381.12
355.037	410.12
355.264	393.12
355.491	376.12
355.718	379.12
355.945	375.12
356.172	385.12
356.399	382.12
356.626	371.12
356.853	394.12
357.08	380.12
357.307	364.12
357.534	379.12
357.761	385.12
357.988	395.12
358.215	391.12
358.441	385.12
358.668	393.12
358.895	383.12
359.122	394.12
359.349	406.12
359.576	417.12
359.802	433.12
360.029	447.12
360.256	469.12
360.483	429.12
360.709	416.12
360.936	419.12
361.163	420.12
361.39	416.12
361.616	433.12
361.843	419.12
362.07	411.12
362.296	416.12
362.523	409.12
362.749	428.12
362.976	412.12
363.203	410.12
363.429	385.12
363.656	394.12
363.882	395.12
364.109	414.12
364.335	395.12
364.562	389.12
364.788	396.12
365.015	391.12
365.241	400.12
365.468	399.12
365.694	408.12
365.92	389.12
366.147	394.12
366.373	391.12
366.599	387.12
366.826	399.12
367.052	390.12
367.278	392.12
367.505	410.12
367.731	393.12
367.957	391.12
368.184	385.12
368.41	407.12
368.636	405.12
368.862	437.12
369.089	409.12
369.315	413.12
369.541	407.12
369.767	411.12
369.993	427.12
370.219	399.12
370.445	402.12
370.672	395.12
370.898	409.12
371.124	437.12
371.35	407.12
371.576	406.12
371.802	408.12
372.028	417.12
372.254	409.12
372.48	396.12
372.706	396.12
372.932	414.12
373.158	399.12
373.384	430.12
373.61	420.12
373.835	431.12
374.061	407.12
374.287	412.12
374.513	421.12
374.739	396.12
374.965	427.12
375.191	419.12
375.416	426.12
375.642	416.12
375.868	409.12
376.094	425.12
376.319	412.12
376.545	402.12
376.771	405.12
376.997	404.12
377.222	409.12
377.448	396.12
377.674	412.12
377.899	416.12
378.125	400.12
378.35	394.12
378.576	406.12
378.802	413.12
379.027	405.12
379.253	402.12
379.478	408.12
379.704	398.12
379.929	394.12
380.155	405.12
380.38	413.12
380.606	399.12
380.831	390.12
381.057	406.12
381.282	393.12
381.507	409.12
381.733	430.12
381.958	411.12
382.184	403.12
382.409	415.12
382.634	420.12
382.86	413.12
383.085	410.12
383.31	428.12
383.535	432.12
383.761	427.12
383.986	420.12
384.211	427.12
384.436	423.12
384.662	453.12
384.887	437.12
385.112	448.12
385.337	452.12
385.562	455.12
385.787	447.12
386.013	463.12
386.238	457.12
386.463	437.12
386.688	460.12
386.913	472.12
387.138	444.12
387.363	467.12
387.588	435.12
387.813	470.12
388.038	456.12
388.263	455.12
388.488	450.12
388.713	465.12
388.938	456.12
389.163	471.12
389.387	463.12
389.612	469.12
389.837	435.12
390.062	441.12
390.287	445.12
390.512	448.12
390.736	444.12
390.961	464.12
391.186	440.12
391.411	460.12
391.636	468.12
391.86	472.12
392.085	480.12
392.31	470.12
392.534	473.12
392.759	480.12
392.984	470.12
393.208	456.12
393.433	479.12
393.658	464.12
393.882	434.12
394.107	474.12
394.331	500.12
394.556	467.12
394.78	480.12
395.005	472.12
395.229	477.12
395.454	489.12
395.678	488.12
395.903	483.12
396.127	511.12
396.352	487.12
396.576	479.12
396.801	506.12
397.025	491.12
397.249	494.12
397.474	511.12
397.698	509.12
397.922	509.12
398.147	537.12
398.371	525.12
398.595	519.12
398.82	542.12
399.044	533.12
399.268	575.12
399.492	629.12
399.717	617.12
399.941	647.12
400.165	671.12
400.389	660.12
400.613	611.12
400.837	576.12
401.062	569.12
401.286	572.12
401.51	535.12
401.734	513.12
401.958	538.12
402.182	539.12
402.406	566.12
402.63	589.12
402.854	567.12
403.078	522.12
403.302	560.12
403.526	572.12
403.75	586.12
403.974	583.12
404.198	567.12
404.422	591.12
404.645	582.12
404.869	603.12
405.093	602.12
405.317	641.12
405.541	665.12
405.765	629.12
405.988	565.12
406.212	630.12
406.436	610.12
406.66	622.12
406.883	619.12
407.107	653.12
407.331	679.12
407.555	736.12
407.778	743.12
408.002	682.12
408.226	636.12
408.449	621.12
408.673	638.12
408.896	653.12
409.12	702.12
409.344	657.12
409.567	579.12
409.791	588.12
410.014	589.12
410.238	593.12
410.461	588.12
410.685	585.12
410.908	589.12
411.132	606.12
411.355	675.12
411.578	631.12
411.802	587.12
412.025	570.12
412.249	576.12
412.472	608.12
412.695	609.12
412.919	595.12
413.142	576.12
413.365	581.12
413.589	560.12
413.812	548.12
414.035	547.12
414.258	552.12
414.482	552.12
414.705	541.12
414.928	535.12
415.151	555.12
415.374	554.12
415.597	522.12
415.821	535.12
416.044	527.12
416.267	527.12
416.49	548.12
416.713	519.12
416.936	546.12
417.159	554.12
417.382	552.12
417.605	547.12
417.828	557.12
418.051	573.12
418.274	543.12
418.497	539.12
418.72	553.12
418.943	525.12
419.166	562.12
419.389	613.12
419.611	587.12
419.834	566.12
420.057	563.12
420.28	547.12
420.503	543.12
420.726	552.12
420.948	567.12
421.171	608.12
421.394	634.12
421.617	545.12
421.839	557.12
422.062	568.12
422.285	583.12
422.507	643.12
422.73	688.12
422.953	685.12
423.175	606.12
423.398	572.12
423.621	564.12
423.843	585.12
424.066	587.12
424.288	582.12
424.511	602.12
424.733	671.12
424.956	755.12
425.178	707.12
425.401	694.12
425.623	733.12
425.846	633.12
426.068	593.12
426.291	593.12
426.513	589.12
426.735	608.12
426.958	622.12
427.18	704.12
427.402	838.12
427.625	922.12
427.847	817.12
428.069	703.12
428.292	633.12
428.514	573.12
428.736	555.12
428.958	572.12
429.181	544.12
429.403	550.12
429.625	559.12
429.847	578.12
430.069	640.12
430.292	653.12
430.514	547.12
430.736	535.12
430.958	563.12
431.18	540.12
431.402	544.12
431.624	537.12
431.846	505.12
432.068	516.12
432.29	517.12
432.512	523.12
432.734	534.12
432.956	557.12
433.178	545.12
433.4	534.12
433.622	533.12
433.844	530.12
434.066	530.12
434.287	534.12
434.509	509.12
434.731	527.12
434.953	552.12
435.175	571.12
435.397	561.12
435.618	582.12
435.84	619.12
436.062	715.12
436.284	772.12
436.505	668.12
436.727	597.12
436.949	577.12
437.17	571.12
437.392	556.12
437.614	547.12
437.835	596.12
438.057	685.12
438.278	801.12
438.5	803.12
438.721	860.12
438.943	821.12
439.165	657.12
439.386	603.12
439.608	590.12
439.829	605.12
440.05	657.12
440.272	670.12
440.493	647.12
440.715	597.12
440.936	573.12
441.158	549.12
441.379	555.12
441.6	580.12
441.822	600.12
442.043	625.12
442.264	709.12
442.486	775.12
442.707	649.12
442.928	602.12
443.149	654.12
443.371	631.12
443.592	680.12
443.813	761.12
444.034	836.12
444.255	689.12
444.476	639.12
444.698	601.12
444.919	641.12
445.14	707.12
445.361	653.12
445.582	653.12
445.803	699.12
446.024	792.12
446.245	797.12
446.466	741.12
446.687	619.12
446.908	567.12
447.129	567.12
447.35	559.12
447.571	553.12
447.792	534.12
448.013	533.12
448.234	572.12
448.455	606.12
448.675	713.12
448.896	811.12
449.117	701.12
449.338	661.12
449.559	771.12
449.779	877.12
450	690.12
450.221	600.12
450.442	552.12
450.662	560.12
450.883	556.12
451.104	563.12
451.324	544.12
451.545	519.12
451.766	501.12
451.986	484.12
452.207	489.12
452.428	495.12
452.648	487.12
452.869	491.12
453.089	494.12
453.31	518.12
453.53	495.12
453.751	471.12
453.971	488.12
454.192	506.12
454.412	509.12
454.633	483.12
454.853	488.12
455.073	500.12
455.294	524.12
455.514	592.12
455.734	584.12
455.955	488.12
456.175	491.12
456.395	460.12
456.616	495.12
456.836	484.12
457.056	461.12
457.276	464.12
457.497	465.12
457.717	481.12
457.937	478.12
458.157	486.12
458.377	476.12
458.598	516.12
458.818	550.12
459.038	615.12
459.258	630.12
459.478	575.12
459.698	515.12
459.918	525.12
460.138	531.12
460.358	527.12
460.578	536.12
460.798	545.12
461.018	551.12
461.238	551.12
461.458	535.12
461.678	539.12
461.898	541.12
462.118	557.12
462.338	567.12
462.558	566.12
462.777	582.12
462.997	604.12
463.217	606.12
463.437	632.12
463.657	603.12
463.876	609.12
464.096	604.12
464.316	581.12
464.536	601.12
464.755	591.12
464.975	569.12
465.195	604.12
465.414	700.12
465.634	622.12
465.854	571.12
466.073	582.12
466.293	542.12
466.512	521.12
466.732	508.12
466.951	523.12
467.171	544.12
467.391	527.12
467.61	533.12
467.829	548.12
468.049	519.12
468.268	523.12
468.488	485.12
468.707	529.12
468.927	504.12
469.146	497.12
469.365	511.12
469.585	491.12
469.804	523.12
470.023	493.12
470.243	529.12
470.462	532.12
470.681	552.12
470.901	536.12
471.12	511.12
471.339	522.12
471.558	521.12
471.777	522.12
471.997	527.12
472.216	525.12
472.435	546.12
472.654	538.12
472.873	521.12
473.092	513.12
473.311	520.12
473.53	528.12
473.749	542.12
473.968	563.12
474.187	671.12
474.406	650.12
474.625	584.12
474.844	550.12
475.063	507.12
475.282	515.12
475.501	532.12
475.72	520.12
475.939	527.12
476.158	525.12
476.377	508.12
476.596	535.12
476.814	539.12
477.033	522.12
477.252	530.12
477.471	537.12
477.69	549.12
477.908	546.12
478.127	551.12
478.346	566.12
478.564	563.12
478.783	577.12
479.002	583.12
479.22	605.12
479.439	612.12
479.658	637.12
479.876	627.12
480.095	632.12
480.313	676.12
480.532	645.12
480.751	632.12
480.969	616.12
481.188	709.12
481.406	730.12
481.624	651.12
481.843	635.12
482.061	618.12
482.28	619.12
482.498	611.12
482.717	605.12
482.935	602.12
483.153	611.12
483.372	614.12
483.59	612.12
483.808	578.12
484.027	603.12
484.245	608.12
484.463	608.12
484.681	616.12
484.9	625.12
485.118	630.12
485.336	640.12
485.554	613.12
485.772	633.12
485.99	622.12
486.209	649.12
486.427	615.12
486.645	624.12
486.863	656.12
487.081	647.12
487.299	652.12
487.517	661.12
487.735	636.12
487.953	624.12
488.171	624.12
488.389	613.12
488.607	651.12
488.825	634.12
489.043	636.12
489.261	653.12
489.479	665.12
489.696	678.12
489.914	643.12
490.132	668.12
490.35	668.12
490.568	663.12
490.786	701.12
491.003	716.12
491.221	677.12
491.439	716.12
491.657	732.12
491.874	740.12
492.092	725.12
492.31	725.12
492.527	738.12
492.745	737.12
492.963	745.12
493.18	739.12
493.398	757.12
493.615	738.12
493.833	727.12
494.05	756.12
494.268	744.12
494.485	755.12
494.703	740.12
494.92	739.12
495.138	770.12
495.355	766.12
495.573	775.12
495.79	761.12
496.008	771.12
496.225	767.12
496.442	756.12
496.66	774.12
496.877	771.12
497.094	770.12
497.312	758.12
497.529	773.12
497.746	798.12
497.963	813.12
498.181	849.12
498.398	842.12
498.615	849.12
498.832	896.12
499.049	897.12
499.267	965.12
499.484	941.12
499.701	1026.12
499.918	1018.12
500.135	1105.12
500.352	1177.12
500.569	1179.12
500.786	1184.12
501.003	1135.12
501.22	1090.12
501.437	1092.12
501.654	1042.12
501.871	1005.12
