Data from 1979.PennyLincolnUp.Lamp.En5.5.200Scan.071719.P1_HRD10591_16-18-50-863.txt Node
Date: Thu Jul 18 16:18:50 EDT 2019
User: cochatt
Spectrometer: HR+D1059
Trigger mode: 1
Integration Time (sec): 1.000000E-1
Scans to average: 1
Electric dark correction enabled: true
Nonlinearity correction enabled: false
Boxcar width: 0
XAxis mode: Wavelengths
Number of Pixels in Spectrum: 2048
>>>>>Begin Spectral Data<<<<<
223.165	-21.06
223.4	-21.06
223.635	-21.06
223.869	-4.06
224.104	-11.06
224.338	-7.06
224.573	-31.06
224.808	-20.06
225.042	-20.06
225.277	3.94
225.511	-3.06
225.746	6.94
225.98	18.94
226.215	14.94
226.449	1.94
226.683	20.94
226.918	19.94
227.152	29.94
227.387	31.94
227.621	32.94
227.856	43.94
228.09	38.94
228.324	43.94
228.559	59.94
228.793	59.94
229.027	73.94
229.262	103.94
229.496	116.94
229.73	121.94
229.964	151.94
230.199	116.94
230.433	114.94
230.667	106.94
230.901	118.94
231.136	103.94
231.37	96.94
231.604	101.94
231.838	108.94
232.072	110.94
232.306	108.94
232.541	108.94
232.775	111.94
233.009	117.94
233.243	120.94
233.477	108.94
233.711	116.94
233.945	95.94
234.179	117.94
234.413	121.94
234.647	116.94
234.881	109.94
235.115	115.94
235.349	117.94
235.583	105.94
235.817	119.94
236.051	119.94
236.285	122.94
236.519	123.94
236.753	120.94
236.987	131.94
237.221	170.94
237.455	223.94
237.689	166.94
237.922	141.94
238.156	131.94
238.39	113.94
238.624	112.94
238.858	104.94
239.091	129.94
239.325	113.94
239.559	109.94
239.793	105.94
240.027	129.94
240.26	137.94
240.494	135.94
240.728	123.94
240.961	139.94
241.195	134.94
241.429	137.94
241.662	137.94
241.896	129.94
242.13	120.94
242.363	125.94
242.597	113.94
242.83	120.94
243.064	113.94
243.298	147.94
243.531	121.94
243.765	127.94
243.998	152.94
244.232	136.94
244.465	142.94
244.699	126.94
244.932	134.94
245.166	145.94
245.399	152.94
245.633	138.94
245.866	127.94
246.099	135.94
246.333	138.94
246.566	157.94
246.8	157.94
247.033	142.94
247.266	160.94
247.5	161.94
247.733	163.94
247.966	167.94
248.2	166.94
248.433	172.94
248.666	169.94
248.899	167.94
249.133	186.94
249.366	204.94
249.599	186.94
249.832	170.94
250.066	165.94
250.299	160.94
250.532	184.94
250.765	205.94
250.998	201.94
251.231	184.94
251.465	197.94
251.698	204.94
251.931	185.94
252.164	192.94
252.397	181.94
252.63	184.94
252.863	187.94
253.096	189.94
253.329	218.94
253.562	199.94
253.795	193.94
254.028	204.94
254.261	186.94
254.494	209.94
254.727	234.94
254.96	244.94
255.193	239.94
255.426	231.94
255.659	207.94
255.892	214.94
256.124	209.94
256.357	211.94
256.59	205.94
256.823	186.94
257.056	199.94
257.289	180.94
257.521	203.94
257.754	216.94
257.987	204.94
258.22	192.94
258.452	199.94
258.685	205.94
258.918	193.94
259.151	194.94
259.383	198.94
259.616	188.94
259.849	194.94
260.081	199.94
260.314	232.94
260.547	227.94
260.779	212.94
261.012	206.94
261.244	207.94
261.477	214.94
261.71	195.94
261.942	208.94
262.175	205.94
262.407	216.94
262.64	199.94
262.872	192.94
263.105	205.94
263.337	213.94
263.57	201.94
263.802	184.94
264.035	202.94
264.267	209.94
264.499	198.94
264.732	218.94
264.964	202.94
265.197	191.94
265.429	192.94
265.661	211.94
265.894	208.94
266.126	205.94
266.358	193.94
266.591	201.94
266.823	217.94
267.055	201.94
267.287	212.94
267.52	198.94
267.752	217.94
267.984	198.94
268.216	205.94
268.448	215.94
268.681	211.94
268.913	224.94
269.145	232.94
269.377	263.94
269.609	245.94
269.841	231.94
270.073	242.94
270.306	273.94
270.538	291.94
270.77	277.94
271.002	251.94
271.234	256.94
271.466	259.94
271.698	248.94
271.93	273.94
272.162	278.94
272.394	279.94
272.626	261.94
272.858	269.94
273.09	257.94
273.322	248.94
273.553	258.94
273.785	245.94
274.017	239.94
274.249	246.94
274.481	252.94
274.713	272.94
274.945	263.94
275.176	259.94
275.408	247.94
275.64	251.94
275.872	251.94
276.104	251.94
276.335	257.94
276.567	241.94
276.799	261.94
277.031	279.94
277.262	295.94
277.494	291.94
277.726	294.94
277.957	280.94
278.189	259.94
278.421	259.94
278.652	260.94
278.884	269.94
279.115	252.94
279.347	263.94
279.579	249.94
279.81	258.94
280.042	239.94
280.273	247.94
280.505	263.94
280.736	262.94
280.968	265.94
281.199	246.94
281.431	265.94
281.662	255.94
281.894	272.94
282.125	274.94
282.356	281.94
282.588	287.94
282.819	302.94
283.051	262.94
283.282	256.94
283.513	263.94
283.745	255.94
283.976	272.94
284.207	262.94
284.439	276.94
284.67	240.94
284.901	263.94
285.132	269.94
285.364	263.94
285.595	269.94
285.826	270.94
286.057	262.94
286.288	261.94
286.52	265.94
286.751	261.94
286.982	263.94
287.213	265.94
287.444	268.94
287.675	281.94
287.906	289.94
288.138	285.94
288.369	265.94
288.6	287.94
288.831	285.94
289.062	284.94
289.293	278.94
289.524	280.94
289.755	285.94
289.986	284.94
290.217	273.94
290.448	284.94
290.679	282.94
290.91	285.94
291.141	259.94
291.371	273.94
291.602	275.94
291.833	270.94
292.064	275.94
292.295	288.94
292.526	294.94
292.757	267.94
292.987	280.94
293.218	288.94
293.449	279.94
293.68	280.94
293.91	280.94
294.141	289.94
294.372	285.94
294.603	281.94
294.833	292.94
295.064	281.94
295.295	272.94
295.525	283.94
295.756	304.94
295.987	301.94
296.217	330.94
296.448	321.94
296.679	287.94
296.909	293.94
297.14	274.94
297.37	281.94
297.601	295.94
297.831	299.94
298.062	309.94
298.292	297.94
298.523	283.94
298.753	303.94
298.984	308.94
299.214	289.94
299.445	306.94
299.675	325.94
299.905	309.94
300.136	298.94
300.366	323.94
300.597	299.94
300.827	299.94
301.057	306.94
301.288	323.94
301.518	301.94
301.748	307.94
301.979	315.94
302.209	321.94
302.439	322.94
302.669	315.94
302.9	319.94
303.13	309.94
303.36	316.94
303.59	332.94
303.82	344.94
304.051	327.94
304.281	328.94
304.511	300.94
304.741	315.94
304.971	325.94
305.201	322.94
305.431	311.94
305.661	332.94
305.891	307.94
306.121	321.94
306.352	323.94
306.582	326.94
306.812	323.94
307.042	304.94
307.272	316.94
307.502	325.94
307.731	317.94
307.961	306.94
308.191	337.94
308.421	311.94
308.651	325.94
308.881	325.94
309.111	312.94
309.341	325.94
309.571	325.94
309.8	345.94
310.03	349.94
310.26	368.94
310.49	367.94
310.72	359.94
310.949	358.94
311.179	373.94
311.409	368.94
311.639	338.94
311.868	355.94
312.098	373.94
312.328	367.94
312.557	376.94
312.787	376.94
313.017	385.94
313.246	362.94
313.476	363.94
313.706	370.94
313.935	371.94
314.165	376.94
314.394	378.94
314.624	388.94
314.853	370.94
315.083	375.94
315.312	372.94
315.542	359.94
315.771	364.94
316.001	357.94
316.23	346.94
316.46	360.94
316.689	377.94
316.919	363.94
317.148	373.94
317.377	360.94
317.607	387.94
317.836	369.94
318.065	359.94
318.295	374.94
318.524	372.94
318.753	363.94
318.983	363.94
319.212	363.94
319.441	371.94
319.67	370.94
319.9	379.94
320.129	359.94
320.358	375.94
320.587	390.94
320.816	364.94
321.046	379.94
321.275	402.94
321.504	380.94
321.733	392.94
321.962	373.94
322.191	405.94
322.42	411.94
322.649	414.94
322.878	431.94
323.108	428.94
323.337	439.94
323.566	451.94
323.795	488.94
324.024	521.94
324.253	620.94
324.482	872.94
324.71	1353.94
324.939	2013.94
325.168	1727.94
325.397	863.94
325.626	572.94
325.855	500.94
326.084	476.94
326.313	471.94
326.542	455.94
326.77	514.94
326.999	588.94
327.228	775.94
327.457	1210.94
327.686	1509.94
327.914	951.94
328.143	645.94
328.372	581.94
328.6	526.94
328.829	529.94
329.058	543.94
329.287	537.94
329.515	527.94
329.744	488.94
329.972	465.94
330.201	490.94
330.43	523.94
330.658	543.94
330.887	571.94
331.115	574.94
331.344	501.94
331.572	483.94
331.801	484.94
332.03	468.94
332.258	427.94
332.486	447.94
332.715	447.94
332.943	452.94
333.172	452.94
333.4	444.94
333.629	473.94
333.857	459.94
334.085	474.94
334.314	502.94
334.542	522.94
334.771	512.94
334.999	472.94
335.227	469.94
335.455	452.94
335.684	455.94
335.912	437.94
336.14	440.94
336.369	447.94
336.597	448.94
336.825	467.94
337.053	433.94
337.281	436.94
337.51	424.94
337.738	428.94
337.966	464.94
338.194	457.94
338.422	442.94
338.65	422.94
338.878	414.94
339.106	424.94
339.334	425.94
339.562	423.94
339.79	417.94
340.018	420.94
340.246	416.94
340.474	409.94
340.702	423.94
340.93	421.94
341.158	429.94
341.386	408.94
341.614	419.94
341.842	439.94
342.07	423.94
342.298	440.94
342.526	416.94
342.754	402.94
342.981	411.94
343.209	385.94
343.437	425.94
343.665	429.94
343.893	437.94
344.12	437.94
344.348	456.94
344.576	425.94
344.804	426.94
345.031	461.94
345.259	451.94
345.487	441.94
345.714	454.94
345.942	420.94
346.17	426.94
346.397	411.94
346.625	397.94
346.853	434.94
347.08	395.94
347.308	400.94
347.535	427.94
347.763	423.94
347.99	411.94
348.218	410.94
348.445	417.94
348.673	415.94
348.9	431.94
349.128	393.94
349.355	389.94
349.583	413.94
349.81	402.94
350.037	396.94
350.265	387.94
350.492	398.94
350.72	424.94
350.947	411.94
351.174	407.94
351.402	422.94
351.629	423.94
351.856	425.94
352.083	426.94
352.311	419.94
352.538	415.94
352.765	433.94
352.992	406.94
353.22	405.94
353.447	413.94
353.674	404.94
353.901	408.94
354.128	390.94
354.355	377.94
354.583	383.94
354.81	377.94
355.037	412.94
355.264	383.94
355.491	378.94
355.718	386.94
355.945	384.94
356.172	360.94
356.399	371.94
356.626	387.94
356.853	374.94
357.08	367.94
357.307	397.94
357.534	403.94
357.761	385.94
357.988	393.94
358.215	392.94
358.441	393.94
358.668	380.94
358.895	390.94
359.122	404.94
359.349	399.94
359.576	395.94
359.802	417.94
360.029	453.94
360.256	462.94
360.483	456.94
360.709	396.94
360.936	386.94
361.163	398.94
361.39	401.94
361.616	432.94
361.843	426.94
362.07	417.94
362.296	429.94
362.523	404.94
362.749	395.94
362.976	415.94
363.203	402.94
363.429	413.94
363.656	405.94
363.882	400.94
364.109	421.94
364.335	411.94
364.562	409.94
364.788	401.94
365.015	405.94
365.241	387.94
365.468	412.94
365.694	410.94
365.92	394.94
366.147	408.94
366.373	417.94
366.599	384.94
366.826	402.94
367.052	391.94
367.278	405.94
367.505	395.94
367.731	413.94
367.957	394.94
368.184	401.94
368.41	406.94
368.636	427.94
368.862	437.94
369.089	419.94
369.315	422.94
369.541	413.94
369.767	393.94
369.993	404.94
370.219	390.94
370.445	417.94
370.672	423.94
370.898	405.94
371.124	408.94
371.35	409.94
371.576	405.94
371.802	409.94
372.028	394.94
372.254	412.94
372.48	407.94
372.706	435.94
372.932	417.94
373.158	409.94
373.384	402.94
373.61	407.94
373.835	424.94
374.061	420.94
374.287	449.94
374.513	429.94
374.739	401.94
374.965	403.94
375.191	425.94
375.416	422.94
375.642	417.94
375.868	407.94
376.094	419.94
376.319	432.94
376.545	413.94
376.771	422.94
376.997	416.94
377.222	406.94
377.448	412.94
377.674	397.94
377.899	402.94
378.125	395.94
378.35	407.94
378.576	413.94
378.802	405.94
379.027	413.94
379.253	388.94
379.478	415.94
379.704	403.94
379.929	420.94
380.155	415.94
380.38	409.94
380.606	411.94
380.831	418.94
381.057	424.94
381.282	399.94
381.507	409.94
381.733	403.94
381.958	428.94
382.184	426.94
382.409	428.94
382.634	423.94
382.86	417.94
383.085	405.94
383.31	420.94
383.535	427.94
383.761	453.94
383.986	421.94
384.211	433.94
384.436	429.94
384.662	451.94
384.887	441.94
385.112	452.94
385.337	467.94
385.562	458.94
385.787	457.94
386.013	456.94
386.238	445.94
386.463	441.94
386.688	447.94
386.913	452.94
387.138	465.94
387.363	478.94
387.588	455.94
387.813	443.94
388.038	440.94
388.263	475.94
388.488	460.94
388.713	465.94
388.938	472.94
389.163	465.94
389.387	456.94
389.612	475.94
389.837	467.94
390.062	463.94
390.287	465.94
390.512	463.94
390.736	474.94
390.961	443.94
391.186	451.94
391.411	444.94
391.636	478.94
391.86	477.94
392.085	481.94
392.31	498.94
392.534	475.94
392.759	474.94
392.984	477.94
393.208	445.94
393.433	467.94
393.658	486.94
393.882	465.94
394.107	448.94
394.331	471.94
394.556	463.94
394.78	477.94
395.005	459.94
395.229	472.94
395.454	505.94
395.678	503.94
395.903	505.94
396.127	491.94
396.352	517.94
396.576	473.94
396.801	474.94
397.025	474.94
397.249	483.94
397.474	511.94
397.698	474.94
397.922	523.94
398.147	543.94
398.371	508.94
398.595	528.94
398.82	548.94
399.044	581.94
399.268	581.94
399.492	595.94
399.717	627.94
399.941	659.94
400.165	689.94
400.389	682.94
400.613	602.94
400.837	579.94
401.062	585.94
401.286	578.94
401.51	556.94
401.734	535.94
401.958	535.94
402.182	540.94
402.406	551.94
402.63	572.94
402.854	575.94
403.078	580.94
403.302	570.94
403.526	585.94
403.75	571.94
403.974	577.94
404.198	572.94
404.422	573.94
404.645	581.94
404.869	568.94
405.093	612.94
405.317	660.94
405.541	676.94
405.765	630.94
405.988	616.94
406.212	616.94
406.436	636.94
406.66	638.94
406.883	633.94
407.107	635.94
407.331	666.94
407.555	725.94
407.778	725.94
408.002	675.94
408.226	634.94
408.449	651.94
408.673	615.94
408.896	632.94
409.12	693.94
409.344	659.94
409.567	591.94
409.791	587.94
410.014	596.94
410.238	572.94
410.461	583.94
410.685	602.94
410.908	561.94
411.132	595.94
411.355	653.94
411.578	631.94
411.802	585.94
412.025	582.94
412.249	592.94
412.472	614.94
412.695	635.94
412.919	637.94
413.142	600.94
413.365	599.94
413.589	551.94
413.812	523.94
414.035	532.94
414.258	532.94
414.482	541.94
414.705	571.94
414.928	545.94
415.151	556.94
415.374	546.94
415.597	541.94
415.821	540.94
416.044	572.94
416.267	548.94
416.49	543.94
416.713	547.94
416.936	528.94
417.159	533.94
417.382	535.94
417.605	534.94
417.828	564.94
418.051	574.94
418.274	562.94
418.497	569.94
418.72	540.94
418.943	547.94
419.166	559.94
419.389	588.94
419.611	594.94
419.834	579.94
420.057	582.94
420.28	581.94
420.503	562.94
420.726	602.94
420.948	577.94
421.171	614.94
421.394	629.94
421.617	579.94
421.839	560.94
422.062	548.94
422.285	581.94
422.507	623.94
422.73	704.94
422.953	667.94
423.175	598.94
423.398	582.94
423.621	600.94
423.843	598.94
424.066	596.94
424.288	595.94
424.511	603.94
424.733	676.94
424.956	764.94
425.178	716.94
425.401	697.94
425.623	725.94
425.846	648.94
426.068	582.94
426.291	587.94
426.513	573.94
426.735	600.94
426.958	643.94
427.18	710.94
427.402	793.94
427.625	881.94
427.847	792.94
428.069	683.94
428.292	652.94
428.514	581.94
428.736	581.94
428.958	567.94
429.181	554.94
429.403	547.94
429.625	573.94
429.847	566.94
430.069	644.94
430.292	659.94
430.514	571.94
430.736	579.94
430.958	544.94
431.18	548.94
431.402	525.94
431.624	520.94
431.846	528.94
432.068	532.94
432.29	539.94
432.512	523.94
432.734	538.94
432.956	536.94
433.178	554.94
433.4	538.94
433.622	559.94
433.844	517.94
434.066	524.94
434.287	532.94
434.509	535.94
434.731	555.94
434.953	551.94
435.175	552.94
435.397	591.94
435.618	596.94
435.84	629.94
436.062	702.94
436.284	758.94
436.505	674.94
436.727	599.94
436.949	562.94
437.17	548.94
437.392	564.94
437.614	562.94
437.835	589.94
438.057	684.94
438.278	748.94
438.5	777.94
438.721	839.94
438.943	796.94
439.165	649.94
439.386	572.94
439.608	596.94
439.829	599.94
440.05	629.94
440.272	675.94
440.493	624.94
440.715	585.94
440.936	589.94
441.158	577.94
441.379	563.94
441.6	566.94
441.822	594.94
442.043	621.94
442.264	663.94
442.486	745.94
442.707	631.94
442.928	610.94
443.149	617.94
443.371	625.94
443.592	674.94
443.813	753.94
444.034	822.94
444.255	690.94
444.476	648.94
444.698	618.94
444.919	618.94
445.14	739.94
445.361	676.94
445.582	632.94
445.803	684.94
446.024	774.94
446.245	789.94
446.466	716.94
446.687	621.94
446.908	607.94
447.129	555.94
447.35	541.94
447.571	556.94
447.792	555.94
448.013	541.94
448.234	554.94
448.455	609.94
448.675	706.94
448.896	818.94
449.117	691.94
449.338	641.94
449.559	780.94
449.779	860.94
450	695.94
450.221	574.94
450.442	539.94
450.662	526.94
450.883	533.94
451.104	565.94
451.324	548.94
451.545	507.94
451.766	501.94
451.986	500.94
452.207	487.94
452.428	487.94
452.648	482.94
452.869	478.94
453.089	490.94
453.31	535.94
453.53	510.94
453.751	506.94
453.971	490.94
454.192	517.94
454.412	497.94
454.633	503.94
454.853	492.94
455.073	484.94
455.294	520.94
455.514	587.94
455.734	538.94
455.955	495.94
456.175	491.94
456.395	474.94
456.616	476.94
456.836	477.94
457.056	471.94
457.276	472.94
457.497	464.94
457.717	483.94
457.937	466.94
458.157	458.94
458.377	476.94
458.598	515.94
458.818	583.94
459.038	633.94
459.258	653.94
459.478	568.94
459.698	524.94
459.918	537.94
460.138	529.94
460.358	543.94
460.578	540.94
460.798	567.94
461.018	552.94
461.238	571.94
461.458	547.94
461.678	570.94
461.898	539.94
462.118	562.94
462.338	593.94
462.558	583.94
462.777	606.94
462.997	623.94
463.217	635.94
463.437	634.94
463.657	616.94
463.876	594.94
464.096	581.94
464.316	605.94
464.536	600.94
464.755	594.94
464.975	624.94
465.195	635.94
465.414	676.94
465.634	588.94
465.854	575.94
466.073	570.94
466.293	530.94
466.512	536.94
466.732	523.94
466.951	513.94
467.171	514.94
467.391	526.94
467.61	517.94
467.829	517.94
468.049	525.94
468.268	514.94
468.488	515.94
468.707	500.94
468.927	499.94
469.146	513.94
469.365	515.94
469.585	495.94
469.804	502.94
470.023	508.94
470.243	505.94
470.462	512.94
470.681	543.94
470.901	531.94
471.12	515.94
471.339	515.94
471.558	518.94
471.777	519.94
471.997	509.94
472.216	509.94
472.435	561.94
472.654	535.94
472.873	516.94
473.092	494.94
473.311	495.94
473.53	503.94
473.749	535.94
473.968	539.94
474.187	632.94
474.406	665.94
474.625	579.94
474.844	545.94
475.063	509.94
475.282	528.94
475.501	534.94
475.72	505.94
475.939	522.94
476.158	532.94
476.377	524.94
476.596	544.94
476.814	550.94
477.033	550.94
477.252	538.94
477.471	545.94
477.69	549.94
477.908	580.94
478.127	575.94
478.346	545.94
478.564	584.94
478.783	567.94
479.002	573.94
479.22	597.94
479.439	618.94
479.658	620.94
479.876	632.94
480.095	634.94
480.313	671.94
480.532	642.94
480.751	631.94
480.969	647.94
481.188	695.94
481.406	733.94
481.624	658.94
481.843	642.94
482.061	637.94
482.28	605.94
482.498	623.94
482.717	619.94
482.935	612.94
483.153	608.94
483.372	588.94
483.59	604.94
483.808	601.94
484.027	628.94
484.245	611.94
484.463	625.94
484.681	631.94
484.9	624.94
485.118	636.94
485.336	632.94
485.554	633.94
485.772	634.94
485.99	635.94
486.209	640.94
486.427	645.94
486.645	653.94
486.863	651.94
487.081	657.94
487.299	657.94
487.517	633.94
487.735	632.94
487.953	627.94
488.171	633.94
488.389	653.94
488.607	646.94
488.825	634.94
489.043	640.94
489.261	653.94
489.479	659.94
489.696	651.94
489.914	637.94
490.132	651.94
490.35	667.94
490.568	667.94
490.786	704.94
491.003	707.94
491.221	704.94
491.439	704.94
491.657	728.94
491.874	726.94
492.092	734.94
492.31	748.94
492.527	731.94
492.745	748.94
492.963	763.94
493.18	735.94
493.398	746.94
493.615	766.94
493.833	741.94
494.05	746.94
494.268	755.94
494.485	749.94
494.703	729.94
494.92	750.94
495.138	761.94
495.355	776.94
495.573	752.94
495.79	764.94
496.008	753.94
496.225	778.94
496.442	768.94
496.66	782.94
496.877	769.94
497.094	769.94
497.312	778.94
497.529	815.94
497.746	823.94
497.963	825.94
498.181	841.94
498.398	837.94
498.615	854.94
498.832	885.94
499.049	929.94
499.267	935.94
499.484	969.94
499.701	1028.94
499.918	1075.94
500.135	1106.94
500.352	1181.94
500.569	1195.94
500.786	1220.94
501.003	1210.94
501.22	1140.94
501.437	1102.94
501.654	1063.94
501.871	1013.94
