Data from 1979.PennyLincolnUp.Lamp.En5.5.200Scan.071719.P1_HRD10591_16-19-07-863.txt Node
Date: Thu Jul 18 16:19:07 EDT 2019
User: cochatt
Spectrometer: HR+D1059
Trigger mode: 1
Integration Time (sec): 1.000000E-1
Scans to average: 1
Electric dark correction enabled: true
Nonlinearity correction enabled: false
Boxcar width: 0
XAxis mode: Wavelengths
Number of Pixels in Spectrum: 2048
>>>>>Begin Spectral Data<<<<<
223.165	-12.31
223.4	-12.31
223.635	-12.31
223.869	-15.31
224.104	-22.31
224.338	-14.31
224.573	-12.31
224.808	-9.31
225.042	-1.31
225.277	-6.31
225.511	-10.31
225.746	3.69
225.98	8.69
226.215	3.69
226.449	22.69
226.683	16.69
226.918	24.69
227.152	23.69
227.387	29.69
227.621	39.69
227.856	33.69
228.09	36.69
228.324	37.69
228.559	44.69
228.793	56.69
229.027	90.69
229.262	106.69
229.496	96.69
229.73	116.69
229.964	154.69
230.199	120.69
230.433	121.69
230.667	112.69
230.901	100.69
231.136	110.69
231.37	108.69
231.604	124.69
231.838	106.69
232.072	109.69
232.306	102.69
232.541	108.69
232.775	113.69
233.009	120.69
233.243	107.69
233.477	112.69
233.711	97.69
233.945	108.69
234.179	123.69
234.413	120.69
234.647	118.69
234.881	122.69
235.115	108.69
235.349	117.69
235.583	123.69
235.817	121.69
236.051	123.69
236.285	124.69
236.519	119.69
236.753	107.69
236.987	121.69
237.221	166.69
237.455	210.69
237.689	162.69
237.922	129.69
238.156	124.69
238.39	138.69
238.624	128.69
238.858	129.69
239.091	124.69
239.325	126.69
239.559	134.69
239.793	132.69
240.027	125.69
240.26	144.69
240.494	160.69
240.728	140.69
240.961	142.69
241.195	143.69
241.429	134.69
241.662	133.69
241.896	136.69
242.13	125.69
242.363	143.69
242.597	133.69
242.83	141.69
243.064	132.69
243.298	143.69
243.531	129.69
243.765	142.69
243.998	123.69
244.232	142.69
244.465	126.69
244.699	146.69
244.932	134.69
245.166	149.69
245.399	142.69
245.633	156.69
245.866	147.69
246.099	152.69
246.333	146.69
246.566	139.69
246.8	146.69
247.033	151.69
247.266	163.69
247.5	158.69
247.733	148.69
247.966	170.69
248.2	147.69
248.433	168.69
248.666	157.69
248.899	170.69
249.133	180.69
249.366	196.69
249.599	187.69
249.832	174.69
250.066	165.69
250.299	172.69
250.532	187.69
250.765	180.69
250.998	193.69
251.231	205.69
251.465	206.69
251.698	194.69
251.931	188.69
252.164	184.69
252.397	182.69
252.63	202.69
252.863	182.69
253.096	198.69
253.329	190.69
253.562	218.69
253.795	214.69
254.028	206.69
254.261	210.69
254.494	204.69
254.727	233.69
254.96	238.69
255.193	258.69
255.426	214.69
255.659	189.69
255.892	214.69
256.124	223.69
256.357	203.69
256.59	205.69
256.823	209.69
257.056	198.69
257.289	192.69
257.521	190.69
257.754	212.69
257.987	198.69
258.22	188.69
258.452	192.69
258.685	180.69
258.918	198.69
259.151	187.69
259.383	212.69
259.616	207.69
259.849	212.69
260.081	214.69
260.314	202.69
260.547	236.69
260.779	215.69
261.012	222.69
261.244	202.69
261.477	217.69
261.71	200.69
261.942	216.69
262.175	232.69
262.407	206.69
262.64	202.69
262.872	203.69
263.105	210.69
263.337	210.69
263.57	208.69
263.802	205.69
264.035	210.69
264.267	198.69
264.499	205.69
264.732	194.69
264.964	195.69
265.197	200.69
265.429	197.69
265.661	194.69
265.894	208.69
266.126	193.69
266.358	212.69
266.591	194.69
266.823	212.69
267.055	223.69
267.287	208.69
267.52	224.69
267.752	213.69
267.984	222.69
268.216	200.69
268.448	214.69
268.681	228.69
268.913	212.69
269.145	236.69
269.377	238.69
269.609	258.69
269.841	251.69
270.073	244.69
270.306	261.69
270.538	285.69
270.77	287.69
271.002	270.69
271.234	266.69
271.466	272.69
271.698	251.69
271.93	290.69
272.162	280.69
272.394	263.69
272.626	264.69
272.858	264.69
273.09	241.69
273.322	269.69
273.553	248.69
273.785	243.69
274.017	260.69
274.249	257.69
274.481	242.69
274.713	249.69
274.945	273.69
275.176	272.69
275.408	259.69
275.64	251.69
275.872	246.69
276.104	245.69
276.335	227.69
276.567	266.69
276.799	259.69
277.031	274.69
277.262	298.69
277.494	281.69
277.726	269.69
277.957	260.69
278.189	242.69
278.421	256.69
278.652	274.69
278.884	249.69
279.115	246.69
279.347	254.69
279.579	257.69
279.81	266.69
280.042	256.69
280.273	258.69
280.505	260.69
280.736	251.69
280.968	255.69
281.199	256.69
281.431	260.69
281.662	252.69
281.894	256.69
282.125	266.69
282.356	276.69
282.588	295.69
282.819	302.69
283.051	283.69
283.282	243.69
283.513	255.69
283.745	266.69
283.976	257.69
284.207	262.69
284.439	270.69
284.67	273.69
284.901	268.69
285.132	258.69
285.364	258.69
285.595	254.69
285.826	282.69
286.057	269.69
286.288	281.69
286.52	285.69
286.751	261.69
286.982	268.69
287.213	262.69
287.444	296.69
287.675	265.69
287.906	282.69
288.138	293.69
288.369	290.69
288.6	307.69
288.831	288.69
289.062	288.69
289.293	276.69
289.524	276.69
289.755	273.69
289.986	283.69
290.217	272.69
290.448	279.69
290.679	265.69
290.91	308.69
291.141	282.69
291.371	284.69
291.602	280.69
291.833	288.69
292.064	291.69
292.295	269.69
292.526	282.69
292.757	296.69
292.987	304.69
293.218	258.69
293.449	295.69
293.68	288.69
293.91	291.69
294.141	283.69
294.372	269.69
294.603	288.69
294.833	294.69
295.064	299.69
295.295	298.69
295.525	288.69
295.756	290.69
295.987	289.69
296.217	316.69
296.448	322.69
296.679	313.69
296.909	291.69
297.14	297.69
297.37	284.69
297.601	290.69
297.831	313.69
298.062	321.69
298.292	307.69
298.523	299.69
298.753	306.69
298.984	300.69
299.214	294.69
299.445	293.69
299.675	303.69
299.905	306.69
300.136	297.69
300.366	306.69
300.597	319.69
300.827	295.69
301.057	326.69
301.288	331.69
301.518	300.69
301.748	323.69
301.979	308.69
302.209	321.69
302.439	306.69
302.669	310.69
302.9	309.69
303.13	336.69
303.36	320.69
303.59	313.69
303.82	324.69
304.051	327.69
304.281	314.69
304.511	319.69
304.741	317.69
304.971	320.69
305.201	318.69
305.431	314.69
305.661	317.69
305.891	308.69
306.121	324.69
306.352	330.69
306.582	324.69
306.812	323.69
307.042	323.69
307.272	327.69
307.502	321.69
307.731	341.69
307.961	325.69
308.191	318.69
308.421	332.69
308.651	337.69
308.881	324.69
309.111	333.69
309.341	330.69
309.571	336.69
309.8	347.69
310.03	340.69
310.26	380.69
310.49	345.69
310.72	349.69
310.949	377.69
311.179	368.69
311.409	360.69
311.639	358.69
311.868	358.69
312.098	369.69
312.328	352.69
312.557	372.69
312.787	377.69
313.017	375.69
313.246	373.69
313.476	388.69
313.706	349.69
313.935	338.69
314.165	351.69
314.394	379.69
314.624	379.69
314.853	379.69
315.083	365.69
315.312	362.69
315.542	378.69
315.771	356.69
316.001	353.69
316.23	351.69
316.46	371.69
316.689	358.69
316.919	380.69
317.148	355.69
317.377	376.69
317.607	382.69
317.836	366.69
318.065	355.69
318.295	356.69
318.524	376.69
318.753	361.69
318.983	360.69
319.212	352.69
319.441	363.69
319.67	361.69
319.9	341.69
320.129	371.69
320.358	382.69
320.587	373.69
320.816	372.69
321.046	393.69
321.275	382.69
321.504	381.69
321.733	386.69
321.962	384.69
322.191	413.69
322.42	400.69
322.649	410.69
322.878	420.69
323.108	440.69
323.337	444.69
323.566	453.69
323.795	493.69
324.024	509.69
324.253	614.69
324.482	861.69
324.71	1352.69
324.939	1976.69
325.168	1726.69
325.397	845.69
325.626	573.69
325.855	511.69
326.084	488.69
326.313	449.69
326.542	467.69
326.77	517.69
326.999	594.69
327.228	828.69
327.457	1255.69
327.686	1536.69
327.914	966.69
328.143	637.69
328.372	572.69
328.6	533.69
328.829	501.69
329.058	531.69
329.287	553.69
329.515	515.69
329.744	481.69
329.972	472.69
330.201	481.69
330.43	525.69
330.658	528.69
330.887	581.69
331.115	534.69
331.344	505.69
331.572	477.69
331.801	482.69
332.03	462.69
332.258	463.69
332.486	450.69
332.715	445.69
332.943	441.69
333.172	456.69
333.4	451.69
333.629	461.69
333.857	471.69
334.085	484.69
334.314	483.69
334.542	519.69
334.771	547.69
334.999	493.69
335.227	499.69
335.455	444.69
335.684	467.69
335.912	435.69
336.14	442.69
336.369	425.69
336.597	448.69
336.825	453.69
337.053	453.69
337.281	418.69
337.51	446.69
337.738	454.69
337.966	417.69
338.194	445.69
338.422	440.69
338.65	435.69
338.878	419.69
339.106	424.69
339.334	428.69
339.562	418.69
339.79	399.69
340.018	432.69
340.246	429.69
340.474	448.69
340.702	425.69
340.93	422.69
341.158	415.69
341.386	428.69
341.614	440.69
341.842	412.69
342.07	417.69
342.298	423.69
342.526	412.69
342.754	420.69
342.981	418.69
343.209	394.69
343.437	431.69
343.665	426.69
343.893	440.69
344.12	434.69
344.348	446.69
344.576	437.69
344.804	434.69
345.031	430.69
345.259	462.69
345.487	435.69
345.714	462.69
345.942	422.69
346.17	404.69
346.397	416.69
346.625	408.69
346.853	399.69
347.08	391.69
347.308	424.69
347.535	421.69
347.763	439.69
347.99	416.69
348.218	411.69
348.445	425.69
348.673	416.69
348.9	410.69
349.128	393.69
349.355	408.69
349.583	384.69
349.81	409.69
350.037	400.69
350.265	391.69
350.492	397.69
350.72	401.69
350.947	412.69
351.174	407.69
351.402	420.69
351.629	412.69
351.856	398.69
352.083	412.69
352.311	430.69
352.538	413.69
352.765	422.69
352.992	421.69
353.22	395.69
353.447	418.69
353.674	420.69
353.901	380.69
354.128	384.69
354.355	386.69
354.583	396.69
354.81	397.69
355.037	401.69
355.264	379.69
355.491	391.69
355.718	382.69
355.945	388.69
356.172	408.69
356.399	357.69
356.626	379.69
356.853	416.69
357.08	396.69
357.307	383.69
357.534	386.69
357.761	392.69
357.988	405.69
358.215	384.69
358.441	389.69
358.668	397.69
358.895	387.69
359.122	417.69
359.349	420.69
359.576	423.69
359.802	422.69
360.029	449.69
360.256	441.69
360.483	445.69
360.709	421.69
360.936	424.69
361.163	420.69
361.39	405.69
361.616	416.69
361.843	402.69
362.07	394.69
362.296	418.69
362.523	411.69
362.749	427.69
362.976	398.69
363.203	409.69
363.429	413.69
363.656	406.69
363.882	402.69
364.109	404.69
364.335	394.69
364.562	426.69
364.788	405.69
365.015	403.69
365.241	423.69
365.468	423.69
365.694	399.69
365.92	423.69
366.147	406.69
366.373	412.69
366.599	405.69
366.826	395.69
367.052	392.69
367.278	379.69
367.505	394.69
367.731	408.69
367.957	403.69
368.184	399.69
368.41	423.69
368.636	430.69
368.862	439.69
369.089	422.69
369.315	392.69
369.541	397.69
369.767	398.69
369.993	412.69
370.219	420.69
370.445	405.69
370.672	396.69
370.898	406.69
371.124	382.69
371.35	407.69
371.576	418.69
371.802	425.69
372.028	407.69
372.254	405.69
372.48	390.69
372.706	411.69
372.932	408.69
373.158	409.69
373.384	421.69
373.61	410.69
373.835	423.69
374.061	425.69
374.287	428.69
374.513	426.69
374.739	434.69
374.965	410.69
375.191	413.69
375.416	444.69
375.642	437.69
375.868	443.69
376.094	421.69
376.319	417.69
376.545	427.69
376.771	419.69
376.997	415.69
377.222	405.69
377.448	412.69
377.674	436.69
377.899	397.69
378.125	415.69
378.35	396.69
378.576	415.69
378.802	410.69
379.027	386.69
379.253	403.69
379.478	420.69
379.704	417.69
379.929	416.69
380.155	417.69
380.38	423.69
380.606	418.69
380.831	402.69
381.057	432.69
381.282	413.69
381.507	417.69
381.733	404.69
381.958	426.69
382.184	415.69
382.409	436.69
382.634	441.69
382.86	426.69
383.085	422.69
383.31	434.69
383.535	452.69
383.761	438.69
383.986	448.69
384.211	434.69
384.436	453.69
384.662	446.69
384.887	459.69
385.112	439.69
385.337	444.69
385.562	456.69
385.787	443.69
386.013	473.69
386.238	470.69
386.463	464.69
386.688	468.69
386.913	461.69
387.138	475.69
387.363	471.69
387.588	434.69
387.813	444.69
388.038	453.69
388.263	468.69
388.488	468.69
388.713	469.69
388.938	475.69
389.163	451.69
389.387	472.69
389.612	451.69
389.837	470.69
390.062	448.69
390.287	455.69
390.512	461.69
390.736	454.69
390.961	476.69
391.186	476.69
391.411	466.69
391.636	458.69
391.86	495.69
392.085	484.69
392.31	493.69
392.534	481.69
392.759	492.69
392.984	473.69
393.208	476.69
393.433	496.69
393.658	495.69
393.882	477.69
394.107	481.69
394.331	489.69
394.556	499.69
394.78	476.69
395.005	489.69
395.229	482.69
395.454	488.69
395.678	511.69
395.903	516.69
396.127	528.69
396.352	512.69
396.576	503.69
396.801	488.69
397.025	514.69
397.249	502.69
397.474	497.69
397.698	523.69
397.922	513.69
398.147	541.69
398.371	532.69
398.595	527.69
398.82	536.69
399.044	561.69
399.268	559.69
399.492	615.69
399.717	642.69
399.941	674.69
400.165	666.69
400.389	669.69
400.613	594.69
400.837	570.69
401.062	570.69
401.286	555.69
401.51	527.69
401.734	533.69
401.958	545.69
402.182	570.69
402.406	589.69
402.63	591.69
402.854	575.69
403.078	539.69
403.302	556.69
403.526	580.69
403.75	583.69
403.974	587.69
404.198	565.69
404.422	568.69
404.645	581.69
404.869	582.69
405.093	613.69
405.317	647.69
405.541	697.69
405.765	652.69
405.988	617.69
406.212	617.69
406.436	616.69
406.66	630.69
406.883	619.69
407.107	640.69
407.331	691.69
407.555	741.69
407.778	765.69
408.002	678.69
408.226	628.69
408.449	652.69
408.673	630.69
408.896	654.69
409.12	673.69
409.344	670.69
409.567	632.69
409.791	588.69
410.014	576.69
410.238	575.69
410.461	582.69
410.685	627.69
410.908	605.69
411.132	621.69
411.355	666.69
411.578	631.69
411.802	570.69
412.025	568.69
412.249	599.69
412.472	590.69
412.695	626.69
412.919	630.69
413.142	572.69
413.365	584.69
413.589	556.69
413.812	556.69
414.035	552.69
414.258	555.69
414.482	527.69
414.705	551.69
414.928	543.69
415.151	563.69
415.374	538.69
415.597	568.69
415.821	552.69
416.044	533.69
416.267	547.69
416.49	535.69
416.713	546.69
416.936	570.69
417.159	544.69
417.382	545.69
417.605	551.69
417.828	561.69
418.051	579.69
418.274	556.69
418.497	548.69
418.72	558.69
418.943	527.69
419.166	576.69
419.389	599.69
419.611	595.69
419.834	579.69
420.057	590.69
420.28	580.69
420.503	556.69
420.726	589.69
420.948	564.69
421.171	617.69
421.394	630.69
421.617	594.69
421.839	563.69
422.062	557.69
422.285	586.69
422.507	633.69
422.73	696.69
422.953	682.69
423.175	605.69
423.398	618.69
423.621	601.69
423.843	611.69
424.066	602.69
424.288	602.69
424.511	599.69
424.733	668.69
424.956	754.69
425.178	709.69
425.401	706.69
425.623	737.69
425.846	612.69
426.068	608.69
426.291	605.69
426.513	595.69
426.735	594.69
426.958	632.69
427.18	720.69
427.402	813.69
427.625	914.69
427.847	816.69
428.069	691.69
428.292	638.69
428.514	594.69
428.736	588.69
428.958	553.69
429.181	554.69
429.403	559.69
429.625	579.69
429.847	602.69
430.069	636.69
430.292	639.69
430.514	583.69
430.736	558.69
430.958	550.69
431.18	552.69
431.402	551.69
431.624	515.69
431.846	524.69
432.068	528.69
432.29	553.69
432.512	520.69
432.734	537.69
432.956	545.69
433.178	541.69
433.4	543.69
433.622	526.69
433.844	544.69
434.066	536.69
434.287	554.69
434.509	548.69
434.731	559.69
434.953	554.69
435.175	584.69
435.397	592.69
435.618	605.69
435.84	637.69
436.062	729.69
436.284	780.69
436.505	658.69
436.727	627.69
436.949	572.69
437.17	550.69
437.392	573.69
437.614	563.69
437.835	589.69
438.057	669.69
438.278	772.69
438.5	748.69
438.721	834.69
438.943	793.69
439.165	662.69
439.386	593.69
439.608	578.69
439.829	600.69
440.05	617.69
440.272	663.69
440.493	614.69
440.715	598.69
440.936	563.69
441.158	558.69
441.379	553.69
441.6	563.69
441.822	585.69
442.043	620.69
442.264	710.69
442.486	748.69
442.707	670.69
442.928	591.69
443.149	607.69
443.371	652.69
443.592	672.69
443.813	742.69
444.034	818.69
444.255	694.69
444.476	630.69
444.698	606.69
444.919	631.69
445.14	714.69
445.361	664.69
445.582	648.69
445.803	692.69
446.024	781.69
446.245	780.69
446.466	710.69
446.687	617.69
446.908	597.69
447.129	580.69
447.35	537.69
447.571	557.69
447.792	542.69
448.013	563.69
448.234	573.69
448.455	612.69
448.675	710.69
448.896	824.69
449.117	708.69
449.338	658.69
449.559	765.69
449.779	893.69
450	686.69
450.221	578.69
450.442	539.69
450.662	554.69
450.883	535.69
451.104	544.69
451.324	511.69
451.545	491.69
451.766	502.69
451.986	466.69
452.207	514.69
452.428	498.69
452.648	500.69
452.869	501.69
453.089	512.69
453.31	524.69
453.53	485.69
453.751	499.69
453.971	482.69
454.192	526.69
454.412	504.69
454.633	505.69
454.853	481.69
455.073	476.69
455.294	542.69
455.514	564.69
455.734	557.69
455.955	489.69
456.175	482.69
456.395	448.69
456.616	480.69
456.836	473.69
457.056	489.69
457.276	475.69
457.497	492.69
457.717	482.69
457.937	471.69
458.157	499.69
458.377	502.69
458.598	518.69
458.818	545.69
459.038	637.69
459.258	658.69
459.478	578.69
459.698	550.69
459.918	543.69
460.138	547.69
460.358	556.69
460.578	545.69
460.798	562.69
461.018	576.69
461.238	556.69
461.458	572.69
461.678	543.69
461.898	568.69
462.118	561.69
462.338	582.69
462.558	586.69
462.777	601.69
462.997	627.69
463.217	618.69
463.437	639.69
463.657	610.69
463.876	617.69
464.096	602.69
464.316	585.69
464.536	604.69
464.755	594.69
464.975	605.69
465.195	628.69
465.414	703.69
465.634	615.69
465.854	577.69
466.073	566.69
466.293	546.69
466.512	548.69
466.732	525.69
466.951	510.69
467.171	518.69
467.391	530.69
467.61	543.69
467.829	533.69
468.049	519.69
468.268	523.69
468.488	529.69
468.707	500.69
468.927	518.69
469.146	511.69
469.365	488.69
469.585	508.69
469.804	507.69
470.023	511.69
470.243	529.69
470.462	556.69
470.681	552.69
470.901	552.69
471.12	532.69
471.339	520.69
471.558	523.69
471.777	506.69
471.997	532.69
472.216	524.69
472.435	551.69
472.654	544.69
472.873	525.69
473.092	511.69
473.311	493.69
473.53	523.69
473.749	523.69
473.968	556.69
474.187	619.69
474.406	650.69
474.625	560.69
474.844	527.69
475.063	507.69
475.282	510.69
475.501	503.69
475.72	518.69
475.939	521.69
476.158	545.69
476.377	529.69
476.596	533.69
476.814	520.69
477.033	555.69
477.252	574.69
477.471	548.69
477.69	546.69
477.908	579.69
478.127	576.69
478.346	557.69
478.564	597.69
478.783	571.69
479.002	601.69
479.22	608.69
479.439	630.69
479.658	618.69
479.876	620.69
480.095	618.69
480.313	647.69
480.532	651.69
480.751	633.69
480.969	626.69
481.188	694.69
481.406	718.69
481.624	662.69
481.843	651.69
482.061	607.69
482.28	599.69
482.498	603.69
482.717	616.69
482.935	602.69
483.153	617.69
483.372	619.69
483.59	612.69
483.808	641.69
484.027	624.69
484.245	620.69
484.463	642.69
484.681	592.69
484.9	600.69
485.118	617.69
485.336	605.69
485.554	645.69
485.772	627.69
485.99	624.69
486.209	627.69
486.427	638.69
486.645	642.69
486.863	651.69
487.081	677.69
487.299	640.69
487.517	652.69
487.735	666.69
487.953	643.69
488.171	644.69
488.389	661.69
488.607	648.69
488.825	667.69
489.043	662.69
489.261	645.69
489.479	632.69
489.696	673.69
489.914	652.69
490.132	677.69
490.35	683.69
490.568	683.69
490.786	709.69
491.003	677.69
491.221	704.69
491.439	701.69
491.657	748.69
491.874	704.69
492.092	722.69
492.31	731.69
492.527	732.69
492.745	737.69
492.963	744.69
493.18	749.69
493.398	743.69
493.615	737.69
493.833	774.69
494.05	757.69
494.268	762.69
494.485	755.69
494.703	756.69
494.92	737.69
495.138	742.69
495.355	756.69
495.573	758.69
495.79	745.69
496.008	772.69
496.225	780.69
496.442	778.69
496.66	784.69
496.877	758.69
497.094	777.69
497.312	806.69
497.529	822.69
497.746	816.69
497.963	813.69
498.181	853.69
498.398	857.69
498.615	856.69
498.832	921.69
499.049	936.69
499.267	956.69
499.484	967.69
499.701	1038.69
499.918	1070.69
500.135	1118.69
500.352	1196.69
500.569	1194.69
500.786	1223.69
501.003	1193.69
501.22	1136.69
501.437	1104.69
501.654	1052.69
501.871	1065.69
