Data from 1979.PennyLincolnUp.Lamp.En5.5.200Scan.071719.P1_HRD10591_16-18-44-863.txt Node
Date: Thu Jul 18 16:18:44 EDT 2019
User: cochatt
Spectrometer: HR+D1059
Trigger mode: 1
Integration Time (sec): 1.000000E-1
Scans to average: 1
Electric dark correction enabled: true
Nonlinearity correction enabled: false
Boxcar width: 0
XAxis mode: Wavelengths
Number of Pixels in Spectrum: 2048
>>>>>Begin Spectral Data<<<<<
223.165	-21.06
223.4	-21.06
223.635	-21.06
223.869	-10.06
224.104	-21.06
224.338	-8.06
224.573	-7.06
224.808	-4.06
225.042	-7.06
225.277	6.94
225.511	-4.06
225.746	-1.06
225.98	4.94
226.215	2.94
226.449	-3.06
226.683	25.94
226.918	25.94
227.152	19.94
227.387	36.94
227.621	35.94
227.856	35.94
228.09	58.94
228.324	47.94
228.559	60.94
228.793	57.94
229.027	91.94
229.262	111.94
229.496	117.94
229.73	120.94
229.964	125.94
230.199	124.94
230.433	119.94
230.667	115.94
230.901	96.94
231.136	111.94
231.37	110.94
231.604	111.94
231.838	113.94
232.072	111.94
232.306	117.94
232.541	132.94
232.775	108.94
233.009	113.94
233.243	120.94
233.477	117.94
233.711	101.94
233.945	106.94
234.179	112.94
234.413	120.94
234.647	122.94
234.881	123.94
235.115	105.94
235.349	109.94
235.583	119.94
235.817	119.94
236.051	130.94
236.285	126.94
236.519	129.94
236.753	128.94
236.987	128.94
237.221	155.94
237.455	205.94
237.689	179.94
237.922	130.94
238.156	140.94
238.39	124.94
238.624	122.94
238.858	123.94
239.091	126.94
239.325	126.94
239.559	135.94
239.793	136.94
240.027	120.94
240.26	149.94
240.494	153.94
240.728	142.94
240.961	140.94
241.195	138.94
241.429	127.94
241.662	138.94
241.896	126.94
242.13	119.94
242.363	132.94
242.597	130.94
242.83	125.94
243.064	127.94
243.298	141.94
243.531	133.94
243.765	140.94
243.998	134.94
244.232	122.94
244.465	123.94
244.699	138.94
244.932	147.94
245.166	148.94
245.399	140.94
245.633	140.94
245.866	144.94
246.099	139.94
246.333	135.94
246.566	145.94
246.8	137.94
247.033	163.94
247.266	159.94
247.5	160.94
247.733	166.94
247.966	164.94
248.2	162.94
248.433	167.94
248.666	157.94
248.899	162.94
249.133	182.94
249.366	206.94
249.599	180.94
249.832	182.94
250.066	180.94
250.299	187.94
250.532	182.94
250.765	182.94
250.998	195.94
251.231	209.94
251.465	190.94
251.698	198.94
251.931	187.94
252.164	186.94
252.397	188.94
252.63	182.94
252.863	198.94
253.096	200.94
253.329	212.94
253.562	208.94
253.795	211.94
254.028	199.94
254.261	196.94
254.494	214.94
254.727	239.94
254.96	251.94
255.193	228.94
255.426	232.94
255.659	214.94
255.892	214.94
256.124	217.94
256.357	211.94
256.59	205.94
256.823	206.94
257.056	206.94
257.289	187.94
257.521	189.94
257.754	197.94
257.987	183.94
258.22	211.94
258.452	209.94
258.685	194.94
258.918	189.94
259.151	214.94
259.383	217.94
259.616	199.94
259.849	197.94
260.081	218.94
260.314	256.94
260.547	240.94
260.779	226.94
261.012	208.94
261.244	208.94
261.477	215.94
261.71	205.94
261.942	214.94
262.175	216.94
262.407	204.94
262.64	197.94
262.872	200.94
263.105	205.94
263.337	199.94
263.57	194.94
263.802	208.94
264.035	202.94
264.267	199.94
264.499	196.94
264.732	201.94
264.964	206.94
265.197	206.94
265.429	207.94
265.661	199.94
265.894	198.94
266.126	196.94
266.358	215.94
266.591	185.94
266.823	204.94
267.055	216.94
267.287	212.94
267.52	210.94
267.752	226.94
267.984	218.94
268.216	233.94
268.448	227.94
268.681	221.94
268.913	223.94
269.145	242.94
269.377	272.94
269.609	265.94
269.841	251.94
270.073	254.94
270.306	261.94
270.538	278.94
270.77	272.94
271.002	262.94
271.234	254.94
271.466	266.94
271.698	273.94
271.93	274.94
272.162	288.94
272.394	287.94
272.626	293.94
272.858	253.94
273.09	268.94
273.322	255.94
273.553	233.94
273.785	251.94
274.017	236.94
274.249	242.94
274.481	244.94
274.713	233.94
274.945	255.94
275.176	245.94
275.408	230.94
275.64	242.94
275.872	246.94
276.104	238.94
276.335	267.94
276.567	235.94
276.799	250.94
277.031	291.94
277.262	276.94
277.494	275.94
277.726	277.94
277.957	262.94
278.189	255.94
278.421	245.94
278.652	247.94
278.884	269.94
279.115	260.94
279.347	252.94
279.579	250.94
279.81	266.94
280.042	248.94
280.273	262.94
280.505	251.94
280.736	274.94
280.968	260.94
281.199	254.94
281.431	250.94
281.662	265.94
281.894	256.94
282.125	257.94
282.356	272.94
282.588	276.94
282.819	287.94
283.051	257.94
283.282	247.94
283.513	245.94
283.745	239.94
283.976	249.94
284.207	280.94
284.439	264.94
284.67	254.94
284.901	278.94
285.132	275.94
285.364	232.94
285.595	250.94
285.826	261.94
286.057	262.94
286.288	275.94
286.52	292.94
286.751	270.94
286.982	273.94
287.213	280.94
287.444	268.94
287.675	272.94
287.906	273.94
288.138	272.94
288.369	280.94
288.6	286.94
288.831	274.94
289.062	269.94
289.293	290.94
289.524	280.94
289.755	261.94
289.986	283.94
290.217	272.94
290.448	279.94
290.679	279.94
290.91	272.94
291.141	278.94
291.371	260.94
291.602	279.94
291.833	282.94
292.064	267.94
292.295	275.94
292.526	291.94
292.757	280.94
292.987	282.94
293.218	277.94
293.449	276.94
293.68	279.94
293.91	280.94
294.141	276.94
294.372	258.94
294.603	284.94
294.833	283.94
295.064	277.94
295.295	293.94
295.525	265.94
295.756	293.94
295.987	292.94
296.217	317.94
296.448	308.94
296.679	313.94
296.909	306.94
297.14	292.94
297.37	296.94
297.601	307.94
297.831	295.94
298.062	291.94
298.292	296.94
298.523	288.94
298.753	299.94
298.984	297.94
299.214	284.94
299.445	304.94
299.675	282.94
299.905	312.94
300.136	322.94
300.366	291.94
300.597	287.94
300.827	298.94
301.057	299.94
301.288	313.94
301.518	303.94
301.748	302.94
301.979	310.94
302.209	320.94
302.439	325.94
302.669	311.94
302.9	316.94
303.13	310.94
303.36	315.94
303.59	310.94
303.82	310.94
304.051	326.94
304.281	320.94
304.511	320.94
304.741	331.94
304.971	307.94
305.201	312.94
305.431	314.94
305.661	306.94
305.891	315.94
306.121	324.94
306.352	334.94
306.582	320.94
306.812	312.94
307.042	312.94
307.272	335.94
307.502	316.94
307.731	333.94
307.961	315.94
308.191	326.94
308.421	321.94
308.651	310.94
308.881	322.94
309.111	310.94
309.341	327.94
309.571	336.94
309.8	334.94
310.03	358.94
310.26	364.94
310.49	350.94
310.72	371.94
310.949	350.94
311.179	364.94
311.409	347.94
311.639	340.94
311.868	355.94
312.098	368.94
312.328	344.94
312.557	363.94
312.787	392.94
313.017	350.94
313.246	351.94
313.476	351.94
313.706	324.94
313.935	379.94
314.165	378.94
314.394	365.94
314.624	367.94
314.853	377.94
315.083	347.94
315.312	359.94
315.542	341.94
315.771	363.94
316.001	359.94
316.23	357.94
316.46	336.94
316.689	371.94
316.919	381.94
317.148	362.94
317.377	382.94
317.607	366.94
317.836	378.94
318.065	367.94
318.295	368.94
318.524	371.94
318.753	370.94
318.983	343.94
319.212	374.94
319.441	364.94
319.67	379.94
319.9	385.94
320.129	362.94
320.358	362.94
320.587	362.94
320.816	372.94
321.046	380.94
321.275	382.94
321.504	390.94
321.733	366.94
321.962	382.94
322.191	396.94
322.42	396.94
322.649	439.94
322.878	415.94
323.108	439.94
323.337	453.94
323.566	443.94
323.795	469.94
324.024	506.94
324.253	611.94
324.482	854.94
324.71	1282.94
324.939	1971.94
325.168	1651.94
325.397	856.94
325.626	576.94
325.855	502.94
326.084	453.94
326.313	461.94
326.542	452.94
326.77	502.94
326.999	605.94
327.228	780.94
327.457	1180.94
327.686	1493.94
327.914	956.94
328.143	636.94
328.372	548.94
328.6	534.94
328.829	495.94
329.058	515.94
329.287	509.94
329.515	458.94
329.744	489.94
329.972	487.94
330.201	503.94
330.43	504.94
330.658	539.94
330.887	559.94
331.115	566.94
331.344	504.94
331.572	448.94
331.801	447.94
332.03	472.94
332.258	468.94
332.486	423.94
332.715	453.94
332.943	454.94
333.172	440.94
333.4	448.94
333.629	458.94
333.857	457.94
334.085	463.94
334.314	479.94
334.542	483.94
334.771	508.94
334.999	482.94
335.227	464.94
335.455	460.94
335.684	462.94
335.912	441.94
336.14	425.94
336.369	440.94
336.597	435.94
336.825	428.94
337.053	443.94
337.281	426.94
337.51	427.94
337.738	417.94
337.966	428.94
338.194	420.94
338.422	424.94
338.65	422.94
338.878	421.94
339.106	415.94
339.334	429.94
339.562	415.94
339.79	392.94
340.018	399.94
340.246	428.94
340.474	418.94
340.702	417.94
340.93	403.94
341.158	419.94
341.386	422.94
341.614	419.94
341.842	413.94
342.07	424.94
342.298	428.94
342.526	398.94
342.754	426.94
342.981	405.94
343.209	425.94
343.437	425.94
343.665	424.94
343.893	442.94
344.12	462.94
344.348	455.94
344.576	450.94
344.804	420.94
345.031	430.94
345.259	459.94
345.487	440.94
345.714	422.94
345.942	422.94
346.17	421.94
346.397	396.94
346.625	424.94
346.853	393.94
347.08	404.94
347.308	419.94
347.535	403.94
347.763	384.94
347.99	414.94
348.218	418.94
348.445	416.94
348.673	437.94
348.9	399.94
349.128	404.94
349.355	405.94
349.583	390.94
349.81	391.94
350.037	401.94
350.265	401.94
350.492	380.94
350.72	382.94
350.947	410.94
351.174	400.94
351.402	424.94
351.629	418.94
351.856	423.94
352.083	399.94
352.311	432.94
352.538	404.94
352.765	405.94
352.992	410.94
353.22	398.94
353.447	404.94
353.674	409.94
353.901	409.94
354.128	384.94
354.355	371.94
354.583	384.94
354.81	403.94
355.037	384.94
355.264	369.94
355.491	383.94
355.718	384.94
355.945	390.94
356.172	383.94
356.399	383.94
356.626	400.94
356.853	387.94
357.08	399.94
357.307	392.94
357.534	382.94
357.761	387.94
357.988	378.94
358.215	386.94
358.441	379.94
358.668	392.94
358.895	380.94
359.122	385.94
359.349	421.94
359.576	416.94
359.802	415.94
360.029	440.94
360.256	440.94
360.483	433.94
360.709	410.94
360.936	410.94
361.163	423.94
361.39	415.94
361.616	388.94
361.843	414.94
362.07	414.94
362.296	391.94
362.523	415.94
362.749	415.94
362.976	404.94
363.203	415.94
363.429	397.94
363.656	394.94
363.882	407.94
364.109	388.94
364.335	390.94
364.562	394.94
364.788	393.94
365.015	390.94
365.241	393.94
365.468	409.94
365.694	414.94
365.92	393.94
366.147	420.94
366.373	393.94
366.599	402.94
366.826	404.94
367.052	389.94
367.278	382.94
367.505	396.94
367.731	383.94
367.957	403.94
368.184	429.94
368.41	395.94
368.636	406.94
368.862	410.94
369.089	400.94
369.315	403.94
369.541	403.94
369.767	398.94
369.993	399.94
370.219	404.94
370.445	394.94
370.672	421.94
370.898	393.94
371.124	398.94
371.35	419.94
371.576	405.94
371.802	413.94
372.028	403.94
372.254	399.94
372.48	407.94
372.706	411.94
372.932	397.94
373.158	429.94
373.384	414.94
373.61	413.94
373.835	410.94
374.061	400.94
374.287	421.94
374.513	414.94
374.739	418.94
374.965	426.94
375.191	405.94
375.416	431.94
375.642	423.94
375.868	419.94
376.094	413.94
376.319	402.94
376.545	420.94
376.771	413.94
376.997	404.94
377.222	398.94
377.448	408.94
377.674	395.94
377.899	400.94
378.125	399.94
378.35	414.94
378.576	401.94
378.802	401.94
379.027	398.94
379.253	394.94
379.478	395.94
379.704	413.94
379.929	412.94
380.155	408.94
380.38	411.94
380.606	409.94
380.831	408.94
381.057	410.94
381.282	395.94
381.507	424.94
381.733	396.94
381.958	406.94
382.184	416.94
382.409	444.94
382.634	437.94
382.86	403.94
383.085	414.94
383.31	420.94
383.535	442.94
383.761	439.94
383.986	452.94
384.211	416.94
384.436	428.94
384.662	463.94
384.887	441.94
385.112	430.94
385.337	446.94
385.562	451.94
385.787	454.94
386.013	480.94
386.238	458.94
386.463	467.94
386.688	461.94
386.913	457.94
387.138	448.94
387.363	452.94
387.588	444.94
387.813	437.94
388.038	445.94
388.263	463.94
388.488	466.94
388.713	464.94
388.938	477.94
389.163	461.94
389.387	450.94
389.612	463.94
389.837	484.94
390.062	455.94
390.287	451.94
390.512	434.94
390.736	440.94
390.961	456.94
391.186	453.94
391.411	452.94
391.636	472.94
391.86	482.94
392.085	477.94
392.31	494.94
392.534	463.94
392.759	499.94
392.984	472.94
393.208	477.94
393.433	469.94
393.658	498.94
393.882	482.94
394.107	472.94
394.331	465.94
394.556	470.94
394.78	456.94
395.005	471.94
395.229	483.94
395.454	484.94
395.678	489.94
395.903	486.94
396.127	491.94
396.352	496.94
396.576	472.94
396.801	467.94
397.025	498.94
397.249	494.94
397.474	489.94
397.698	492.94
397.922	518.94
398.147	532.94
398.371	499.94
398.595	528.94
398.82	549.94
399.044	561.94
399.268	577.94
399.492	592.94
399.717	638.94
399.941	662.94
400.165	663.94
400.389	658.94
400.613	614.94
400.837	580.94
401.062	565.94
401.286	555.94
401.51	566.94
401.734	536.94
401.958	550.94
402.182	546.94
402.406	575.94
402.63	578.94
402.854	562.94
403.078	550.94
403.302	558.94
403.526	570.94
403.75	575.94
403.974	563.94
404.198	575.94
404.422	564.94
404.645	548.94
404.869	584.94
405.093	601.94
405.317	639.94
405.541	655.94
405.765	581.94
405.988	582.94
406.212	605.94
406.436	635.94
406.66	617.94
406.883	615.94
407.107	648.94
407.331	652.94
407.555	718.94
407.778	733.94
408.002	696.94
408.226	664.94
408.449	630.94
408.673	626.94
408.896	656.94
409.12	674.94
409.344	640.94
409.567	614.94
409.791	585.94
410.014	582.94
410.238	575.94
410.461	582.94
410.685	598.94
410.908	598.94
411.132	619.94
411.355	636.94
411.578	608.94
411.802	558.94
412.025	586.94
412.249	592.94
412.472	596.94
412.695	627.94
412.919	646.94
413.142	594.94
413.365	556.94
413.589	550.94
413.812	530.94
414.035	542.94
414.258	543.94
414.482	555.94
414.705	542.94
414.928	524.94
415.151	552.94
415.374	544.94
415.597	564.94
415.821	525.94
416.044	530.94
416.267	550.94
416.49	532.94
416.713	512.94
416.936	538.94
417.159	537.94
417.382	538.94
417.605	526.94
417.828	548.94
418.051	552.94
418.274	574.94
418.497	512.94
418.72	530.94
418.943	522.94
419.166	592.94
419.389	586.94
419.611	571.94
419.834	558.94
420.057	585.94
420.28	562.94
420.503	545.94
420.726	546.94
420.948	558.94
421.171	606.94
421.394	621.94
421.617	588.94
421.839	558.94
422.062	551.94
422.285	594.94
422.507	599.94
422.73	678.94
422.953	647.94
423.175	598.94
423.398	596.94
423.621	589.94
423.843	606.94
424.066	601.94
424.288	601.94
424.511	612.94
424.733	662.94
424.956	725.94
425.178	703.94
425.401	693.94
425.623	701.94
425.846	632.94
426.068	608.94
426.291	585.94
426.513	586.94
426.735	587.94
426.958	596.94
427.18	713.94
427.402	823.94
427.625	890.94
427.847	751.94
428.069	690.94
428.292	622.94
428.514	582.94
428.736	546.94
428.958	568.94
429.181	528.94
429.403	527.94
429.625	559.94
429.847	584.94
430.069	643.94
430.292	642.94
430.514	550.94
430.736	550.94
430.958	538.94
431.18	532.94
431.402	536.94
431.624	505.94
431.846	530.94
432.068	509.94
432.29	529.94
432.512	534.94
432.734	534.94
432.956	529.94
433.178	549.94
433.4	543.94
433.622	554.94
433.844	523.94
434.066	529.94
434.287	507.94
434.509	550.94
434.731	576.94
434.953	556.94
435.175	552.94
435.397	595.94
435.618	595.94
435.84	616.94
436.062	697.94
436.284	778.94
436.505	659.94
436.727	612.94
436.949	566.94
437.17	540.94
437.392	544.94
437.614	589.94
437.835	557.94
438.057	656.94
438.278	779.94
438.5	756.94
438.721	795.94
438.943	800.94
439.165	635.94
439.386	578.94
439.608	606.94
439.829	588.94
440.05	611.94
440.272	652.94
440.493	616.94
440.715	585.94
440.936	568.94
441.158	534.94
441.379	539.94
441.6	572.94
441.822	569.94
442.043	614.94
442.264	688.94
442.486	727.94
442.707	629.94
442.928	581.94
443.149	591.94
443.371	632.94
443.592	633.94
443.813	739.94
444.034	806.94
444.255	674.94
444.476	613.94
444.698	607.94
444.919	593.94
445.14	694.94
445.361	678.94
445.582	608.94
445.803	671.94
446.024	764.94
446.245	780.94
446.466	730.94
446.687	629.94
446.908	575.94
447.129	585.94
447.35	568.94
447.571	538.94
447.792	533.94
448.013	534.94
448.234	554.94
448.455	613.94
448.675	700.94
448.896	801.94
449.117	706.94
449.338	685.94
449.559	782.94
449.779	841.94
450	687.94
450.221	580.94
450.442	525.94
450.662	529.94
450.883	517.94
451.104	531.94
451.324	532.94
451.545	514.94
451.766	500.94
451.986	480.94
452.207	482.94
452.428	483.94
452.648	473.94
452.869	502.94
453.089	494.94
453.31	507.94
453.53	510.94
453.751	458.94
453.971	470.94
454.192	513.94
454.412	472.94
454.633	480.94
454.853	475.94
455.073	485.94
455.294	502.94
455.514	562.94
455.734	550.94
455.955	486.94
456.175	447.94
456.395	463.94
456.616	460.94
456.836	476.94
457.056	453.94
457.276	468.94
457.497	456.94
457.717	459.94
457.937	476.94
458.157	485.94
458.377	479.94
458.598	486.94
458.818	547.94
459.038	613.94
459.258	662.94
459.478	587.94
459.698	546.94
459.918	515.94
460.138	536.94
460.358	543.94
460.578	539.94
460.798	542.94
461.018	547.94
461.238	554.94
461.458	558.94
461.678	568.94
461.898	560.94
462.118	556.94
462.338	570.94
462.558	573.94
462.777	592.94
462.997	606.94
463.217	632.94
463.437	603.94
463.657	590.94
463.876	591.94
464.096	574.94
464.316	590.94
464.536	574.94
464.755	577.94
464.975	592.94
465.195	612.94
465.414	696.94
465.634	603.94
465.854	564.94
466.073	540.94
466.293	527.94
466.512	510.94
466.732	514.94
466.951	494.94
467.171	510.94
467.391	516.94
467.61	508.94
467.829	527.94
468.049	534.94
468.268	501.94
468.488	510.94
468.707	478.94
468.927	511.94
469.146	516.94
469.365	506.94
469.585	498.94
469.804	525.94
470.023	548.94
470.243	508.94
470.462	529.94
470.681	520.94
470.901	557.94
471.12	528.94
471.339	517.94
471.558	518.94
471.777	518.94
471.997	494.94
472.216	525.94
472.435	555.94
472.654	538.94
472.873	511.94
473.092	512.94
473.311	491.94
473.53	524.94
473.749	501.94
473.968	566.94
474.187	642.94
474.406	636.94
474.625	556.94
474.844	540.94
475.063	527.94
475.282	514.94
475.501	522.94
475.72	520.94
475.939	520.94
476.158	518.94
476.377	538.94
476.596	531.94
476.814	542.94
477.033	556.94
477.252	548.94
477.471	535.94
477.69	574.94
477.908	564.94
478.127	557.94
478.346	564.94
478.564	586.94
478.783	579.94
479.002	576.94
479.22	586.94
479.439	600.94
479.658	593.94
479.876	630.94
480.095	633.94
480.313	643.94
480.532	640.94
480.751	612.94
480.969	633.94
481.188	682.94
481.406	717.94
481.624	659.94
481.843	630.94
482.061	602.94
482.28	602.94
482.498	598.94
482.717	601.94
482.935	603.94
483.153	589.94
483.372	590.94
483.59	606.94
483.808	600.94
484.027	596.94
484.245	617.94
484.463	594.94
484.681	613.94
484.9	601.94
485.118	623.94
485.336	639.94
485.554	626.94
485.772	601.94
485.99	628.94
486.209	623.94
486.427	620.94
486.645	646.94
486.863	644.94
487.081	662.94
487.299	636.94
487.517	667.94
487.735	644.94
487.953	640.94
488.171	648.94
488.389	640.94
488.607	646.94
488.825	630.94
489.043	643.94
489.261	656.94
489.479	643.94
489.696	649.94
489.914	666.94
490.132	678.94
490.35	673.94
490.568	660.94
490.786	660.94
491.003	694.94
491.221	716.94
491.439	702.94
491.657	707.94
491.874	719.94
492.092	718.94
492.31	721.94
492.527	730.94
492.745	731.94
492.963	726.94
493.18	741.94
493.398	749.94
493.615	739.94
493.833	733.94
494.05	751.94
494.268	736.94
494.485	733.94
494.703	725.94
494.92	730.94
495.138	733.94
495.355	752.94
495.573	750.94
495.79	751.94
496.008	770.94
496.225	735.94
496.442	767.94
496.66	781.94
496.877	763.94
497.094	786.94
497.312	779.94
497.529	774.94
497.746	782.94
497.963	795.94
498.181	846.94
498.398	836.94
498.615	848.94
498.832	873.94
499.049	916.94
499.267	954.94
499.484	985.94
499.701	1004.94
499.918	1048.94
500.135	1111.94
500.352	1182.94
500.569	1197.94
500.786	1187.94
501.003	1161.94
501.22	1130.94
501.437	1071.94
501.654	1029.94
501.871	1014.94
