Data from 1979.PennyLincolnUp.Lamp.En5.5.200Scan.071719.P1_HRD10591_16-18-33-863.txt Node
Date: Thu Jul 18 16:18:33 EDT 2019
User: cochatt
Spectrometer: HR+D1059
Trigger mode: 1
Integration Time (sec): 1.000000E-1
Scans to average: 1
Electric dark correction enabled: true
Nonlinearity correction enabled: false
Boxcar width: 0
XAxis mode: Wavelengths
Number of Pixels in Spectrum: 2048
>>>>>Begin Spectral Data<<<<<
223.165	-19.19
223.4	-19.19
223.635	-19.19
223.869	-13.19
224.104	-20.19
224.338	-11.19
224.573	-12.19
224.808	-4.19
225.042	-6.19
225.277	-11.19
225.511	-9.19
225.746	-0.19
225.98	3.81
226.215	9.81
226.449	21.81
226.683	23.81
226.918	12.81
227.152	34.81
227.387	38.81
227.621	35.81
227.856	42.81
228.09	44.81
228.324	50.81
228.559	49.81
228.793	67.81
229.027	88.81
229.262	103.81
229.496	111.81
229.73	118.81
229.964	131.81
230.199	114.81
230.433	95.81
230.667	93.81
230.901	114.81
231.136	105.81
231.37	120.81
231.604	98.81
231.838	109.81
232.072	99.81
232.306	116.81
232.541	119.81
232.775	101.81
233.009	108.81
233.243	112.81
233.477	98.81
233.711	100.81
233.945	99.81
234.179	121.81
234.413	96.81
234.647	115.81
234.881	99.81
235.115	124.81
235.349	106.81
235.583	125.81
235.817	111.81
236.051	121.81
236.285	115.81
236.519	129.81
236.753	130.81
236.987	130.81
237.221	155.81
237.455	211.81
237.689	168.81
237.922	140.81
238.156	125.81
238.39	115.81
238.624	107.81
238.858	120.81
239.091	114.81
239.325	118.81
239.559	119.81
239.793	140.81
240.027	129.81
240.26	123.81
240.494	151.81
240.728	148.81
240.961	153.81
241.195	132.81
241.429	123.81
241.662	124.81
241.896	130.81
242.13	116.81
242.363	125.81
242.597	123.81
242.83	140.81
243.064	141.81
243.298	135.81
243.531	127.81
243.765	115.81
243.998	133.81
244.232	122.81
244.465	138.81
244.699	140.81
244.932	140.81
245.166	144.81
245.399	145.81
245.633	136.81
245.866	140.81
246.099	148.81
246.333	140.81
246.566	140.81
246.8	139.81
247.033	145.81
247.266	144.81
247.5	164.81
247.733	161.81
247.966	167.81
248.2	149.81
248.433	159.81
248.666	170.81
248.899	165.81
249.133	172.81
249.366	185.81
249.599	171.81
249.832	171.81
250.066	169.81
250.299	179.81
250.532	179.81
250.765	186.81
250.998	191.81
251.231	204.81
251.465	194.81
251.698	184.81
251.931	189.81
252.164	195.81
252.397	199.81
252.63	169.81
252.863	180.81
253.096	177.81
253.329	208.81
253.562	212.81
253.795	207.81
254.028	215.81
254.261	195.81
254.494	191.81
254.727	219.81
254.96	248.81
255.193	240.81
255.426	217.81
255.659	191.81
255.892	226.81
256.124	204.81
256.357	227.81
256.59	211.81
256.823	208.81
257.056	194.81
257.289	197.81
257.521	189.81
257.754	196.81
257.987	200.81
258.22	194.81
258.452	196.81
258.685	199.81
258.918	192.81
259.151	180.81
259.383	182.81
259.616	201.81
259.849	212.81
260.081	221.81
260.314	226.81
260.547	228.81
260.779	239.81
261.012	207.81
261.244	212.81
261.477	209.81
261.71	209.81
261.942	205.81
262.175	211.81
262.407	203.81
262.64	196.81
262.872	196.81
263.105	198.81
263.337	218.81
263.57	187.81
263.802	193.81
264.035	197.81
264.267	199.81
264.499	199.81
264.732	213.81
264.964	213.81
265.197	204.81
265.429	195.81
265.661	217.81
265.894	215.81
266.126	221.81
266.358	185.81
266.591	200.81
266.823	201.81
267.055	207.81
267.287	202.81
267.52	224.81
267.752	216.81
267.984	210.81
268.216	224.81
268.448	230.81
268.681	212.81
268.913	244.81
269.145	213.81
269.377	248.81
269.609	237.81
269.841	244.81
270.073	229.81
270.306	268.81
270.538	283.81
270.77	280.81
271.002	284.81
271.234	262.81
271.466	253.81
271.698	285.81
271.93	271.81
272.162	273.81
272.394	281.81
272.626	275.81
272.858	282.81
273.09	273.81
273.322	248.81
273.553	246.81
273.785	245.81
274.017	250.81
274.249	243.81
274.481	245.81
274.713	234.81
274.945	226.81
275.176	245.81
275.408	243.81
275.64	245.81
275.872	245.81
276.104	245.81
276.335	245.81
276.567	259.81
276.799	255.81
277.031	273.81
277.262	282.81
277.494	289.81
277.726	276.81
277.957	270.81
278.189	264.81
278.421	246.81
278.652	261.81
278.884	258.81
279.115	247.81
279.347	258.81
279.579	254.81
279.81	247.81
280.042	262.81
280.273	252.81
280.505	264.81
280.736	268.81
280.968	256.81
281.199	236.81
281.431	252.81
281.662	254.81
281.894	265.81
282.125	267.81
282.356	270.81
282.588	291.81
282.819	279.81
283.051	283.81
283.282	251.81
283.513	271.81
283.745	285.81
283.976	249.81
284.207	251.81
284.439	278.81
284.67	268.81
284.901	252.81
285.132	277.81
285.364	268.81
285.595	252.81
285.826	262.81
286.057	293.81
286.288	264.81
286.52	270.81
286.751	271.81
286.982	293.81
287.213	286.81
287.444	293.81
287.675	275.81
287.906	285.81
288.138	294.81
288.369	287.81
288.6	284.81
288.831	284.81
289.062	286.81
289.293	285.81
289.524	275.81
289.755	284.81
289.986	283.81
290.217	283.81
290.448	273.81
290.679	273.81
290.91	281.81
291.141	283.81
291.371	284.81
291.602	300.81
291.833	284.81
292.064	280.81
292.295	282.81
292.526	287.81
292.757	284.81
292.987	295.81
293.218	270.81
293.449	278.81
293.68	272.81
293.91	286.81
294.141	284.81
294.372	280.81
294.603	293.81
294.833	290.81
295.064	297.81
295.295	279.81
295.525	261.81
295.756	298.81
295.987	293.81
296.217	300.81
296.448	341.81
296.679	302.81
296.909	300.81
297.14	301.81
297.37	304.81
297.601	316.81
297.831	281.81
298.062	295.81
298.292	275.81
298.523	281.81
298.753	287.81
298.984	296.81
299.214	319.81
299.445	290.81
299.675	308.81
299.905	299.81
300.136	297.81
300.366	295.81
300.597	300.81
300.827	321.81
301.057	298.81
301.288	327.81
301.518	311.81
301.748	329.81
301.979	319.81
302.209	351.81
302.439	331.81
302.669	313.81
302.9	311.81
303.13	325.81
303.36	325.81
303.59	311.81
303.82	320.81
304.051	340.81
304.281	317.81
304.511	322.81
304.741	319.81
304.971	310.81
305.201	320.81
305.431	323.81
305.661	319.81
305.891	309.81
306.121	317.81
306.352	312.81
306.582	324.81
306.812	312.81
307.042	325.81
307.272	323.81
307.502	323.81
307.731	315.81
307.961	322.81
308.191	320.81
308.421	323.81
308.651	328.81
308.881	333.81
309.111	332.81
309.341	335.81
309.571	337.81
309.8	353.81
310.03	363.81
310.26	351.81
310.49	358.81
310.72	362.81
310.949	354.81
311.179	361.81
311.409	361.81
311.639	354.81
311.868	371.81
312.098	359.81
312.328	371.81
312.557	378.81
312.787	373.81
313.017	383.81
313.246	367.81
313.476	357.81
313.706	347.81
313.935	354.81
314.165	371.81
314.394	383.81
314.624	383.81
314.853	379.81
315.083	372.81
315.312	359.81
315.542	345.81
315.771	361.81
316.001	352.81
316.23	353.81
316.46	345.81
316.689	383.81
316.919	361.81
317.148	357.81
317.377	370.81
317.607	360.81
317.836	375.81
318.065	363.81
318.295	352.81
318.524	370.81
318.753	359.81
318.983	374.81
319.212	363.81
319.441	348.81
319.67	368.81
319.9	378.81
320.129	359.81
320.358	371.81
320.587	368.81
320.816	392.81
321.046	385.81
321.275	377.81
321.504	386.81
321.733	383.81
321.962	379.81
322.191	389.81
322.42	403.81
322.649	414.81
322.878	423.81
323.108	413.81
323.337	457.81
323.566	437.81
323.795	463.81
324.024	492.81
324.253	616.81
324.482	837.81
324.71	1292.81
324.939	1999.81
325.168	1685.81
325.397	847.81
325.626	594.81
325.855	502.81
326.084	469.81
326.313	467.81
326.542	468.81
326.77	528.81
326.999	573.81
327.228	775.81
327.457	1182.81
327.686	1476.81
327.914	993.81
328.143	642.81
328.372	573.81
328.6	530.81
328.829	490.81
329.058	524.81
329.287	530.81
329.515	484.81
329.744	473.81
329.972	465.81
330.201	515.81
330.43	523.81
330.658	532.81
330.887	572.81
331.115	525.81
331.344	480.81
331.572	466.81
331.801	468.81
332.03	476.81
332.258	474.81
332.486	464.81
332.715	429.81
332.943	458.81
333.172	463.81
333.4	447.81
333.629	451.81
333.857	486.81
334.085	474.81
334.314	474.81
334.542	510.81
334.771	543.81
334.999	497.81
335.227	473.81
335.455	464.81
335.684	448.81
335.912	454.81
336.14	435.81
336.369	452.81
336.597	449.81
336.825	465.81
337.053	445.81
337.281	444.81
337.51	434.81
337.738	422.81
337.966	424.81
338.194	449.81
338.422	418.81
338.65	433.81
338.878	429.81
339.106	423.81
339.334	429.81
339.562	412.81
339.79	436.81
340.018	424.81
340.246	417.81
340.474	437.81
340.702	419.81
340.93	431.81
341.158	426.81
341.386	427.81
341.614	443.81
341.842	423.81
342.07	418.81
342.298	408.81
342.526	409.81
342.754	423.81
342.981	406.81
343.209	395.81
343.437	428.81
343.665	439.81
343.893	427.81
344.12	427.81
344.348	445.81
344.576	461.81
344.804	434.81
345.031	449.81
345.259	448.81
345.487	434.81
345.714	436.81
345.942	412.81
346.17	444.81
346.397	422.81
346.625	412.81
346.853	403.81
347.08	403.81
347.308	398.81
347.535	407.81
347.763	414.81
347.99	413.81
348.218	416.81
348.445	410.81
348.673	432.81
348.9	419.81
349.128	412.81
349.355	395.81
349.583	409.81
349.81	398.81
350.037	412.81
350.265	399.81
350.492	400.81
350.72	398.81
350.947	393.81
351.174	428.81
351.402	424.81
351.629	417.81
351.856	419.81
352.083	407.81
352.311	407.81
352.538	396.81
352.765	412.81
352.992	414.81
353.22	412.81
353.447	404.81
353.674	411.81
353.901	395.81
354.128	375.81
354.355	395.81
354.583	388.81
354.81	380.81
355.037	396.81
355.264	410.81
355.491	386.81
355.718	405.81
355.945	380.81
356.172	384.81
356.399	383.81
356.626	412.81
356.853	399.81
357.08	391.81
357.307	390.81
357.534	388.81
357.761	376.81
357.988	397.81
358.215	411.81
358.441	399.81
358.668	396.81
358.895	399.81
359.122	409.81
359.349	404.81
359.576	423.81
359.802	405.81
360.029	441.81
360.256	455.81
360.483	428.81
360.709	410.81
360.936	411.81
361.163	417.81
361.39	419.81
361.616	434.81
361.843	418.81
362.07	421.81
362.296	428.81
362.523	409.81
362.749	406.81
362.976	404.81
363.203	397.81
363.429	411.81
363.656	413.81
363.882	379.81
364.109	420.81
364.335	414.81
364.562	391.81
364.788	404.81
365.015	400.81
365.241	412.81
365.468	429.81
365.694	432.81
365.92	401.81
366.147	396.81
366.373	400.81
366.599	385.81
366.826	396.81
367.052	403.81
367.278	417.81
367.505	407.81
367.731	400.81
367.957	383.81
368.184	411.81
368.41	417.81
368.636	411.81
368.862	424.81
369.089	415.81
369.315	414.81
369.541	404.81
369.767	401.81
369.993	401.81
370.219	391.81
370.445	401.81
370.672	412.81
370.898	400.81
371.124	433.81
371.35	396.81
371.576	407.81
371.802	408.81
372.028	408.81
372.254	410.81
372.48	424.81
372.706	415.81
372.932	424.81
373.158	415.81
373.384	409.81
373.61	415.81
373.835	417.81
374.061	430.81
374.287	419.81
374.513	409.81
374.739	398.81
374.965	423.81
375.191	422.81
375.416	428.81
375.642	424.81
375.868	420.81
376.094	428.81
376.319	414.81
376.545	431.81
376.771	419.81
376.997	417.81
377.222	417.81
377.448	426.81
377.674	409.81
377.899	424.81
378.125	389.81
378.35	400.81
378.576	395.81
378.802	409.81
379.027	407.81
379.253	397.81
379.478	397.81
379.704	391.81
379.929	421.81
380.155	420.81
380.38	402.81
380.606	431.81
380.831	434.81
381.057	428.81
381.282	426.81
381.507	421.81
381.733	427.81
381.958	422.81
382.184	426.81
382.409	433.81
382.634	421.81
382.86	401.81
383.085	448.81
383.31	411.81
383.535	455.81
383.761	439.81
383.986	448.81
384.211	443.81
384.436	457.81
384.662	432.81
384.887	468.81
385.112	467.81
385.337	453.81
385.562	463.81
385.787	435.81
386.013	462.81
386.238	484.81
386.463	466.81
386.688	467.81
386.913	454.81
387.138	464.81
387.363	473.81
387.588	447.81
387.813	462.81
388.038	465.81
388.263	452.81
388.488	457.81
388.713	462.81
388.938	486.81
389.163	467.81
389.387	468.81
389.612	471.81
389.837	448.81
390.062	479.81
390.287	464.81
390.512	460.81
390.736	475.81
390.961	449.81
391.186	469.81
391.411	474.81
391.636	476.81
391.86	480.81
392.085	492.81
392.31	484.81
392.534	487.81
392.759	483.81
392.984	488.81
393.208	454.81
393.433	464.81
393.658	491.81
393.882	460.81
394.107	484.81
394.331	489.81
394.556	489.81
394.78	469.81
395.005	472.81
395.229	460.81
395.454	520.81
395.678	493.81
395.903	495.81
396.127	522.81
396.352	545.81
396.576	493.81
396.801	483.81
397.025	508.81
397.249	502.81
397.474	511.81
397.698	515.81
397.922	513.81
398.147	530.81
398.371	541.81
398.595	547.81
398.82	540.81
399.044	565.81
399.268	586.81
399.492	613.81
399.717	652.81
399.941	693.81
400.165	705.81
400.389	676.81
400.613	622.81
400.837	581.81
401.062	563.81
401.286	564.81
401.51	540.81
401.734	549.81
401.958	568.81
402.182	593.81
402.406	588.81
402.63	584.81
402.854	576.81
403.078	565.81
403.302	559.81
403.526	566.81
403.75	592.81
403.974	570.81
404.198	586.81
404.422	586.81
404.645	574.81
404.869	608.81
405.093	608.81
405.317	656.81
405.541	685.81
405.765	632.81
405.988	609.81
406.212	602.81
406.436	619.81
406.66	624.81
406.883	608.81
407.107	622.81
407.331	682.81
407.555	744.81
407.778	773.81
408.002	701.81
408.226	660.81
408.449	635.81
408.673	617.81
408.896	643.81
409.12	672.81
409.344	656.81
409.567	617.81
409.791	593.81
410.014	593.81
410.238	606.81
410.461	611.81
410.685	602.81
410.908	596.81
411.132	606.81
411.355	667.81
411.578	647.81
411.802	594.81
412.025	585.81
412.249	596.81
412.472	597.81
412.695	644.81
412.919	634.81
413.142	611.81
413.365	590.81
413.589	556.81
413.812	560.81
414.035	549.81
414.258	550.81
414.482	570.81
414.705	560.81
414.928	557.81
415.151	565.81
415.374	561.81
415.597	548.81
415.821	535.81
416.044	544.81
416.267	574.81
416.49	554.81
416.713	527.81
416.936	518.81
417.159	555.81
417.382	548.81
417.605	550.81
417.828	542.81
418.051	563.81
418.274	571.81
418.497	535.81
418.72	539.81
418.943	530.81
419.166	575.81
419.389	586.81
419.611	598.81
419.834	580.81
420.057	587.81
420.28	578.81
420.503	554.81
420.726	571.81
420.948	565.81
421.171	627.81
421.394	645.81
421.617	612.81
421.839	591.81
422.062	581.81
422.285	551.81
422.507	639.81
422.73	707.81
422.953	694.81
423.175	591.81
423.398	595.81
423.621	555.81
423.843	617.81
424.066	629.81
424.288	616.81
424.511	597.81
424.733	648.81
424.956	716.81
425.178	713.81
425.401	712.81
425.623	718.81
425.846	627.81
426.068	600.81
426.291	580.81
426.513	594.81
426.735	611.81
426.958	625.81
427.18	705.81
427.402	844.81
427.625	914.81
427.847	815.81
428.069	691.81
428.292	634.81
428.514	594.81
428.736	571.81
428.958	586.81
429.181	554.81
429.403	539.81
429.625	548.81
429.847	591.81
430.069	641.81
430.292	643.81
430.514	573.81
430.736	543.81
430.958	547.81
431.18	532.81
431.402	523.81
431.624	521.81
431.846	531.81
432.068	554.81
432.29	540.81
432.512	524.81
432.734	544.81
432.956	555.81
433.178	541.81
433.4	572.81
433.622	540.81
433.844	551.81
434.066	534.81
434.287	539.81
434.509	554.81
434.731	544.81
434.953	542.81
435.175	564.81
435.397	598.81
435.618	595.81
435.84	632.81
436.062	719.81
436.284	787.81
436.505	638.81
436.727	594.81
436.949	563.81
437.17	545.81
437.392	583.81
437.614	563.81
437.835	557.81
438.057	690.81
438.278	777.81
438.5	762.81
438.721	821.81
438.943	840.81
439.165	657.81
439.386	599.81
439.608	599.81
439.829	609.81
440.05	621.81
440.272	664.81
440.493	612.81
440.715	587.81
440.936	559.81
441.158	565.81
441.379	557.81
441.6	571.81
441.822	589.81
442.043	641.81
442.264	708.81
442.486	724.81
442.707	676.81
442.928	607.81
443.149	617.81
443.371	635.81
443.592	682.81
443.813	769.81
444.034	844.81
444.255	700.81
444.476	623.81
444.698	607.81
444.919	628.81
445.14	744.81
445.361	666.81
445.582	645.81
445.803	699.81
446.024	769.81
446.245	782.81
446.466	733.81
446.687	627.81
446.908	587.81
447.129	571.81
447.35	563.81
447.571	565.81
447.792	524.81
448.013	538.81
448.234	547.81
448.455	597.81
448.675	703.81
448.896	805.81
449.117	721.81
449.338	643.81
449.559	787.81
449.779	856.81
450	674.81
450.221	579.81
450.442	536.81
450.662	556.81
450.883	536.81
451.104	555.81
451.324	537.81
451.545	515.81
451.766	499.81
451.986	510.81
452.207	490.81
452.428	487.81
452.648	505.81
452.869	504.81
453.089	508.81
453.31	519.81
453.53	516.81
453.751	506.81
453.971	491.81
454.192	507.81
454.412	504.81
454.633	495.81
454.853	497.81
455.073	483.81
455.294	493.81
455.514	548.81
455.734	559.81
455.955	495.81
456.175	486.81
456.395	467.81
456.616	472.81
456.836	483.81
457.056	461.81
457.276	467.81
457.497	475.81
457.717	481.81
457.937	499.81
458.157	467.81
458.377	487.81
458.598	522.81
458.818	557.81
459.038	610.81
459.258	654.81
459.478	559.81
459.698	563.81
459.918	524.81
460.138	547.81
460.358	557.81
460.578	539.81
460.798	541.81
461.018	556.81
461.238	560.81
461.458	569.81
461.678	547.81
461.898	564.81
462.118	564.81
462.338	605.81
462.558	576.81
462.777	580.81
462.997	636.81
463.217	652.81
463.437	631.81
463.657	618.81
463.876	606.81
464.096	635.81
464.316	615.81
464.536	627.81
464.755	611.81
464.975	609.81
465.195	616.81
465.414	704.81
465.634	631.81
465.854	560.81
466.073	546.81
466.293	529.81
466.512	543.81
466.732	526.81
466.951	536.81
467.171	520.81
467.391	509.81
467.61	523.81
467.829	557.81
468.049	547.81
468.268	513.81
468.488	524.81
468.707	493.81
468.927	518.81
469.146	483.81
469.365	517.81
469.585	530.81
469.804	511.81
470.023	513.81
470.243	504.81
470.462	547.81
470.681	554.81
470.901	557.81
471.12	556.81
471.339	512.81
471.558	540.81
471.777	522.81
471.997	518.81
472.216	504.81
472.435	538.81
472.654	544.81
472.873	514.81
473.092	511.81
473.311	532.81
473.53	521.81
473.749	530.81
473.968	556.81
474.187	643.81
474.406	661.81
474.625	572.81
474.844	538.81
475.063	538.81
475.282	522.81
475.501	516.81
475.72	518.81
475.939	540.81
476.158	537.81
476.377	535.81
476.596	522.81
476.814	552.81
477.033	578.81
477.252	561.81
477.471	568.81
477.69	581.81
477.908	568.81
478.127	589.81
478.346	572.81
478.564	589.81
478.783	586.81
479.002	575.81
479.22	601.81
479.439	625.81
479.658	650.81
479.876	647.81
480.095	631.81
480.313	680.81
480.532	663.81
480.751	673.81
480.969	645.81
481.188	692.81
481.406	743.81
481.624	673.81
481.843	653.81
482.061	637.81
482.28	627.81
482.498	596.81
482.717	619.81
482.935	602.81
483.153	600.81
483.372	624.81
483.59	611.81
483.808	594.81
484.027	613.81
484.245	629.81
484.463	615.81
484.681	638.81
484.9	629.81
485.118	614.81
485.336	640.81
485.554	633.81
485.772	634.81
485.99	639.81
486.209	657.81
486.427	622.81
486.645	646.81
486.863	629.81
487.081	675.81
487.299	668.81
487.517	657.81
487.735	639.81
487.953	646.81
488.171	646.81
488.389	652.81
488.607	678.81
488.825	654.81
489.043	663.81
489.261	667.81
489.479	651.81
489.696	677.81
489.914	659.81
490.132	683.81
490.35	693.81
490.568	672.81
490.786	685.81
491.003	681.81
491.221	700.81
491.439	746.81
491.657	743.81
491.874	735.81
492.092	741.81
492.31	730.81
492.527	724.81
492.745	729.81
492.963	743.81
493.18	739.81
493.398	778.81
493.615	748.81
493.833	775.81
494.05	739.81
494.268	781.81
494.485	773.81
494.703	774.81
494.92	731.81
495.138	747.81
495.355	740.81
495.573	772.81
495.79	752.81
496.008	768.81
496.225	764.81
496.442	771.81
496.66	767.81
496.877	775.81
497.094	777.81
497.312	777.81
497.529	805.81
497.746	820.81
497.963	805.81
498.181	859.81
498.398	846.81
498.615	912.81
498.832	894.81
499.049	936.81
499.267	943.81
499.484	985.81
499.701	1044.81
499.918	1091.81
500.135	1152.81
500.352	1229.81
500.569	1205.81
500.786	1265.81
501.003	1211.81
501.22	1165.81
501.437	1130.81
501.654	1073.81
501.871	1042.81
