Data from 1979.PennyLincolnUp.Lamp.En5.5.200Scan.071719.P1_HRD10591_16-17-49-863.txt Node
Date: Thu Jul 18 16:17:49 EDT 2019
User: cochatt
Spectrometer: HR+D1059
Trigger mode: 1
Integration Time (sec): 1.000000E-1
Scans to average: 1
Electric dark correction enabled: true
Nonlinearity correction enabled: false
Boxcar width: 0
XAxis mode: Wavelengths
Number of Pixels in Spectrum: 2048
>>>>>Begin Spectral Data<<<<<
223.165	-9.5
223.4	-9.5
223.635	-9.5
223.869	-23.5
224.104	-9.5
224.338	-21.5
224.573	-9.5
224.808	-22.5
225.042	-8.5
225.277	2.5
225.511	-7.5
225.746	-21.5
225.98	8.5
226.215	14.5
226.449	19.5
226.683	33.5
226.918	22.5
227.152	32.5
227.387	33.5
227.621	35.5
227.856	28.5
228.09	41.5
228.324	58.5
228.559	70.5
228.793	67.5
229.027	84.5
229.262	102.5
229.496	105.5
229.73	123.5
229.964	123.5
230.199	104.5
230.433	101.5
230.667	115.5
230.901	103.5
231.136	103.5
231.37	98.5
231.604	102.5
231.838	111.5
232.072	107.5
232.306	99.5
232.541	102.5
232.775	122.5
233.009	96.5
233.243	125.5
233.477	116.5
233.711	102.5
233.945	107.5
234.179	100.5
234.413	94.5
234.647	116.5
234.881	108.5
235.115	119.5
235.349	125.5
235.583	117.5
235.817	114.5
236.051	111.5
236.285	118.5
236.519	124.5
236.753	125.5
236.987	129.5
237.221	149.5
237.455	185.5
237.689	162.5
237.922	135.5
238.156	117.5
238.39	128.5
238.624	111.5
238.858	111.5
239.091	115.5
239.325	124.5
239.559	107.5
239.793	131.5
240.027	128.5
240.26	130.5
240.494	136.5
240.728	138.5
240.961	137.5
241.195	140.5
241.429	138.5
241.662	129.5
241.896	119.5
242.13	118.5
242.363	129.5
242.597	120.5
242.83	132.5
243.064	131.5
243.298	128.5
243.531	152.5
243.765	123.5
243.998	122.5
244.232	117.5
244.465	146.5
244.699	135.5
244.932	135.5
245.166	127.5
245.399	136.5
245.633	128.5
245.866	139.5
246.099	121.5
246.333	131.5
246.566	142.5
246.8	150.5
247.033	143.5
247.266	136.5
247.5	143.5
247.733	152.5
247.966	156.5
248.2	147.5
248.433	159.5
248.666	157.5
248.899	162.5
249.133	151.5
249.366	188.5
249.599	166.5
249.832	162.5
250.066	166.5
250.299	171.5
250.532	162.5
250.765	180.5
250.998	182.5
251.231	196.5
251.465	185.5
251.698	166.5
251.931	168.5
252.164	189.5
252.397	153.5
252.63	178.5
252.863	173.5
253.096	185.5
253.329	196.5
253.562	198.5
253.795	191.5
254.028	186.5
254.261	195.5
254.494	198.5
254.727	205.5
254.96	231.5
255.193	224.5
255.426	211.5
255.659	205.5
255.892	198.5
256.124	188.5
256.357	196.5
256.59	193.5
256.823	181.5
257.056	179.5
257.289	184.5
257.521	198.5
257.754	183.5
257.987	172.5
258.22	186.5
258.452	176.5
258.685	187.5
258.918	191.5
259.151	179.5
259.383	206.5
259.616	192.5
259.849	207.5
260.081	212.5
260.314	212.5
260.547	211.5
260.779	201.5
261.012	191.5
261.244	205.5
261.477	206.5
261.71	189.5
261.942	184.5
262.175	211.5
262.407	195.5
262.64	193.5
262.872	182.5
263.105	180.5
263.337	186.5
263.57	191.5
263.802	192.5
264.035	201.5
264.267	192.5
264.499	178.5
264.732	192.5
264.964	204.5
265.197	194.5
265.429	181.5
265.661	186.5
265.894	192.5
266.126	189.5
266.358	184.5
266.591	206.5
266.823	208.5
267.055	182.5
267.287	200.5
267.52	204.5
267.752	195.5
267.984	219.5
268.216	192.5
268.448	214.5
268.681	215.5
268.913	208.5
269.145	210.5
269.377	221.5
269.609	225.5
269.841	219.5
270.073	226.5
270.306	233.5
270.538	260.5
270.77	256.5
271.002	255.5
271.234	248.5
271.466	245.5
271.698	239.5
271.93	243.5
272.162	249.5
272.394	271.5
272.626	244.5
272.858	237.5
273.09	221.5
273.322	229.5
273.553	231.5
273.785	239.5
274.017	236.5
274.249	227.5
274.481	215.5
274.713	221.5
274.945	235.5
275.176	226.5
275.408	251.5
275.64	236.5
275.872	224.5
276.104	230.5
276.335	235.5
276.567	231.5
276.799	237.5
277.031	246.5
277.262	242.5
277.494	258.5
277.726	252.5
277.957	247.5
278.189	248.5
278.421	234.5
278.652	214.5
278.884	215.5
279.115	218.5
279.347	233.5
279.579	229.5
279.81	228.5
280.042	236.5
280.273	249.5
280.505	222.5
280.736	237.5
280.968	236.5
281.199	242.5
281.431	217.5
281.662	248.5
281.894	228.5
282.125	242.5
282.356	269.5
282.588	254.5
282.819	262.5
283.051	243.5
283.282	246.5
283.513	235.5
283.745	249.5
283.976	263.5
284.207	256.5
284.439	234.5
284.67	272.5
284.901	244.5
285.132	249.5
285.364	236.5
285.595	270.5
285.826	243.5
286.057	242.5
286.288	252.5
286.52	271.5
286.751	247.5
286.982	247.5
287.213	243.5
287.444	238.5
287.675	276.5
287.906	246.5
288.138	263.5
288.369	269.5
288.6	277.5
288.831	252.5
289.062	259.5
289.293	260.5
289.524	263.5
289.755	265.5
289.986	261.5
290.217	261.5
290.448	245.5
290.679	273.5
290.91	249.5
291.141	238.5
291.371	269.5
291.602	261.5
291.833	237.5
292.064	250.5
292.295	260.5
292.526	252.5
292.757	266.5
292.987	242.5
293.218	255.5
293.449	272.5
293.68	285.5
293.91	286.5
294.141	267.5
294.372	259.5
294.603	262.5
294.833	277.5
295.064	269.5
295.295	269.5
295.525	269.5
295.756	290.5
295.987	273.5
296.217	291.5
296.448	289.5
296.679	297.5
296.909	245.5
297.14	256.5
297.37	292.5
297.601	282.5
297.831	279.5
298.062	268.5
298.292	267.5
298.523	281.5
298.753	284.5
298.984	263.5
299.214	292.5
299.445	288.5
299.675	290.5
299.905	311.5
300.136	277.5
300.366	264.5
300.597	288.5
300.827	291.5
301.057	298.5
301.288	279.5
301.518	304.5
301.748	311.5
301.979	289.5
302.209	311.5
302.439	292.5
302.669	290.5
302.9	297.5
303.13	294.5
303.36	298.5
303.59	296.5
303.82	299.5
304.051	318.5
304.281	308.5
304.511	310.5
304.741	296.5
304.971	301.5
305.201	305.5
305.431	282.5
305.661	297.5
305.891	292.5
306.121	293.5
306.352	292.5
306.582	282.5
306.812	311.5
307.042	292.5
307.272	304.5
307.502	295.5
307.731	307.5
307.961	302.5
308.191	300.5
308.421	314.5
308.651	307.5
308.881	295.5
309.111	332.5
309.341	317.5
309.571	333.5
309.8	306.5
310.03	313.5
310.26	321.5
310.49	320.5
310.72	321.5
310.949	329.5
311.179	316.5
311.409	326.5
311.639	301.5
311.868	314.5
312.098	330.5
312.328	336.5
312.557	345.5
312.787	378.5
313.017	357.5
313.246	332.5
313.476	326.5
313.706	331.5
313.935	332.5
314.165	350.5
314.394	356.5
314.624	356.5
314.853	331.5
315.083	338.5
315.312	344.5
315.542	329.5
315.771	342.5
316.001	323.5
316.23	321.5
316.46	356.5
316.689	348.5
316.919	329.5
317.148	340.5
317.377	357.5
317.607	364.5
317.836	342.5
318.065	343.5
318.295	342.5
318.524	336.5
318.753	348.5
318.983	343.5
319.212	334.5
319.441	339.5
319.67	326.5
319.9	344.5
320.129	328.5
320.358	349.5
320.587	356.5
320.816	338.5
321.046	340.5
321.275	350.5
321.504	353.5
321.733	344.5
321.962	340.5
322.191	387.5
322.42	371.5
322.649	362.5
322.878	390.5
323.108	390.5
323.337	407.5
323.566	388.5
323.795	436.5
324.024	453.5
324.253	500.5
324.482	687.5
324.71	1117.5
324.939	1622.5
325.168	1402.5
325.397	700.5
325.626	517.5
325.855	442.5
326.084	440.5
326.313	417.5
326.542	420.5
326.77	464.5
326.999	546.5
327.228	665.5
327.457	982.5
327.686	1235.5
327.914	804.5
328.143	550.5
328.372	487.5
328.6	477.5
328.829	444.5
329.058	442.5
329.287	467.5
329.515	432.5
329.744	428.5
329.972	411.5
330.201	421.5
330.43	458.5
330.658	491.5
330.887	493.5
331.115	483.5
331.344	444.5
331.572	406.5
331.801	413.5
332.03	414.5
332.258	411.5
332.486	405.5
332.715	413.5
332.943	396.5
333.172	419.5
333.4	418.5
333.629	432.5
333.857	428.5
334.085	439.5
334.314	452.5
334.542	468.5
334.771	462.5
334.999	439.5
335.227	432.5
335.455	426.5
335.684	427.5
335.912	406.5
336.14	398.5
336.369	402.5
336.597	399.5
336.825	414.5
337.053	435.5
337.281	403.5
337.51	399.5
337.738	391.5
337.966	413.5
338.194	400.5
338.422	395.5
338.65	397.5
338.878	389.5
339.106	380.5
339.334	384.5
339.562	387.5
339.79	378.5
340.018	378.5
340.246	394.5
340.474	396.5
340.702	374.5
340.93	389.5
341.158	381.5
341.386	411.5
341.614	382.5
341.842	382.5
342.07	375.5
342.298	384.5
342.526	406.5
342.754	378.5
342.981	390.5
343.209	409.5
343.437	394.5
343.665	382.5
343.893	412.5
344.12	415.5
344.348	388.5
344.576	400.5
344.804	393.5
345.031	402.5
345.259	391.5
345.487	418.5
345.714	372.5
345.942	380.5
346.17	366.5
346.397	376.5
346.625	371.5
346.853	363.5
347.08	376.5
347.308	393.5
347.535	377.5
347.763	391.5
347.99	378.5
348.218	389.5
348.445	399.5
348.673	395.5
348.9	383.5
349.128	379.5
349.355	359.5
349.583	362.5
349.81	367.5
350.037	362.5
350.265	347.5
350.492	366.5
350.72	391.5
350.947	367.5
351.174	382.5
351.402	384.5
351.629	385.5
351.856	368.5
352.083	386.5
352.311	377.5
352.538	388.5
352.765	385.5
352.992	375.5
353.22	371.5
353.447	364.5
353.674	378.5
353.901	371.5
354.128	363.5
354.355	357.5
354.583	370.5
354.81	354.5
355.037	379.5
355.264	363.5
355.491	364.5
355.718	367.5
355.945	364.5
356.172	372.5
356.399	343.5
356.626	377.5
356.853	378.5
357.08	386.5
357.307	367.5
357.534	365.5
357.761	347.5
357.988	352.5
358.215	368.5
358.441	364.5
358.668	368.5
358.895	382.5
359.122	354.5
359.349	390.5
359.576	384.5
359.802	378.5
360.029	427.5
360.256	422.5
360.483	401.5
360.709	404.5
360.936	391.5
361.163	354.5
361.39	367.5
361.616	383.5
361.843	383.5
362.07	376.5
362.296	391.5
362.523	374.5
362.749	371.5
362.976	373.5
363.203	380.5
363.429	374.5
363.656	371.5
363.882	371.5
364.109	381.5
364.335	376.5
364.562	373.5
364.788	385.5
365.015	381.5
365.241	378.5
365.468	373.5
365.694	366.5
365.92	387.5
366.147	378.5
366.373	361.5
366.599	357.5
366.826	384.5
367.052	382.5
367.278	378.5
367.505	371.5
367.731	365.5
367.957	371.5
368.184	380.5
368.41	387.5
368.636	366.5
368.862	378.5
369.089	382.5
369.315	378.5
369.541	374.5
369.767	377.5
369.993	398.5
370.219	368.5
370.445	362.5
370.672	374.5
370.898	375.5
371.124	384.5
371.35	381.5
371.576	386.5
371.802	381.5
372.028	397.5
372.254	386.5
372.48	395.5
372.706	382.5
372.932	384.5
373.158	378.5
373.384	402.5
373.61	394.5
373.835	383.5
374.061	387.5
374.287	372.5
374.513	380.5
374.739	410.5
374.965	413.5
375.191	397.5
375.416	420.5
375.642	384.5
375.868	396.5
376.094	396.5
376.319	387.5
376.545	391.5
376.771	393.5
376.997	378.5
377.222	381.5
377.448	391.5
377.674	390.5
377.899	370.5
378.125	388.5
378.35	382.5
378.576	377.5
378.802	384.5
379.027	388.5
379.253	401.5
379.478	382.5
379.704	372.5
379.929	375.5
380.155	387.5
380.38	382.5
380.606	372.5
380.831	388.5
381.057	392.5
381.282	363.5
381.507	392.5
381.733	406.5
381.958	391.5
382.184	404.5
382.409	391.5
382.634	413.5
382.86	380.5
383.085	390.5
383.31	399.5
383.535	420.5
383.761	419.5
383.986	421.5
384.211	405.5
384.436	405.5
384.662	419.5
384.887	432.5
385.112	422.5
385.337	404.5
385.562	440.5
385.787	416.5
386.013	438.5
386.238	438.5
386.463	427.5
386.688	447.5
386.913	436.5
387.138	429.5
387.363	436.5
387.588	434.5
387.813	425.5
388.038	427.5
388.263	450.5
388.488	456.5
388.713	440.5
388.938	423.5
389.163	421.5
389.387	428.5
389.612	429.5
389.837	418.5
390.062	438.5
390.287	433.5
390.512	440.5
390.736	443.5
390.961	417.5
391.186	454.5
391.411	445.5
391.636	420.5
391.86	446.5
392.085	442.5
392.31	458.5
392.534	455.5
392.759	444.5
392.984	436.5
393.208	451.5
393.433	470.5
393.658	452.5
393.882	446.5
394.107	428.5
394.331	447.5
394.556	425.5
394.78	465.5
395.005	450.5
395.229	445.5
395.454	463.5
395.678	462.5
395.903	466.5
396.127	460.5
396.352	472.5
396.576	475.5
396.801	461.5
397.025	470.5
397.249	464.5
397.474	490.5
397.698	483.5
397.922	484.5
398.147	477.5
398.371	498.5
398.595	497.5
398.82	492.5
399.044	511.5
399.268	555.5
399.492	577.5
399.717	622.5
399.941	619.5
400.165	616.5
400.389	616.5
400.613	579.5
400.837	544.5
401.062	560.5
401.286	548.5
401.51	508.5
401.734	490.5
401.958	521.5
402.182	529.5
402.406	523.5
402.63	520.5
402.854	540.5
403.078	537.5
403.302	539.5
403.526	532.5
403.75	532.5
403.974	537.5
404.198	522.5
404.422	551.5
404.645	518.5
404.869	539.5
405.093	589.5
405.317	593.5
405.541	621.5
405.765	583.5
405.988	554.5
406.212	564.5
406.436	580.5
406.66	591.5
406.883	572.5
407.107	591.5
407.331	610.5
407.555	664.5
407.778	674.5
408.002	650.5
408.226	612.5
408.449	602.5
408.673	579.5
408.896	578.5
409.12	631.5
409.344	614.5
409.567	562.5
409.791	545.5
410.014	539.5
410.238	534.5
410.461	550.5
410.685	551.5
410.908	568.5
411.132	592.5
411.355	610.5
411.578	574.5
411.802	556.5
412.025	542.5
412.249	534.5
412.472	593.5
412.695	568.5
412.919	571.5
413.142	562.5
413.365	527.5
413.589	520.5
413.812	513.5
414.035	506.5
414.258	520.5
414.482	507.5
414.705	528.5
414.928	542.5
415.151	514.5
415.374	521.5
415.597	496.5
415.821	526.5
416.044	487.5
416.267	520.5
416.49	498.5
416.713	494.5
416.936	502.5
417.159	499.5
417.382	484.5
417.605	485.5
417.828	514.5
418.051	510.5
418.274	520.5
418.497	486.5
418.72	512.5
418.943	498.5
419.166	550.5
419.389	559.5
419.611	549.5
419.834	536.5
420.057	542.5
420.28	543.5
420.503	532.5
420.726	541.5
420.948	520.5
421.171	562.5
421.394	628.5
421.617	520.5
421.839	495.5
422.062	518.5
422.285	522.5
422.507	581.5
422.73	652.5
422.953	629.5
423.175	578.5
423.398	558.5
423.621	548.5
423.843	584.5
424.066	540.5
424.288	532.5
424.511	563.5
424.733	588.5
424.956	653.5
425.178	649.5
425.401	648.5
425.623	645.5
425.846	607.5
426.068	546.5
426.291	534.5
426.513	567.5
426.735	546.5
426.958	585.5
427.18	638.5
427.402	753.5
427.625	827.5
427.847	718.5
428.069	623.5
428.292	566.5
428.514	564.5
428.736	528.5
428.958	538.5
429.181	517.5
429.403	493.5
429.625	504.5
429.847	539.5
430.069	570.5
430.292	602.5
430.514	509.5
430.736	507.5
430.958	527.5
431.18	500.5
431.402	486.5
431.624	479.5
431.846	500.5
432.068	492.5
432.29	487.5
432.512	478.5
432.734	482.5
432.956	510.5
433.178	502.5
433.4	525.5
433.622	498.5
433.844	491.5
434.066	506.5
434.287	510.5
434.509	509.5
434.731	526.5
434.953	513.5
435.175	523.5
435.397	534.5
435.618	574.5
435.84	597.5
436.062	669.5
436.284	725.5
436.505	587.5
436.727	534.5
436.949	527.5
437.17	518.5
437.392	495.5
437.614	517.5
437.835	539.5
438.057	606.5
438.278	690.5
438.5	699.5
438.721	745.5
438.943	710.5
439.165	623.5
439.386	534.5
439.608	546.5
439.829	542.5
440.05	544.5
440.272	598.5
440.493	575.5
440.715	547.5
440.936	522.5
441.158	516.5
441.379	540.5
441.6	525.5
441.822	563.5
442.043	580.5
442.264	639.5
442.486	663.5
442.707	588.5
442.928	550.5
443.149	581.5
443.371	596.5
443.592	590.5
443.813	703.5
444.034	734.5
444.255	637.5
444.476	579.5
444.698	560.5
444.919	578.5
445.14	709.5
445.361	639.5
445.582	590.5
445.803	628.5
446.024	716.5
446.245	694.5
446.466	638.5
446.687	574.5
446.908	540.5
447.129	501.5
447.35	512.5
447.571	498.5
447.792	490.5
448.013	520.5
448.234	518.5
448.455	559.5
448.675	647.5
448.896	739.5
449.117	631.5
449.338	580.5
449.559	694.5
449.779	790.5
450	615.5
450.221	558.5
450.442	490.5
450.662	475.5
450.883	468.5
451.104	488.5
451.324	491.5
451.545	488.5
451.766	443.5
451.986	449.5
452.207	451.5
452.428	460.5
452.648	454.5
452.869	469.5
453.089	464.5
453.31	494.5
453.53	454.5
453.751	470.5
453.971	451.5
454.192	461.5
454.412	466.5
454.633	443.5
454.853	455.5
455.073	445.5
455.294	464.5
455.514	521.5
455.734	511.5
455.955	471.5
456.175	441.5
456.395	453.5
456.616	423.5
456.836	432.5
457.056	453.5
457.276	440.5
457.497	469.5
457.717	440.5
457.937	447.5
458.157	444.5
458.377	450.5
458.598	457.5
458.818	539.5
459.038	558.5
459.258	565.5
459.478	512.5
459.698	488.5
459.918	476.5
460.138	496.5
460.358	532.5
460.578	516.5
460.798	535.5
461.018	517.5
461.238	516.5
461.458	517.5
461.678	536.5
461.898	510.5
462.118	511.5
462.338	550.5
462.558	534.5
462.777	550.5
462.997	576.5
463.217	582.5
463.437	616.5
463.657	553.5
463.876	552.5
464.096	549.5
464.316	566.5
464.536	583.5
464.755	562.5
464.975	551.5
465.195	574.5
465.414	636.5
465.634	552.5
465.854	516.5
466.073	510.5
466.293	514.5
466.512	495.5
466.732	489.5
466.951	498.5
467.171	484.5
467.391	476.5
467.61	480.5
467.829	480.5
468.049	470.5
468.268	472.5
468.488	456.5
468.707	452.5
468.927	482.5
469.146	432.5
469.365	446.5
469.585	462.5
469.804	465.5
470.023	487.5
470.243	497.5
470.462	500.5
470.681	502.5
470.901	505.5
471.12	478.5
471.339	469.5
471.558	474.5
471.777	493.5
471.997	468.5
472.216	499.5
472.435	502.5
472.654	480.5
472.873	497.5
473.092	474.5
473.311	477.5
473.53	459.5
473.749	475.5
473.968	508.5
474.187	591.5
474.406	603.5
474.625	522.5
474.844	484.5
475.063	476.5
475.282	493.5
475.501	484.5
475.72	488.5
475.939	503.5
476.158	517.5
476.377	504.5
476.596	492.5
476.814	492.5
477.033	502.5
477.252	528.5
477.471	515.5
477.69	518.5
477.908	514.5
478.127	522.5
478.346	563.5
478.564	542.5
478.783	534.5
479.002	552.5
479.22	559.5
479.439	564.5
479.658	568.5
479.876	564.5
480.095	577.5
480.313	597.5
480.532	593.5
480.751	587.5
480.969	605.5
481.188	609.5
481.406	657.5
481.624	602.5
481.843	587.5
482.061	560.5
482.28	566.5
482.498	580.5
482.717	554.5
482.935	563.5
483.153	570.5
483.372	578.5
483.59	550.5
483.808	562.5
484.027	577.5
484.245	573.5
484.463	555.5
484.681	591.5
484.9	563.5
485.118	589.5
485.336	607.5
485.554	608.5
485.772	584.5
485.99	598.5
486.209	597.5
486.427	592.5
486.645	614.5
486.863	606.5
487.081	599.5
487.299	595.5
487.517	594.5
487.735	610.5
487.953	589.5
488.171	604.5
488.389	604.5
488.607	605.5
488.825	609.5
489.043	587.5
489.261	608.5
489.479	612.5
489.696	603.5
489.914	626.5
490.132	636.5
490.35	652.5
490.568	638.5
490.786	629.5
491.003	652.5
491.221	631.5
491.439	640.5
491.657	647.5
491.874	658.5
492.092	651.5
492.31	691.5
492.527	666.5
492.745	662.5
492.963	662.5
493.18	676.5
493.398	669.5
493.615	706.5
493.833	698.5
494.05	672.5
494.268	696.5
494.485	702.5
494.703	718.5
494.92	685.5
495.138	683.5
495.355	697.5
495.573	687.5
495.79	706.5
496.008	716.5
496.225	708.5
496.442	703.5
496.66	688.5
496.877	696.5
497.094	723.5
497.312	703.5
497.529	719.5
497.746	754.5
497.963	762.5
498.181	806.5
498.398	788.5
498.615	813.5
498.832	835.5
499.049	871.5
499.267	889.5
499.484	912.5
499.701	939.5
499.918	1015.5
500.135	1053.5
500.352	1164.5
500.569	1156.5
500.786	1132.5
501.003	1118.5
501.22	1066.5
501.437	1028.5
501.654	994.5
501.871	964.5
502.088	881.5
502.305	883.5
502.522	838.5
502.739	836.5
502.956	807.5
503.172	778.5
503.389	757.5
503.606	754.5
503.823	744.5
504.04	740.5
504.256	740.5
504.473	731.5
504.69	730.5
504.907	722.5
505.123	716.5
505.34	710.5
505.557	697.5
505.773	692.5
505.99	680.5
506.207	660.5
506.423	651.5
506.64	662.5
506.856	650.5
507.073	638.5
507.289	640.5
507.506	648.5
507.722	677.5
507.939	684.5
508.155	620.5
508.372	636.5
508.588	636.5
508.805	606.5
509.021	617.5
509.238	621.5
509.454	640.5
509.67	609.5
509.887	590.5
510.103	600.5
510.319	596.5
510.536	668.5
510.752	966.5
510.968	865.5
511.184	594.5
511.401	586.5
511.617	581.5
511.833	598.5
512.049	592.5
512.265	584.5
512.481	571.5
512.698	598.5
512.914	585.5
513.13	604.5
513.346	578.5
513.562	588.5
513.778	592.5
513.994	588.5
514.21	576.5
514.426	636.5
514.642	658.5
514.858	664.5
515.074	657.5
515.29	751.5
515.506	1003.5
515.721	896.5
515.937	677.5
516.153	635.5
516.369	626.5
516.585	628.5
516.801	649.5
517.016	635.5
517.232	639.5
517.448	652.5
517.664	647.5
517.879	645.5
518.095	663.5
518.311	631.5
518.527	631.5
518.742	634.5
518.958	615.5
519.173	604.5
519.389	600.5
519.605	601.5
519.82	630.5
