Data from 1979.PennyLincolnUp.Lamp.En5.5.200Scan.071719.P1_HRD10591_16-17-43-862.txt Node
Date: Thu Jul 18 16:17:43 EDT 2019
User: cochatt
Spectrometer: HR+D1059
Trigger mode: 1
Integration Time (sec): 1.000000E-1
Scans to average: 1
Electric dark correction enabled: true
Nonlinearity correction enabled: false
Boxcar width: 0
XAxis mode: Wavelengths
Number of Pixels in Spectrum: 2048
>>>>>Begin Spectral Data<<<<<
223.165	-17.12
223.4	-17.12
223.635	-17.12
223.869	-17.12
224.104	-18.12
224.338	-6.12
224.573	-22.12
224.808	4.88
225.042	-3.12
225.277	-20.12
225.511	-6.12
225.746	8.88
225.98	17.88
226.215	6.88
226.449	9.88
226.683	13.88
226.918	19.88
227.152	27.88
227.387	32.88
227.621	34.88
227.856	31.88
228.09	38.88
228.324	56.88
228.559	48.88
228.793	79.88
229.027	92.88
229.262	97.88
229.496	127.88
229.73	94.88
229.964	127.88
230.199	99.88
230.433	117.88
230.667	109.88
230.901	106.88
231.136	101.88
231.37	102.88
231.604	103.88
231.838	108.88
232.072	102.88
232.306	103.88
232.541	103.88
232.775	111.88
233.009	110.88
233.243	123.88
233.477	112.88
233.711	116.88
233.945	119.88
234.179	119.88
234.413	108.88
234.647	111.88
234.881	100.88
235.115	99.88
235.349	105.88
235.583	104.88
235.817	108.88
236.051	123.88
236.285	117.88
236.519	120.88
236.753	131.88
236.987	134.88
237.221	143.88
237.455	174.88
237.689	148.88
237.922	124.88
238.156	129.88
238.39	113.88
238.624	117.88
238.858	121.88
239.091	127.88
239.325	119.88
239.559	140.88
239.793	123.88
240.027	112.88
240.26	124.88
240.494	141.88
240.728	135.88
240.961	134.88
241.195	128.88
241.429	126.88
241.662	129.88
241.896	136.88
242.13	124.88
242.363	129.88
242.597	135.88
242.83	135.88
243.064	128.88
243.298	131.88
243.531	118.88
243.765	125.88
243.998	143.88
244.232	135.88
244.465	139.88
244.699	133.88
244.932	149.88
245.166	140.88
245.399	126.88
245.633	121.88
245.866	130.88
246.099	127.88
246.333	131.88
246.566	136.88
246.8	130.88
247.033	153.88
247.266	150.88
247.5	163.88
247.733	164.88
247.966	160.88
248.2	161.88
248.433	145.88
248.666	157.88
248.899	158.88
249.133	175.88
249.366	175.88
249.599	176.88
249.832	163.88
250.066	160.88
250.299	157.88
250.532	163.88
250.765	164.88
250.998	176.88
251.231	191.88
251.465	193.88
251.698	188.88
251.931	167.88
252.164	175.88
252.397	172.88
252.63	183.88
252.863	179.88
253.096	183.88
253.329	190.88
253.562	170.88
253.795	187.88
254.028	184.88
254.261	196.88
254.494	201.88
254.727	207.88
254.96	228.88
255.193	222.88
255.426	211.88
255.659	188.88
255.892	180.88
256.124	193.88
256.357	206.88
256.59	201.88
256.823	181.88
257.056	195.88
257.289	185.88
257.521	184.88
257.754	199.88
257.987	183.88
258.22	172.88
258.452	172.88
258.685	181.88
258.918	194.88
259.151	189.88
259.383	192.88
259.616	196.88
259.849	192.88
260.081	206.88
260.314	195.88
260.547	206.88
260.779	190.88
261.012	194.88
261.244	199.88
261.477	179.88
261.71	185.88
261.942	191.88
262.175	200.88
262.407	210.88
262.64	195.88
262.872	182.88
263.105	186.88
263.337	199.88
263.57	176.88
263.802	187.88
264.035	181.88
264.267	182.88
264.499	193.88
264.732	190.88
264.964	182.88
265.197	191.88
265.429	188.88
265.661	212.88
265.894	204.88
266.126	205.88
266.358	201.88
266.591	191.88
266.823	212.88
267.055	199.88
267.287	203.88
267.52	183.88
267.752	197.88
267.984	219.88
268.216	195.88
268.448	204.88
268.681	196.88
268.913	219.88
269.145	207.88
269.377	222.88
269.609	225.88
269.841	223.88
270.073	224.88
270.306	252.88
270.538	254.88
270.77	239.88
271.002	231.88
271.234	236.88
271.466	255.88
271.698	264.88
271.93	267.88
272.162	248.88
272.394	248.88
272.626	246.88
272.858	230.88
273.09	250.88
273.322	238.88
273.553	227.88
273.785	230.88
274.017	217.88
274.249	229.88
274.481	249.88
274.713	223.88
274.945	238.88
275.176	226.88
275.408	228.88
275.64	226.88
275.872	230.88
276.104	223.88
276.335	230.88
276.567	224.88
276.799	231.88
277.031	262.88
277.262	256.88
277.494	264.88
277.726	249.88
277.957	246.88
278.189	247.88
278.421	243.88
278.652	245.88
278.884	228.88
279.115	239.88
279.347	228.88
279.579	225.88
279.81	247.88
280.042	235.88
280.273	248.88
280.505	261.88
280.736	233.88
280.968	254.88
281.199	251.88
281.431	235.88
281.662	225.88
281.894	233.88
282.125	243.88
282.356	250.88
282.588	269.88
282.819	268.88
283.051	252.88
283.282	236.88
283.513	244.88
283.745	244.88
283.976	250.88
284.207	250.88
284.439	254.88
284.67	233.88
284.901	247.88
285.132	252.88
285.364	244.88
285.595	246.88
285.826	252.88
286.057	248.88
286.288	263.88
286.52	239.88
286.751	253.88
286.982	244.88
287.213	252.88
287.444	248.88
287.675	267.88
287.906	251.88
288.138	258.88
288.369	256.88
288.6	286.88
288.831	283.88
289.062	276.88
289.293	276.88
289.524	256.88
289.755	237.88
289.986	283.88
290.217	251.88
290.448	264.88
290.679	280.88
290.91	262.88
291.141	255.88
291.371	247.88
291.602	276.88
291.833	277.88
292.064	266.88
292.295	273.88
292.526	264.88
292.757	263.88
292.987	252.88
293.218	250.88
293.449	268.88
293.68	270.88
293.91	271.88
294.141	256.88
294.372	247.88
294.603	270.88
294.833	270.88
295.064	276.88
295.295	259.88
295.525	270.88
295.756	271.88
295.987	280.88
296.217	291.88
296.448	308.88
296.679	286.88
296.909	274.88
297.14	281.88
297.37	278.88
297.601	285.88
297.831	276.88
298.062	276.88
298.292	272.88
298.523	299.88
298.753	279.88
298.984	290.88
299.214	287.88
299.445	278.88
299.675	284.88
299.905	284.88
300.136	287.88
300.366	270.88
300.597	292.88
300.827	282.88
301.057	293.88
301.288	296.88
301.518	286.88
301.748	292.88
301.979	281.88
302.209	285.88
302.439	299.88
302.669	293.88
302.9	299.88
303.13	300.88
303.36	305.88
303.59	319.88
303.82	311.88
304.051	296.88
304.281	301.88
304.511	292.88
304.741	315.88
304.971	286.88
305.201	309.88
305.431	292.88
305.661	299.88
305.891	310.88
306.121	307.88
306.352	311.88
306.582	318.88
306.812	298.88
307.042	281.88
307.272	319.88
307.502	316.88
307.731	322.88
307.961	290.88
308.191	323.88
308.421	303.88
308.651	302.88
308.881	310.88
309.111	312.88
309.341	300.88
309.571	315.88
309.8	309.88
310.03	332.88
310.26	331.88
310.49	329.88
310.72	332.88
310.949	349.88
311.179	336.88
311.409	344.88
311.639	324.88
311.868	326.88
312.098	324.88
312.328	317.88
312.557	352.88
312.787	351.88
313.017	338.88
313.246	336.88
313.476	317.88
313.706	328.88
313.935	338.88
314.165	332.88
314.394	361.88
314.624	340.88
314.853	349.88
315.083	350.88
315.312	336.88
315.542	352.88
315.771	327.88
316.001	336.88
316.23	334.88
316.46	350.88
316.689	347.88
316.919	330.88
317.148	326.88
317.377	339.88
317.607	337.88
317.836	340.88
318.065	320.88
318.295	336.88
318.524	332.88
318.753	345.88
318.983	328.88
319.212	341.88
319.441	338.88
319.67	342.88
319.9	341.88
320.129	349.88
320.358	348.88
320.587	331.88
320.816	341.88
321.046	349.88
321.275	331.88
321.504	371.88
321.733	347.88
321.962	357.88
322.191	355.88
322.42	359.88
322.649	380.88
322.878	381.88
323.108	376.88
323.337	378.88
323.566	400.88
323.795	435.88
324.024	453.88
324.253	524.88
324.482	675.88
324.71	1063.88
324.939	1545.88
325.168	1332.88
325.397	687.88
325.626	491.88
325.855	438.88
326.084	427.88
326.313	399.88
326.542	415.88
326.77	462.88
326.999	511.88
327.228	632.88
327.457	957.88
327.686	1165.88
327.914	771.88
328.143	511.88
328.372	501.88
328.6	467.88
328.829	425.88
329.058	448.88
329.287	448.88
329.515	445.88
329.744	408.88
329.972	411.88
330.201	428.88
330.43	439.88
330.658	451.88
330.887	478.88
331.115	477.88
331.344	423.88
331.572	412.88
331.801	428.88
332.03	420.88
332.258	408.88
332.486	402.88
332.715	391.88
332.943	404.88
333.172	397.88
333.4	425.88
333.629	439.88
333.857	437.88
334.085	462.88
334.314	465.88
334.542	440.88
334.771	480.88
334.999	457.88
335.227	442.88
335.455	422.88
335.684	421.88
335.912	407.88
336.14	406.88
336.369	392.88
336.597	407.88
336.825	423.88
337.053	426.88
337.281	399.88
337.51	389.88
337.738	391.88
337.966	406.88
338.194	415.88
338.422	394.88
338.65	389.88
338.878	404.88
339.106	401.88
339.334	392.88
339.562	381.88
339.79	393.88
340.018	397.88
340.246	397.88
340.474	403.88
340.702	391.88
340.93	407.88
341.158	379.88
341.386	405.88
341.614	403.88
341.842	393.88
342.07	389.88
342.298	378.88
342.526	383.88
342.754	382.88
342.981	372.88
343.209	415.88
343.437	387.88
343.665	401.88
343.893	403.88
344.12	419.88
344.348	408.88
344.576	405.88
344.804	426.88
345.031	390.88
345.259	403.88
345.487	385.88
345.714	389.88
345.942	377.88
346.17	382.88
346.397	366.88
346.625	387.88
346.853	375.88
347.08	361.88
347.308	368.88
347.535	391.88
347.763	375.88
347.99	358.88
348.218	377.88
348.445	389.88
348.673	384.88
348.9	384.88
349.128	380.88
349.355	358.88
349.583	381.88
349.81	361.88
350.037	375.88
350.265	378.88
350.492	381.88
350.72	389.88
350.947	389.88
351.174	375.88
351.402	382.88
351.629	384.88
351.856	377.88
352.083	385.88
352.311	390.88
352.538	366.88
352.765	391.88
352.992	371.88
353.22	365.88
353.447	381.88
353.674	379.88
353.901	362.88
354.128	377.88
354.355	365.88
354.583	374.88
354.81	357.88
355.037	359.88
355.264	360.88
355.491	352.88
355.718	366.88
355.945	366.88
356.172	381.88
356.399	366.88
356.626	349.88
356.853	376.88
357.08	367.88
357.307	352.88
357.534	345.88
357.761	363.88
357.988	353.88
358.215	350.88
358.441	380.88
358.668	366.88
358.895	362.88
359.122	387.88
359.349	378.88
359.576	379.88
359.802	396.88
360.029	380.88
360.256	406.88
360.483	396.88
360.709	377.88
360.936	382.88
361.163	377.88
361.39	378.88
361.616	385.88
361.843	413.88
362.07	387.88
362.296	391.88
362.523	390.88
362.749	391.88
362.976	399.88
363.203	359.88
363.429	370.88
363.656	381.88
363.882	366.88
364.109	367.88
364.335	372.88
364.562	383.88
364.788	374.88
365.015	379.88
365.241	389.88
365.468	367.88
365.694	371.88
365.92	365.88
366.147	369.88
366.373	386.88
366.599	364.88
366.826	362.88
367.052	379.88
367.278	371.88
367.505	381.88
367.731	380.88
367.957	384.88
368.184	372.88
368.41	378.88
368.636	369.88
368.862	371.88
369.089	379.88
369.315	369.88
369.541	374.88
369.767	376.88
369.993	381.88
370.219	381.88
370.445	386.88
370.672	377.88
370.898	370.88
371.124	378.88
371.35	408.88
371.576	394.88
371.802	395.88
372.028	378.88
372.254	388.88
372.48	382.88
372.706	400.88
372.932	401.88
373.158	367.88
373.384	381.88
373.61	383.88
373.835	393.88
374.061	394.88
374.287	401.88
374.513	392.88
374.739	409.88
374.965	410.88
375.191	419.88
375.416	398.88
375.642	380.88
375.868	393.88
376.094	396.88
376.319	383.88
376.545	369.88
376.771	373.88
376.997	386.88
377.222	368.88
377.448	389.88
377.674	396.88
377.899	400.88
378.125	400.88
378.35	402.88
378.576	384.88
378.802	376.88
379.027	377.88
379.253	375.88
379.478	398.88
379.704	394.88
379.929	405.88
380.155	397.88
380.38	393.88
380.606	385.88
380.831	397.88
381.057	398.88
381.282	381.88
381.507	386.88
381.733	386.88
381.958	400.88
382.184	402.88
382.409	401.88
382.634	410.88
382.86	391.88
383.085	415.88
383.31	409.88
383.535	429.88
383.761	420.88
383.986	383.88
384.211	411.88
384.436	401.88
384.662	430.88
384.887	408.88
385.112	428.88
385.337	419.88
385.562	419.88
385.787	423.88
386.013	454.88
386.238	436.88
386.463	437.88
386.688	444.88
386.913	437.88
387.138	416.88
387.363	438.88
387.588	435.88
387.813	428.88
388.038	425.88
388.263	428.88
388.488	456.88
388.713	442.88
388.938	429.88
389.163	432.88
389.387	415.88
389.612	417.88
389.837	439.88
390.062	421.88
390.287	416.88
390.512	424.88
390.736	422.88
390.961	449.88
391.186	445.88
391.411	447.88
391.636	446.88
391.86	451.88
392.085	469.88
392.31	472.88
392.534	430.88
392.759	460.88
392.984	445.88
393.208	445.88
393.433	446.88
393.658	462.88
393.882	428.88
394.107	435.88
394.331	452.88
394.556	462.88
394.78	453.88
395.005	435.88
395.229	464.88
395.454	441.88
395.678	474.88
395.903	447.88
396.127	485.88
396.352	480.88
396.576	470.88
396.801	481.88
397.025	471.88
397.249	475.88
397.474	482.88
397.698	497.88
397.922	491.88
398.147	482.88
398.371	485.88
398.595	494.88
398.82	507.88
399.044	521.88
399.268	527.88
399.492	580.88
399.717	599.88
399.941	629.88
400.165	636.88
400.389	611.88
400.613	592.88
400.837	533.88
401.062	537.88
401.286	506.88
401.51	525.88
401.734	506.88
401.958	517.88
402.182	534.88
402.406	524.88
402.63	521.88
402.854	529.88
403.078	528.88
403.302	522.88
403.526	517.88
403.75	527.88
403.974	542.88
404.198	527.88
404.422	527.88
404.645	523.88
404.869	552.88
405.093	563.88
405.317	576.88
405.541	643.88
405.765	595.88
405.988	563.88
406.212	575.88
406.436	584.88
406.66	597.88
406.883	568.88
407.107	611.88
407.331	647.88
407.555	694.88
407.778	693.88
408.002	635.88
408.226	618.88
408.449	584.88
408.673	598.88
408.896	607.88
409.12	649.88
409.344	609.88
409.567	542.88
409.791	575.88
410.014	525.88
410.238	539.88
410.461	540.88
410.685	537.88
410.908	569.88
411.132	588.88
411.355	615.88
411.578	571.88
411.802	532.88
412.025	528.88
412.249	525.88
412.472	547.88
412.695	583.88
412.919	570.88
413.142	539.88
413.365	523.88
413.589	523.88
413.812	522.88
414.035	495.88
414.258	529.88
414.482	522.88
414.705	525.88
414.928	529.88
415.151	515.88
415.374	519.88
415.597	520.88
415.821	512.88
416.044	507.88
416.267	544.88
416.49	497.88
416.713	506.88
416.936	515.88
417.159	505.88
417.382	526.88
417.605	501.88
417.828	493.88
418.051	534.88
418.274	510.88
418.497	512.88
418.72	507.88
418.943	492.88
419.166	532.88
419.389	555.88
419.611	564.88
419.834	543.88
420.057	546.88
420.28	560.88
420.503	529.88
420.726	517.88
420.948	546.88
421.171	569.88
421.394	587.88
421.617	543.88
421.839	529.88
422.062	527.88
422.285	529.88
422.507	576.88
422.73	663.88
422.953	627.88
423.175	582.88
423.398	549.88
423.621	546.88
423.843	576.88
424.066	552.88
424.288	537.88
424.511	574.88
424.733	594.88
424.956	662.88
425.178	632.88
425.401	642.88
425.623	655.88
425.846	608.88
426.068	551.88
426.291	554.88
426.513	526.88
426.735	539.88
426.958	574.88
427.18	633.88
427.402	740.88
427.625	824.88
427.847	697.88
428.069	634.88
428.292	575.88
428.514	526.88
428.736	506.88
428.958	521.88
429.181	489.88
429.403	496.88
429.625	536.88
429.847	532.88
430.069	587.88
430.292	573.88
430.514	531.88
430.736	527.88
430.958	500.88
431.18	493.88
431.402	466.88
431.624	472.88
431.846	485.88
432.068	502.88
432.29	496.88
432.512	482.88
432.734	517.88
432.956	505.88
433.178	528.88
433.4	487.88
433.622	488.88
433.844	468.88
434.066	484.88
434.287	486.88
434.509	497.88
434.731	519.88
434.953	526.88
435.175	532.88
435.397	547.88
435.618	529.88
435.84	583.88
436.062	656.88
436.284	727.88
436.505	599.88
436.727	560.88
436.949	536.88
437.17	513.88
437.392	519.88
437.614	518.88
437.835	533.88
438.057	597.88
438.278	666.88
438.5	660.88
438.721	758.88
438.943	718.88
439.165	600.88
439.386	541.88
439.608	560.88
439.829	548.88
440.05	560.88
440.272	600.88
440.493	557.88
440.715	530.88
440.936	505.88
441.158	515.88
441.379	521.88
441.6	532.88
441.822	557.88
442.043	587.88
442.264	636.88
442.486	682.88
442.707	586.88
442.928	567.88
443.149	570.88
443.371	560.88
443.592	617.88
443.813	684.88
444.034	720.88
444.255	647.88
444.476	582.88
444.698	586.88
444.919	573.88
445.14	682.88
445.361	636.88
445.582	580.88
445.803	632.88
446.024	684.88
446.245	703.88
446.466	649.88
446.687	566.88
446.908	530.88
447.129	521.88
447.35	519.88
447.571	509.88
447.792	509.88
448.013	483.88
448.234	502.88
448.455	563.88
448.675	643.88
448.896	728.88
449.117	624.88
449.338	582.88
449.559	667.88
449.779	766.88
450	606.88
450.221	541.88
450.442	500.88
450.662	475.88
450.883	494.88
451.104	487.88
451.324	460.88
451.545	499.88
451.766	482.88
451.986	450.88
452.207	460.88
452.428	451.88
452.648	444.88
452.869	461.88
453.089	478.88
453.31	443.88
453.53	446.88
453.751	443.88
453.971	451.88
454.192	478.88
454.412	438.88
454.633	446.88
454.853	462.88
455.073	447.88
455.294	476.88
455.514	496.88
455.734	512.88
455.955	452.88
456.175	451.88
456.395	436.88
456.616	429.88
456.836	443.88
457.056	453.88
457.276	433.88
457.497	452.88
457.717	412.88
457.937	441.88
458.157	470.88
458.377	458.88
458.598	462.88
458.818	517.88
459.038	545.88
459.258	573.88
459.478	527.88
459.698	496.88
459.918	487.88
460.138	494.88
460.358	505.88
460.578	504.88
460.798	536.88
461.018	536.88
461.238	528.88
461.458	528.88
461.678	505.88
461.898	547.88
462.118	527.88
462.338	523.88
462.558	548.88
462.777	556.88
462.997	579.88
463.217	567.88
463.437	594.88
463.657	568.88
463.876	554.88
464.096	565.88
464.316	567.88
464.536	565.88
464.755	571.88
464.975	564.88
465.195	555.88
465.414	618.88
465.634	550.88
465.854	508.88
466.073	504.88
466.293	507.88
466.512	489.88
466.732	497.88
466.951	489.88
467.171	483.88
467.391	460.88
467.61	481.88
467.829	469.88
468.049	501.88
468.268	490.88
468.488	460.88
468.707	451.88
468.927	451.88
469.146	463.88
469.365	462.88
469.585	464.88
469.804	491.88
470.023	504.88
470.243	490.88
470.462	479.88
470.681	487.88
470.901	504.88
471.12	488.88
471.339	456.88
471.558	462.88
471.777	456.88
471.997	470.88
472.216	506.88
472.435	527.88
472.654	513.88
472.873	477.88
473.092	475.88
473.311	456.88
473.53	478.88
473.749	482.88
473.968	509.88
474.187	573.88
474.406	593.88
474.625	520.88
474.844	479.88
475.063	502.88
475.282	484.88
475.501	505.88
475.72	481.88
475.939	481.88
476.158	492.88
476.377	488.88
476.596	500.88
476.814	501.88
477.033	505.88
477.252	536.88
477.471	533.88
477.69	517.88
477.908	534.88
478.127	536.88
478.346	523.88
478.564	521.88
478.783	555.88
479.002	553.88
479.22	560.88
479.439	569.88
479.658	584.88
479.876	575.88
480.095	565.88
480.313	607.88
480.532	620.88
480.751	584.88
480.969	595.88
481.188	653.88
481.406	647.88
481.624	601.88
481.843	579.88
482.061	577.88
482.28	566.88
482.498	582.88
482.717	564.88
482.935	567.88
483.153	563.88
483.372	584.88
483.59	563.88
483.808	566.88
484.027	557.88
484.245	571.88
484.463	592.88
484.681	591.88
484.9	570.88
485.118	581.88
485.336	581.88
485.554	590.88
485.772	588.88
485.99	579.88
486.209	584.88
486.427	575.88
486.645	612.88
486.863	620.88
487.081	620.88
487.299	607.88
487.517	601.88
487.735	585.88
487.953	599.88
488.171	581.88
488.389	599.88
488.607	628.88
488.825	635.88
489.043	596.88
489.261	625.88
489.479	615.88
489.696	618.88
489.914	610.88
490.132	646.88
490.35	636.88
490.568	626.88
490.786	629.88
491.003	611.88
491.221	673.88
491.439	675.88
491.657	656.88
491.874	688.88
492.092	669.88
492.31	675.88
492.527	713.88
492.745	667.88
492.963	672.88
493.18	671.88
493.398	675.88
493.615	682.88
493.833	656.88
494.05	684.88
494.268	698.88
494.485	677.88
494.703	687.88
494.92	699.88
495.138	695.88
495.355	715.88
495.573	698.88
495.79	681.88
496.008	685.88
496.225	713.88
496.442	716.88
496.66	711.88
496.877	702.88
497.094	705.88
497.312	732.88
497.529	711.88
497.746	735.88
497.963	744.88
498.181	774.88
498.398	790.88
498.615	829.88
498.832	838.88
499.049	865.88
499.267	881.88
499.484	919.88
499.701	959.88
499.918	1013.88
500.135	1077.88
500.352	1143.88
500.569	1129.88
500.786	1147.88
501.003	1132.88
501.22	1065.88
501.437	1011.88
501.654	992.88
501.871	941.88
