Data from 1979.PennyLincolnUp.Lamp.En5.5.200Scan.071719.P1_HRD10591_16-17-35-863.txt Node
Date: Thu Jul 18 16:17:35 EDT 2019
User: cochatt
Spectrometer: HR+D1059
Trigger mode: 1
Integration Time (sec): 1.000000E-1
Scans to average: 1
Electric dark correction enabled: true
Nonlinearity correction enabled: false
Boxcar width: 0
XAxis mode: Wavelengths
Number of Pixels in Spectrum: 2048
>>>>>Begin Spectral Data<<<<<
223.165	-20.81
223.4	-20.81
223.635	-20.81
223.869	-11.81
224.104	-12.81
224.338	-12.81
224.573	-16.81
224.808	-19.81
225.042	-9.81
225.277	9.19
225.511	7.19
225.746	-4.81
225.98	0.19
226.215	7.19
226.449	10.19
226.683	22.19
226.918	20.19
227.152	33.19
227.387	49.19
227.621	40.19
227.856	35.19
228.09	43.19
228.324	53.19
228.559	50.19
228.793	65.19
229.027	70.19
229.262	80.19
229.496	86.19
229.73	102.19
229.964	111.19
230.199	117.19
230.433	95.19
230.667	103.19
230.901	103.19
231.136	92.19
231.37	98.19
231.604	107.19
231.838	103.19
232.072	94.19
232.306	105.19
232.541	107.19
232.775	114.19
233.009	102.19
233.243	100.19
233.477	115.19
233.711	99.19
233.945	100.19
234.179	108.19
234.413	113.19
234.647	118.19
234.881	113.19
235.115	102.19
235.349	105.19
235.583	109.19
235.817	92.19
236.051	98.19
236.285	102.19
236.519	108.19
236.753	123.19
236.987	127.19
237.221	136.19
237.455	171.19
237.689	121.19
237.922	113.19
238.156	126.19
238.39	125.19
238.624	108.19
238.858	129.19
239.091	98.19
239.325	121.19
239.559	132.19
239.793	110.19
240.027	105.19
240.26	124.19
240.494	125.19
240.728	122.19
240.961	117.19
241.195	115.19
241.429	134.19
241.662	145.19
241.896	125.19
242.13	121.19
242.363	116.19
242.597	122.19
242.83	113.19
243.064	122.19
243.298	119.19
243.531	115.19
243.765	109.19
243.998	135.19
244.232	127.19
244.465	127.19
244.699	132.19
244.932	125.19
245.166	139.19
245.399	130.19
245.633	131.19
245.866	130.19
246.099	129.19
246.333	142.19
246.566	128.19
246.8	124.19
247.033	136.19
247.266	139.19
247.5	142.19
247.733	155.19
247.966	165.19
248.2	149.19
248.433	140.19
248.666	145.19
248.899	157.19
249.133	166.19
249.366	187.19
249.599	154.19
249.832	154.19
250.066	159.19
250.299	151.19
250.532	141.19
250.765	169.19
250.998	169.19
251.231	184.19
251.465	187.19
251.698	154.19
251.931	160.19
252.164	164.19
252.397	157.19
252.63	156.19
252.863	168.19
253.096	179.19
253.329	185.19
253.562	188.19
253.795	168.19
254.028	180.19
254.261	162.19
254.494	178.19
254.727	183.19
254.96	208.19
255.193	186.19
255.426	211.19
255.659	186.19
255.892	184.19
256.124	184.19
256.357	183.19
256.59	171.19
256.823	188.19
257.056	178.19
257.289	175.19
257.521	172.19
257.754	171.19
257.987	180.19
258.22	192.19
258.452	182.19
258.685	183.19
258.918	170.19
259.151	163.19
259.383	186.19
259.616	170.19
259.849	189.19
260.081	197.19
260.314	196.19
260.547	188.19
260.779	188.19
261.012	192.19
261.244	183.19
261.477	169.19
261.71	177.19
261.942	189.19
262.175	187.19
262.407	186.19
262.64	173.19
262.872	169.19
263.105	170.19
263.337	189.19
263.57	183.19
263.802	159.19
264.035	186.19
264.267	189.19
264.499	202.19
264.732	194.19
264.964	183.19
265.197	167.19
265.429	168.19
265.661	178.19
265.894	193.19
266.126	183.19
266.358	194.19
266.591	195.19
266.823	198.19
267.055	173.19
267.287	204.19
267.52	185.19
267.752	191.19
267.984	194.19
268.216	179.19
268.448	195.19
268.681	191.19
268.913	189.19
269.145	218.19
269.377	220.19
269.609	207.19
269.841	188.19
270.073	204.19
270.306	220.19
270.538	220.19
270.77	239.19
271.002	232.19
271.234	215.19
271.466	241.19
271.698	237.19
271.93	228.19
272.162	227.19
272.394	231.19
272.626	215.19
272.858	216.19
273.09	217.19
273.322	211.19
273.553	207.19
273.785	215.19
274.017	213.19
274.249	212.19
274.481	228.19
274.713	221.19
274.945	212.19
275.176	222.19
275.408	223.19
275.64	212.19
275.872	199.19
276.104	227.19
276.335	214.19
276.567	228.19
276.799	231.19
277.031	225.19
277.262	241.19
277.494	234.19
277.726	244.19
277.957	237.19
278.189	223.19
278.421	227.19
278.652	223.19
278.884	237.19
279.115	218.19
279.347	228.19
279.579	226.19
279.81	219.19
280.042	212.19
280.273	230.19
280.505	220.19
280.736	219.19
280.968	230.19
281.199	228.19
281.431	222.19
281.662	227.19
281.894	232.19
282.125	225.19
282.356	246.19
282.588	253.19
282.819	259.19
283.051	216.19
283.282	234.19
283.513	237.19
283.745	228.19
283.976	252.19
284.207	245.19
284.439	228.19
284.67	232.19
284.901	226.19
285.132	241.19
285.364	232.19
285.595	231.19
285.826	243.19
286.057	232.19
286.288	227.19
286.52	236.19
286.751	235.19
286.982	249.19
287.213	240.19
287.444	245.19
287.675	250.19
287.906	257.19
288.138	252.19
288.369	259.19
288.6	242.19
288.831	248.19
289.062	255.19
289.293	226.19
289.524	267.19
289.755	250.19
289.986	255.19
290.217	234.19
290.448	235.19
290.679	269.19
290.91	249.19
291.141	247.19
291.371	239.19
291.602	259.19
291.833	261.19
292.064	247.19
292.295	257.19
292.526	247.19
292.757	250.19
292.987	265.19
293.218	251.19
293.449	243.19
293.68	249.19
293.91	242.19
294.141	248.19
294.372	252.19
294.603	244.19
294.833	251.19
295.064	243.19
295.295	262.19
295.525	255.19
295.756	260.19
295.987	258.19
296.217	269.19
296.448	276.19
296.679	255.19
296.909	265.19
297.14	267.19
297.37	267.19
297.601	253.19
297.831	266.19
298.062	257.19
298.292	267.19
298.523	270.19
298.753	279.19
298.984	259.19
299.214	255.19
299.445	269.19
299.675	259.19
299.905	263.19
300.136	277.19
300.366	276.19
300.597	272.19
300.827	274.19
301.057	257.19
301.288	289.19
301.518	276.19
301.748	283.19
301.979	267.19
302.209	266.19
302.439	295.19
302.669	295.19
302.9	286.19
303.13	291.19
303.36	305.19
303.59	281.19
303.82	277.19
304.051	290.19
304.281	288.19
304.511	293.19
304.741	288.19
304.971	297.19
305.201	295.19
305.431	297.19
305.661	276.19
305.891	283.19
306.121	267.19
306.352	290.19
306.582	310.19
306.812	278.19
307.042	267.19
307.272	296.19
307.502	285.19
307.731	295.19
307.961	288.19
308.191	277.19
308.421	279.19
308.651	288.19
308.881	290.19
309.111	289.19
309.341	301.19
309.571	289.19
309.8	301.19
310.03	305.19
310.26	306.19
310.49	300.19
310.72	305.19
310.949	324.19
311.179	305.19
311.409	299.19
311.639	323.19
311.868	320.19
312.098	325.19
312.328	300.19
312.557	322.19
312.787	330.19
313.017	324.19
313.246	328.19
313.476	304.19
313.706	315.19
313.935	308.19
314.165	325.19
314.394	323.19
314.624	314.19
314.853	329.19
315.083	335.19
315.312	311.19
315.542	308.19
315.771	331.19
316.001	295.19
316.23	311.19
316.46	290.19
316.689	336.19
316.919	309.19
317.148	323.19
317.377	306.19
317.607	331.19
317.836	326.19
318.065	317.19
318.295	342.19
318.524	322.19
318.753	332.19
318.983	308.19
319.212	312.19
319.441	321.19
319.67	340.19
319.9	318.19
320.129	302.19
320.358	321.19
320.587	332.19
320.816	330.19
321.046	338.19
321.275	341.19
321.504	322.19
321.733	332.19
321.962	346.19
322.191	344.19
322.42	333.19
322.649	361.19
322.878	352.19
323.108	366.19
323.337	370.19
323.566	372.19
323.795	393.19
324.024	414.19
324.253	461.19
324.482	608.19
324.71	940.19
324.939	1416.19
325.168	1208.19
325.397	599.19
325.626	441.19
325.855	388.19
326.084	390.19
326.313	387.19
326.542	373.19
326.77	405.19
326.999	460.19
327.228	610.19
327.457	879.19
327.686	1033.19
327.914	695.19
328.143	483.19
328.372	421.19
328.6	408.19
328.829	414.19
329.058	409.19
329.287	398.19
329.515	383.19
329.744	383.19
329.972	369.19
330.201	390.19
330.43	421.19
330.658	439.19
330.887	456.19
331.115	418.19
331.344	411.19
331.572	389.19
331.801	401.19
332.03	378.19
332.258	378.19
332.486	381.19
332.715	377.19
332.943	404.19
333.172	407.19
333.4	399.19
333.629	417.19
333.857	404.19
334.085	419.19
334.314	420.19
334.542	412.19
334.771	440.19
334.999	405.19
335.227	412.19
335.455	395.19
335.684	386.19
335.912	400.19
336.14	393.19
336.369	374.19
336.597	401.19
336.825	387.19
337.053	403.19
337.281	387.19
337.51	392.19
337.738	367.19
337.966	359.19
338.194	368.19
338.422	360.19
338.65	362.19
338.878	374.19
339.106	371.19
339.334	371.19
339.562	378.19
339.79	362.19
340.018	371.19
340.246	381.19
340.474	374.19
340.702	365.19
340.93	361.19
341.158	376.19
341.386	365.19
341.614	362.19
341.842	354.19
342.07	371.19
342.298	360.19
342.526	387.19
342.754	348.19
342.981	357.19
343.209	364.19
343.437	370.19
343.665	374.19
343.893	392.19
344.12	408.19
344.348	406.19
344.576	379.19
344.804	378.19
345.031	367.19
345.259	373.19
345.487	371.19
345.714	364.19
345.942	377.19
346.17	372.19
346.397	367.19
346.625	367.19
346.853	361.19
347.08	356.19
347.308	327.19
347.535	360.19
347.763	373.19
347.99	354.19
348.218	362.19
348.445	363.19
348.673	344.19
348.9	370.19
349.128	354.19
349.355	330.19
349.583	363.19
349.81	339.19
350.037	339.19
350.265	330.19
350.492	346.19
350.72	363.19
350.947	345.19
351.174	353.19
351.402	364.19
351.629	362.19
351.856	372.19
352.083	347.19
352.311	371.19
352.538	364.19
352.765	371.19
352.992	357.19
353.22	356.19
353.447	362.19
353.674	376.19
353.901	363.19
354.128	322.19
354.355	329.19
354.583	330.19
354.81	350.19
355.037	349.19
355.264	357.19
355.491	333.19
355.718	336.19
355.945	343.19
356.172	346.19
356.399	354.19
356.626	353.19
356.853	351.19
357.08	337.19
357.307	343.19
357.534	368.19
357.761	335.19
357.988	360.19
358.215	352.19
358.441	331.19
358.668	362.19
358.895	334.19
359.122	355.19
359.349	363.19
359.576	369.19
359.802	371.19
360.029	400.19
360.256	407.19
360.483	383.19
360.709	359.19
360.936	361.19
361.163	356.19
361.39	360.19
361.616	383.19
361.843	338.19
362.07	359.19
362.296	364.19
362.523	354.19
362.749	359.19
362.976	377.19
363.203	357.19
363.429	369.19
363.656	355.19
363.882	341.19
364.109	352.19
364.335	348.19
364.562	327.19
364.788	357.19
365.015	353.19
365.241	364.19
365.468	348.19
365.694	360.19
365.92	355.19
366.147	367.19
366.373	355.19
366.599	357.19
366.826	357.19
367.052	323.19
367.278	360.19
367.505	364.19
367.731	346.19
367.957	361.19
368.184	363.19
368.41	373.19
368.636	372.19
368.862	373.19
369.089	364.19
369.315	342.19
369.541	367.19
369.767	367.19
369.993	356.19
370.219	363.19
370.445	355.19
370.672	358.19
370.898	364.19
371.124	362.19
371.35	361.19
371.576	379.19
371.802	343.19
372.028	368.19
372.254	375.19
372.48	383.19
372.706	367.19
372.932	379.19
373.158	384.19
373.384	377.19
373.61	386.19
373.835	381.19
374.061	388.19
374.287	383.19
374.513	377.19
374.739	371.19
374.965	372.19
375.191	388.19
375.416	411.19
375.642	377.19
375.868	371.19
376.094	388.19
376.319	360.19
376.545	363.19
376.771	370.19
376.997	375.19
377.222	386.19
377.448	380.19
377.674	376.19
377.899	383.19
378.125	373.19
378.35	387.19
378.576	367.19
378.802	358.19
379.027	369.19
379.253	383.19
379.478	376.19
379.704	360.19
379.929	367.19
380.155	363.19
380.38	372.19
380.606	383.19
380.831	384.19
381.057	374.19
381.282	358.19
381.507	384.19
381.733	384.19
381.958	374.19
382.184	376.19
382.409	389.19
382.634	385.19
382.86	379.19
383.085	417.19
383.31	386.19
383.535	392.19
383.761	393.19
383.986	387.19
384.211	406.19
384.436	388.19
384.662	397.19
384.887	411.19
385.112	400.19
385.337	422.19
385.562	418.19
385.787	413.19
386.013	429.19
386.238	421.19
386.463	438.19
386.688	435.19
386.913	419.19
387.138	418.19
387.363	428.19
387.588	417.19
387.813	421.19
388.038	434.19
388.263	433.19
388.488	435.19
388.713	451.19
388.938	418.19
389.163	411.19
389.387	409.19
389.612	397.19
389.837	427.19
390.062	415.19
390.287	408.19
390.512	405.19
390.736	431.19
390.961	423.19
391.186	424.19
391.411	435.19
391.636	425.19
391.86	451.19
392.085	441.19
392.31	424.19
392.534	430.19
392.759	442.19
392.984	444.19
393.208	461.19
393.433	466.19
393.658	458.19
393.882	434.19
394.107	424.19
394.331	431.19
394.556	428.19
394.78	414.19
395.005	435.19
395.229	427.19
395.454	459.19
395.678	463.19
395.903	463.19
396.127	464.19
396.352	453.19
396.576	475.19
396.801	460.19
397.025	480.19
397.249	466.19
397.474	449.19
397.698	453.19
397.922	468.19
398.147	470.19
398.371	495.19
398.595	464.19
398.82	480.19
399.044	504.19
399.268	536.19
399.492	567.19
399.717	609.19
399.941	602.19
400.165	629.19
400.389	593.19
400.613	565.19
400.837	528.19
401.062	498.19
401.286	506.19
401.51	492.19
401.734	499.19
401.958	490.19
402.182	468.19
402.406	496.19
402.63	512.19
402.854	487.19
403.078	492.19
403.302	510.19
403.526	519.19
403.75	525.19
403.974	521.19
404.198	512.19
404.422	529.19
404.645	533.19
404.869	530.19
405.093	556.19
405.317	549.19
405.541	600.19
405.765	557.19
405.988	532.19
406.212	537.19
406.436	549.19
406.66	554.19
406.883	551.19
407.107	571.19
407.331	608.19
407.555	662.19
407.778	649.19
408.002	617.19
408.226	600.19
408.449	545.19
408.673	545.19
408.896	599.19
409.12	631.19
409.344	591.19
409.567	546.19
409.791	532.19
410.014	561.19
410.238	545.19
410.461	519.19
410.685	512.19
410.908	525.19
411.132	531.19
411.355	587.19
411.578	556.19
411.802	514.19
412.025	521.19
412.249	520.19
412.472	540.19
412.695	562.19
412.919	556.19
413.142	509.19
413.365	504.19
413.589	512.19
413.812	502.19
414.035	490.19
414.258	499.19
414.482	522.19
414.705	501.19
414.928	500.19
415.151	512.19
415.374	489.19
415.597	500.19
415.821	493.19
416.044	482.19
416.267	505.19
416.49	485.19
416.713	503.19
416.936	490.19
417.159	481.19
417.382	475.19
417.605	473.19
417.828	507.19
418.051	536.19
418.274	493.19
418.497	465.19
418.72	487.19
418.943	489.19
419.166	536.19
419.389	550.19
419.611	543.19
419.834	520.19
420.057	511.19
420.28	506.19
420.503	493.19
420.726	484.19
420.948	516.19
421.171	513.19
421.394	565.19
421.617	521.19
421.839	505.19
422.062	490.19
422.285	488.19
422.507	513.19
422.73	596.19
422.953	603.19
423.175	559.19
423.398	520.19
423.621	529.19
423.843	541.19
424.066	548.19
424.288	535.19
424.511	551.19
424.733	575.19
424.956	657.19
425.178	623.19
425.401	609.19
425.623	617.19
425.846	537.19
426.068	519.19
426.291	517.19
426.513	514.19
426.735	535.19
426.958	555.19
427.18	612.19
427.402	715.19
427.625	773.19
427.847	660.19
428.069	596.19
428.292	540.19
428.514	503.19
428.736	517.19
428.958	495.19
429.181	513.19
429.403	487.19
429.625	497.19
429.847	510.19
430.069	532.19
430.292	571.19
430.514	494.19
430.736	496.19
430.958	501.19
431.18	483.19
431.402	486.19
431.624	468.19
431.846	472.19
432.068	477.19
432.29	477.19
432.512	458.19
432.734	482.19
432.956	477.19
433.178	490.19
433.4	486.19
433.622	479.19
433.844	505.19
434.066	483.19
434.287	482.19
434.509	484.19
434.731	484.19
434.953	514.19
435.175	505.19
435.397	524.19
435.618	520.19
435.84	556.19
436.062	629.19
436.284	682.19
436.505	548.19
436.727	537.19
436.949	500.19
437.17	492.19
437.392	491.19
437.614	491.19
437.835	513.19
438.057	575.19
438.278	652.19
438.5	641.19
438.721	730.19
438.943	699.19
439.165	539.19
439.386	533.19
439.608	508.19
439.829	512.19
440.05	535.19
440.272	581.19
440.493	534.19
440.715	522.19
440.936	502.19
441.158	500.19
441.379	482.19
441.6	526.19
441.822	527.19
442.043	557.19
442.264	612.19
442.486	643.19
442.707	578.19
442.928	552.19
443.149	536.19
443.371	540.19
443.592	586.19
443.813	657.19
444.034	689.19
444.255	607.19
444.476	549.19
444.698	548.19
444.919	541.19
445.14	682.19
445.361	596.19
445.582	564.19
445.803	613.19
446.024	669.19
446.245	704.19
446.466	618.19
446.687	533.19
446.908	507.19
447.129	508.19
447.35	490.19
447.571	482.19
447.792	484.19
448.013	491.19
448.234	489.19
448.455	520.19
448.675	588.19
448.896	697.19
449.117	608.19
449.338	556.19
449.559	649.19
449.779	733.19
450	596.19
450.221	530.19
450.442	488.19
450.662	481.19
450.883	476.19
451.104	481.19
451.324	454.19
451.545	465.19
451.766	451.19
451.986	429.19
452.207	467.19
452.428	439.19
452.648	442.19
452.869	427.19
453.089	435.19
453.31	438.19
453.53	445.19
453.751	440.19
453.971	458.19
454.192	457.19
454.412	423.19
454.633	426.19
454.853	442.19
455.073	429.19
455.294	455.19
455.514	486.19
455.734	479.19
455.955	436.19
456.175	414.19
456.395	431.19
456.616	443.19
456.836	402.19
457.056	418.19
457.276	396.19
457.497	419.19
457.717	415.19
457.937	405.19
458.157	441.19
458.377	458.19
458.598	461.19
458.818	488.19
459.038	524.19
459.258	552.19
459.478	499.19
459.698	495.19
459.918	473.19
460.138	507.19
460.358	502.19
460.578	498.19
460.798	500.19
461.018	517.19
461.238	505.19
461.458	486.19
461.678	491.19
461.898	497.19
462.118	522.19
462.338	530.19
462.558	553.19
462.777	511.19
462.997	567.19
463.217	580.19
463.437	583.19
463.657	549.19
463.876	569.19
464.096	551.19
464.316	552.19
464.536	539.19
464.755	539.19
464.975	551.19
465.195	539.19
465.414	570.19
465.634	547.19
465.854	496.19
466.073	480.19
466.293	478.19
466.512	481.19
466.732	472.19
466.951	437.19
467.171	459.19
467.391	472.19
467.61	461.19
467.829	459.19
468.049	485.19
468.268	459.19
468.488	482.19
468.707	464.19
468.927	445.19
469.146	462.19
469.365	436.19
469.585	428.19
469.804	454.19
470.023	482.19
470.243	468.19
470.462	480.19
470.681	492.19
470.901	481.19
471.12	465.19
471.339	480.19
471.558	449.19
471.777	475.19
471.997	453.19
472.216	452.19
472.435	487.19
472.654	482.19
472.873	477.19
473.092	459.19
473.311	461.19
473.53	470.19
473.749	479.19
473.968	495.19
474.187	543.19
474.406	583.19
474.625	502.19
474.844	467.19
475.063	477.19
475.282	482.19
475.501	466.19
475.72	477.19
475.939	478.19
476.158	478.19
476.377	495.19
476.596	493.19
476.814	495.19
477.033	499.19
477.252	486.19
477.471	486.19
477.69	490.19
477.908	516.19
478.127	507.19
478.346	512.19
478.564	514.19
478.783	525.19
479.002	550.19
479.22	554.19
479.439	546.19
479.658	572.19
479.876	546.19
480.095	567.19
480.313	577.19
480.532	579.19
480.751	584.19
480.969	584.19
481.188	597.19
481.406	620.19
481.624	578.19
481.843	559.19
482.061	552.19
482.28	525.19
482.498	541.19
482.717	538.19
482.935	538.19
483.153	551.19
483.372	553.19
483.59	564.19
483.808	543.19
484.027	561.19
484.245	541.19
484.463	565.19
484.681	570.19
484.9	557.19
485.118	560.19
485.336	557.19
485.554	567.19
485.772	571.19
485.99	564.19
486.209	559.19
486.427	562.19
486.645	571.19
486.863	589.19
487.081	609.19
487.299	608.19
487.517	595.19
487.735	580.19
487.953	594.19
488.171	587.19
488.389	588.19
488.607	594.19
488.825	587.19
489.043	581.19
489.261	594.19
489.479	600.19
489.696	584.19
489.914	586.19
490.132	589.19
490.35	598.19
490.568	581.19
490.786	608.19
491.003	615.19
491.221	620.19
491.439	638.19
491.657	650.19
491.874	638.19
492.092	660.19
492.31	635.19
492.527	627.19
492.745	635.19
492.963	669.19
493.18	674.19
493.398	691.19
493.615	646.19
493.833	665.19
494.05	660.19
494.268	659.19
494.485	665.19
494.703	679.19
494.92	672.19
495.138	662.19
495.355	678.19
495.573	668.19
495.79	671.19
496.008	678.19
496.225	682.19
496.442	667.19
496.66	691.19
496.877	688.19
497.094	689.19
497.312	676.19
497.529	695.19
497.746	710.19
497.963	740.19
498.181	763.19
498.398	734.19
498.615	797.19
498.832	809.19
499.049	835.19
499.267	852.19
499.484	901.19
499.701	953.19
499.918	961.19
500.135	1024.19
500.352	1114.19
500.569	1137.19
500.786	1108.19
501.003	1099.19
501.22	1050.19
501.437	1000.19
501.654	950.19
501.871	909.19
502.088	899.19
