Data from 1979.PennyLincolnUp.Lamp.En5.5.200Scan.071719.P1_HRD10591_16-19-14-862.txt Node
Date: Thu Jul 18 16:19:14 EDT 2019
User: cochatt
Spectrometer: HR+D1059
Trigger mode: 1
Integration Time (sec): 1.000000E-1
Scans to average: 1
Electric dark correction enabled: true
Nonlinearity correction enabled: false
Boxcar width: 0
XAxis mode: Wavelengths
Number of Pixels in Spectrum: 2048
>>>>>Begin Spectral Data<<<<<
223.165	-17.75
223.4	-17.75
223.635	-17.75
223.869	-22.75
224.104	-19.75
224.338	-22.75
224.573	-19.75
224.808	-15.75
225.042	-16.75
225.277	3.25
225.511	-12.75
225.746	6.25
225.98	19.25
226.215	23.25
226.449	11.25
226.683	20.25
226.918	22.25
227.152	42.25
227.387	40.25
227.621	42.25
227.856	40.25
228.09	43.25
228.324	49.25
228.559	44.25
228.793	72.25
229.027	100.25
229.262	111.25
229.496	118.25
229.73	139.25
229.964	148.25
230.199	117.25
230.433	129.25
230.667	110.25
230.901	121.25
231.136	112.25
231.37	106.25
231.604	100.25
231.838	101.25
232.072	101.25
232.306	111.25
232.541	113.25
232.775	105.25
233.009	119.25
233.243	117.25
233.477	124.25
233.711	120.25
233.945	127.25
234.179	112.25
234.413	125.25
234.647	117.25
234.881	123.25
235.115	108.25
235.349	115.25
235.583	115.25
235.817	121.25
236.051	117.25
236.285	129.25
236.519	131.25
236.753	127.25
236.987	144.25
237.221	175.25
237.455	205.25
237.689	166.25
237.922	128.25
238.156	138.25
238.39	140.25
238.624	131.25
238.858	128.25
239.091	119.25
239.325	141.25
239.559	150.25
239.793	124.25
240.027	133.25
240.26	141.25
240.494	152.25
240.728	156.25
240.961	154.25
241.195	142.25
241.429	134.25
241.662	123.25
241.896	133.25
242.13	126.25
242.363	140.25
242.597	135.25
242.83	132.25
243.064	141.25
243.298	144.25
243.531	139.25
243.765	145.25
243.998	138.25
244.232	129.25
244.465	149.25
244.699	145.25
244.932	144.25
245.166	162.25
245.399	161.25
245.633	153.25
245.866	142.25
246.099	143.25
246.333	149.25
246.566	156.25
246.8	149.25
247.033	144.25
247.266	163.25
247.5	165.25
247.733	169.25
247.966	178.25
248.2	172.25
248.433	156.25
248.666	176.25
248.899	187.25
249.133	191.25
249.366	199.25
249.599	200.25
249.832	183.25
250.066	171.25
250.299	191.25
250.532	187.25
250.765	211.25
250.998	212.25
251.231	217.25
251.465	208.25
251.698	201.25
251.931	204.25
252.164	190.25
252.397	203.25
252.63	197.25
252.863	199.25
253.096	195.25
253.329	209.25
253.562	204.25
253.795	200.25
254.028	191.25
254.261	197.25
254.494	209.25
254.727	245.25
254.96	255.25
255.193	234.25
255.426	221.25
255.659	223.25
255.892	211.25
256.124	208.25
256.357	217.25
256.59	213.25
256.823	203.25
257.056	197.25
257.289	192.25
257.521	211.25
257.754	191.25
257.987	221.25
258.22	210.25
258.452	209.25
258.685	192.25
258.918	208.25
259.151	213.25
259.383	221.25
259.616	213.25
259.849	219.25
260.081	222.25
260.314	260.25
260.547	236.25
260.779	224.25
261.012	202.25
261.244	213.25
261.477	224.25
261.71	227.25
261.942	211.25
262.175	220.25
262.407	218.25
262.64	214.25
262.872	206.25
263.105	206.25
263.337	208.25
263.57	217.25
263.802	213.25
264.035	215.25
264.267	221.25
264.499	206.25
264.732	217.25
264.964	209.25
265.197	214.25
265.429	226.25
265.661	214.25
265.894	215.25
266.126	209.25
266.358	206.25
266.591	204.25
266.823	237.25
267.055	217.25
267.287	218.25
267.52	224.25
267.752	215.25
267.984	209.25
268.216	213.25
268.448	224.25
268.681	218.25
268.913	231.25
269.145	231.25
269.377	269.25
269.609	247.25
269.841	236.25
270.073	247.25
270.306	278.25
270.538	285.25
270.77	275.25
271.002	264.25
271.234	273.25
271.466	271.25
271.698	276.25
271.93	285.25
272.162	279.25
272.394	265.25
272.626	269.25
272.858	259.25
273.09	256.25
273.322	259.25
273.553	247.25
273.785	236.25
274.017	266.25
274.249	235.25
274.481	261.25
274.713	264.25
274.945	243.25
275.176	264.25
275.408	238.25
275.64	259.25
275.872	249.25
276.104	265.25
276.335	255.25
276.567	254.25
276.799	271.25
277.031	269.25
277.262	279.25
277.494	283.25
277.726	268.25
277.957	261.25
278.189	280.25
278.421	268.25
278.652	260.25
278.884	252.25
279.115	273.25
279.347	256.25
279.579	253.25
279.81	251.25
280.042	260.25
280.273	268.25
280.505	265.25
280.736	260.25
280.968	263.25
281.199	269.25
281.431	251.25
281.662	259.25
281.894	264.25
282.125	283.25
282.356	288.25
282.588	305.25
282.819	285.25
283.051	284.25
283.282	268.25
283.513	265.25
283.745	284.25
283.976	268.25
284.207	277.25
284.439	263.25
284.67	276.25
284.901	273.25
285.132	298.25
285.364	267.25
285.595	288.25
285.826	279.25
286.057	261.25
286.288	283.25
286.52	277.25
286.751	280.25
286.982	294.25
287.213	279.25
287.444	274.25
287.675	277.25
287.906	301.25
288.138	277.25
288.369	290.25
288.6	306.25
288.831	290.25
289.062	302.25
289.293	284.25
289.524	286.25
289.755	297.25
289.986	309.25
290.217	276.25
290.448	286.25
290.679	299.25
290.91	286.25
291.141	287.25
291.371	285.25
291.602	284.25
291.833	288.25
292.064	279.25
292.295	288.25
292.526	319.25
292.757	299.25
292.987	300.25
293.218	301.25
293.449	290.25
293.68	300.25
293.91	302.25
294.141	278.25
294.372	302.25
294.603	289.25
294.833	291.25
295.064	290.25
295.295	288.25
295.525	305.25
295.756	299.25
295.987	284.25
296.217	321.25
296.448	330.25
296.679	296.25
296.909	297.25
297.14	304.25
297.37	311.25
297.601	286.25
297.831	289.25
298.062	313.25
298.292	313.25
298.523	286.25
298.753	306.25
298.984	291.25
299.214	307.25
299.445	334.25
299.675	317.25
299.905	324.25
300.136	312.25
300.366	311.25
300.597	298.25
300.827	319.25
301.057	317.25
301.288	330.25
301.518	329.25
301.748	325.25
301.979	331.25
302.209	325.25
302.439	333.25
302.669	334.25
302.9	330.25
303.13	311.25
303.36	333.25
303.59	314.25
303.82	315.25
304.051	345.25
304.281	328.25
304.511	333.25
304.741	313.25
304.971	332.25
305.201	343.25
305.431	325.25
305.661	346.25
305.891	325.25
306.121	314.25
306.352	333.25
306.582	332.25
306.812	332.25
307.042	346.25
307.272	337.25
307.502	344.25
307.731	341.25
307.961	344.25
308.191	329.25
308.421	342.25
308.651	335.25
308.881	342.25
309.111	335.25
309.341	341.25
309.571	355.25
309.8	366.25
310.03	358.25
310.26	367.25
310.49	336.25
310.72	369.25
310.949	372.25
311.179	377.25
311.409	359.25
311.639	381.25
311.868	379.25
312.098	364.25
312.328	372.25
312.557	393.25
312.787	393.25
313.017	400.25
313.246	383.25
313.476	384.25
313.706	372.25
313.935	375.25
314.165	379.25
314.394	399.25
314.624	397.25
314.853	396.25
315.083	388.25
315.312	380.25
315.542	371.25
315.771	381.25
316.001	356.25
316.23	365.25
316.46	367.25
316.689	395.25
316.919	378.25
317.148	397.25
317.377	391.25
317.607	393.25
317.836	391.25
318.065	384.25
318.295	388.25
318.524	378.25
318.753	373.25
318.983	380.25
319.212	382.25
319.441	399.25
319.67	423.25
319.9	395.25
320.129	380.25
320.358	368.25
320.587	368.25
320.816	399.25
321.046	409.25
321.275	421.25
321.504	405.25
321.733	406.25
321.962	388.25
322.191	412.25
322.42	405.25
322.649	437.25
322.878	435.25
323.108	418.25
323.337	475.25
323.566	449.25
323.795	523.25
324.024	538.25
324.253	638.25
324.482	867.25
324.71	1349.25
324.939	2011.25
325.168	1760.25
325.397	854.25
325.626	619.25
325.855	516.25
326.084	468.25
326.313	472.25
326.542	470.25
326.77	534.25
326.999	606.25
327.228	821.25
327.457	1227.25
327.686	1529.25
327.914	979.25
328.143	647.25
328.372	589.25
328.6	559.25
328.829	535.25
329.058	511.25
329.287	553.25
329.515	525.25
329.744	503.25
329.972	499.25
330.201	514.25
330.43	519.25
330.658	551.25
330.887	555.25
331.115	585.25
331.344	485.25
331.572	486.25
331.801	465.25
332.03	469.25
332.258	448.25
332.486	462.25
332.715	455.25
332.943	459.25
333.172	462.25
333.4	438.25
333.629	489.25
333.857	495.25
334.085	521.25
334.314	499.25
334.542	540.25
334.771	524.25
334.999	538.25
335.227	502.25
335.455	488.25
335.684	465.25
335.912	464.25
336.14	439.25
336.369	465.25
336.597	446.25
336.825	464.25
337.053	445.25
337.281	462.25
337.51	473.25
337.738	452.25
337.966	444.25
338.194	456.25
338.422	441.25
338.65	443.25
338.878	454.25
339.106	440.25
339.334	457.25
339.562	438.25
339.79	440.25
340.018	425.25
340.246	439.25
340.474	439.25
340.702	446.25
340.93	421.25
341.158	429.25
341.386	426.25
341.614	455.25
341.842	449.25
342.07	424.25
342.298	443.25
342.526	429.25
342.754	414.25
342.981	412.25
343.209	430.25
343.437	445.25
343.665	431.25
343.893	459.25
344.12	453.25
344.348	451.25
344.576	438.25
344.804	440.25
345.031	451.25
345.259	461.25
345.487	446.25
345.714	428.25
345.942	416.25
346.17	426.25
346.397	407.25
346.625	429.25
346.853	442.25
347.08	425.25
347.308	407.25
347.535	417.25
347.763	429.25
347.99	429.25
348.218	420.25
348.445	430.25
348.673	433.25
348.9	436.25
349.128	413.25
349.355	416.25
349.583	431.25
349.81	410.25
350.037	428.25
350.265	407.25
350.492	427.25
350.72	419.25
350.947	431.25
351.174	416.25
351.402	428.25
351.629	426.25
351.856	421.25
352.083	426.25
352.311	447.25
352.538	431.25
352.765	445.25
352.992	437.25
353.22	417.25
353.447	415.25
353.674	436.25
353.901	417.25
354.128	393.25
354.355	402.25
354.583	399.25
354.81	400.25
355.037	381.25
355.264	414.25
355.491	398.25
355.718	407.25
355.945	409.25
356.172	397.25
356.399	395.25
356.626	397.25
356.853	379.25
357.08	408.25
357.307	394.25
357.534	411.25
357.761	372.25
357.988	396.25
358.215	413.25
358.441	415.25
358.668	408.25
358.895	389.25
359.122	406.25
359.349	425.25
359.576	431.25
359.802	428.25
360.029	463.25
360.256	462.25
360.483	462.25
360.709	430.25
360.936	425.25
361.163	428.25
361.39	415.25
361.616	428.25
361.843	413.25
362.07	428.25
362.296	444.25
362.523	435.25
362.749	409.25
362.976	416.25
363.203	416.25
363.429	401.25
363.656	411.25
363.882	415.25
364.109	400.25
364.335	401.25
364.562	425.25
364.788	394.25
365.015	424.25
365.241	428.25
365.468	434.25
365.694	422.25
365.92	405.25
366.147	400.25
366.373	401.25
366.599	407.25
366.826	402.25
367.052	392.25
367.278	423.25
367.505	408.25
367.731	411.25
367.957	410.25
368.184	405.25
368.41	417.25
368.636	417.25
368.862	437.25
369.089	421.25
369.315	420.25
369.541	424.25
369.767	408.25
369.993	406.25
370.219	409.25
370.445	415.25
370.672	418.25
370.898	415.25
371.124	435.25
371.35	429.25
371.576	440.25
371.802	410.25
372.028	440.25
372.254	439.25
372.48	417.25
372.706	420.25
372.932	428.25
373.158	424.25
373.384	438.25
373.61	408.25
373.835	410.25
374.061	419.25
374.287	428.25
374.513	425.25
374.739	448.25
374.965	437.25
375.191	439.25
375.416	444.25
375.642	439.25
375.868	435.25
376.094	430.25
376.319	434.25
376.545	407.25
376.771	420.25
376.997	436.25
377.222	422.25
377.448	415.25
377.674	424.25
377.899	413.25
378.125	416.25
378.35	431.25
378.576	420.25
378.802	417.25
379.027	403.25
379.253	417.25
379.478	416.25
379.704	423.25
379.929	414.25
380.155	410.25
380.38	423.25
380.606	422.25
380.831	415.25
381.057	413.25
381.282	425.25
381.507	437.25
381.733	431.25
381.958	437.25
382.184	430.25
382.409	453.25
382.634	457.25
382.86	433.25
383.085	443.25
383.31	437.25
383.535	444.25
383.761	445.25
383.986	430.25
384.211	448.25
384.436	457.25
384.662	445.25
384.887	456.25
385.112	455.25
385.337	467.25
385.562	485.25
385.787	468.25
386.013	482.25
386.238	503.25
386.463	476.25
386.688	472.25
386.913	473.25
387.138	477.25
387.363	465.25
387.588	470.25
387.813	465.25
388.038	475.25
388.263	461.25
388.488	470.25
388.713	493.25
388.938	492.25
389.163	461.25
389.387	485.25
389.612	465.25
389.837	479.25
390.062	449.25
390.287	480.25
390.512	469.25
390.736	481.25
390.961	493.25
391.186	490.25
391.411	481.25
391.636	470.25
391.86	486.25
392.085	501.25
392.31	527.25
392.534	502.25
392.759	503.25
392.984	486.25
393.208	483.25
393.433	496.25
393.658	483.25
393.882	491.25
394.107	471.25
394.331	495.25
394.556	487.25
394.78	497.25
395.005	508.25
395.229	491.25
395.454	519.25
395.678	511.25
395.903	522.25
396.127	550.25
396.352	531.25
396.576	505.25
396.801	489.25
397.025	519.25
397.249	503.25
397.474	532.25
397.698	505.25
397.922	529.25
398.147	559.25
398.371	531.25
398.595	539.25
398.82	556.25
399.044	568.25
399.268	590.25
399.492	611.25
399.717	657.25
399.941	711.25
400.165	668.25
400.389	691.25
400.613	654.25
400.837	581.25
401.062	601.25
401.286	562.25
401.51	567.25
401.734	578.25
401.958	552.25
402.182	582.25
402.406	567.25
402.63	583.25
402.854	590.25
403.078	575.25
403.302	581.25
403.526	590.25
403.75	603.25
403.974	589.25
404.198	583.25
404.422	603.25
404.645	604.25
404.869	606.25
405.093	630.25
405.317	681.25
405.541	701.25
405.765	643.25
405.988	606.25
406.212	640.25
406.436	678.25
406.66	653.25
406.883	637.25
407.107	658.25
407.331	684.25
407.555	759.25
407.778	795.25
408.002	710.25
408.226	675.25
408.449	665.25
408.673	656.25
408.896	682.25
409.12	714.25
409.344	697.25
409.567	629.25
409.791	616.25
410.014	591.25
410.238	589.25
410.461	587.25
410.685	589.25
410.908	616.25
411.132	609.25
411.355	670.25
411.578	643.25
411.802	625.25
412.025	585.25
412.249	581.25
412.472	616.25
412.695	636.25
412.919	640.25
413.142	605.25
413.365	609.25
413.589	582.25
413.812	593.25
414.035	584.25
414.258	571.25
414.482	569.25
414.705	573.25
414.928	574.25
415.151	565.25
415.374	579.25
415.597	555.25
415.821	565.25
416.044	551.25
416.267	560.25
416.49	551.25
416.713	552.25
416.936	559.25
417.159	581.25
417.382	572.25
417.605	566.25
417.828	584.25
418.051	588.25
418.274	573.25
418.497	570.25
418.72	555.25
418.943	561.25
419.166	587.25
419.389	583.25
419.611	613.25
419.834	607.25
420.057	571.25
420.28	593.25
420.503	596.25
420.726	576.25
420.948	590.25
421.171	615.25
421.394	640.25
421.617	591.25
421.839	577.25
422.062	581.25
422.285	589.25
422.507	651.25
422.73	718.25
422.953	687.25
423.175	604.25
423.398	600.25
423.621	592.25
423.843	624.25
424.066	623.25
424.288	620.25
424.511	651.25
424.733	696.25
424.956	765.25
425.178	734.25
425.401	720.25
425.623	758.25
425.846	668.25
426.068	623.25
426.291	639.25
426.513	611.25
426.735	637.25
426.958	627.25
427.18	716.25
427.402	886.25
427.625	934.25
427.847	828.25
428.069	693.25
428.292	639.25
428.514	605.25
428.736	588.25
428.958	584.25
429.181	579.25
429.403	581.25
429.625	577.25
429.847	593.25
430.069	661.25
430.292	638.25
430.514	576.25
430.736	558.25
430.958	569.25
431.18	550.25
431.402	547.25
431.624	537.25
431.846	576.25
432.068	552.25
432.29	527.25
432.512	535.25
432.734	533.25
432.956	551.25
433.178	572.25
433.4	585.25
433.622	583.25
433.844	560.25
434.066	546.25
434.287	580.25
434.509	563.25
434.731	569.25
434.953	590.25
435.175	570.25
435.397	597.25
435.618	603.25
435.84	668.25
436.062	743.25
436.284	794.25
436.505	677.25
436.727	633.25
436.949	589.25
437.17	564.25
437.392	584.25
437.614	584.25
437.835	610.25
438.057	694.25
438.278	789.25
438.5	785.25
438.721	851.25
438.943	839.25
439.165	651.25
439.386	630.25
439.608	605.25
439.829	595.25
440.05	633.25
440.272	687.25
440.493	643.25
440.715	601.25
440.936	591.25
441.158	552.25
441.379	582.25
441.6	584.25
441.822	621.25
442.043	661.25
442.264	737.25
442.486	786.25
442.707	658.25
442.928	631.25
443.149	628.25
443.371	656.25
443.592	695.25
443.813	775.25
444.034	813.25
444.255	702.25
444.476	670.25
444.698	647.25
444.919	640.25
445.14	747.25
445.361	642.25
445.582	639.25
445.803	697.25
446.024	786.25
446.245	822.25
446.466	753.25
446.687	649.25
446.908	605.25
447.129	579.25
447.35	559.25
447.571	565.25
447.792	554.25
448.013	566.25
448.234	586.25
448.455	611.25
448.675	735.25
448.896	847.25
449.117	704.25
449.338	658.25
449.559	756.25
449.779	874.25
450	727.25
450.221	609.25
450.442	558.25
450.662	559.25
450.883	572.25
451.104	580.25
451.324	582.25
451.545	516.25
451.766	514.25
451.986	503.25
452.207	491.25
452.428	517.25
452.648	518.25
452.869	515.25
453.089	543.25
453.31	540.25
453.53	507.25
453.751	516.25
453.971	520.25
454.192	509.25
454.412	524.25
454.633	496.25
454.853	492.25
455.073	495.25
455.294	499.25
455.514	583.25
455.734	581.25
455.955	518.25
456.175	489.25
456.395	467.25
456.616	471.25
456.836	488.25
457.056	474.25
457.276	480.25
457.497	496.25
457.717	478.25
457.937	491.25
458.157	478.25
458.377	508.25
458.598	520.25
458.818	577.25
459.038	642.25
459.258	649.25
459.478	587.25
459.698	563.25
459.918	563.25
460.138	545.25
460.358	552.25
460.578	565.25
460.798	572.25
461.018	554.25
461.238	563.25
461.458	594.25
461.678	566.25
461.898	583.25
462.118	575.25
462.338	601.25
462.558	606.25
462.777	628.25
462.997	618.25
463.217	633.25
463.437	665.25
463.657	624.25
463.876	627.25
464.096	609.25
464.316	597.25
464.536	608.25
464.755	624.25
464.975	617.25
465.195	631.25
465.414	715.25
465.634	641.25
465.854	584.25
466.073	549.25
466.293	554.25
466.512	528.25
466.732	536.25
466.951	542.25
467.171	521.25
467.391	538.25
467.61	528.25
467.829	534.25
468.049	543.25
468.268	557.25
468.488	543.25
468.707	521.25
468.927	532.25
469.146	523.25
469.365	533.25
469.585	497.25
469.804	503.25
470.023	537.25
470.243	525.25
470.462	539.25
470.681	537.25
470.901	548.25
471.12	556.25
471.339	524.25
471.558	536.25
471.777	544.25
471.997	536.25
472.216	531.25
472.435	568.25
472.654	555.25
472.873	551.25
473.092	536.25
473.311	504.25
473.53	508.25
473.749	549.25
473.968	566.25
474.187	665.25
474.406	705.25
474.625	617.25
474.844	567.25
475.063	574.25
475.282	543.25
475.501	559.25
475.72	545.25
475.939	566.25
476.158	520.25
476.377	543.25
476.596	542.25
476.814	563.25
477.033	551.25
477.252	562.25
477.471	575.25
477.69	595.25
477.908	584.25
478.127	600.25
478.346	597.25
478.564	595.25
478.783	615.25
479.002	644.25
479.22	604.25
479.439	617.25
479.658	632.25
479.876	653.25
480.095	663.25
480.313	671.25
480.532	668.25
480.751	664.25
480.969	664.25
481.188	721.25
481.406	773.25
481.624	693.25
481.843	653.25
482.061	647.25
482.28	645.25
482.498	643.25
482.717	603.25
482.935	615.25
483.153	624.25
483.372	623.25
483.59	605.25
483.808	625.25
484.027	633.25
484.245	627.25
484.463	617.25
484.681	647.25
484.9	648.25
485.118	647.25
485.336	643.25
485.554	645.25
485.772	668.25
485.99	653.25
486.209	669.25
486.427	645.25
486.645	668.25
486.863	661.25
487.081	659.25
487.299	653.25
487.517	666.25
487.735	645.25
487.953	666.25
488.171	683.25
488.389	688.25
488.607	666.25
488.825	653.25
489.043	658.25
489.261	675.25
489.479	667.25
489.696	664.25
489.914	687.25
490.132	692.25
490.35	701.25
490.568	682.25
490.786	687.25
491.003	728.25
491.221	720.25
491.439	746.25
491.657	721.25
491.874	725.25
492.092	739.25
492.31	745.25
492.527	732.25
492.745	762.25
492.963	763.25
493.18	762.25
493.398	765.25
493.615	786.25
493.833	757.25
494.05	774.25
494.268	776.25
494.485	776.25
494.703	792.25
494.92	782.25
495.138	790.25
495.355	790.25
495.573	780.25
495.79	776.25
496.008	783.25
496.225	757.25
496.442	787.25
496.66	802.25
496.877	803.25
497.094	800.25
497.312	823.25
497.529	825.25
497.746	804.25
497.963	826.25
498.181	868.25
498.398	888.25
498.615	913.25
498.832	917.25
499.049	933.25
499.267	963.25
499.484	1027.25
499.701	1041.25
499.918	1119.25
500.135	1182.25
500.352	1240.25
500.569	1257.25
500.786	1233.25
501.003	1252.25
501.22	1199.25
501.437	1111.25
501.654	1086.25
