Data from 1979.PennyLincolnUp.Lamp.En5.5.200Scan.071719.P1_HRD10591_16-18-59-863.txt Node
Date: Thu Jul 18 16:18:59 EDT 2019
User: cochatt
Spectrometer: HR+D1059
Trigger mode: 1
Integration Time (sec): 1.000000E-1
Scans to average: 1
Electric dark correction enabled: true
Nonlinearity correction enabled: false
Boxcar width: 0
XAxis mode: Wavelengths
Number of Pixels in Spectrum: 2048
>>>>>Begin Spectral Data<<<<<
223.165	-16.69
223.4	-16.69
223.635	-16.69
223.869	-15.69
224.104	-5.69
224.338	0.31
224.573	-18.69
224.808	-19.69
225.042	-0.69
225.277	-10.69
225.511	-21.69
225.746	4.31
225.98	7.31
226.215	12.31
226.449	11.31
226.683	22.31
226.918	28.31
227.152	23.31
227.387	44.31
227.621	36.31
227.856	39.31
228.09	58.31
228.324	52.31
228.559	58.31
228.793	55.31
229.027	96.31
229.262	121.31
229.496	104.31
229.73	134.31
229.964	151.31
230.199	130.31
230.433	118.31
230.667	96.31
230.901	100.31
231.136	120.31
231.37	118.31
231.604	118.31
231.838	111.31
232.072	110.31
232.306	108.31
232.541	98.31
232.775	118.31
233.009	113.31
233.243	124.31
233.477	127.31
233.711	114.31
233.945	124.31
234.179	129.31
234.413	124.31
234.647	118.31
234.881	121.31
235.115	122.31
235.349	118.31
235.583	116.31
235.817	128.31
236.051	127.31
236.285	121.31
236.519	110.31
236.753	120.31
236.987	124.31
237.221	168.31
237.455	211.31
237.689	161.31
237.922	142.31
238.156	121.31
238.39	122.31
238.624	123.31
238.858	135.31
239.091	127.31
239.325	126.31
239.559	128.31
239.793	139.31
240.027	136.31
240.26	141.31
240.494	136.31
240.728	138.31
240.961	135.31
241.195	150.31
241.429	146.31
241.662	125.31
241.896	135.31
242.13	120.31
242.363	125.31
242.597	140.31
242.83	114.31
243.064	138.31
243.298	144.31
243.531	138.31
243.765	131.31
243.998	124.31
244.232	129.31
244.465	136.31
244.699	155.31
244.932	144.31
245.166	158.31
245.399	151.31
245.633	147.31
245.866	136.31
246.099	139.31
246.333	156.31
246.566	156.31
246.8	149.31
247.033	156.31
247.266	163.31
247.5	169.31
247.733	159.31
247.966	165.31
248.2	172.31
248.433	146.31
248.666	152.31
248.899	171.31
249.133	198.31
249.366	188.31
249.599	191.31
249.832	177.31
250.066	171.31
250.299	171.31
250.532	173.31
250.765	187.31
250.998	222.31
251.231	202.31
251.465	205.31
251.698	188.31
251.931	186.31
252.164	170.31
252.397	181.31
252.63	184.31
252.863	191.31
253.096	191.31
253.329	205.31
253.562	213.31
253.795	213.31
254.028	198.31
254.261	186.31
254.494	209.31
254.727	224.31
254.96	244.31
255.193	231.31
255.426	238.31
255.659	208.31
255.892	213.31
256.124	226.31
256.357	224.31
256.59	191.31
256.823	205.31
257.056	206.31
257.289	207.31
257.521	190.31
257.754	207.31
257.987	195.31
258.22	197.31
258.452	180.31
258.685	191.31
258.918	179.31
259.151	216.31
259.383	222.31
259.616	195.31
259.849	202.31
260.081	203.31
260.314	229.31
260.547	238.31
260.779	234.31
261.012	211.31
261.244	206.31
261.477	198.31
261.71	217.31
261.942	208.31
262.175	210.31
262.407	214.31
262.64	217.31
262.872	205.31
263.105	221.31
263.337	212.31
263.57	200.31
263.802	202.31
264.035	223.31
264.267	203.31
264.499	193.31
264.732	207.31
264.964	213.31
265.197	220.31
265.429	202.31
265.661	220.31
265.894	204.31
266.126	220.31
266.358	232.31
266.591	215.31
266.823	206.31
267.055	214.31
267.287	207.31
267.52	208.31
267.752	221.31
267.984	206.31
268.216	221.31
268.448	228.31
268.681	225.31
268.913	218.31
269.145	232.31
269.377	265.31
269.609	247.31
269.841	230.31
270.073	260.31
270.306	273.31
270.538	270.31
270.77	270.31
271.002	252.31
271.234	262.31
271.466	265.31
271.698	276.31
271.93	276.31
272.162	269.31
272.394	286.31
272.626	284.31
272.858	264.31
273.09	263.31
273.322	261.31
273.553	260.31
273.785	245.31
274.017	238.31
274.249	248.31
274.481	242.31
274.713	248.31
274.945	251.31
275.176	247.31
275.408	246.31
275.64	238.31
275.872	258.31
276.104	259.31
276.335	244.31
276.567	235.31
276.799	262.31
277.031	283.31
277.262	286.31
277.494	295.31
277.726	283.31
277.957	278.31
278.189	253.31
278.421	234.31
278.652	257.31
278.884	253.31
279.115	245.31
279.347	250.31
279.579	236.31
279.81	250.31
280.042	265.31
280.273	255.31
280.505	250.31
280.736	258.31
280.968	247.31
281.199	248.31
281.431	253.31
281.662	238.31
281.894	232.31
282.125	243.31
282.356	286.31
282.588	284.31
282.819	295.31
283.051	261.31
283.282	266.31
283.513	251.31
283.745	269.31
283.976	258.31
284.207	282.31
284.439	276.31
284.67	251.31
284.901	271.31
285.132	278.31
285.364	275.31
285.595	259.31
285.826	275.31
286.057	259.31
286.288	256.31
286.52	249.31
286.751	274.31
286.982	264.31
287.213	269.31
287.444	286.31
287.675	278.31
287.906	258.31
288.138	286.31
288.369	279.31
288.6	282.31
288.831	275.31
289.062	288.31
289.293	262.31
289.524	282.31
289.755	287.31
289.986	275.31
290.217	282.31
290.448	276.31
290.679	291.31
290.91	267.31
291.141	296.31
291.371	288.31
291.602	279.31
291.833	273.31
292.064	271.31
292.295	271.31
292.526	287.31
292.757	281.31
292.987	285.31
293.218	271.31
293.449	275.31
293.68	276.31
293.91	294.31
294.141	290.31
294.372	271.31
294.603	284.31
294.833	299.31
295.064	283.31
295.295	283.31
295.525	290.31
295.756	287.31
295.987	294.31
296.217	328.31
296.448	317.31
296.679	302.31
296.909	286.31
297.14	275.31
297.37	286.31
297.601	297.31
297.831	279.31
298.062	312.31
298.292	299.31
298.523	303.31
298.753	289.31
298.984	297.31
299.214	298.31
299.445	322.31
299.675	297.31
299.905	309.31
300.136	278.31
300.366	308.31
300.597	311.31
300.827	315.31
301.057	329.31
301.288	303.31
301.518	319.31
301.748	311.31
301.979	324.31
302.209	307.31
302.439	336.31
302.669	308.31
302.9	303.31
303.13	324.31
303.36	327.31
303.59	329.31
303.82	334.31
304.051	336.31
304.281	334.31
304.511	302.31
304.741	311.31
304.971	302.31
305.201	312.31
305.431	300.31
305.661	343.31
305.891	325.31
306.121	312.31
306.352	316.31
306.582	332.31
306.812	308.31
307.042	322.31
307.272	318.31
307.502	330.31
307.731	349.31
307.961	312.31
308.191	298.31
308.421	326.31
308.651	330.31
308.881	335.31
309.111	321.31
309.341	337.31
309.571	354.31
309.8	343.31
310.03	333.31
310.26	347.31
310.49	358.31
310.72	338.31
310.949	346.31
311.179	393.31
311.409	367.31
311.639	370.31
311.868	336.31
312.098	347.31
312.328	355.31
312.557	383.31
312.787	364.31
313.017	372.31
313.246	370.31
313.476	364.31
313.706	359.31
313.935	355.31
314.165	355.31
314.394	381.31
314.624	372.31
314.853	362.31
315.083	358.31
315.312	372.31
315.542	359.31
315.771	347.31
316.001	368.31
316.23	370.31
316.46	374.31
316.689	345.31
316.919	359.31
317.148	373.31
317.377	384.31
317.607	368.31
317.836	376.31
318.065	357.31
318.295	371.31
318.524	370.31
318.753	358.31
318.983	346.31
319.212	350.31
319.441	349.31
319.67	364.31
319.9	357.31
320.129	373.31
320.358	367.31
320.587	361.31
320.816	365.31
321.046	371.31
321.275	365.31
321.504	376.31
321.733	358.31
321.962	370.31
322.191	384.31
322.42	393.31
322.649	424.31
322.878	381.31
323.108	446.31
323.337	438.31
323.566	451.31
323.795	473.31
324.024	525.31
324.253	639.31
324.482	866.31
324.71	1395.31
324.939	2062.31
325.168	1756.31
325.397	883.31
325.626	606.31
325.855	525.31
326.084	461.31
326.313	455.31
326.542	462.31
326.77	524.31
326.999	591.31
327.228	803.31
327.457	1261.31
327.686	1546.31
327.914	994.31
328.143	663.31
328.372	569.31
328.6	547.31
328.829	515.31
329.058	523.31
329.287	543.31
329.515	515.31
329.744	492.31
329.972	464.31
330.201	495.31
330.43	527.31
330.658	535.31
330.887	586.31
331.115	562.31
331.344	480.31
331.572	461.31
331.801	462.31
332.03	487.31
332.258	454.31
332.486	438.31
332.715	447.31
332.943	447.31
333.172	459.31
333.4	442.31
333.629	463.31
333.857	449.31
334.085	470.31
334.314	478.31
334.542	494.31
334.771	534.31
334.999	492.31
335.227	461.31
335.455	434.31
335.684	430.31
335.912	439.31
336.14	426.31
336.369	444.31
336.597	432.31
336.825	422.31
337.053	446.31
337.281	427.31
337.51	430.31
337.738	426.31
337.966	428.31
338.194	421.31
338.422	440.31
338.65	431.31
338.878	429.31
339.106	434.31
339.334	438.31
339.562	411.31
339.79	428.31
340.018	405.31
340.246	416.31
340.474	450.31
340.702	425.31
340.93	433.31
341.158	426.31
341.386	414.31
341.614	412.31
341.842	433.31
342.07	418.31
342.298	398.31
342.526	424.31
342.754	399.31
342.981	426.31
343.209	413.31
343.437	411.31
343.665	430.31
343.893	420.31
344.12	442.31
344.348	436.31
344.576	435.31
344.804	412.31
345.031	422.31
345.259	448.31
345.487	428.31
345.714	427.31
345.942	413.31
346.17	413.31
346.397	403.31
346.625	403.31
346.853	412.31
347.08	402.31
347.308	399.31
347.535	437.31
347.763	446.31
347.99	426.31
348.218	428.31
348.445	422.31
348.673	412.31
348.9	435.31
349.128	397.31
349.355	396.31
349.583	416.31
349.81	397.31
350.037	405.31
350.265	391.31
350.492	388.31
350.72	392.31
350.947	398.31
351.174	415.31
351.402	422.31
351.629	387.31
351.856	425.31
352.083	423.31
352.311	428.31
352.538	400.31
352.765	413.31
352.992	412.31
353.22	410.31
353.447	424.31
353.674	410.31
353.901	399.31
354.128	389.31
354.355	400.31
354.583	395.31
354.81	394.31
355.037	390.31
355.264	367.31
355.491	392.31
355.718	382.31
355.945	368.31
356.172	386.31
356.399	361.31
356.626	396.31
356.853	384.31
357.08	385.31
357.307	390.31
357.534	387.31
357.761	378.31
357.988	396.31
358.215	390.31
358.441	372.31
358.668	397.31
358.895	381.31
359.122	382.31
359.349	404.31
359.576	408.31
359.802	408.31
360.029	444.31
360.256	464.31
360.483	453.31
360.709	434.31
360.936	422.31
361.163	422.31
361.39	426.31
361.616	418.31
361.843	408.31
362.07	404.31
362.296	412.31
362.523	416.31
362.749	394.31
362.976	401.31
363.203	404.31
363.429	389.31
363.656	400.31
363.882	384.31
364.109	398.31
364.335	393.31
364.562	396.31
364.788	397.31
365.015	397.31
365.241	400.31
365.468	389.31
365.694	381.31
365.92	409.31
366.147	405.31
366.373	396.31
366.599	419.31
366.826	401.31
367.052	374.31
367.278	393.31
367.505	414.31
367.731	398.31
367.957	408.31
368.184	388.31
368.41	390.31
368.636	410.31
368.862	413.31
369.089	410.31
369.315	389.31
369.541	387.31
369.767	403.31
369.993	405.31
370.219	418.31
370.445	406.31
370.672	401.31
370.898	395.31
371.124	400.31
371.35	402.31
371.576	390.31
371.802	422.31
372.028	400.31
372.254	409.31
372.48	397.31
372.706	411.31
372.932	394.31
373.158	404.31
373.384	428.31
373.61	392.31
373.835	419.31
374.061	418.31
374.287	407.31
374.513	408.31
374.739	410.31
374.965	428.31
375.191	424.31
375.416	438.31
375.642	407.31
375.868	407.31
376.094	412.31
376.319	411.31
376.545	399.31
376.771	392.31
376.997	398.31
377.222	403.31
377.448	415.31
377.674	403.31
377.899	390.31
378.125	396.31
378.35	407.31
378.576	404.31
378.802	404.31
379.027	407.31
379.253	394.31
379.478	380.31
379.704	398.31
379.929	408.31
380.155	410.31
380.38	424.31
380.606	411.31
380.831	411.31
381.057	426.31
381.282	395.31
381.507	413.31
381.733	428.31
381.958	430.31
382.184	418.31
382.409	435.31
382.634	430.31
382.86	402.31
383.085	423.31
383.31	401.31
383.535	421.31
383.761	398.31
383.986	456.31
384.211	430.31
384.436	431.31
384.662	432.31
384.887	423.31
385.112	427.31
385.337	451.31
385.562	446.31
385.787	446.31
386.013	449.31
386.238	458.31
386.463	440.31
386.688	457.31
386.913	456.31
387.138	449.31
387.363	449.31
387.588	447.31
387.813	470.31
388.038	466.31
388.263	448.31
388.488	460.31
388.713	465.31
388.938	457.31
389.163	460.31
389.387	459.31
389.612	451.31
389.837	454.31
390.062	455.31
390.287	447.31
390.512	428.31
390.736	445.31
390.961	463.31
391.186	460.31
391.411	476.31
391.636	459.31
391.86	458.31
392.085	491.31
392.31	477.31
392.534	457.31
392.759	459.31
392.984	488.31
393.208	454.31
393.433	485.31
393.658	472.31
393.882	461.31
394.107	458.31
394.331	462.31
394.556	474.31
394.78	461.31
395.005	470.31
395.229	456.31
395.454	468.31
395.678	487.31
395.903	512.31
396.127	494.31
396.352	506.31
396.576	468.31
396.801	479.31
397.025	473.31
397.249	497.31
397.474	495.31
397.698	505.31
397.922	515.31
398.147	539.31
398.371	521.31
398.595	502.31
398.82	534.31
399.044	556.31
399.268	581.31
399.492	634.31
399.717	618.31
399.941	662.31
400.165	681.31
400.389	682.31
400.613	616.31
400.837	570.31
401.062	570.31
401.286	544.31
401.51	535.31
401.734	524.31
401.958	536.31
402.182	551.31
402.406	563.31
402.63	548.31
402.854	554.31
403.078	539.31
403.302	565.31
403.526	571.31
403.75	569.31
403.974	582.31
404.198	566.31
404.422	565.31
404.645	581.31
404.869	566.31
405.093	601.31
405.317	642.31
405.541	648.31
405.765	611.31
405.988	578.31
406.212	591.31
406.436	613.31
406.66	618.31
406.883	592.31
407.107	619.31
407.331	657.31
407.555	727.31
407.778	735.31
408.002	687.31
408.226	655.31
408.449	627.31
408.673	631.31
408.896	643.31
409.12	691.31
409.344	653.31
409.567	606.31
409.791	604.31
410.014	590.31
410.238	577.31
410.461	572.31
410.685	580.31
410.908	582.31
411.132	622.31
411.355	628.31
411.578	593.31
411.802	580.31
412.025	538.31
412.249	566.31
412.472	591.31
412.695	640.31
412.919	628.31
413.142	575.31
413.365	573.31
413.589	569.31
413.812	562.31
414.035	554.31
414.258	536.31
414.482	530.31
414.705	547.31
414.928	543.31
415.151	527.31
415.374	542.31
415.597	551.31
415.821	532.31
416.044	540.31
416.267	539.31
416.49	540.31
416.713	528.31
416.936	522.31
417.159	538.31
417.382	527.31
417.605	538.31
417.828	548.31
418.051	565.31
418.274	549.31
418.497	555.31
418.72	529.31
418.943	522.31
419.166	558.31
419.389	597.31
419.611	591.31
419.834	571.31
420.057	582.31
420.28	573.31
420.503	552.31
420.726	543.31
420.948	582.31
421.171	614.31
421.394	637.31
421.617	587.31
421.839	564.31
422.062	547.31
422.285	586.31
422.507	635.31
422.73	703.31
422.953	690.31
423.175	596.31
423.398	585.31
423.621	580.31
423.843	627.31
424.066	605.31
424.288	604.31
424.511	616.31
424.733	661.31
424.956	728.31
425.178	712.31
425.401	680.31
425.623	714.31
425.846	638.31
426.068	585.31
426.291	609.31
426.513	599.31
426.735	595.31
426.958	635.31
427.18	680.31
427.402	827.31
427.625	911.31
427.847	796.31
428.069	692.31
428.292	636.31
428.514	593.31
428.736	565.31
428.958	566.31
429.181	548.31
429.403	547.31
429.625	553.31
429.847	581.31
430.069	651.31
430.292	666.31
430.514	590.31
430.736	558.31
430.958	541.31
431.18	527.31
431.402	522.31
431.624	538.31
431.846	526.31
432.068	501.31
432.29	526.31
432.512	513.31
432.734	572.31
432.956	536.31
433.178	550.31
433.4	554.31
433.622	533.31
433.844	499.31
434.066	528.31
434.287	537.31
434.509	543.31
434.731	554.31
434.953	547.31
435.175	559.31
435.397	590.31
435.618	586.31
435.84	595.31
436.062	735.31
436.284	790.31
436.505	671.31
436.727	620.31
436.949	559.31
437.17	566.31
437.392	550.31
437.614	550.31
437.835	571.31
438.057	674.31
438.278	775.31
438.5	771.31
438.721	848.31
438.943	804.31
439.165	619.31
439.386	586.31
439.608	584.31
439.829	581.31
440.05	624.31
440.272	660.31
440.493	592.31
440.715	583.31
440.936	579.31
441.158	550.31
441.379	548.31
441.6	601.31
441.822	590.31
442.043	604.31
442.264	687.31
442.486	774.31
442.707	636.31
442.928	596.31
443.149	611.31
443.371	629.31
443.592	656.31
443.813	780.31
444.034	784.31
444.255	682.31
444.476	632.31
444.698	628.31
444.919	620.31
445.14	682.31
445.361	660.31
445.582	641.31
445.803	704.31
446.024	814.31
446.245	802.31
446.466	720.31
446.687	638.31
446.908	594.31
447.129	572.31
447.35	546.31
447.571	522.31
447.792	520.31
448.013	521.31
448.234	552.31
448.455	625.31
448.675	730.31
448.896	829.31
449.117	704.31
449.338	661.31
449.559	766.31
449.779	880.31
450	715.31
450.221	586.31
450.442	548.31
450.662	538.31
450.883	559.31
451.104	567.31
451.324	538.31
451.545	525.31
451.766	506.31
451.986	499.31
452.207	510.31
452.428	490.31
452.648	488.31
452.869	476.31
453.089	506.31
453.31	528.31
453.53	511.31
453.751	502.31
453.971	483.31
454.192	501.31
454.412	510.31
454.633	475.31
454.853	472.31
455.073	471.31
455.294	503.31
455.514	576.31
455.734	556.31
455.955	503.31
456.175	470.31
456.395	470.31
456.616	464.31
456.836	490.31
457.056	470.31
457.276	447.31
457.497	461.31
457.717	467.31
457.937	482.31
458.157	500.31
458.377	500.31
458.598	515.31
458.818	548.31
459.038	629.31
459.258	650.31
459.478	591.31
459.698	543.31
459.918	520.31
460.138	526.31
460.358	554.31
460.578	555.31
460.798	553.31
461.018	541.31
461.238	566.31
461.458	557.31
461.678	557.31
461.898	562.31
462.118	564.31
462.338	549.31
462.558	567.31
462.777	580.31
462.997	588.31
463.217	612.31
463.437	640.31
463.657	598.31
463.876	594.31
464.096	602.31
464.316	590.31
464.536	603.31
464.755	609.31
464.975	595.31
465.195	605.31
465.414	651.31
465.634	600.31
465.854	550.31
466.073	546.31
466.293	522.31
466.512	531.31
466.732	538.31
466.951	532.31
467.171	507.31
467.391	528.31
467.61	520.31
467.829	540.31
468.049	538.31
468.268	522.31
468.488	519.31
468.707	498.31
468.927	490.31
469.146	477.31
469.365	513.31
469.585	520.31
469.804	514.31
470.023	507.31
470.243	508.31
470.462	518.31
470.681	551.31
470.901	531.31
471.12	520.31
471.339	511.31
471.558	520.31
471.777	518.31
471.997	502.31
472.216	507.31
472.435	564.31
472.654	539.31
472.873	516.31
473.092	518.31
473.311	509.31
473.53	503.31
473.749	519.31
473.968	541.31
474.187	647.31
474.406	671.31
474.625	547.31
474.844	500.31
475.063	515.31
475.282	491.31
475.501	501.31
475.72	532.31
475.939	519.31
476.158	534.31
476.377	531.31
476.596	528.31
476.814	539.31
477.033	542.31
477.252	536.31
477.471	541.31
477.69	545.31
477.908	552.31
478.127	565.31
478.346	563.31
478.564	570.31
478.783	579.31
479.002	593.31
479.22	582.31
479.439	604.31
479.658	619.31
479.876	629.31
480.095	614.31
480.313	666.31
480.532	648.31
480.751	630.31
480.969	663.31
481.188	711.31
481.406	720.31
481.624	653.31
481.843	590.31
482.061	626.31
482.28	604.31
482.498	591.31
482.717	619.31
482.935	616.31
483.153	613.31
483.372	598.31
483.59	591.31
483.808	591.31
484.027	597.31
484.245	596.31
484.463	591.31
484.681	592.31
484.9	614.31
485.118	626.31
485.336	625.31
485.554	599.31
485.772	607.31
485.99	607.31
486.209	621.31
486.427	638.31
486.645	650.31
486.863	640.31
487.081	646.31
487.299	650.31
487.517	647.31
487.735	623.31
487.953	650.31
488.171	639.31
488.389	649.31
488.607	647.31
488.825	683.31
489.043	628.31
489.261	636.31
489.479	666.31
489.696	637.31
489.914	648.31
490.132	649.31
490.35	663.31
490.568	674.31
490.786	669.31
491.003	672.31
491.221	677.31
491.439	711.31
491.657	696.31
491.874	726.31
492.092	711.31
492.31	720.31
492.527	722.31
492.745	742.31
492.963	751.31
493.18	723.31
493.398	733.31
493.615	732.31
493.833	766.31
494.05	748.31
494.268	726.31
494.485	749.31
494.703	727.31
494.92	731.31
495.138	760.31
495.355	739.31
495.573	760.31
495.79	725.31
496.008	765.31
496.225	758.31
496.442	765.31
496.66	770.31
496.877	740.31
497.094	783.31
497.312	754.31
497.529	806.31
497.746	810.31
497.963	815.31
498.181	847.31
498.398	889.31
498.615	882.31
498.832	893.31
499.049	909.31
499.267	925.31
499.484	987.31
499.701	995.31
499.918	1079.31
500.135	1145.31
500.352	1163.31
500.569	1155.31
500.786	1211.31
501.003	1164.31
501.22	1129.31
501.437	1090.31
501.654	1035.31
501.871	1028.31
