Data from 1979.PennyLincolnUp.Lamp.En5.5.200Scan.071719.P1_HRD10591_16-19-33-863.txt Node
Date: Thu Jul 18 16:19:33 EDT 2019
User: cochatt
Spectrometer: HR+D1059
Trigger mode: 1
Integration Time (sec): 1.000000E-1
Scans to average: 1
Electric dark correction enabled: true
Nonlinearity correction enabled: false
Boxcar width: 0
XAxis mode: Wavelengths
Number of Pixels in Spectrum: 2048
>>>>>Begin Spectral Data<<<<<
223.165	-7.44
223.4	-7.44
223.635	-7.44
223.869	-26.44
224.104	-14.44
224.338	-9.44
224.573	-11.44
224.808	-12.44
225.042	-6.44
225.277	-13.44
225.511	-15.44
225.746	13.56
225.98	11.56
226.215	0.56
226.449	3.56
226.683	19.56
226.918	31.56
227.152	36.56
227.387	32.56
227.621	46.56
227.856	43.56
228.09	55.56
228.324	49.56
228.559	52.56
228.793	70.56
229.027	67.56
229.262	91.56
229.496	107.56
229.73	121.56
229.964	143.56
230.199	115.56
230.433	101.56
230.667	109.56
230.901	108.56
231.136	104.56
231.37	92.56
231.604	114.56
231.838	108.56
232.072	107.56
232.306	116.56
232.541	115.56
232.775	108.56
233.009	115.56
233.243	104.56
233.477	122.56
233.711	133.56
233.945	97.56
234.179	121.56
234.413	127.56
234.647	112.56
234.881	131.56
235.115	125.56
235.349	98.56
235.583	111.56
235.817	105.56
236.051	121.56
236.285	129.56
236.519	126.56
236.753	107.56
236.987	153.56
237.221	173.56
237.455	216.56
237.689	173.56
237.922	139.56
238.156	129.56
238.39	125.56
238.624	121.56
238.858	117.56
239.091	118.56
239.325	105.56
239.559	117.56
239.793	121.56
240.027	131.56
240.26	133.56
240.494	152.56
240.728	143.56
240.961	135.56
241.195	148.56
241.429	130.56
241.662	120.56
241.896	134.56
242.13	130.56
242.363	135.56
242.597	121.56
242.83	132.56
243.064	127.56
243.298	145.56
243.531	138.56
243.765	145.56
243.998	134.56
244.232	145.56
244.465	149.56
244.699	140.56
244.932	147.56
245.166	148.56
245.399	135.56
245.633	147.56
245.866	150.56
246.099	149.56
246.333	150.56
246.566	132.56
246.8	149.56
247.033	153.56
247.266	150.56
247.5	146.56
247.733	161.56
247.966	159.56
248.2	168.56
248.433	167.56
248.666	164.56
248.899	172.56
249.133	187.56
249.366	190.56
249.599	185.56
249.832	171.56
250.066	164.56
250.299	180.56
250.532	179.56
250.765	188.56
250.998	200.56
251.231	199.56
251.465	191.56
251.698	183.56
251.931	176.56
252.164	185.56
252.397	187.56
252.63	209.56
252.863	191.56
253.096	209.56
253.329	215.56
253.562	219.56
253.795	194.56
254.028	211.56
254.261	205.56
254.494	218.56
254.727	235.56
254.96	244.56
255.193	251.56
255.426	234.56
255.659	229.56
255.892	219.56
256.124	214.56
256.357	210.56
256.59	220.56
256.823	203.56
257.056	209.56
257.289	200.56
257.521	196.56
257.754	209.56
257.987	193.56
258.22	189.56
258.452	207.56
258.685	217.56
258.918	204.56
259.151	196.56
259.383	220.56
259.616	230.56
259.849	202.56
260.081	224.56
260.314	249.56
260.547	249.56
260.779	219.56
261.012	223.56
261.244	203.56
261.477	200.56
261.71	203.56
261.942	226.56
262.175	225.56
262.407	228.56
262.64	218.56
262.872	197.56
263.105	205.56
263.337	196.56
263.57	202.56
263.802	195.56
264.035	201.56
264.267	203.56
264.499	212.56
264.732	211.56
264.964	204.56
265.197	199.56
265.429	209.56
265.661	195.56
265.894	206.56
266.126	213.56
266.358	208.56
266.591	212.56
266.823	229.56
267.055	211.56
267.287	222.56
267.52	211.56
267.752	224.56
267.984	217.56
268.216	225.56
268.448	213.56
268.681	249.56
268.913	226.56
269.145	257.56
269.377	259.56
269.609	246.56
269.841	244.56
270.073	243.56
270.306	272.56
270.538	272.56
270.77	303.56
271.002	276.56
271.234	280.56
271.466	283.56
271.698	281.56
271.93	279.56
272.162	294.56
272.394	291.56
272.626	281.56
272.858	260.56
273.09	243.56
273.322	251.56
273.553	258.56
273.785	256.56
274.017	263.56
274.249	257.56
274.481	246.56
274.713	240.56
274.945	269.56
275.176	250.56
275.408	256.56
275.64	260.56
275.872	266.56
276.104	250.56
276.335	270.56
276.567	261.56
276.799	255.56
277.031	277.56
277.262	298.56
277.494	304.56
277.726	275.56
277.957	268.56
278.189	256.56
278.421	235.56
278.652	266.56
278.884	269.56
279.115	245.56
279.347	257.56
279.579	250.56
279.81	260.56
280.042	272.56
280.273	262.56
280.505	282.56
280.736	275.56
280.968	255.56
281.199	259.56
281.431	264.56
281.662	251.56
281.894	271.56
282.125	257.56
282.356	298.56
282.588	274.56
282.819	292.56
283.051	251.56
283.282	261.56
283.513	260.56
283.745	267.56
283.976	275.56
284.207	282.56
284.439	275.56
284.67	274.56
284.901	263.56
285.132	270.56
285.364	279.56
285.595	249.56
285.826	264.56
286.057	265.56
286.288	274.56
286.52	288.56
286.751	273.56
286.982	281.56
287.213	277.56
287.444	290.56
287.675	290.56
287.906	282.56
288.138	266.56
288.369	300.56
288.6	291.56
288.831	281.56
289.062	299.56
289.293	279.56
289.524	275.56
289.755	285.56
289.986	275.56
290.217	289.56
290.448	271.56
290.679	283.56
290.91	291.56
291.141	276.56
291.371	290.56
291.602	300.56
291.833	282.56
292.064	301.56
292.295	278.56
292.526	275.56
292.757	276.56
292.987	267.56
293.218	288.56
293.449	279.56
293.68	295.56
293.91	276.56
294.141	271.56
294.372	296.56
294.603	313.56
294.833	291.56
295.064	282.56
295.295	279.56
295.525	283.56
295.756	293.56
295.987	306.56
296.217	317.56
296.448	331.56
296.679	288.56
296.909	285.56
297.14	303.56
297.37	300.56
297.601	296.56
297.831	298.56
298.062	295.56
298.292	313.56
298.523	316.56
298.753	308.56
298.984	300.56
299.214	292.56
299.445	315.56
299.675	324.56
299.905	303.56
300.136	325.56
300.366	314.56
300.597	303.56
300.827	328.56
301.057	319.56
301.288	327.56
301.518	329.56
301.748	312.56
301.979	312.56
302.209	329.56
302.439	314.56
302.669	327.56
302.9	323.56
303.13	325.56
303.36	306.56
303.59	339.56
303.82	341.56
304.051	321.56
304.281	328.56
304.511	327.56
304.741	327.56
304.971	330.56
305.201	322.56
305.431	321.56
305.661	321.56
305.891	327.56
306.121	335.56
306.352	317.56
306.582	327.56
306.812	316.56
307.042	308.56
307.272	329.56
307.502	333.56
307.731	331.56
307.961	337.56
308.191	318.56
308.421	352.56
308.651	333.56
308.881	337.56
309.111	353.56
309.341	332.56
309.571	332.56
309.8	346.56
310.03	349.56
310.26	366.56
310.49	367.56
310.72	365.56
310.949	366.56
311.179	367.56
311.409	357.56
311.639	360.56
311.868	373.56
312.098	377.56
312.328	365.56
312.557	369.56
312.787	385.56
313.017	401.56
313.246	371.56
313.476	370.56
313.706	374.56
313.935	369.56
314.165	389.56
314.394	369.56
314.624	378.56
314.853	383.56
315.083	379.56
315.312	378.56
315.542	377.56
315.771	359.56
316.001	366.56
316.23	381.56
316.46	360.56
316.689	379.56
316.919	363.56
317.148	393.56
317.377	375.56
317.607	373.56
317.836	369.56
318.065	379.56
318.295	375.56
318.524	380.56
318.753	349.56
318.983	393.56
319.212	362.56
319.441	385.56
319.67	375.56
319.9	387.56
320.129	393.56
320.358	363.56
320.587	374.56
320.816	361.56
321.046	387.56
321.275	396.56
321.504	399.56
321.733	380.56
321.962	404.56
322.191	391.56
322.42	424.56
322.649	427.56
322.878	444.56
323.108	437.56
323.337	451.56
323.566	463.56
323.795	486.56
324.024	522.56
324.253	610.56
324.482	888.56
324.71	1407.56
324.939	2067.56
325.168	1800.56
325.397	895.56
325.626	605.56
325.855	526.56
326.084	484.56
326.313	481.56
326.542	493.56
326.77	517.56
326.999	610.56
327.228	826.56
327.457	1263.56
327.686	1595.56
327.914	1011.56
328.143	632.56
328.372	577.56
328.6	545.56
328.829	517.56
329.058	526.56
329.287	537.56
329.515	505.56
329.744	466.56
329.972	485.56
330.201	494.56
330.43	553.56
330.658	544.56
330.887	580.56
331.115	548.56
331.344	509.56
331.572	482.56
331.801	468.56
332.03	489.56
332.258	452.56
332.486	446.56
332.715	459.56
332.943	435.56
333.172	453.56
333.4	487.56
333.629	487.56
333.857	480.56
334.085	489.56
334.314	493.56
334.542	548.56
334.771	519.56
334.999	490.56
335.227	471.56
335.455	476.56
335.684	471.56
335.912	444.56
336.14	449.56
336.369	451.56
336.597	450.56
336.825	457.56
337.053	461.56
337.281	431.56
337.51	417.56
337.738	451.56
337.966	428.56
338.194	442.56
338.422	456.56
338.65	442.56
338.878	454.56
339.106	421.56
339.334	422.56
339.562	418.56
339.79	416.56
340.018	425.56
340.246	437.56
340.474	454.56
340.702	425.56
340.93	423.56
341.158	421.56
341.386	429.56
341.614	435.56
341.842	443.56
342.07	434.56
342.298	443.56
342.526	420.56
342.754	425.56
342.981	421.56
343.209	424.56
343.437	439.56
343.665	441.56
343.893	459.56
344.12	437.56
344.348	427.56
344.576	442.56
344.804	434.56
345.031	451.56
345.259	482.56
345.487	462.56
345.714	441.56
345.942	417.56
346.17	415.56
346.397	410.56
346.625	405.56
346.853	450.56
347.08	438.56
347.308	447.56
347.535	429.56
347.763	441.56
347.99	402.56
348.218	413.56
348.445	437.56
348.673	443.56
348.9	411.56
349.128	419.56
349.355	400.56
349.583	405.56
349.81	414.56
350.037	407.56
350.265	417.56
350.492	401.56
350.72	402.56
350.947	416.56
351.174	446.56
351.402	433.56
351.629	435.56
351.856	426.56
352.083	438.56
352.311	415.56
352.538	443.56
352.765	424.56
352.992	445.56
353.22	423.56
353.447	439.56
353.674	419.56
353.901	431.56
354.128	403.56
354.355	383.56
354.583	397.56
354.81	417.56
355.037	394.56
355.264	400.56
355.491	415.56
355.718	398.56
355.945	397.56
356.172	396.56
356.399	401.56
356.626	405.56
356.853	395.56
357.08	391.56
357.307	403.56
357.534	389.56
357.761	398.56
357.988	379.56
358.215	401.56
358.441	383.56
358.668	398.56
358.895	392.56
359.122	409.56
359.349	398.56
359.576	422.56
359.802	437.56
360.029	459.56
360.256	461.56
360.483	449.56
360.709	409.56
360.936	408.56
361.163	406.56
361.39	415.56
361.616	429.56
361.843	405.56
362.07	417.56
362.296	429.56
362.523	425.56
362.749	408.56
362.976	412.56
363.203	410.56
363.429	405.56
363.656	421.56
363.882	419.56
364.109	421.56
364.335	418.56
364.562	408.56
364.788	404.56
365.015	415.56
365.241	408.56
365.468	424.56
365.694	418.56
365.92	423.56
366.147	396.56
366.373	411.56
366.599	417.56
366.826	417.56
367.052	382.56
367.278	396.56
367.505	392.56
367.731	394.56
367.957	411.56
368.184	408.56
368.41	420.56
368.636	415.56
368.862	437.56
369.089	426.56
369.315	409.56
369.541	416.56
369.767	433.56
369.993	423.56
370.219	405.56
370.445	417.56
370.672	417.56
370.898	416.56
371.124	425.56
371.35	420.56
371.576	418.56
371.802	401.56
372.028	424.56
372.254	442.56
372.48	424.56
372.706	401.56
372.932	429.56
373.158	420.56
373.384	439.56
373.61	407.56
373.835	413.56
374.061	420.56
374.287	426.56
374.513	420.56
374.739	437.56
374.965	426.56
375.191	444.56
375.416	459.56
375.642	422.56
375.868	413.56
376.094	437.56
376.319	408.56
376.545	411.56
376.771	420.56
376.997	409.56
377.222	440.56
377.448	432.56
377.674	421.56
377.899	414.56
378.125	419.56
378.35	417.56
378.576	416.56
378.802	396.56
379.027	426.56
379.253	430.56
379.478	409.56
379.704	420.56
379.929	428.56
380.155	412.56
380.38	400.56
380.606	431.56
380.831	421.56
381.057	429.56
381.282	428.56
381.507	416.56
381.733	432.56
381.958	411.56
382.184	426.56
382.409	417.56
382.634	437.56
382.86	434.56
383.085	442.56
383.31	448.56
383.535	422.56
383.761	432.56
383.986	439.56
384.211	464.56
384.436	454.56
384.662	458.56
384.887	473.56
385.112	438.56
385.337	450.56
385.562	469.56
385.787	467.56
386.013	485.56
386.238	461.56
386.463	496.56
386.688	486.56
386.913	472.56
387.138	462.56
387.363	479.56
387.588	472.56
387.813	474.56
388.038	484.56
388.263	465.56
388.488	468.56
388.713	449.56
388.938	461.56
389.163	471.56
389.387	484.56
389.612	458.56
389.837	470.56
390.062	468.56
390.287	481.56
390.512	484.56
390.736	488.56
390.961	480.56
391.186	482.56
391.411	504.56
391.636	468.56
391.86	483.56
392.085	461.56
392.31	474.56
392.534	474.56
392.759	499.56
392.984	498.56
393.208	473.56
393.433	487.56
393.658	490.56
393.882	467.56
394.107	482.56
394.331	480.56
394.556	492.56
394.78	475.56
395.005	506.56
395.229	480.56
395.454	486.56
395.678	491.56
395.903	506.56
396.127	531.56
396.352	529.56
396.576	490.56
396.801	496.56
397.025	490.56
397.249	499.56
397.474	517.56
397.698	523.56
397.922	519.56
398.147	557.56
398.371	531.56
398.595	506.56
398.82	518.56
399.044	560.56
399.268	590.56
399.492	627.56
399.717	636.56
399.941	673.56
400.165	710.56
400.389	671.56
400.613	627.56
400.837	602.56
401.062	569.56
401.286	565.56
401.51	550.56
401.734	563.56
401.958	565.56
402.182	552.56
402.406	573.56
402.63	599.56
402.854	568.56
403.078	556.56
403.302	572.56
403.526	579.56
403.75	587.56
403.974	587.56
404.198	568.56
404.422	580.56
404.645	603.56
404.869	595.56
405.093	625.56
405.317	650.56
405.541	707.56
405.765	658.56
405.988	602.56
406.212	621.56
406.436	633.56
406.66	641.56
406.883	631.56
407.107	655.56
407.331	690.56
407.555	762.56
407.778	731.56
408.002	716.56
408.226	671.56
408.449	659.56
408.673	637.56
408.896	659.56
409.12	690.56
409.344	671.56
409.567	608.56
409.791	593.56
410.014	606.56
410.238	575.56
410.461	595.56
410.685	594.56
410.908	605.56
411.132	646.56
411.355	678.56
411.578	643.56
411.802	583.56
412.025	599.56
412.249	586.56
412.472	587.56
412.695	633.56
412.919	645.56
413.142	590.56
413.365	575.56
413.589	586.56
413.812	563.56
414.035	540.56
414.258	549.56
414.482	562.56
414.705	579.56
414.928	575.56
415.151	564.56
415.374	549.56
415.597	538.56
415.821	563.56
416.044	570.56
416.267	562.56
416.49	559.56
416.713	565.56
416.936	534.56
417.159	563.56
417.382	564.56
417.605	566.56
417.828	567.56
418.051	590.56
418.274	555.56
418.497	555.56
418.72	562.56
418.943	533.56
419.166	596.56
419.389	620.56
419.611	588.56
419.834	604.56
420.057	587.56
420.28	561.56
420.503	565.56
420.726	564.56
420.948	593.56
421.171	623.56
421.394	642.56
421.617	583.56
421.839	567.56
422.062	586.56
422.285	602.56
422.507	650.56
422.73	724.56
422.953	694.56
423.175	612.56
423.398	599.56
423.621	585.56
423.843	642.56
424.066	617.56
424.288	629.56
424.511	637.56
424.733	700.56
424.956	786.56
425.178	739.56
425.401	728.56
425.623	738.56
425.846	651.56
426.068	597.56
426.291	620.56
426.513	614.56
426.735	619.56
426.958	656.56
427.18	714.56
427.402	870.56
427.625	984.56
427.847	835.56
428.069	708.56
428.292	638.56
428.514	596.56
428.736	599.56
428.958	581.56
429.181	566.56
429.403	561.56
429.625	548.56
429.847	602.56
430.069	647.56
430.292	664.56
430.514	580.56
430.736	570.56
430.958	557.56
431.18	540.56
431.402	568.56
431.624	546.56
431.846	523.56
432.068	538.56
432.29	535.56
432.512	541.56
432.734	546.56
432.956	554.56
433.178	551.56
433.4	564.56
433.622	545.56
433.844	557.56
434.066	524.56
434.287	550.56
434.509	567.56
434.731	554.56
434.953	560.56
435.175	581.56
435.397	616.56
435.618	612.56
435.84	628.56
436.062	742.56
436.284	824.56
436.505	677.56
436.727	631.56
436.949	597.56
437.17	577.56
437.392	561.56
437.614	578.56
437.835	593.56
438.057	689.56
438.278	818.56
438.5	784.56
438.721	859.56
438.943	819.56
439.165	683.56
439.386	625.56
439.608	615.56
439.829	612.56
440.05	614.56
440.272	690.56
440.493	630.56
440.715	589.56
440.936	583.56
441.158	559.56
441.379	570.56
441.6	602.56
441.822	618.56
442.043	651.56
442.264	753.56
442.486	781.56
442.707	661.56
442.928	623.56
443.149	617.56
443.371	638.56
443.592	681.56
443.813	791.56
444.034	858.56
444.255	712.56
444.476	639.56
444.698	626.56
444.919	604.56
445.14	729.56
445.361	657.56
445.582	645.56
445.803	730.56
446.024	805.56
446.245	826.56
446.466	730.56
446.687	637.56
446.908	582.56
447.129	570.56
447.35	555.56
447.571	567.56
447.792	566.56
448.013	548.56
448.234	571.56
448.455	622.56
448.675	716.56
448.896	840.56
449.117	720.56
449.338	693.56
449.559	780.56
449.779	872.56
450	695.56
450.221	615.56
450.442	579.56
450.662	527.56
450.883	539.56
451.104	550.56
451.324	544.56
451.545	525.56
451.766	524.56
451.986	501.56
452.207	511.56
452.428	515.56
452.648	508.56
452.869	507.56
453.089	520.56
453.31	497.56
453.53	539.56
453.751	508.56
453.971	503.56
454.192	521.56
454.412	520.56
454.633	490.56
454.853	507.56
455.073	487.56
455.294	530.56
455.514	581.56
455.734	566.56
455.955	503.56
456.175	485.56
456.395	477.56
456.616	477.56
456.836	465.56
457.056	485.56
457.276	475.56
457.497	461.56
457.717	461.56
457.937	489.56
458.157	485.56
458.377	509.56
458.598	522.56
458.818	556.56
459.038	660.56
459.258	637.56
459.478	592.56
459.698	559.56
459.918	571.56
460.138	570.56
460.358	560.56
460.578	572.56
460.798	564.56
461.018	569.56
461.238	569.56
461.458	573.56
461.678	553.56
461.898	574.56
462.118	586.56
462.338	584.56
462.558	579.56
462.777	619.56
462.997	632.56
463.217	639.56
463.437	633.56
463.657	628.56
463.876	594.56
464.096	630.56
464.316	615.56
464.536	624.56
464.755	619.56
464.975	609.56
465.195	661.56
465.414	698.56
465.634	613.56
465.854	585.56
466.073	565.56
466.293	538.56
466.512	507.56
466.732	527.56
466.951	541.56
467.171	523.56
467.391	541.56
467.61	520.56
467.829	543.56
468.049	546.56
468.268	535.56
468.488	528.56
468.707	507.56
468.927	505.56
469.146	488.56
469.365	519.56
469.585	475.56
469.804	529.56
470.023	539.56
470.243	547.56
470.462	525.56
470.681	535.56
470.901	543.56
471.12	533.56
471.339	516.56
471.558	542.56
471.777	545.56
471.997	528.56
472.216	528.56
472.435	561.56
472.654	545.56
472.873	517.56
473.092	528.56
473.311	513.56
473.53	528.56
473.749	520.56
473.968	570.56
474.187	667.56
474.406	677.56
474.625	600.56
474.844	543.56
475.063	525.56
475.282	539.56
475.501	556.56
475.72	543.56
475.939	536.56
476.158	539.56
476.377	544.56
476.596	548.56
476.814	564.56
477.033	558.56
477.252	534.56
477.471	571.56
477.69	578.56
477.908	585.56
478.127	575.56
478.346	584.56
478.564	571.56
478.783	603.56
479.002	626.56
479.22	629.56
479.439	642.56
479.658	592.56
479.876	655.56
480.095	637.56
480.313	674.56
480.532	667.56
480.751	668.56
480.969	648.56
481.188	723.56
481.406	725.56
481.624	689.56
481.843	642.56
482.061	632.56
482.28	606.56
482.498	618.56
482.717	627.56
482.935	616.56
483.153	633.56
483.372	628.56
483.59	595.56
483.808	613.56
484.027	630.56
484.245	620.56
484.463	623.56
484.681	593.56
484.9	614.56
485.118	639.56
485.336	621.56
485.554	635.56
485.772	648.56
485.99	661.56
486.209	639.56
486.427	651.56
486.645	629.56
486.863	675.56
487.081	663.56
487.299	664.56
487.517	657.56
487.735	657.56
487.953	677.56
488.171	664.56
488.389	667.56
488.607	651.56
488.825	664.56
489.043	658.56
489.261	659.56
489.479	644.56
489.696	656.56
489.914	689.56
490.132	674.56
490.35	697.56
490.568	685.56
490.786	701.56
491.003	706.56
491.221	742.56
491.439	729.56
491.657	761.56
491.874	757.56
492.092	760.56
492.31	757.56
492.527	756.56
492.745	768.56
492.963	770.56
493.18	744.56
493.398	747.56
493.615	757.56
493.833	778.56
494.05	791.56
494.268	767.56
494.485	779.56
494.703	766.56
494.92	795.56
495.138	781.56
495.355	799.56
495.573	758.56
495.79	789.56
496.008	804.56
496.225	775.56
496.442	793.56
496.66	823.56
496.877	784.56
497.094	790.56
497.312	807.56
497.529	813.56
497.746	827.56
497.963	858.56
498.181	854.56
498.398	857.56
498.615	890.56
498.832	968.56
499.049	937.56
499.267	982.56
499.484	1004.56
499.701	1041.56
499.918	1127.56
500.135	1150.56
500.352	1216.56
500.569	1212.56
500.786	1248.56
501.003	1210.56
501.22	1217.56
501.437	1122.56
501.654	1065.56
501.871	1084.56
