Data from 1979.PennyLincolnUp.Lamp.En5.5.200Scan.071719.P1_HRD10591_16-19-54-863.txt Node
Date: Thu Jul 18 16:19:54 EDT 2019
User: cochatt
Spectrometer: HR+D1059
Trigger mode: 1
Integration Time (sec): 1.000000E-1
Scans to average: 1
Electric dark correction enabled: true
Nonlinearity correction enabled: false
Boxcar width: 0
XAxis mode: Wavelengths
Number of Pixels in Spectrum: 2048
>>>>>Begin Spectral Data<<<<<
223.165	-18.06
223.4	-18.06
223.635	-18.06
223.869	-19.06
224.104	-14.06
224.338	-7.06
224.573	-11.06
224.808	-25.06
225.042	-17.06
225.277	-10.06
225.511	2.94
225.746	-7.06
225.98	12.94
226.215	10.94
226.449	0.94
226.683	24.94
226.918	39.94
227.152	35.94
227.387	31.94
227.621	30.94
227.856	33.94
228.09	41.94
228.324	58.94
228.559	55.94
228.793	70.94
229.027	89.94
229.262	108.94
229.496	108.94
229.73	120.94
229.964	138.94
230.199	122.94
230.433	106.94
230.667	128.94
230.901	111.94
231.136	98.94
231.37	110.94
231.604	110.94
231.838	114.94
232.072	106.94
232.306	119.94
232.541	110.94
232.775	106.94
233.009	100.94
233.243	120.94
233.477	108.94
233.711	110.94
233.945	107.94
234.179	122.94
234.413	98.94
234.647	132.94
234.881	126.94
235.115	121.94
235.349	126.94
235.583	115.94
235.817	101.94
236.051	121.94
236.285	104.94
236.519	120.94
236.753	111.94
236.987	132.94
237.221	171.94
237.455	208.94
237.689	176.94
237.922	146.94
238.156	130.94
238.39	118.94
238.624	123.94
238.858	123.94
239.091	133.94
239.325	117.94
239.559	114.94
239.793	126.94
240.027	123.94
240.26	138.94
240.494	148.94
240.728	155.94
240.961	143.94
241.195	146.94
241.429	139.94
241.662	123.94
241.896	145.94
242.13	134.94
242.363	140.94
242.597	127.94
242.83	132.94
243.064	139.94
243.298	131.94
243.531	136.94
243.765	132.94
243.998	138.94
244.232	134.94
244.465	139.94
244.699	148.94
244.932	159.94
245.166	131.94
245.399	143.94
245.633	138.94
245.866	154.94
246.099	149.94
246.333	171.94
246.566	150.94
246.8	138.94
247.033	156.94
247.266	147.94
247.5	144.94
247.733	159.94
247.966	170.94
248.2	158.94
248.433	160.94
248.666	172.94
248.899	195.94
249.133	186.94
249.366	215.94
249.599	206.94
249.832	172.94
250.066	158.94
250.299	175.94
250.532	194.94
250.765	192.94
250.998	211.94
251.231	212.94
251.465	208.94
251.698	191.94
251.931	194.94
252.164	177.94
252.397	193.94
252.63	183.94
252.863	196.94
253.096	209.94
253.329	211.94
253.562	219.94
253.795	217.94
254.028	205.94
254.261	204.94
254.494	216.94
254.727	240.94
254.96	248.94
255.193	259.94
255.426	228.94
255.659	240.94
255.892	214.94
256.124	234.94
256.357	209.94
256.59	212.94
256.823	194.94
257.056	202.94
257.289	189.94
257.521	203.94
257.754	190.94
257.987	194.94
258.22	195.94
258.452	202.94
258.685	213.94
258.918	201.94
259.151	196.94
259.383	213.94
259.616	210.94
259.849	212.94
260.081	224.94
260.314	236.94
260.547	234.94
260.779	231.94
261.012	224.94
261.244	218.94
261.477	221.94
261.71	199.94
261.942	215.94
262.175	204.94
262.407	207.94
262.64	194.94
262.872	194.94
263.105	200.94
263.337	222.94
263.57	214.94
263.802	206.94
264.035	191.94
264.267	215.94
264.499	204.94
264.732	204.94
264.964	209.94
265.197	222.94
265.429	201.94
265.661	207.94
265.894	218.94
266.126	214.94
266.358	226.94
266.591	208.94
266.823	205.94
267.055	218.94
267.287	209.94
267.52	216.94
267.752	208.94
267.984	211.94
268.216	228.94
268.448	231.94
268.681	209.94
268.913	222.94
269.145	247.94
269.377	267.94
269.609	253.94
269.841	269.94
270.073	246.94
270.306	273.94
270.538	282.94
270.77	287.94
271.002	282.94
271.234	261.94
271.466	300.94
271.698	297.94
271.93	295.94
272.162	289.94
272.394	271.94
272.626	271.94
272.858	274.94
273.09	252.94
273.322	259.94
273.553	242.94
273.785	258.94
274.017	238.94
274.249	255.94
274.481	253.94
274.713	258.94
274.945	274.94
275.176	275.94
275.408	255.94
275.64	254.94
275.872	234.94
276.104	264.94
276.335	240.94
276.567	257.94
276.799	265.94
277.031	294.94
277.262	300.94
277.494	305.94
277.726	280.94
277.957	269.94
278.189	260.94
278.421	246.94
278.652	277.94
278.884	262.94
279.115	240.94
279.347	256.94
279.579	264.94
279.81	254.94
280.042	261.94
280.273	259.94
280.505	264.94
280.736	276.94
280.968	266.94
281.199	268.94
281.431	263.94
281.662	260.94
281.894	287.94
282.125	279.94
282.356	272.94
282.588	297.94
282.819	302.94
283.051	293.94
283.282	252.94
283.513	257.94
283.745	276.94
283.976	264.94
284.207	276.94
284.439	270.94
284.67	290.94
284.901	276.94
285.132	263.94
285.364	270.94
285.595	276.94
285.826	265.94
286.057	264.94
286.288	278.94
286.52	283.94
286.751	270.94
286.982	269.94
287.213	304.94
287.444	283.94
287.675	268.94
287.906	298.94
288.138	285.94
288.369	286.94
288.6	305.94
288.831	291.94
289.062	284.94
289.293	297.94
289.524	307.94
289.755	298.94
289.986	284.94
290.217	292.94
290.448	286.94
290.679	269.94
290.91	286.94
291.141	282.94
291.371	295.94
291.602	290.94
291.833	268.94
292.064	268.94
292.295	286.94
292.526	295.94
292.757	295.94
292.987	277.94
293.218	295.94
293.449	283.94
293.68	301.94
293.91	313.94
294.141	291.94
294.372	276.94
294.603	300.94
294.833	291.94
295.064	275.94
295.295	291.94
295.525	293.94
295.756	306.94
295.987	287.94
296.217	319.94
296.448	326.94
296.679	300.94
296.909	281.94
297.14	290.94
297.37	303.94
297.601	296.94
297.831	286.94
298.062	306.94
298.292	283.94
298.523	315.94
298.753	314.94
298.984	305.94
299.214	328.94
299.445	283.94
299.675	315.94
299.905	306.94
300.136	315.94
300.366	308.94
300.597	306.94
300.827	311.94
301.057	328.94
301.288	338.94
301.518	311.94
301.748	339.94
301.979	327.94
302.209	340.94
302.439	314.94
302.669	312.94
302.9	309.94
303.13	337.94
303.36	340.94
303.59	332.94
303.82	338.94
304.051	334.94
304.281	315.94
304.511	328.94
304.741	323.94
304.971	326.94
305.201	323.94
305.431	331.94
305.661	328.94
305.891	306.94
306.121	326.94
306.352	331.94
306.582	332.94
306.812	329.94
307.042	322.94
307.272	329.94
307.502	340.94
307.731	327.94
307.961	339.94
308.191	343.94
308.421	338.94
308.651	332.94
308.881	337.94
309.111	344.94
309.341	338.94
309.571	345.94
309.8	358.94
310.03	370.94
310.26	358.94
310.49	372.94
310.72	374.94
310.949	393.94
311.179	389.94
311.409	380.94
311.639	364.94
311.868	364.94
312.098	383.94
312.328	382.94
312.557	391.94
312.787	392.94
313.017	391.94
313.246	388.94
313.476	375.94
313.706	366.94
313.935	390.94
314.165	401.94
314.394	402.94
314.624	399.94
314.853	391.94
315.083	390.94
315.312	366.94
315.542	382.94
315.771	375.94
316.001	372.94
316.23	391.94
316.46	382.94
316.689	374.94
316.919	383.94
317.148	372.94
317.377	374.94
317.607	389.94
317.836	376.94
318.065	394.94
318.295	370.94
318.524	373.94
318.753	378.94
318.983	380.94
319.212	356.94
319.441	380.94
319.67	389.94
319.9	384.94
320.129	385.94
320.358	393.94
320.587	379.94
320.816	394.94
321.046	391.94
321.275	393.94
321.504	397.94
321.733	404.94
321.962	385.94
322.191	419.94
322.42	414.94
322.649	446.94
322.878	436.94
323.108	443.94
323.337	469.94
323.566	482.94
323.795	520.94
324.024	550.94
324.253	652.94
324.482	930.94
324.71	1430.94
324.939	2153.94
325.168	1806.94
325.397	897.94
325.626	619.94
325.855	514.94
326.084	502.94
326.313	484.94
326.542	474.94
326.77	542.94
326.999	624.94
327.228	846.94
327.457	1282.94
327.686	1638.94
327.914	1012.94
328.143	660.94
328.372	580.94
328.6	560.94
328.829	531.94
329.058	538.94
329.287	570.94
329.515	547.94
329.744	508.94
329.972	525.94
330.201	524.94
330.43	530.94
330.658	576.94
330.887	608.94
331.115	570.94
331.344	496.94
331.572	477.94
331.801	490.94
332.03	496.94
332.258	471.94
332.486	464.94
332.715	443.94
332.943	459.94
333.172	467.94
333.4	465.94
333.629	474.94
333.857	484.94
334.085	499.94
334.314	530.94
334.542	535.94
334.771	548.94
334.999	514.94
335.227	501.94
335.455	459.94
335.684	452.94
335.912	444.94
336.14	445.94
336.369	448.94
336.597	454.94
336.825	474.94
337.053	443.94
337.281	440.94
337.51	456.94
337.738	444.94
337.966	429.94
338.194	437.94
338.422	447.94
338.65	451.94
338.878	447.94
339.106	435.94
339.334	429.94
339.562	444.94
339.79	440.94
340.018	430.94
340.246	445.94
340.474	440.94
340.702	450.94
340.93	463.94
341.158	436.94
341.386	448.94
341.614	447.94
341.842	434.94
342.07	457.94
342.298	424.94
342.526	425.94
342.754	418.94
342.981	423.94
343.209	430.94
343.437	448.94
343.665	439.94
343.893	450.94
344.12	442.94
344.348	448.94
344.576	439.94
344.804	450.94
345.031	462.94
345.259	448.94
345.487	435.94
345.714	458.94
345.942	420.94
346.17	439.94
346.397	410.94
346.625	423.94
346.853	412.94
347.08	429.94
347.308	431.94
347.535	432.94
347.763	426.94
347.99	425.94
348.218	448.94
348.445	426.94
348.673	437.94
348.9	440.94
349.128	413.94
349.355	390.94
349.583	418.94
349.81	436.94
350.037	387.94
350.265	418.94
350.492	403.94
350.72	400.94
350.947	432.94
351.174	432.94
351.402	428.94
351.629	424.94
351.856	413.94
352.083	432.94
352.311	434.94
352.538	437.94
352.765	438.94
352.992	420.94
353.22	415.94
353.447	425.94
353.674	410.94
353.901	424.94
354.128	414.94
354.355	404.94
354.583	414.94
354.81	383.94
355.037	412.94
355.264	406.94
355.491	380.94
355.718	411.94
355.945	389.94
356.172	390.94
356.399	393.94
356.626	378.94
356.853	390.94
357.08	382.94
357.307	385.94
357.534	407.94
357.761	414.94
357.988	402.94
358.215	405.94
358.441	390.94
358.668	387.94
358.895	409.94
359.122	417.94
359.349	415.94
359.576	415.94
359.802	436.94
360.029	451.94
360.256	474.94
360.483	457.94
360.709	430.94
360.936	454.94
361.163	424.94
361.39	410.94
361.616	435.94
361.843	422.94
362.07	404.94
362.296	416.94
362.523	425.94
362.749	432.94
362.976	421.94
363.203	434.94
363.429	434.94
363.656	396.94
363.882	415.94
364.109	418.94
364.335	419.94
364.562	417.94
364.788	396.94
365.015	416.94
365.241	402.94
365.468	408.94
365.694	419.94
365.92	407.94
366.147	414.94
366.373	406.94
366.599	392.94
366.826	418.94
367.052	417.94
367.278	414.94
367.505	414.94
367.731	420.94
367.957	407.94
368.184	410.94
368.41	440.94
368.636	436.94
368.862	425.94
369.089	414.94
369.315	408.94
369.541	432.94
369.767	412.94
369.993	404.94
370.219	417.94
370.445	430.94
370.672	414.94
370.898	416.94
371.124	399.94
371.35	410.94
371.576	424.94
371.802	428.94
372.028	418.94
372.254	405.94
372.48	408.94
372.706	417.94
372.932	424.94
373.158	436.94
373.384	409.94
373.61	428.94
373.835	439.94
374.061	414.94
374.287	430.94
374.513	450.94
374.739	442.94
374.965	434.94
375.191	454.94
375.416	453.94
375.642	440.94
375.868	434.94
376.094	424.94
376.319	422.94
376.545	418.94
376.771	427.94
376.997	406.94
377.222	394.94
377.448	405.94
377.674	415.94
377.899	410.94
378.125	405.94
378.35	404.94
378.576	413.94
378.802	403.94
379.027	412.94
379.253	401.94
379.478	420.94
379.704	433.94
379.929	395.94
380.155	413.94
380.38	420.94
380.606	434.94
380.831	417.94
381.057	430.94
381.282	418.94
381.507	437.94
381.733	440.94
381.958	430.94
382.184	432.94
382.409	423.94
382.634	447.94
382.86	425.94
383.085	422.94
383.31	449.94
383.535	446.94
383.761	434.94
383.986	458.94
384.211	462.94
384.436	458.94
384.662	440.94
384.887	464.94
385.112	451.94
385.337	448.94
385.562	464.94
385.787	458.94
386.013	494.94
386.238	470.94
386.463	487.94
386.688	461.94
386.913	471.94
387.138	453.94
387.363	471.94
387.588	461.94
387.813	487.94
388.038	499.94
388.263	462.94
388.488	467.94
388.713	464.94
388.938	482.94
389.163	482.94
389.387	458.94
389.612	444.94
389.837	452.94
390.062	477.94
390.287	465.94
390.512	458.94
390.736	463.94
390.961	474.94
391.186	476.94
391.411	487.94
391.636	478.94
391.86	511.94
392.085	481.94
392.31	485.94
392.534	499.94
392.759	469.94
392.984	498.94
393.208	484.94
393.433	503.94
393.658	487.94
393.882	494.94
394.107	494.94
394.331	497.94
394.556	468.94
394.78	477.94
395.005	479.94
395.229	477.94
395.454	494.94
395.678	487.94
395.903	499.94
396.127	521.94
396.352	537.94
396.576	527.94
396.801	507.94
397.025	530.94
397.249	515.94
397.474	512.94
397.698	529.94
397.922	535.94
398.147	558.94
398.371	530.94
398.595	545.94
398.82	533.94
399.044	574.94
399.268	616.94
399.492	618.94
399.717	641.94
399.941	686.94
400.165	685.94
400.389	675.94
400.613	617.94
400.837	601.94
401.062	568.94
401.286	578.94
401.51	564.94
401.734	554.94
401.958	555.94
402.182	585.94
402.406	578.94
402.63	579.94
402.854	575.94
403.078	584.94
403.302	574.94
403.526	602.94
403.75	588.94
403.974	592.94
404.198	589.94
404.422	596.94
404.645	590.94
404.869	624.94
405.093	617.94
405.317	656.94
405.541	691.94
405.765	645.94
405.988	602.94
406.212	622.94
406.436	632.94
406.66	656.94
406.883	629.94
407.107	660.94
407.331	721.94
407.555	770.94
407.778	761.94
408.002	690.94
408.226	674.94
408.449	663.94
408.673	651.94
408.896	676.94
409.12	710.94
409.344	668.94
409.567	621.94
409.791	609.94
410.014	598.94
410.238	626.94
410.461	619.94
410.685	598.94
410.908	616.94
411.132	646.94
411.355	640.94
411.578	614.94
411.802	589.94
412.025	587.94
412.249	590.94
412.472	623.94
412.695	682.94
412.919	658.94
413.142	600.94
413.365	572.94
413.589	588.94
413.812	588.94
414.035	549.94
414.258	565.94
414.482	579.94
414.705	541.94
414.928	566.94
415.151	542.94
415.374	553.94
415.597	561.94
415.821	564.94
416.044	560.94
416.267	539.94
416.49	551.94
416.713	546.94
416.936	546.94
417.159	572.94
417.382	550.94
417.605	562.94
417.828	566.94
418.051	595.94
418.274	576.94
418.497	553.94
418.72	568.94
418.943	572.94
419.166	578.94
419.389	599.94
419.611	600.94
419.834	578.94
420.057	607.94
420.28	595.94
420.503	570.94
420.726	566.94
420.948	611.94
421.171	640.94
421.394	662.94
421.617	610.94
421.839	583.94
422.062	586.94
422.285	621.94
422.507	680.94
422.73	713.94
422.953	703.94
423.175	640.94
423.398	605.94
423.621	598.94
423.843	606.94
424.066	626.94
424.288	611.94
424.511	638.94
424.733	678.94
424.956	744.94
425.178	725.94
425.401	731.94
425.623	756.94
425.846	674.94
426.068	638.94
426.291	606.94
426.513	615.94
426.735	617.94
426.958	640.94
427.18	733.94
427.402	870.94
427.625	946.94
427.847	856.94
428.069	729.94
428.292	654.94
428.514	618.94
428.736	573.94
428.958	600.94
429.181	561.94
429.403	565.94
429.625	585.94
429.847	623.94
430.069	688.94
430.292	668.94
430.514	594.94
430.736	552.94
430.958	571.94
431.18	547.94
431.402	533.94
431.624	531.94
431.846	551.94
432.068	536.94
432.29	540.94
432.512	538.94
432.734	567.94
432.956	550.94
433.178	549.94
433.4	571.94
433.622	563.94
433.844	527.94
434.066	538.94
434.287	541.94
434.509	541.94
434.731	584.94
434.953	572.94
435.175	578.94
435.397	607.94
435.618	615.94
435.84	662.94
436.062	732.94
436.284	811.94
436.505	670.94
436.727	646.94
436.949	588.94
437.17	587.94
437.392	559.94
437.614	575.94
437.835	623.94
438.057	696.94
438.278	816.94
438.5	805.94
438.721	855.94
438.943	851.94
439.165	692.94
439.386	637.94
439.608	614.94
439.829	623.94
440.05	644.94
440.272	663.94
440.493	632.94
440.715	616.94
440.936	597.94
441.158	580.94
441.379	562.94
441.6	574.94
441.822	599.94
442.043	645.94
442.264	724.94
442.486	758.94
442.707	677.94
442.928	629.94
443.149	665.94
443.371	664.94
443.592	715.94
443.813	786.94
444.034	834.94
444.255	719.94
444.476	643.94
444.698	636.94
444.919	641.94
445.14	726.94
445.361	686.94
445.582	675.94
445.803	750.94
446.024	840.94
446.245	836.94
446.466	761.94
446.687	670.94
446.908	611.94
447.129	560.94
447.35	587.94
447.571	552.94
447.792	559.94
448.013	581.94
448.234	609.94
448.455	628.94
448.675	710.94
448.896	868.94
449.117	708.94
449.338	711.94
449.559	803.94
449.779	932.94
450	714.94
450.221	610.94
450.442	560.94
450.662	544.94
450.883	560.94
451.104	567.94
451.324	562.94
451.545	530.94
451.766	517.94
451.986	506.94
452.207	526.94
452.428	495.94
452.648	491.94
452.869	502.94
453.089	546.94
453.31	551.94
453.53	520.94
453.751	516.94
453.971	515.94
454.192	525.94
454.412	514.94
454.633	510.94
454.853	455.94
455.073	490.94
455.294	528.94
455.514	614.94
455.734	570.94
455.955	508.94
456.175	474.94
456.395	487.94
456.616	475.94
456.836	460.94
457.056	468.94
457.276	465.94
457.497	471.94
457.717	472.94
457.937	471.94
458.157	518.94
458.377	502.94
458.598	525.94
458.818	615.94
459.038	638.94
459.258	651.94
459.478	611.94
459.698	562.94
459.918	547.94
460.138	561.94
460.358	559.94
460.578	578.94
460.798	587.94
461.018	592.94
461.238	567.94
461.458	572.94
461.678	572.94
461.898	569.94
462.118	563.94
462.338	552.94
462.558	592.94
462.777	617.94
462.997	637.94
463.217	654.94
463.437	673.94
463.657	656.94
463.876	640.94
464.096	628.94
464.316	590.94
464.536	615.94
464.755	586.94
464.975	609.94
465.195	664.94
465.414	712.94
465.634	637.94
465.854	607.94
466.073	560.94
466.293	523.94
466.512	527.94
466.732	514.94
466.951	528.94
467.171	542.94
467.391	552.94
467.61	550.94
467.829	548.94
468.049	546.94
468.268	520.94
468.488	510.94
468.707	536.94
468.927	483.94
469.146	525.94
469.365	507.94
469.585	515.94
469.804	533.94
470.023	543.94
470.243	530.94
470.462	557.94
470.681	555.94
470.901	561.94
471.12	548.94
471.339	532.94
471.558	539.94
471.777	544.94
471.997	525.94
472.216	523.94
472.435	568.94
472.654	538.94
472.873	539.94
473.092	550.94
473.311	534.94
473.53	543.94
473.749	531.94
473.968	544.94
474.187	672.94
474.406	670.94
474.625	547.94
474.844	551.94
475.063	537.94
475.282	531.94
475.501	529.94
475.72	548.94
475.939	545.94
476.158	543.94
476.377	547.94
476.596	566.94
476.814	576.94
477.033	585.94
477.252	564.94
477.471	583.94
477.69	574.94
477.908	588.94
478.127	592.94
478.346	592.94
478.564	593.94
478.783	582.94
479.002	626.94
479.22	619.94
479.439	622.94
479.658	630.94
479.876	628.94
480.095	634.94
480.313	691.94
480.532	700.94
480.751	653.94
480.969	683.94
481.188	717.94
481.406	762.94
481.624	696.94
481.843	659.94
482.061	631.94
482.28	635.94
482.498	610.94
482.717	609.94
482.935	624.94
483.153	628.94
483.372	632.94
483.59	619.94
483.808	606.94
484.027	626.94
484.245	641.94
484.463	616.94
484.681	646.94
484.9	632.94
485.118	639.94
485.336	633.94
485.554	653.94
485.772	644.94
485.99	634.94
486.209	645.94
486.427	646.94
486.645	682.94
486.863	659.94
487.081	672.94
487.299	684.94
487.517	663.94
487.735	655.94
487.953	665.94
488.171	675.94
488.389	667.94
488.607	691.94
488.825	667.94
489.043	665.94
489.261	691.94
489.479	675.94
489.696	682.94
489.914	660.94
490.132	682.94
490.35	668.94
490.568	678.94
490.786	691.94
491.003	715.94
491.221	742.94
491.439	733.94
491.657	739.94
491.874	750.94
492.092	752.94
492.31	754.94
492.527	745.94
492.745	744.94
492.963	761.94
493.18	772.94
493.398	784.94
493.615	751.94
493.833	774.94
494.05	774.94
494.268	791.94
494.485	754.94
494.703	759.94
494.92	756.94
495.138	770.94
495.355	787.94
495.573	784.94
495.79	792.94
496.008	778.94
496.225	778.94
496.442	768.94
496.66	796.94
496.877	807.94
497.094	803.94
497.312	819.94
497.529	809.94
497.746	838.94
497.963	829.94
498.181	859.94
498.398	876.94
498.615	898.94
498.832	935.94
499.049	939.94
499.267	1003.94
499.484	1011.94
499.701	1026.94
499.918	1110.94
500.135	1132.94
500.352	1236.94
500.569	1268.94
500.786	1250.94
501.003	1230.94
501.22	1199.94
501.437	1126.94
501.654	1073.94
501.871	1047.94
