Data from 1979.PennyLincolnUp.Lamp.En5.5.200Scan.071719.P1_HRD10591_16-18-39-863.txt Node
Date: Thu Jul 18 16:18:39 EDT 2019
User: cochatt
Spectrometer: HR+D1059
Trigger mode: 1
Integration Time (sec): 1.000000E-1
Scans to average: 1
Electric dark correction enabled: true
Nonlinearity correction enabled: false
Boxcar width: 0
XAxis mode: Wavelengths
Number of Pixels in Spectrum: 2048
>>>>>Begin Spectral Data<<<<<
223.165	-5.88
223.4	-5.88
223.635	-5.88
223.869	-12.88
224.104	-25.88
224.338	-19.88
224.573	-17.88
224.808	-18.88
225.042	0.12
225.277	-0.88
225.511	3.12
225.746	8.12
225.98	10.12
226.215	-3.88
226.449	17.12
226.683	8.12
226.918	26.12
227.152	33.12
227.387	37.12
227.621	27.12
227.856	40.12
228.09	49.12
228.324	35.12
228.559	50.12
228.793	63.12
229.027	89.12
229.262	75.12
229.496	96.12
229.73	117.12
229.964	128.12
230.199	112.12
230.433	100.12
230.667	89.12
230.901	91.12
231.136	107.12
231.37	90.12
231.604	103.12
231.838	93.12
232.072	104.12
232.306	116.12
232.541	110.12
232.775	101.12
233.009	98.12
233.243	90.12
233.477	93.12
233.711	111.12
233.945	111.12
234.179	103.12
234.413	110.12
234.647	93.12
234.881	110.12
235.115	105.12
235.349	106.12
235.583	107.12
235.817	87.12
236.051	104.12
236.285	102.12
236.519	112.12
236.753	116.12
236.987	136.12
237.221	143.12
237.455	206.12
237.689	160.12
237.922	122.12
238.156	113.12
238.39	116.12
238.624	103.12
238.858	105.12
239.091	124.12
239.325	126.12
239.559	112.12
239.793	119.12
240.027	126.12
240.26	120.12
240.494	136.12
240.728	128.12
240.961	136.12
241.195	126.12
241.429	131.12
241.662	122.12
241.896	128.12
242.13	135.12
242.363	117.12
242.597	128.12
242.83	137.12
243.064	118.12
243.298	122.12
243.531	138.12
243.765	124.12
243.998	124.12
244.232	125.12
244.465	120.12
244.699	126.12
244.932	119.12
245.166	130.12
245.399	142.12
245.633	127.12
245.866	144.12
246.099	129.12
246.333	123.12
246.566	128.12
246.8	125.12
247.033	135.12
247.266	142.12
247.5	126.12
247.733	147.12
247.966	137.12
248.2	167.12
248.433	147.12
248.666	142.12
248.899	148.12
249.133	165.12
249.366	175.12
249.599	178.12
249.832	158.12
250.066	170.12
250.299	151.12
250.532	148.12
250.765	175.12
250.998	201.12
251.231	187.12
251.465	179.12
251.698	178.12
251.931	171.12
252.164	167.12
252.397	178.12
252.63	178.12
252.863	167.12
253.096	179.12
253.329	196.12
253.562	201.12
253.795	191.12
254.028	184.12
254.261	180.12
254.494	194.12
254.727	204.12
254.96	224.12
255.193	227.12
255.426	219.12
255.659	195.12
255.892	194.12
256.124	187.12
256.357	193.12
256.59	175.12
256.823	188.12
257.056	188.12
257.289	172.12
257.521	181.12
257.754	183.12
257.987	189.12
258.22	190.12
258.452	189.12
258.685	180.12
258.918	186.12
259.151	175.12
259.383	195.12
259.616	182.12
259.849	194.12
260.081	193.12
260.314	219.12
260.547	208.12
260.779	207.12
261.012	205.12
261.244	197.12
261.477	191.12
261.71	206.12
261.942	188.12
262.175	192.12
262.407	193.12
262.64	191.12
262.872	195.12
263.105	199.12
263.337	203.12
263.57	200.12
263.802	188.12
264.035	179.12
264.267	206.12
264.499	191.12
264.732	194.12
264.964	195.12
265.197	194.12
265.429	200.12
265.661	197.12
265.894	186.12
266.126	188.12
266.358	172.12
266.591	198.12
266.823	203.12
267.055	212.12
267.287	210.12
267.52	189.12
267.752	206.12
267.984	194.12
268.216	211.12
268.448	209.12
268.681	202.12
268.913	216.12
269.145	214.12
269.377	252.12
269.609	223.12
269.841	226.12
270.073	222.12
270.306	258.12
270.538	267.12
270.77	261.12
271.002	243.12
271.234	224.12
271.466	251.12
271.698	252.12
271.93	271.12
272.162	258.12
272.394	278.12
272.626	267.12
272.858	254.12
273.09	238.12
273.322	238.12
273.553	230.12
273.785	224.12
274.017	238.12
274.249	219.12
274.481	222.12
274.713	224.12
274.945	245.12
275.176	236.12
275.408	234.12
275.64	251.12
275.872	231.12
276.104	253.12
276.335	243.12
276.567	247.12
276.799	243.12
277.031	261.12
277.262	253.12
277.494	270.12
277.726	272.12
277.957	263.12
278.189	226.12
278.421	229.12
278.652	240.12
278.884	242.12
279.115	250.12
279.347	251.12
279.579	229.12
279.81	246.12
280.042	244.12
280.273	243.12
280.505	245.12
280.736	237.12
280.968	236.12
281.199	232.12
281.431	243.12
281.662	228.12
281.894	245.12
282.125	246.12
282.356	236.12
282.588	256.12
282.819	277.12
283.051	246.12
283.282	227.12
283.513	270.12
283.745	253.12
283.976	253.12
284.207	236.12
284.439	263.12
284.67	245.12
284.901	246.12
285.132	219.12
285.364	234.12
285.595	263.12
285.826	255.12
286.057	246.12
286.288	238.12
286.52	253.12
286.751	247.12
286.982	253.12
287.213	252.12
287.444	250.12
287.675	262.12
287.906	283.12
288.138	277.12
288.369	262.12
288.6	272.12
288.831	263.12
289.062	261.12
289.293	271.12
289.524	269.12
289.755	252.12
289.986	254.12
290.217	255.12
290.448	257.12
290.679	260.12
290.91	265.12
291.141	242.12
291.371	243.12
291.602	264.12
291.833	264.12
292.064	275.12
292.295	266.12
292.526	265.12
292.757	257.12
292.987	269.12
293.218	255.12
293.449	255.12
293.68	260.12
293.91	265.12
294.141	250.12
294.372	259.12
294.603	269.12
294.833	276.12
295.064	271.12
295.295	255.12
295.525	277.12
295.756	268.12
295.987	290.12
296.217	300.12
296.448	316.12
296.679	263.12
296.909	275.12
297.14	284.12
297.37	274.12
297.601	284.12
297.831	284.12
298.062	270.12
298.292	269.12
298.523	284.12
298.753	293.12
298.984	279.12
299.214	270.12
299.445	270.12
299.675	286.12
299.905	283.12
300.136	279.12
300.366	279.12
300.597	287.12
300.827	293.12
301.057	302.12
301.288	307.12
301.518	307.12
301.748	302.12
301.979	300.12
302.209	302.12
302.439	286.12
302.669	307.12
302.9	302.12
303.13	294.12
303.36	324.12
303.59	314.12
303.82	318.12
304.051	317.12
304.281	320.12
304.511	307.12
304.741	283.12
304.971	286.12
305.201	294.12
305.431	294.12
305.661	290.12
305.891	282.12
306.121	302.12
306.352	302.12
306.582	328.12
306.812	306.12
307.042	294.12
307.272	278.12
307.502	301.12
307.731	310.12
307.961	301.12
308.191	300.12
308.421	293.12
308.651	296.12
308.881	310.12
309.111	322.12
309.341	315.12
309.571	328.12
309.8	319.12
310.03	337.12
310.26	332.12
310.49	338.12
310.72	343.12
310.949	351.12
311.179	354.12
311.409	337.12
311.639	336.12
311.868	334.12
312.098	362.12
312.328	333.12
312.557	367.12
312.787	366.12
313.017	365.12
313.246	362.12
313.476	352.12
313.706	366.12
313.935	344.12
314.165	350.12
314.394	347.12
314.624	341.12
314.853	351.12
315.083	343.12
315.312	335.12
315.542	338.12
315.771	343.12
316.001	325.12
316.23	319.12
316.46	328.12
316.689	344.12
316.919	358.12
317.148	352.12
317.377	335.12
317.607	344.12
317.836	342.12
318.065	338.12
318.295	337.12
318.524	343.12
318.753	338.12
318.983	331.12
319.212	353.12
319.441	353.12
319.67	355.12
319.9	355.12
320.129	350.12
320.358	362.12
320.587	344.12
320.816	353.12
321.046	370.12
321.275	358.12
321.504	385.12
321.733	356.12
321.962	359.12
322.191	382.12
322.42	370.12
322.649	384.12
322.878	384.12
323.108	411.12
323.337	410.12
323.566	453.12
323.795	448.12
324.024	478.12
324.253	566.12
324.482	813.12
324.71	1238.12
324.939	1942.12
325.168	1653.12
325.397	821.12
325.626	530.12
325.855	464.12
326.084	451.12
326.313	433.12
326.542	448.12
326.77	486.12
326.999	565.12
327.228	746.12
327.457	1112.12
327.686	1431.12
327.914	946.12
328.143	586.12
328.372	527.12
328.6	515.12
328.829	469.12
329.058	487.12
329.287	527.12
329.515	478.12
329.744	469.12
329.972	445.12
330.201	452.12
330.43	495.12
330.658	503.12
330.887	513.12
331.115	524.12
331.344	464.12
331.572	434.12
331.801	439.12
332.03	428.12
332.258	426.12
332.486	407.12
332.715	395.12
332.943	426.12
333.172	423.12
333.4	438.12
333.629	444.12
333.857	472.12
334.085	449.12
334.314	470.12
334.542	494.12
334.771	497.12
334.999	448.12
335.227	443.12
335.455	428.12
335.684	411.12
335.912	436.12
336.14	406.12
336.369	416.12
336.597	436.12
336.825	414.12
337.053	430.12
337.281	418.12
337.51	416.12
337.738	419.12
337.966	417.12
338.194	424.12
338.422	428.12
338.65	419.12
338.878	413.12
339.106	384.12
339.334	412.12
339.562	421.12
339.79	405.12
340.018	406.12
340.246	402.12
340.474	391.12
340.702	409.12
340.93	394.12
341.158	404.12
341.386	406.12
341.614	379.12
341.842	397.12
342.07	397.12
342.298	401.12
342.526	401.12
342.754	391.12
342.981	395.12
343.209	383.12
343.437	402.12
343.665	390.12
343.893	416.12
344.12	444.12
344.348	424.12
344.576	412.12
344.804	389.12
345.031	412.12
345.259	437.12
345.487	418.12
345.714	394.12
345.942	413.12
346.17	410.12
346.397	386.12
346.625	385.12
346.853	384.12
347.08	372.12
347.308	407.12
347.535	382.12
347.763	397.12
347.99	405.12
348.218	383.12
348.445	369.12
348.673	414.12
348.9	389.12
349.128	384.12
349.355	380.12
349.583	375.12
349.81	385.12
350.037	384.12
350.265	389.12
350.492	367.12
350.72	379.12
350.947	366.12
351.174	397.12
351.402	402.12
351.629	377.12
351.856	401.12
352.083	395.12
352.311	402.12
352.538	391.12
352.765	396.12
352.992	404.12
353.22	391.12
353.447	371.12
353.674	393.12
353.901	378.12
354.128	368.12
354.355	366.12
354.583	377.12
354.81	375.12
355.037	367.12
355.264	372.12
355.491	355.12
355.718	353.12
355.945	371.12
356.172	374.12
356.399	362.12
356.626	371.12
356.853	366.12
357.08	359.12
357.307	354.12
357.534	362.12
357.761	346.12
357.988	388.12
358.215	366.12
358.441	378.12
358.668	381.12
358.895	365.12
359.122	363.12
359.349	385.12
359.576	373.12
359.802	403.12
360.029	420.12
360.256	442.12
360.483	443.12
360.709	376.12
360.936	392.12
361.163	393.12
361.39	378.12
361.616	386.12
361.843	374.12
362.07	390.12
362.296	406.12
362.523	391.12
362.749	399.12
362.976	373.12
363.203	387.12
363.429	389.12
363.656	399.12
363.882	378.12
364.109	386.12
364.335	393.12
364.562	378.12
364.788	379.12
365.015	378.12
365.241	380.12
365.468	386.12
365.694	398.12
365.92	406.12
366.147	360.12
366.373	374.12
366.599	379.12
366.826	385.12
367.052	388.12
367.278	412.12
367.505	400.12
367.731	374.12
367.957	398.12
368.184	378.12
368.41	403.12
368.636	400.12
368.862	405.12
369.089	411.12
369.315	389.12
369.541	378.12
369.767	376.12
369.993	396.12
370.219	389.12
370.445	394.12
370.672	388.12
370.898	384.12
371.124	380.12
371.35	379.12
371.576	371.12
371.802	383.12
372.028	378.12
372.254	395.12
372.48	385.12
372.706	403.12
372.932	397.12
373.158	390.12
373.384	410.12
373.61	397.12
373.835	388.12
374.061	380.12
374.287	396.12
374.513	412.12
374.739	379.12
374.965	401.12
375.191	386.12
375.416	403.12
375.642	385.12
375.868	405.12
376.094	373.12
376.319	395.12
376.545	396.12
376.771	391.12
376.997	400.12
377.222	398.12
377.448	371.12
377.674	391.12
377.899	386.12
378.125	395.12
378.35	382.12
378.576	400.12
378.802	400.12
379.027	375.12
379.253	375.12
379.478	387.12
379.704	383.12
379.929	406.12
380.155	393.12
380.38	388.12
380.606	397.12
380.831	401.12
381.057	395.12
381.282	402.12
381.507	396.12
381.733	391.12
381.958	387.12
382.184	382.12
382.409	389.12
382.634	427.12
382.86	402.12
383.085	419.12
383.31	428.12
383.535	430.12
383.761	416.12
383.986	420.12
384.211	419.12
384.436	421.12
384.662	421.12
384.887	416.12
385.112	438.12
385.337	445.12
385.562	440.12
385.787	421.12
386.013	440.12
386.238	462.12
386.463	438.12
386.688	430.12
386.913	420.12
387.138	428.12
387.363	428.12
387.588	449.12
387.813	430.12
388.038	448.12
388.263	439.12
388.488	442.12
388.713	443.12
388.938	460.12
389.163	462.12
389.387	435.12
389.612	427.12
389.837	444.12
390.062	420.12
390.287	428.12
390.512	429.12
390.736	445.12
390.961	440.12
391.186	446.12
391.411	444.12
391.636	440.12
391.86	467.12
392.085	453.12
392.31	469.12
392.534	467.12
392.759	430.12
392.984	455.12
393.208	464.12
393.433	447.12
393.658	441.12
393.882	447.12
394.107	449.12
394.331	445.12
394.556	445.12
394.78	449.12
395.005	456.12
395.229	462.12
395.454	445.12
395.678	463.12
395.903	466.12
396.127	506.12
396.352	506.12
396.576	468.12
396.801	457.12
397.025	452.12
397.249	492.12
397.474	469.12
397.698	461.12
397.922	499.12
398.147	518.12
398.371	500.12
398.595	499.12
398.82	512.12
399.044	531.12
399.268	522.12
399.492	575.12
399.717	622.12
399.941	626.12
400.165	636.12
400.389	629.12
400.613	588.12
400.837	548.12
401.062	530.12
401.286	526.12
401.51	548.12
401.734	534.12
401.958	519.12
402.182	500.12
402.406	552.12
402.63	514.12
402.854	510.12
403.078	534.12
403.302	540.12
403.526	566.12
403.75	549.12
403.974	538.12
404.198	546.12
404.422	546.12
404.645	562.12
404.869	546.12
405.093	587.12
405.317	606.12
405.541	624.12
405.765	598.12
405.988	532.12
406.212	578.12
406.436	605.12
406.66	607.12
406.883	600.12
407.107	625.12
407.331	643.12
407.555	725.12
407.778	734.12
408.002	662.12
408.226	604.12
408.449	599.12
408.673	603.12
408.896	652.12
409.12	676.12
409.344	616.12
409.567	582.12
409.791	547.12
410.014	558.12
410.238	561.12
410.461	559.12
410.685	580.12
410.908	549.12
411.132	606.12
411.355	636.12
411.578	621.12
411.802	562.12
412.025	547.12
412.249	547.12
412.472	575.12
412.695	593.12
412.919	600.12
413.142	559.12
413.365	540.12
413.589	538.12
413.812	523.12
414.035	520.12
414.258	536.12
414.482	525.12
414.705	518.12
414.928	529.12
415.151	502.12
415.374	517.12
415.597	501.12
415.821	497.12
416.044	498.12
416.267	527.12
416.49	519.12
416.713	509.12
416.936	512.12
417.159	527.12
417.382	511.12
417.605	527.12
417.828	530.12
418.051	540.12
418.274	536.12
418.497	540.12
418.72	524.12
418.943	519.12
419.166	549.12
419.389	563.12
419.611	556.12
419.834	566.12
420.057	556.12
420.28	546.12
420.503	534.12
420.726	547.12
420.948	534.12
421.171	581.12
421.394	597.12
421.617	513.12
421.839	542.12
422.062	533.12
422.285	556.12
422.507	624.12
422.73	674.12
422.953	634.12
423.175	568.12
423.398	558.12
423.621	547.12
423.843	565.12
424.066	578.12
424.288	594.12
424.511	589.12
424.733	643.12
424.956	702.12
425.178	664.12
425.401	677.12
425.623	676.12
425.846	598.12
426.068	563.12
426.291	557.12
426.513	564.12
426.735	560.12
426.958	599.12
427.18	636.12
427.402	757.12
427.625	856.12
427.847	757.12
428.069	664.12
428.292	613.12
428.514	562.12
428.736	529.12
428.958	567.12
429.181	546.12
429.403	519.12
429.625	523.12
429.847	563.12
430.069	627.12
430.292	618.12
430.514	563.12
430.736	535.12
430.958	534.12
431.18	514.12
431.402	530.12
431.624	483.12
431.846	488.12
432.068	506.12
432.29	499.12
432.512	501.12
432.734	514.12
432.956	504.12
433.178	521.12
433.4	520.12
433.622	512.12
433.844	503.12
434.066	529.12
434.287	508.12
434.509	519.12
434.731	534.12
434.953	532.12
435.175	578.12
435.397	569.12
435.618	595.12
435.84	603.12
436.062	682.12
436.284	760.12
436.505	634.12
436.727	583.12
436.949	530.12
437.17	533.12
437.392	523.12
437.614	541.12
437.835	550.12
438.057	651.12
438.278	737.12
438.5	710.12
438.721	791.12
438.943	783.12
439.165	613.12
439.386	579.12
439.608	570.12
439.829	565.12
440.05	556.12
440.272	631.12
440.493	595.12
440.715	547.12
440.936	551.12
441.158	511.12
441.379	543.12
441.6	537.12
441.822	554.12
442.043	579.12
442.264	687.12
442.486	702.12
442.707	604.12
442.928	575.12
443.149	585.12
443.371	618.12
443.592	630.12
443.813	706.12
444.034	776.12
444.255	675.12
444.476	608.12
444.698	589.12
444.919	587.12
445.14	694.12
445.361	630.12
445.582	609.12
445.803	632.12
446.024	761.12
446.245	775.12
446.466	706.12
446.687	587.12
446.908	566.12
447.129	539.12
447.35	524.12
447.571	509.12
447.792	510.12
448.013	497.12
448.234	530.12
448.455	588.12
448.675	690.12
448.896	751.12
449.117	664.12
449.338	619.12
449.559	697.12
449.779	804.12
450	661.12
450.221	550.12
450.442	532.12
450.662	507.12
450.883	524.12
451.104	525.12
451.324	497.12
451.545	501.12
451.766	478.12
451.986	460.12
452.207	455.12
452.428	457.12
452.648	474.12
452.869	464.12
453.089	494.12
453.31	496.12
453.53	466.12
453.751	477.12
453.971	478.12
454.192	479.12
454.412	461.12
454.633	451.12
454.853	438.12
455.073	441.12
455.294	462.12
455.514	526.12
455.734	525.12
455.955	463.12
456.175	445.12
456.395	464.12
456.616	451.12
456.836	440.12
457.056	447.12
457.276	449.12
457.497	451.12
457.717	459.12
457.937	464.12
458.157	471.12
458.377	467.12
458.598	483.12
458.818	526.12
459.038	575.12
459.258	605.12
459.478	530.12
459.698	502.12
459.918	510.12
460.138	522.12
460.358	546.12
460.578	532.12
460.798	538.12
461.018	535.12
461.238	528.12
461.458	545.12
461.678	533.12
461.898	528.12
462.118	526.12
462.338	560.12
462.558	554.12
462.777	551.12
462.997	595.12
463.217	600.12
463.437	606.12
463.657	581.12
463.876	567.12
464.096	567.12
464.316	565.12
464.536	572.12
464.755	584.12
464.975	571.12
465.195	578.12
465.414	652.12
465.634	576.12
465.854	541.12
466.073	510.12
466.293	527.12
466.512	487.12
466.732	477.12
466.951	493.12
467.171	490.12
467.391	496.12
467.61	523.12
467.829	512.12
468.049	485.12
468.268	497.12
468.488	478.12
468.707	493.12
468.927	472.12
469.146	490.12
469.365	468.12
469.585	466.12
469.804	501.12
470.023	485.12
470.243	502.12
470.462	494.12
470.681	506.12
470.901	534.12
471.12	494.12
471.339	514.12
471.558	481.12
471.777	493.12
471.997	482.12
472.216	483.12
472.435	526.12
472.654	506.12
472.873	496.12
473.092	474.12
473.311	492.12
473.53	490.12
473.749	483.12
473.968	522.12
474.187	593.12
474.406	630.12
474.625	538.12
474.844	512.12
475.063	479.12
475.282	477.12
475.501	515.12
475.72	519.12
475.939	519.12
476.158	490.12
476.377	500.12
476.596	503.12
476.814	527.12
477.033	526.12
477.252	535.12
477.471	536.12
477.69	537.12
477.908	531.12
478.127	538.12
478.346	540.12
478.564	561.12
478.783	561.12
479.002	567.12
479.22	582.12
479.439	576.12
479.658	608.12
479.876	615.12
480.095	598.12
480.313	603.12
480.532	626.12
480.751	595.12
480.969	629.12
481.188	663.12
481.406	684.12
481.624	637.12
481.843	608.12
482.061	602.12
482.28	550.12
482.498	573.12
482.717	556.12
482.935	579.12
483.153	590.12
483.372	581.12
483.59	582.12
483.808	589.12
484.027	578.12
484.245	563.12
484.463	596.12
484.681	592.12
484.9	563.12
485.118	595.12
485.336	583.12
485.554	613.12
485.772	605.12
485.99	595.12
486.209	598.12
486.427	609.12
486.645	624.12
486.863	618.12
487.081	636.12
487.299	642.12
487.517	630.12
487.735	602.12
487.953	618.12
488.171	610.12
488.389	611.12
488.607	629.12
488.825	618.12
489.043	600.12
489.261	624.12
489.479	604.12
489.696	649.12
489.914	620.12
490.132	636.12
490.35	630.12
490.568	625.12
490.786	657.12
491.003	671.12
491.221	642.12
491.439	680.12
491.657	679.12
491.874	691.12
492.092	695.12
492.31	677.12
492.527	699.12
492.745	686.12
492.963	699.12
493.18	702.12
493.398	683.12
493.615	717.12
493.833	700.12
494.05	711.12
494.268	718.12
494.485	722.12
494.703	714.12
494.92	731.12
495.138	716.12
495.355	715.12
495.573	705.12
495.79	723.12
496.008	735.12
496.225	750.12
496.442	726.12
496.66	711.12
496.877	759.12
497.094	739.12
497.312	755.12
497.529	753.12
497.746	770.12
497.963	787.12
498.181	799.12
498.398	819.12
498.615	843.12
498.832	856.12
499.049	866.12
499.267	887.12
499.484	910.12
499.701	981.12
499.918	1015.12
500.135	1051.12
500.352	1149.12
500.569	1139.12
500.786	1160.12
501.003	1149.12
501.22	1105.12
501.437	1076.12
501.654	1011.12
501.871	991.12
502.088	907.12
