Data from 1979.PennyLincolnUp.Lamp.En5.5.200Scan.071719.P1_HRD10591_16-18-05-863.txt Node
Date: Thu Jul 18 16:18:05 EDT 2019
User: cochatt
Spectrometer: HR+D1059
Trigger mode: 1
Integration Time (sec): 1.000000E-1
Scans to average: 1
Electric dark correction enabled: true
Nonlinearity correction enabled: false
Boxcar width: 0
XAxis mode: Wavelengths
Number of Pixels in Spectrum: 2048
>>>>>Begin Spectral Data<<<<<
223.165	-21.62
223.4	-21.62
223.635	-21.62
223.869	-18.62
224.104	-15.62
224.338	-19.62
224.573	-5.62
224.808	-24.62
225.042	-2.62
225.277	-17.62
225.511	-7.62
225.746	-1.62
225.98	13.38
226.215	31.38
226.449	13.38
226.683	15.38
226.918	22.38
227.152	39.38
227.387	46.38
227.621	48.38
227.856	45.38
228.09	46.38
228.324	36.38
228.559	60.38
228.793	63.38
229.027	96.38
229.262	97.38
229.496	106.38
229.73	120.38
229.964	132.38
230.199	104.38
230.433	108.38
230.667	117.38
230.901	107.38
231.136	117.38
231.37	112.38
231.604	103.38
231.838	115.38
232.072	125.38
232.306	109.38
232.541	109.38
232.775	107.38
233.009	112.38
233.243	103.38
233.477	107.38
233.711	121.38
233.945	117.38
234.179	114.38
234.413	107.38
234.647	104.38
234.881	101.38
235.115	102.38
235.349	120.38
235.583	120.38
235.817	119.38
236.051	101.38
236.285	124.38
236.519	120.38
236.753	123.38
236.987	125.38
237.221	146.38
237.455	206.38
237.689	154.38
237.922	143.38
238.156	130.38
238.39	115.38
238.624	120.38
238.858	133.38
239.091	128.38
239.325	128.38
239.559	103.38
239.793	133.38
240.027	133.38
240.26	146.38
240.494	139.38
240.728	133.38
240.961	131.38
241.195	124.38
241.429	131.38
241.662	116.38
241.896	132.38
242.13	133.38
242.363	119.38
242.597	117.38
242.83	126.38
243.064	119.38
243.298	131.38
243.531	129.38
243.765	119.38
243.998	141.38
244.232	135.38
244.465	125.38
244.699	129.38
244.932	124.38
245.166	121.38
245.399	135.38
245.633	138.38
245.866	134.38
246.099	156.38
246.333	131.38
246.566	137.38
246.8	141.38
247.033	142.38
247.266	141.38
247.5	146.38
247.733	155.38
247.966	154.38
248.2	143.38
248.433	155.38
248.666	152.38
248.899	160.38
249.133	175.38
249.366	175.38
249.599	174.38
249.832	151.38
250.066	179.38
250.299	155.38
250.532	171.38
250.765	190.38
250.998	175.38
251.231	195.38
251.465	176.38
251.698	160.38
251.931	174.38
252.164	172.38
252.397	160.38
252.63	193.38
252.863	176.38
253.096	169.38
253.329	189.38
253.562	191.38
253.795	179.38
254.028	173.38
254.261	162.38
254.494	191.38
254.727	222.38
254.96	217.38
255.193	210.38
255.426	208.38
255.659	209.38
255.892	209.38
256.124	200.38
256.357	203.38
256.59	199.38
256.823	191.38
257.056	167.38
257.289	193.38
257.521	192.38
257.754	189.38
257.987	184.38
258.22	181.38
258.452	174.38
258.685	176.38
258.918	172.38
259.151	179.38
259.383	191.38
259.616	196.38
259.849	196.38
260.081	198.38
260.314	211.38
260.547	224.38
260.779	217.38
261.012	202.38
261.244	202.38
261.477	210.38
261.71	189.38
261.942	189.38
262.175	210.38
262.407	202.38
262.64	187.38
262.872	190.38
263.105	182.38
263.337	208.38
263.57	173.38
263.802	178.38
264.035	204.38
264.267	184.38
264.499	191.38
264.732	185.38
264.964	183.38
265.197	200.38
265.429	201.38
265.661	203.38
265.894	200.38
266.126	208.38
266.358	191.38
266.591	198.38
266.823	205.38
267.055	193.38
267.287	197.38
267.52	199.38
267.752	201.38
267.984	179.38
268.216	207.38
268.448	220.38
268.681	207.38
268.913	200.38
269.145	226.38
269.377	228.38
269.609	227.38
269.841	212.38
270.073	224.38
270.306	236.38
270.538	247.38
270.77	240.38
271.002	237.38
271.234	227.38
271.466	232.38
271.698	255.38
271.93	249.38
272.162	244.38
272.394	272.38
272.626	267.38
272.858	220.38
273.09	235.38
273.322	231.38
273.553	224.38
273.785	213.38
274.017	235.38
274.249	237.38
274.481	235.38
274.713	212.38
274.945	218.38
275.176	214.38
275.408	230.38
275.64	230.38
275.872	232.38
276.104	232.38
276.335	218.38
276.567	243.38
276.799	254.38
277.031	267.38
277.262	249.38
277.494	263.38
277.726	260.38
277.957	241.38
278.189	249.38
278.421	227.38
278.652	240.38
278.884	234.38
279.115	228.38
279.347	252.38
279.579	236.38
279.81	223.38
280.042	237.38
280.273	230.38
280.505	246.38
280.736	235.38
280.968	238.38
281.199	225.38
281.431	236.38
281.662	238.38
281.894	238.38
282.125	231.38
282.356	245.38
282.588	274.38
282.819	272.38
283.051	250.38
283.282	224.38
283.513	241.38
283.745	225.38
283.976	248.38
284.207	229.38
284.439	242.38
284.67	259.38
284.901	252.38
285.132	251.38
285.364	249.38
285.595	227.38
285.826	254.38
286.057	244.38
286.288	223.38
286.52	245.38
286.751	236.38
286.982	249.38
287.213	243.38
287.444	238.38
287.675	264.38
287.906	252.38
288.138	264.38
288.369	260.38
288.6	259.38
288.831	263.38
289.062	258.38
289.293	268.38
289.524	274.38
289.755	263.38
289.986	238.38
290.217	263.38
290.448	243.38
290.679	263.38
290.91	243.38
291.141	257.38
291.371	250.38
291.602	241.38
291.833	251.38
292.064	263.38
292.295	269.38
292.526	260.38
292.757	268.38
292.987	230.38
293.218	241.38
293.449	253.38
293.68	248.38
293.91	269.38
294.141	269.38
294.372	261.38
294.603	280.38
294.833	272.38
295.064	262.38
295.295	271.38
295.525	257.38
295.756	263.38
295.987	263.38
296.217	301.38
296.448	269.38
296.679	269.38
296.909	277.38
297.14	271.38
297.37	277.38
297.601	263.38
297.831	288.38
298.062	269.38
298.292	272.38
298.523	278.38
298.753	279.38
298.984	263.38
299.214	283.38
299.445	272.38
299.675	273.38
299.905	263.38
300.136	279.38
300.366	286.38
300.597	284.38
300.827	292.38
301.057	285.38
301.288	299.38
301.518	296.38
301.748	275.38
301.979	291.38
302.209	281.38
302.439	291.38
302.669	283.38
302.9	287.38
303.13	312.38
303.36	291.38
303.59	279.38
303.82	306.38
304.051	287.38
304.281	309.38
304.511	288.38
304.741	295.38
304.971	299.38
305.201	281.38
305.431	316.38
305.661	297.38
305.891	285.38
306.121	286.38
306.352	282.38
306.582	304.38
306.812	296.38
307.042	288.38
307.272	285.38
307.502	286.38
307.731	289.38
307.961	300.38
308.191	292.38
308.421	280.38
308.651	297.38
308.881	296.38
309.111	311.38
309.341	298.38
309.571	306.38
309.8	333.38
310.03	303.38
310.26	315.38
310.49	321.38
310.72	328.38
310.949	320.38
311.179	335.38
311.409	328.38
311.639	330.38
311.868	325.38
312.098	321.38
312.328	323.38
312.557	345.38
312.787	344.38
313.017	347.38
313.246	345.38
313.476	333.38
313.706	350.38
313.935	327.38
314.165	336.38
314.394	341.38
314.624	334.38
314.853	336.38
315.083	329.38
315.312	316.38
315.542	332.38
315.771	338.38
316.001	339.38
316.23	332.38
316.46	324.38
316.689	320.38
316.919	335.38
317.148	344.38
317.377	331.38
317.607	335.38
317.836	333.38
318.065	334.38
318.295	331.38
318.524	313.38
318.753	329.38
318.983	328.38
319.212	313.38
319.441	326.38
319.67	348.38
319.9	352.38
320.129	318.38
320.358	334.38
320.587	327.38
320.816	331.38
321.046	352.38
321.275	338.38
321.504	357.38
321.733	339.38
321.962	347.38
322.191	346.38
322.42	373.38
322.649	375.38
322.878	389.38
323.108	407.38
323.337	388.38
323.566	423.38
323.795	430.38
324.024	457.38
324.253	528.38
324.482	756.38
324.71	1127.38
324.939	1694.38
325.168	1463.38
325.397	756.38
325.626	527.38
325.855	462.38
326.084	423.38
326.313	402.38
326.542	419.38
326.77	461.38
326.999	507.38
327.228	659.38
327.457	1062.38
327.686	1313.38
327.914	873.38
328.143	554.38
328.372	509.38
328.6	484.38
328.829	443.38
329.058	452.38
329.287	451.38
329.515	464.38
329.744	423.38
329.972	411.38
330.201	439.38
330.43	468.38
330.658	477.38
330.887	479.38
331.115	463.38
331.344	429.38
331.572	411.38
331.801	404.38
332.03	414.38
332.258	405.38
332.486	417.38
332.715	391.38
332.943	397.38
333.172	404.38
333.4	399.38
333.629	415.38
333.857	424.38
334.085	423.38
334.314	442.38
334.542	456.38
334.771	478.38
334.999	435.38
335.227	421.38
335.455	402.38
335.684	419.38
335.912	399.38
336.14	398.38
336.369	406.38
336.597	423.38
336.825	400.38
337.053	378.38
337.281	395.38
337.51	397.38
337.738	408.38
337.966	391.38
338.194	418.38
338.422	402.38
338.65	381.38
338.878	388.38
339.106	384.38
339.334	393.38
339.562	394.38
339.79	390.38
340.018	384.38
340.246	371.38
340.474	386.38
340.702	374.38
340.93	403.38
341.158	383.38
341.386	385.38
341.614	376.38
341.842	380.38
342.07	348.38
342.298	376.38
342.526	373.38
342.754	367.38
342.981	378.38
343.209	354.38
343.437	391.38
343.665	387.38
343.893	392.38
344.12	385.38
344.348	398.38
344.576	397.38
344.804	410.38
345.031	399.38
345.259	401.38
345.487	394.38
345.714	398.38
345.942	375.38
346.17	374.38
346.397	364.38
346.625	372.38
346.853	370.38
347.08	375.38
347.308	389.38
347.535	381.38
347.763	379.38
347.99	376.38
348.218	381.38
348.445	371.38
348.673	373.38
348.9	372.38
349.128	380.38
349.355	339.38
349.583	379.38
349.81	358.38
350.037	363.38
350.265	347.38
350.492	365.38
350.72	377.38
350.947	369.38
351.174	369.38
351.402	409.38
351.629	388.38
351.856	358.38
352.083	364.38
352.311	399.38
352.538	395.38
352.765	394.38
352.992	370.38
353.22	372.38
353.447	361.38
353.674	366.38
353.901	379.38
354.128	368.38
354.355	349.38
354.583	358.38
354.81	355.38
355.037	346.38
355.264	360.38
355.491	348.38
355.718	347.38
355.945	337.38
356.172	346.38
356.399	327.38
356.626	347.38
356.853	339.38
357.08	346.38
357.307	359.38
357.534	347.38
357.761	354.38
357.988	346.38
358.215	342.38
358.441	356.38
358.668	342.38
358.895	351.38
359.122	360.38
359.349	357.38
359.576	365.38
359.802	402.38
360.029	392.38
360.256	409.38
360.483	406.38
360.709	361.38
360.936	371.38
361.163	365.38
361.39	365.38
361.616	381.38
361.843	381.38
362.07	400.38
362.296	383.38
362.523	376.38
362.749	384.38
362.976	388.38
363.203	361.38
363.429	364.38
363.656	357.38
363.882	371.38
364.109	338.38
364.335	386.38
364.562	375.38
364.788	355.38
365.015	359.38
365.241	346.38
365.468	371.38
365.694	364.38
365.92	359.38
366.147	366.38
366.373	373.38
366.599	381.38
366.826	366.38
367.052	372.38
367.278	353.38
367.505	359.38
367.731	356.38
367.957	367.38
368.184	355.38
368.41	375.38
368.636	381.38
368.862	375.38
369.089	382.38
369.315	360.38
369.541	358.38
369.767	356.38
369.993	365.38
370.219	374.38
370.445	366.38
370.672	368.38
370.898	364.38
371.124	381.38
371.35	365.38
371.576	359.38
371.802	368.38
372.028	364.38
372.254	387.38
372.48	380.38
372.706	377.38
372.932	383.38
373.158	385.38
373.384	377.38
373.61	383.38
373.835	393.38
374.061	363.38
374.287	377.38
374.513	395.38
374.739	381.38
374.965	375.38
375.191	373.38
375.416	379.38
375.642	394.38
375.868	388.38
376.094	398.38
376.319	350.38
376.545	361.38
376.771	368.38
376.997	376.38
377.222	380.38
377.448	384.38
377.674	388.38
377.899	383.38
378.125	358.38
378.35	369.38
378.576	391.38
378.802	370.38
379.027	369.38
379.253	375.38
379.478	373.38
379.704	358.38
379.929	369.38
380.155	367.38
380.38	379.38
380.606	371.38
380.831	388.38
381.057	371.38
381.282	359.38
381.507	377.38
381.733	380.38
381.958	374.38
382.184	391.38
382.409	372.38
382.634	375.38
382.86	389.38
383.085	377.38
383.31	365.38
383.535	395.38
383.761	396.38
383.986	393.38
384.211	388.38
384.436	374.38
384.662	407.38
384.887	417.38
385.112	394.38
385.337	409.38
385.562	418.38
385.787	399.38
386.013	410.38
386.238	407.38
386.463	427.38
386.688	408.38
386.913	397.38
387.138	398.38
387.363	424.38
387.588	415.38
387.813	433.38
388.038	392.38
388.263	404.38
388.488	413.38
388.713	412.38
388.938	441.38
389.163	426.38
389.387	425.38
389.612	407.38
389.837	429.38
390.062	414.38
390.287	411.38
390.512	417.38
390.736	409.38
390.961	417.38
391.186	430.38
391.411	427.38
391.636	432.38
391.86	441.38
392.085	451.38
392.31	440.38
392.534	421.38
392.759	420.38
392.984	447.38
393.208	447.38
393.433	431.38
393.658	418.38
393.882	413.38
394.107	437.38
394.331	420.38
394.556	425.38
394.78	423.38
395.005	429.38
395.229	404.38
395.454	445.38
395.678	448.38
395.903	468.38
396.127	481.38
396.352	490.38
396.576	468.38
396.801	434.38
397.025	447.38
397.249	453.38
397.474	433.38
397.698	485.38
397.922	475.38
398.147	476.38
398.371	497.38
398.595	476.38
398.82	488.38
399.044	494.38
399.268	524.38
399.492	549.38
399.717	574.38
399.941	598.38
400.165	602.38
400.389	602.38
400.613	529.38
400.837	539.38
401.062	508.38
401.286	507.38
401.51	485.38
401.734	484.38
401.958	500.38
402.182	478.38
402.406	500.38
402.63	503.38
402.854	509.38
403.078	521.38
403.302	506.38
403.526	524.38
403.75	517.38
403.974	512.38
404.198	539.38
404.422	527.38
404.645	543.38
404.869	519.38
405.093	531.38
405.317	598.38
405.541	616.38
405.765	547.38
405.988	516.38
406.212	540.38
406.436	569.38
406.66	573.38
406.883	544.38
407.107	553.38
407.331	606.38
407.555	699.38
407.778	673.38
408.002	605.38
408.226	574.38
408.449	576.38
408.673	564.38
408.896	575.38
409.12	617.38
409.344	589.38
409.567	526.38
409.791	533.38
410.014	517.38
410.238	516.38
410.461	519.38
410.685	545.38
410.908	554.38
411.132	552.38
411.355	593.38
411.578	568.38
411.802	537.38
412.025	530.38
412.249	547.38
412.472	558.38
412.695	555.38
412.919	584.38
413.142	514.38
413.365	504.38
413.589	508.38
413.812	493.38
414.035	507.38
414.258	500.38
414.482	479.38
414.705	491.38
414.928	479.38
415.151	485.38
415.374	494.38
415.597	478.38
415.821	474.38
416.044	493.38
416.267	465.38
416.49	495.38
416.713	481.38
416.936	494.38
417.159	469.38
417.382	490.38
417.605	477.38
417.828	528.38
418.051	504.38
418.274	501.38
418.497	473.38
418.72	491.38
418.943	508.38
419.166	492.38
419.389	549.38
419.611	533.38
419.834	528.38
420.057	526.38
420.28	521.38
420.503	493.38
420.726	495.38
420.948	521.38
421.171	563.38
421.394	557.38
421.617	516.38
421.839	492.38
422.062	512.38
422.285	523.38
422.507	557.38
422.73	625.38
422.953	624.38
423.175	544.38
423.398	552.38
423.621	544.38
423.843	529.38
424.066	524.38
424.288	519.38
424.511	542.38
424.733	606.38
424.956	657.38
425.178	628.38
425.401	646.38
425.623	643.38
425.846	554.38
426.068	530.38
426.291	527.38
426.513	532.38
426.735	560.38
426.958	581.38
427.18	655.38
427.402	728.38
427.625	807.38
427.847	696.38
428.069	633.38
428.292	564.38
428.514	528.38
428.736	523.38
428.958	504.38
429.181	492.38
429.403	482.38
429.625	525.38
429.847	528.38
430.069	566.38
430.292	595.38
430.514	487.38
430.736	495.38
430.958	478.38
431.18	480.38
431.402	476.38
431.624	481.38
431.846	478.38
432.068	472.38
432.29	489.38
432.512	496.38
432.734	475.38
432.956	485.38
433.178	494.38
433.4	470.38
433.622	478.38
433.844	494.38
434.066	476.38
434.287	455.38
434.509	468.38
434.731	499.38
434.953	497.38
435.175	519.38
435.397	534.38
435.618	525.38
435.84	563.38
436.062	631.38
436.284	709.38
436.505	599.38
436.727	529.38
436.949	523.38
437.17	497.38
437.392	491.38
437.614	489.38
437.835	536.38
438.057	591.38
438.278	666.38
438.5	679.38
438.721	752.38
438.943	728.38
439.165	584.38
439.386	551.38
439.608	548.38
439.829	542.38
440.05	559.38
440.272	594.38
440.493	551.38
440.715	525.38
440.936	500.38
441.158	508.38
441.379	523.38
441.6	524.38
441.822	540.38
442.043	555.38
442.264	637.38
442.486	655.38
442.707	564.38
442.928	553.38
443.149	563.38
443.371	556.38
443.592	576.38
443.813	683.38
444.034	755.38
444.255	621.38
444.476	560.38
444.698	573.38
444.919	551.38
445.14	677.38
445.361	632.38
445.582	577.38
445.803	627.38
446.024	688.38
446.245	699.38
446.466	641.38
446.687	552.38
446.908	540.38
447.129	507.38
447.35	481.38
447.571	503.38
447.792	493.38
448.013	505.38
448.234	515.38
448.455	507.38
448.675	649.38
448.896	735.38
449.117	624.38
449.338	604.38
449.559	672.38
449.779	765.38
450	631.38
450.221	528.38
450.442	512.38
450.662	465.38
450.883	469.38
451.104	507.38
451.324	505.38
451.545	466.38
451.766	461.38
451.986	432.38
452.207	436.38
452.428	458.38
452.648	445.38
452.869	454.38
453.089	441.38
453.31	464.38
453.53	459.38
453.751	446.38
453.971	431.38
454.192	441.38
454.412	438.38
454.633	455.38
454.853	443.38
455.073	453.38
455.294	460.38
455.514	501.38
455.734	494.38
455.955	441.38
456.175	440.38
456.395	438.38
456.616	419.38
456.836	423.38
457.056	421.38
457.276	412.38
457.497	421.38
457.717	447.38
457.937	427.38
458.157	421.38
458.377	430.38
458.598	452.38
458.818	495.38
459.038	567.38
459.258	584.38
459.478	526.38
459.698	481.38
459.918	504.38
460.138	491.38
460.358	493.38
460.578	506.38
460.798	494.38
461.018	505.38
461.238	511.38
461.458	515.38
461.678	515.38
461.898	502.38
462.118	508.38
462.338	506.38
462.558	540.38
462.777	548.38
462.997	533.38
463.217	568.38
463.437	575.38
463.657	548.38
463.876	529.38
464.096	555.38
464.316	527.38
464.536	550.38
464.755	541.38
464.975	525.38
465.195	582.38
465.414	615.38
465.634	558.38
465.854	519.38
466.073	471.38
466.293	491.38
466.512	471.38
466.732	462.38
466.951	457.38
467.171	451.38
467.391	473.38
467.61	474.38
467.829	492.38
468.049	479.38
468.268	471.38
468.488	479.38
468.707	454.38
468.927	463.38
469.146	456.38
469.365	452.38
469.585	442.38
469.804	468.38
470.023	474.38
470.243	465.38
470.462	452.38
470.681	498.38
470.901	495.38
471.12	473.38
471.339	483.38
471.558	483.38
471.777	478.38
471.997	452.38
472.216	465.38
472.435	527.38
472.654	488.38
472.873	467.38
473.092	451.38
473.311	466.38
473.53	455.38
473.749	480.38
473.968	488.38
474.187	575.38
474.406	586.38
474.625	503.38
474.844	503.38
475.063	487.38
475.282	476.38
475.501	471.38
475.72	487.38
475.939	496.38
476.158	475.38
476.377	489.38
476.596	465.38
476.814	489.38
477.033	486.38
477.252	523.38
477.471	487.38
477.69	486.38
477.908	515.38
478.127	521.38
478.346	509.38
478.564	524.38
478.783	526.38
479.002	540.38
479.22	558.38
479.439	545.38
479.658	561.38
479.876	553.38
480.095	567.38
480.313	571.38
480.532	593.38
480.751	594.38
480.969	601.38
481.188	620.38
481.406	617.38
481.624	587.38
481.843	560.38
482.061	536.38
482.28	536.38
482.498	529.38
482.717	544.38
482.935	546.38
483.153	554.38
483.372	566.38
483.59	536.38
483.808	542.38
484.027	541.38
484.245	562.38
484.463	565.38
484.681	571.38
484.9	559.38
485.118	556.38
485.336	563.38
485.554	585.38
485.772	574.38
485.99	573.38
486.209	590.38
486.427	577.38
486.645	561.38
486.863	598.38
487.081	600.38
487.299	581.38
487.517	576.38
487.735	579.38
487.953	576.38
488.171	593.38
488.389	591.38
488.607	598.38
488.825	587.38
489.043	599.38
489.261	569.38
489.479	572.38
489.696	595.38
489.914	592.38
490.132	584.38
490.35	601.38
490.568	589.38
490.786	611.38
491.003	623.38
491.221	633.38
491.439	649.38
491.657	645.38
491.874	674.38
492.092	653.38
492.31	677.38
492.527	665.38
492.745	670.38
492.963	648.38
493.18	664.38
493.398	673.38
493.615	673.38
493.833	671.38
494.05	692.38
494.268	663.38
494.485	669.38
494.703	664.38
494.92	683.38
495.138	693.38
495.355	669.38
495.573	696.38
495.79	695.38
496.008	684.38
496.225	701.38
496.442	677.38
496.66	663.38
496.877	683.38
497.094	693.38
497.312	689.38
497.529	710.38
497.746	729.38
497.963	742.38
498.181	762.38
498.398	779.38
498.615	774.38
498.832	812.38
499.049	851.38
499.267	833.38
499.484	880.38
499.701	927.38
499.918	967.38
500.135	1010.38
500.352	1043.38
500.569	1104.38
500.786	1085.38
501.003	1078.38
501.22	1000.38
501.437	982.38
501.654	952.38
501.871	910.38
