Data from 1979.PennyLincolnUp.Lamp.En5.5.200Scan.071719.P1_HRD10591_16-18-21-863.txt Node
Date: Thu Jul 18 16:18:21 EDT 2019
User: cochatt
Spectrometer: HR+D1059
Trigger mode: 1
Integration Time (sec): 1.000000E-1
Scans to average: 1
Electric dark correction enabled: true
Nonlinearity correction enabled: false
Boxcar width: 0
XAxis mode: Wavelengths
Number of Pixels in Spectrum: 2048
>>>>>Begin Spectral Data<<<<<
223.165	-15.94
223.4	-15.94
223.635	-15.94
223.869	-5.94
224.104	-24.94
224.338	-9.94
224.573	-29.94
224.808	-14.94
225.042	-3.94
225.277	1.06
225.511	2.06
225.746	-7.94
225.98	12.06
226.215	15.06
226.449	9.06
226.683	27.06
226.918	32.06
227.152	15.06
227.387	31.06
227.621	34.06
227.856	43.06
228.09	55.06
228.324	51.06
228.559	56.06
228.793	76.06
229.027	77.06
229.262	105.06
229.496	103.06
229.73	119.06
229.964	135.06
230.199	121.06
230.433	104.06
230.667	94.06
230.901	103.06
231.136	104.06
231.37	106.06
231.604	109.06
231.838	108.06
232.072	112.06
232.306	105.06
232.541	119.06
232.775	99.06
233.009	111.06
233.243	106.06
233.477	106.06
233.711	120.06
233.945	102.06
234.179	115.06
234.413	121.06
234.647	116.06
234.881	108.06
235.115	108.06
235.349	117.06
235.583	98.06
235.817	101.06
236.051	118.06
236.285	114.06
236.519	104.06
236.753	127.06
236.987	127.06
237.221	139.06
237.455	210.06
237.689	180.06
237.922	128.06
238.156	118.06
238.39	121.06
238.624	127.06
238.858	131.06
239.091	106.06
239.325	125.06
239.559	118.06
239.793	125.06
240.027	129.06
240.26	122.06
240.494	151.06
240.728	141.06
240.961	133.06
241.195	129.06
241.429	118.06
241.662	127.06
241.896	141.06
242.13	126.06
242.363	120.06
242.597	127.06
242.83	125.06
243.064	127.06
243.298	142.06
243.531	119.06
243.765	147.06
243.998	131.06
244.232	131.06
244.465	140.06
244.699	124.06
244.932	129.06
245.166	147.06
245.399	131.06
245.633	135.06
245.866	155.06
246.099	129.06
246.333	143.06
246.566	143.06
246.8	141.06
247.033	135.06
247.266	162.06
247.5	139.06
247.733	158.06
247.966	161.06
248.2	152.06
248.433	161.06
248.666	165.06
248.899	167.06
249.133	168.06
249.366	187.06
249.599	183.06
249.832	162.06
250.066	149.06
250.299	160.06
250.532	180.06
250.765	175.06
250.998	193.06
251.231	213.06
251.465	190.06
251.698	169.06
251.931	183.06
252.164	175.06
252.397	174.06
252.63	185.06
252.863	171.06
253.096	177.06
253.329	198.06
253.562	196.06
253.795	180.06
254.028	197.06
254.261	207.06
254.494	212.06
254.727	218.06
254.96	217.06
255.193	217.06
255.426	212.06
255.659	209.06
255.892	198.06
256.124	200.06
256.357	194.06
256.59	187.06
256.823	189.06
257.056	183.06
257.289	184.06
257.521	181.06
257.754	192.06
257.987	193.06
258.22	199.06
258.452	180.06
258.685	199.06
258.918	177.06
259.151	192.06
259.383	199.06
259.616	202.06
259.849	181.06
260.081	208.06
260.314	224.06
260.547	235.06
260.779	228.06
261.012	203.06
261.244	211.06
261.477	205.06
261.71	206.06
261.942	187.06
262.175	202.06
262.407	218.06
262.64	223.06
262.872	186.06
263.105	181.06
263.337	198.06
263.57	194.06
263.802	206.06
264.035	190.06
264.267	193.06
264.499	183.06
264.732	199.06
264.964	204.06
265.197	208.06
265.429	196.06
265.661	189.06
265.894	181.06
266.126	195.06
266.358	191.06
266.591	200.06
266.823	206.06
267.055	190.06
267.287	214.06
267.52	196.06
267.752	223.06
267.984	217.06
268.216	210.06
268.448	212.06
268.681	230.06
268.913	221.06
269.145	229.06
269.377	248.06
269.609	245.06
269.841	249.06
270.073	228.06
270.306	252.06
270.538	274.06
270.77	263.06
271.002	273.06
271.234	267.06
271.466	259.06
271.698	266.06
271.93	258.06
272.162	267.06
272.394	274.06
272.626	269.06
272.858	248.06
273.09	232.06
273.322	229.06
273.553	229.06
273.785	238.06
274.017	232.06
274.249	244.06
274.481	231.06
274.713	216.06
274.945	245.06
275.176	242.06
275.408	249.06
275.64	233.06
275.872	223.06
276.104	226.06
276.335	246.06
276.567	232.06
276.799	264.06
277.031	269.06
277.262	291.06
277.494	267.06
277.726	242.06
277.957	246.06
278.189	239.06
278.421	266.06
278.652	234.06
278.884	232.06
279.115	239.06
279.347	231.06
279.579	247.06
279.81	247.06
280.042	246.06
280.273	240.06
280.505	253.06
280.736	240.06
280.968	218.06
281.199	244.06
281.431	242.06
281.662	242.06
281.894	245.06
282.125	252.06
282.356	257.06
282.588	277.06
282.819	275.06
283.051	259.06
283.282	260.06
283.513	234.06
283.745	244.06
283.976	265.06
284.207	252.06
284.439	248.06
284.67	250.06
284.901	266.06
285.132	258.06
285.364	258.06
285.595	254.06
285.826	236.06
286.057	259.06
286.288	249.06
286.52	262.06
286.751	260.06
286.982	254.06
287.213	241.06
287.444	264.06
287.675	279.06
287.906	261.06
288.138	270.06
288.369	277.06
288.6	288.06
288.831	280.06
289.062	264.06
289.293	281.06
289.524	269.06
289.755	261.06
289.986	272.06
290.217	279.06
290.448	266.06
290.679	279.06
290.91	274.06
291.141	272.06
291.371	264.06
291.602	251.06
291.833	267.06
292.064	269.06
292.295	252.06
292.526	269.06
292.757	264.06
292.987	269.06
293.218	270.06
293.449	257.06
293.68	273.06
293.91	254.06
294.141	258.06
294.372	276.06
294.603	280.06
294.833	260.06
295.064	277.06
295.295	263.06
295.525	272.06
295.756	281.06
295.987	287.06
296.217	289.06
296.448	293.06
296.679	295.06
296.909	299.06
297.14	282.06
297.37	264.06
297.601	280.06
297.831	273.06
298.062	286.06
298.292	287.06
298.523	295.06
298.753	287.06
298.984	277.06
299.214	287.06
299.445	284.06
299.675	311.06
299.905	293.06
300.136	300.06
300.366	285.06
300.597	300.06
300.827	293.06
301.057	299.06
301.288	324.06
301.518	300.06
301.748	314.06
301.979	291.06
302.209	316.06
302.439	303.06
302.669	299.06
302.9	290.06
303.13	288.06
303.36	310.06
303.59	319.06
303.82	325.06
304.051	309.06
304.281	296.06
304.511	319.06
304.741	330.06
304.971	323.06
305.201	322.06
305.431	313.06
305.661	307.06
305.891	318.06
306.121	304.06
306.352	337.06
306.582	318.06
306.812	309.06
307.042	309.06
307.272	317.06
307.502	303.06
307.731	306.06
307.961	298.06
308.191	289.06
308.421	310.06
308.651	322.06
308.881	296.06
309.111	322.06
309.341	311.06
309.571	315.06
309.8	325.06
310.03	342.06
310.26	335.06
310.49	345.06
310.72	359.06
310.949	361.06
311.179	360.06
311.409	323.06
311.639	346.06
311.868	349.06
312.098	343.06
312.328	354.06
312.557	358.06
312.787	374.06
313.017	343.06
313.246	354.06
313.476	348.06
313.706	352.06
313.935	341.06
314.165	360.06
314.394	371.06
314.624	367.06
314.853	348.06
315.083	356.06
315.312	347.06
315.542	338.06
315.771	337.06
316.001	352.06
316.23	346.06
316.46	341.06
316.689	358.06
316.919	351.06
317.148	348.06
317.377	359.06
317.607	369.06
317.836	355.06
318.065	368.06
318.295	333.06
318.524	342.06
318.753	326.06
318.983	339.06
319.212	326.06
319.441	342.06
319.67	379.06
319.9	359.06
320.129	347.06
320.358	343.06
320.587	348.06
320.816	372.06
321.046	369.06
321.275	366.06
321.504	377.06
321.733	338.06
321.962	387.06
322.191	377.06
322.42	383.06
322.649	389.06
322.878	380.06
323.108	428.06
323.337	425.06
323.566	449.06
323.795	465.06
324.024	501.06
324.253	571.06
324.482	800.06
324.71	1287.06
324.939	1869.06
325.168	1607.06
325.397	807.06
325.626	564.06
325.855	479.06
326.084	447.06
326.313	447.06
326.542	439.06
326.77	476.06
326.999	573.06
327.228	744.06
327.457	1170.06
327.686	1425.06
327.914	929.06
328.143	617.06
328.372	544.06
328.6	480.06
328.829	492.06
329.058	507.06
329.287	518.06
329.515	484.06
329.744	448.06
329.972	448.06
330.201	450.06
330.43	484.06
330.658	491.06
330.887	525.06
331.115	507.06
331.344	459.06
331.572	451.06
331.801	441.06
332.03	451.06
332.258	423.06
332.486	410.06
332.715	409.06
332.943	401.06
333.172	435.06
333.4	425.06
333.629	438.06
333.857	456.06
334.085	454.06
334.314	448.06
334.542	481.06
334.771	500.06
334.999	465.06
335.227	460.06
335.455	447.06
335.684	435.06
335.912	420.06
336.14	416.06
336.369	406.06
336.597	417.06
336.825	417.06
337.053	414.06
337.281	409.06
337.51	389.06
337.738	406.06
337.966	415.06
338.194	422.06
338.422	412.06
338.65	387.06
338.878	412.06
339.106	409.06
339.334	409.06
339.562	407.06
339.79	405.06
340.018	412.06
340.246	437.06
340.474	438.06
340.702	417.06
340.93	404.06
341.158	412.06
341.386	428.06
341.614	394.06
341.842	416.06
342.07	407.06
342.298	395.06
342.526	406.06
342.754	391.06
342.981	394.06
343.209	397.06
343.437	399.06
343.665	405.06
343.893	429.06
344.12	428.06
344.348	423.06
344.576	408.06
344.804	428.06
345.031	404.06
345.259	420.06
345.487	409.06
345.714	437.06
345.942	402.06
346.17	398.06
346.397	403.06
346.625	393.06
346.853	394.06
347.08	397.06
347.308	369.06
347.535	391.06
347.763	403.06
347.99	394.06
348.218	387.06
348.445	384.06
348.673	404.06
348.9	377.06
349.128	380.06
349.355	381.06
349.583	389.06
349.81	390.06
350.037	385.06
350.265	367.06
350.492	385.06
350.72	385.06
350.947	392.06
351.174	394.06
351.402	387.06
351.629	387.06
351.856	398.06
352.083	398.06
352.311	419.06
352.538	406.06
352.765	393.06
352.992	395.06
353.22	397.06
353.447	387.06
353.674	383.06
353.901	364.06
354.128	393.06
354.355	389.06
354.583	351.06
354.81	363.06
355.037	368.06
355.264	373.06
355.491	371.06
355.718	369.06
355.945	385.06
356.172	363.06
356.399	375.06
356.626	356.06
356.853	359.06
357.08	357.06
357.307	360.06
357.534	371.06
357.761	381.06
357.988	371.06
358.215	387.06
358.441	379.06
358.668	372.06
358.895	368.06
359.122	360.06
359.349	386.06
359.576	404.06
359.802	417.06
360.029	438.06
360.256	449.06
360.483	428.06
360.709	386.06
360.936	393.06
361.163	398.06
361.39	410.06
361.616	395.06
361.843	401.06
362.07	397.06
362.296	395.06
362.523	420.06
362.749	405.06
362.976	378.06
363.203	382.06
363.429	395.06
363.656	370.06
363.882	383.06
364.109	375.06
364.335	362.06
364.562	392.06
364.788	383.06
365.015	383.06
365.241	389.06
365.468	372.06
365.694	373.06
365.92	387.06
366.147	384.06
366.373	392.06
366.599	376.06
366.826	383.06
367.052	380.06
367.278	384.06
367.505	394.06
367.731	403.06
367.957	396.06
368.184	385.06
368.41	374.06
368.636	385.06
368.862	401.06
369.089	393.06
369.315	402.06
369.541	381.06
369.767	395.06
369.993	393.06
370.219	379.06
370.445	401.06
370.672	394.06
370.898	407.06
371.124	380.06
371.35	395.06
371.576	396.06
371.802	384.06
372.028	390.06
372.254	385.06
372.48	385.06
372.706	393.06
372.932	391.06
373.158	376.06
373.384	403.06
373.61	392.06
373.835	385.06
374.061	385.06
374.287	415.06
374.513	403.06
374.739	410.06
374.965	423.06
375.191	407.06
375.416	404.06
375.642	389.06
375.868	400.06
376.094	405.06
376.319	380.06
376.545	421.06
376.771	393.06
376.997	380.06
377.222	397.06
377.448	406.06
377.674	397.06
377.899	396.06
378.125	364.06
378.35	376.06
378.576	391.06
378.802	389.06
379.027	381.06
379.253	378.06
379.478	384.06
379.704	382.06
379.929	364.06
380.155	407.06
380.38	393.06
380.606	398.06
380.831	401.06
381.057	413.06
381.282	393.06
381.507	401.06
381.733	397.06
381.958	393.06
382.184	392.06
382.409	411.06
382.634	407.06
382.86	417.06
383.085	410.06
383.31	419.06
383.535	407.06
383.761	389.06
383.986	421.06
384.211	438.06
384.436	425.06
384.662	425.06
384.887	411.06
385.112	421.06
385.337	440.06
385.562	443.06
385.787	436.06
386.013	458.06
386.238	443.06
386.463	440.06
386.688	459.06
386.913	461.06
387.138	439.06
387.363	435.06
387.588	440.06
387.813	435.06
388.038	435.06
388.263	425.06
388.488	455.06
388.713	441.06
388.938	439.06
389.163	449.06
389.387	443.06
389.612	440.06
389.837	453.06
390.062	427.06
390.287	425.06
390.512	428.06
390.736	453.06
390.961	437.06
391.186	470.06
391.411	458.06
391.636	459.06
391.86	477.06
392.085	459.06
392.31	455.06
392.534	468.06
392.759	460.06
392.984	459.06
393.208	439.06
393.433	454.06
393.658	488.06
393.882	462.06
394.107	451.06
394.331	451.06
394.556	436.06
394.78	448.06
395.005	449.06
395.229	465.06
395.454	461.06
395.678	487.06
395.903	480.06
396.127	501.06
396.352	509.06
396.576	482.06
396.801	480.06
397.025	465.06
397.249	483.06
397.474	487.06
397.698	473.06
397.922	489.06
398.147	485.06
398.371	521.06
398.595	485.06
398.82	498.06
399.044	539.06
399.268	513.06
399.492	568.06
399.717	620.06
399.941	623.06
400.165	631.06
400.389	647.06
400.613	595.06
400.837	548.06
401.062	539.06
401.286	523.06
401.51	516.06
401.734	523.06
401.958	521.06
402.182	503.06
402.406	534.06
402.63	546.06
402.854	536.06
403.078	523.06
403.302	563.06
403.526	564.06
403.75	540.06
403.974	550.06
404.198	549.06
404.422	559.06
404.645	543.06
404.869	574.06
405.093	610.06
405.317	614.06
405.541	641.06
405.765	588.06
405.988	583.06
406.212	575.06
406.436	610.06
406.66	614.06
406.883	613.06
407.107	623.06
407.331	651.06
407.555	700.06
407.778	714.06
408.002	659.06
408.226	623.06
408.449	601.06
408.673	604.06
408.896	625.06
409.12	666.06
409.344	636.06
409.567	582.06
409.791	552.06
410.014	554.06
410.238	553.06
410.461	561.06
410.685	571.06
410.908	567.06
411.132	588.06
411.355	642.06
411.578	597.06
411.802	579.06
412.025	541.06
412.249	553.06
412.472	580.06
412.695	613.06
412.919	602.06
413.142	549.06
413.365	545.06
413.589	542.06
413.812	537.06
414.035	536.06
414.258	529.06
414.482	524.06
414.705	536.06
414.928	511.06
415.151	533.06
415.374	521.06
415.597	536.06
415.821	499.06
416.044	530.06
416.267	524.06
416.49	511.06
416.713	501.06
416.936	540.06
417.159	520.06
417.382	543.06
417.605	513.06
417.828	529.06
418.051	579.06
418.274	537.06
418.497	507.06
418.72	519.06
418.943	543.06
419.166	559.06
419.389	557.06
419.611	575.06
419.834	555.06
420.057	556.06
420.28	554.06
420.503	534.06
420.726	540.06
420.948	537.06
421.171	584.06
421.394	605.06
421.617	563.06
421.839	541.06
422.062	544.06
422.285	554.06
422.507	621.06
422.73	667.06
422.953	631.06
423.175	597.06
423.398	571.06
423.621	553.06
423.843	554.06
424.066	584.06
424.288	560.06
424.511	569.06
424.733	632.06
424.956	699.06
425.178	668.06
425.401	655.06
425.623	691.06
425.846	592.06
426.068	555.06
426.291	585.06
426.513	557.06
426.735	583.06
426.958	623.06
427.18	689.06
427.402	801.06
427.625	886.06
427.847	759.06
428.069	678.06
428.292	611.06
428.514	551.06
428.736	542.06
428.958	556.06
429.181	527.06
429.403	516.06
429.625	530.06
429.847	565.06
430.069	597.06
430.292	620.06
430.514	563.06
430.736	521.06
430.958	536.06
431.18	517.06
431.402	525.06
431.624	501.06
431.846	511.06
432.068	496.06
432.29	502.06
432.512	508.06
432.734	510.06
432.956	511.06
433.178	516.06
433.4	522.06
433.622	517.06
433.844	505.06
434.066	517.06
434.287	483.06
434.509	511.06
434.731	546.06
434.953	545.06
435.175	536.06
435.397	563.06
435.618	561.06
435.84	584.06
436.062	701.06
436.284	744.06
436.505	617.06
436.727	565.06
436.949	537.06
437.17	504.06
437.392	505.06
437.614	540.06
437.835	551.06
438.057	642.06
438.278	752.06
438.5	737.06
438.721	815.06
438.943	742.06
439.165	610.06
439.386	588.06
439.608	562.06
439.829	569.06
440.05	570.06
440.272	628.06
440.493	597.06
440.715	554.06
440.936	543.06
441.158	536.06
441.379	523.06
441.6	555.06
441.822	555.06
442.043	600.06
442.264	679.06
442.486	725.06
442.707	617.06
442.928	590.06
443.149	580.06
443.371	618.06
443.592	664.06
443.813	713.06
444.034	787.06
444.255	674.06
444.476	634.06
444.698	601.06
444.919	570.06
445.14	698.06
445.361	643.06
445.582	618.06
445.803	646.06
446.024	733.06
446.245	736.06
446.466	679.06
446.687	591.06
446.908	582.06
447.129	538.06
447.35	540.06
447.571	562.06
447.792	524.06
448.013	532.06
448.234	535.06
448.455	565.06
448.675	657.06
448.896	765.06
449.117	672.06
449.338	643.06
449.559	714.06
449.779	815.06
450	631.06
450.221	565.06
450.442	539.06
450.662	500.06
450.883	498.06
451.104	527.06
451.324	525.06
451.545	485.06
451.766	516.06
451.986	482.06
452.207	440.06
452.428	443.06
452.648	504.06
452.869	454.06
453.089	483.06
453.31	474.06
453.53	461.06
453.751	461.06
453.971	477.06
454.192	485.06
454.412	485.06
454.633	483.06
454.853	460.06
455.073	459.06
455.294	479.06
455.514	529.06
455.734	523.06
455.955	491.06
456.175	467.06
456.395	447.06
456.616	428.06
456.836	464.06
457.056	442.06
457.276	429.06
457.497	464.06
457.717	439.06
457.937	458.06
458.157	464.06
458.377	462.06
458.598	504.06
458.818	513.06
459.038	602.06
459.258	625.06
459.478	547.06
459.698	511.06
459.918	515.06
460.138	505.06
460.358	528.06
460.578	533.06
460.798	524.06
461.018	513.06
461.238	518.06
461.458	513.06
461.678	530.06
461.898	555.06
462.118	550.06
462.338	556.06
462.558	553.06
462.777	577.06
462.997	585.06
463.217	595.06
463.437	608.06
463.657	593.06
463.876	581.06
464.096	578.06
464.316	584.06
464.536	585.06
464.755	572.06
464.975	593.06
465.195	609.06
465.414	648.06
465.634	581.06
465.854	556.06
466.073	517.06
466.293	493.06
466.512	521.06
466.732	499.06
466.951	481.06
467.171	507.06
467.391	487.06
467.61	508.06
467.829	500.06
468.049	483.06
468.268	474.06
468.488	483.06
468.707	486.06
468.927	466.06
469.146	473.06
469.365	467.06
469.585	474.06
469.804	489.06
470.023	482.06
470.243	487.06
470.462	496.06
470.681	531.06
470.901	525.06
471.12	491.06
471.339	509.06
471.558	495.06
471.777	501.06
471.997	491.06
472.216	511.06
472.435	515.06
472.654	517.06
472.873	504.06
473.092	486.06
473.311	479.06
473.53	486.06
473.749	487.06
473.968	531.06
474.187	598.06
474.406	636.06
474.625	556.06
474.844	499.06
475.063	491.06
475.282	503.06
475.501	495.06
475.72	512.06
475.939	498.06
476.158	518.06
476.377	514.06
476.596	520.06
476.814	516.06
477.033	531.06
477.252	547.06
477.471	522.06
477.69	540.06
477.908	544.06
478.127	557.06
478.346	546.06
478.564	561.06
478.783	583.06
479.002	562.06
479.22	570.06
479.439	575.06
479.658	601.06
479.876	640.06
480.095	595.06
480.313	636.06
480.532	626.06
480.751	615.06
480.969	620.06
481.188	655.06
481.406	699.06
481.624	627.06
481.843	608.06
482.061	586.06
482.28	571.06
482.498	583.06
482.717	589.06
482.935	567.06
483.153	579.06
483.372	567.06
483.59	576.06
483.808	549.06
484.027	589.06
484.245	559.06
484.463	590.06
484.681	580.06
484.9	599.06
485.118	600.06
485.336	597.06
485.554	607.06
485.772	612.06
485.99	634.06
486.209	612.06
486.427	627.06
486.645	634.06
486.863	633.06
487.081	629.06
487.299	624.06
487.517	616.06
487.735	629.06
487.953	625.06
488.171	621.06
488.389	602.06
488.607	633.06
488.825	599.06
489.043	632.06
489.261	612.06
489.479	637.06
489.696	628.06
489.914	631.06
490.132	626.06
490.35	658.06
490.568	660.06
490.786	654.06
491.003	645.06
491.221	673.06
491.439	682.06
491.657	689.06
491.874	689.06
492.092	683.06
492.31	689.06
492.527	695.06
492.745	708.06
492.963	686.06
493.18	700.06
493.398	708.06
493.615	732.06
493.833	729.06
494.05	722.06
494.268	728.06
494.485	731.06
494.703	711.06
494.92	720.06
495.138	730.06
495.355	727.06
495.573	731.06
495.79	734.06
496.008	723.06
496.225	739.06
496.442	752.06
496.66	736.06
496.877	740.06
497.094	736.06
497.312	755.06
497.529	746.06
497.746	778.06
497.963	812.06
498.181	821.06
498.398	816.06
498.615	828.06
498.832	868.06
499.049	873.06
499.267	897.06
499.484	953.06
499.701	995.06
499.918	1056.06
500.135	1093.06
500.352	1119.06
500.569	1145.06
500.786	1159.06
501.003	1115.06
501.22	1080.06
501.437	1025.06
501.654	1003.06
501.871	1003.06
