Data from 1979.PennyLincolnUp.Lamp.En5.5.200Scan.071719.P1_HRD10591_16-19-24-863.txt Node
Date: Thu Jul 18 16:19:24 EDT 2019
User: cochatt
Spectrometer: HR+D1059
Trigger mode: 1
Integration Time (sec): 1.000000E-1
Scans to average: 1
Electric dark correction enabled: true
Nonlinearity correction enabled: false
Boxcar width: 0
XAxis mode: Wavelengths
Number of Pixels in Spectrum: 2048
>>>>>Begin Spectral Data<<<<<
223.165	-23.31
223.4	-23.31
223.635	-23.31
223.869	-16.31
224.104	-22.31
224.338	-14.31
224.573	-9.31
224.808	-13.31
225.042	-15.31
225.277	-6.31
225.511	-4.31
225.746	15.69
225.98	12.69
226.215	11.69
226.449	17.69
226.683	15.69
226.918	28.69
227.152	22.69
227.387	41.69
227.621	42.69
227.856	55.69
228.09	44.69
228.324	50.69
228.559	49.69
228.793	70.69
229.027	98.69
229.262	114.69
229.496	118.69
229.73	140.69
229.964	158.69
230.199	134.69
230.433	122.69
230.667	121.69
230.901	116.69
231.136	116.69
231.37	98.69
231.604	113.69
231.838	111.69
232.072	113.69
232.306	120.69
232.541	123.69
232.775	103.69
233.009	126.69
233.243	106.69
233.477	118.69
233.711	125.69
233.945	109.69
234.179	125.69
234.413	103.69
234.647	132.69
234.881	116.69
235.115	124.69
235.349	126.69
235.583	120.69
235.817	116.69
236.051	140.69
236.285	132.69
236.519	131.69
236.753	120.69
236.987	130.69
237.221	168.69
237.455	223.69
237.689	175.69
237.922	144.69
238.156	123.69
238.39	138.69
238.624	127.69
238.858	120.69
239.091	115.69
239.325	131.69
239.559	121.69
239.793	142.69
240.027	140.69
240.26	141.69
240.494	164.69
240.728	149.69
240.961	137.69
241.195	162.69
241.429	135.69
241.662	140.69
241.896	133.69
242.13	138.69
242.363	149.69
242.597	134.69
242.83	140.69
243.064	142.69
243.298	156.69
243.531	141.69
243.765	133.69
243.998	146.69
244.232	142.69
244.465	141.69
244.699	160.69
244.932	140.69
245.166	145.69
245.399	155.69
245.633	149.69
245.866	149.69
246.099	170.69
246.333	144.69
246.566	166.69
246.8	167.69
247.033	158.69
247.266	148.69
247.5	161.69
247.733	171.69
247.966	165.69
248.2	164.69
248.433	169.69
248.666	163.69
248.899	176.69
249.133	190.69
249.366	195.69
249.599	198.69
249.832	178.69
250.066	186.69
250.299	192.69
250.532	187.69
250.765	192.69
250.998	205.69
251.231	223.69
251.465	208.69
251.698	198.69
251.931	180.69
252.164	172.69
252.397	198.69
252.63	186.69
252.863	201.69
253.096	208.69
253.329	227.69
253.562	208.69
253.795	196.69
254.028	210.69
254.261	203.69
254.494	203.69
254.727	234.69
254.96	248.69
255.193	250.69
255.426	235.69
255.659	224.69
255.892	222.69
256.124	222.69
256.357	226.69
256.59	220.69
256.823	223.69
257.056	193.69
257.289	190.69
257.521	214.69
257.754	204.69
257.987	211.69
258.22	209.69
258.452	205.69
258.685	208.69
258.918	215.69
259.151	200.69
259.383	214.69
259.616	231.69
259.849	214.69
260.081	234.69
260.314	236.69
260.547	241.69
260.779	232.69
261.012	209.69
261.244	235.69
261.477	222.69
261.71	214.69
261.942	231.69
262.175	212.69
262.407	221.69
262.64	225.69
262.872	216.69
263.105	200.69
263.337	213.69
263.57	204.69
263.802	200.69
264.035	196.69
264.267	206.69
264.499	202.69
264.732	211.69
264.964	203.69
265.197	210.69
265.429	211.69
265.661	202.69
265.894	210.69
266.126	204.69
266.358	217.69
266.591	213.69
266.823	208.69
267.055	215.69
267.287	237.69
267.52	221.69
267.752	200.69
267.984	219.69
268.216	207.69
268.448	244.69
268.681	228.69
268.913	242.69
269.145	264.69
269.377	275.69
269.609	264.69
269.841	260.69
270.073	254.69
270.306	258.69
270.538	295.69
270.77	278.69
271.002	278.69
271.234	270.69
271.466	257.69
271.698	276.69
271.93	295.69
272.162	297.69
272.394	296.69
272.626	274.69
272.858	273.69
273.09	265.69
273.322	257.69
273.553	253.69
273.785	258.69
274.017	247.69
274.249	266.69
274.481	283.69
274.713	244.69
274.945	260.69
275.176	258.69
275.408	270.69
275.64	270.69
275.872	262.69
276.104	278.69
276.335	258.69
276.567	272.69
276.799	288.69
277.031	297.69
277.262	292.69
277.494	282.69
277.726	290.69
277.957	295.69
278.189	259.69
278.421	254.69
278.652	274.69
278.884	265.69
279.115	262.69
279.347	274.69
279.579	265.69
279.81	253.69
280.042	259.69
280.273	276.69
280.505	262.69
280.736	262.69
280.968	269.69
281.199	260.69
281.431	254.69
281.662	273.69
281.894	280.69
282.125	266.69
282.356	279.69
282.588	301.69
282.819	313.69
283.051	287.69
283.282	271.69
283.513	284.69
283.745	285.69
283.976	273.69
284.207	272.69
284.439	271.69
284.67	282.69
284.901	267.69
285.132	289.69
285.364	292.69
285.595	284.69
285.826	274.69
286.057	273.69
286.288	274.69
286.52	279.69
286.751	260.69
286.982	286.69
287.213	288.69
287.444	280.69
287.675	293.69
287.906	292.69
288.138	302.69
288.369	296.69
288.6	312.69
288.831	296.69
289.062	299.69
289.293	289.69
289.524	290.69
289.755	298.69
289.986	303.69
290.217	287.69
290.448	292.69
290.679	294.69
290.91	286.69
291.141	275.69
291.371	288.69
291.602	293.69
291.833	289.69
292.064	294.69
292.295	299.69
292.526	300.69
292.757	292.69
292.987	298.69
293.218	296.69
293.449	303.69
293.68	269.69
293.91	274.69
294.141	275.69
294.372	282.69
294.603	280.69
294.833	301.69
295.064	304.69
295.295	295.69
295.525	289.69
295.756	295.69
295.987	302.69
296.217	333.69
296.448	321.69
296.679	304.69
296.909	272.69
297.14	322.69
297.37	298.69
297.601	302.69
297.831	305.69
298.062	319.69
298.292	304.69
298.523	290.69
298.753	319.69
298.984	303.69
299.214	294.69
299.445	312.69
299.675	319.69
299.905	311.69
300.136	320.69
300.366	316.69
300.597	316.69
300.827	324.69
301.057	308.69
301.288	333.69
301.518	330.69
301.748	336.69
301.979	345.69
302.209	337.69
302.439	315.69
302.669	314.69
302.9	326.69
303.13	331.69
303.36	327.69
303.59	336.69
303.82	351.69
304.051	353.69
304.281	356.69
304.511	318.69
304.741	330.69
304.971	312.69
305.201	327.69
305.431	335.69
305.661	347.69
305.891	331.69
306.121	340.69
306.352	353.69
306.582	340.69
306.812	322.69
307.042	336.69
307.272	338.69
307.502	336.69
307.731	341.69
307.961	331.69
308.191	322.69
308.421	342.69
308.651	324.69
308.881	323.69
309.111	323.69
309.341	342.69
309.571	338.69
309.8	359.69
310.03	356.69
310.26	386.69
310.49	358.69
310.72	380.69
310.949	378.69
311.179	394.69
311.409	386.69
311.639	367.69
311.868	366.69
312.098	380.69
312.328	394.69
312.557	392.69
312.787	398.69
313.017	398.69
313.246	378.69
313.476	348.69
313.706	387.69
313.935	382.69
314.165	393.69
314.394	397.69
314.624	398.69
314.853	392.69
315.083	381.69
315.312	382.69
315.542	367.69
315.771	381.69
316.001	374.69
316.23	360.69
316.46	380.69
316.689	393.69
316.919	381.69
317.148	373.69
317.377	394.69
317.607	413.69
317.836	410.69
318.065	389.69
318.295	396.69
318.524	363.69
318.753	380.69
318.983	368.69
319.212	398.69
319.441	386.69
319.67	365.69
319.9	386.69
320.129	388.69
320.358	381.69
320.587	362.69
320.816	383.69
321.046	394.69
321.275	398.69
321.504	388.69
321.733	412.69
321.962	416.69
322.191	422.69
322.42	423.69
322.649	427.69
322.878	451.69
323.108	432.69
323.337	465.69
323.566	493.69
323.795	502.69
324.024	576.69
324.253	644.69
324.482	886.69
324.71	1408.69
324.939	2072.69
325.168	1786.69
325.397	895.69
325.626	602.69
325.855	530.69
326.084	491.69
326.313	488.69
326.542	505.69
326.77	523.69
326.999	614.69
327.228	845.69
327.457	1292.69
327.686	1568.69
327.914	1012.69
328.143	682.69
328.372	587.69
328.6	550.69
328.829	522.69
329.058	562.69
329.287	554.69
329.515	532.69
329.744	500.69
329.972	486.69
330.201	494.69
330.43	549.69
330.658	570.69
330.887	577.69
331.115	571.69
331.344	536.69
331.572	468.69
331.801	468.69
332.03	490.69
332.258	470.69
332.486	478.69
332.715	464.69
332.943	465.69
333.172	443.69
333.4	461.69
333.629	475.69
333.857	478.69
334.085	499.69
334.314	521.69
334.542	527.69
334.771	539.69
334.999	522.69
335.227	464.69
335.455	486.69
335.684	465.69
335.912	454.69
336.14	448.69
336.369	449.69
336.597	460.69
336.825	459.69
337.053	470.69
337.281	458.69
337.51	464.69
337.738	447.69
337.966	461.69
338.194	448.69
338.422	456.69
338.65	449.69
338.878	467.69
339.106	455.69
339.334	446.69
339.562	446.69
339.79	442.69
340.018	448.69
340.246	442.69
340.474	440.69
340.702	427.69
340.93	429.69
341.158	437.69
341.386	436.69
341.614	448.69
341.842	451.69
342.07	420.69
342.298	433.69
342.526	427.69
342.754	414.69
342.981	418.69
343.209	428.69
343.437	426.69
343.665	419.69
343.893	450.69
344.12	442.69
344.348	446.69
344.576	454.69
344.804	450.69
345.031	426.69
345.259	449.69
345.487	438.69
345.714	454.69
345.942	428.69
346.17	436.69
346.397	420.69
346.625	438.69
346.853	405.69
347.08	425.69
347.308	438.69
347.535	458.69
347.763	428.69
347.99	438.69
348.218	445.69
348.445	435.69
348.673	439.69
348.9	428.69
349.128	426.69
349.355	430.69
349.583	411.69
349.81	397.69
350.037	413.69
350.265	404.69
350.492	407.69
350.72	404.69
350.947	420.69
351.174	418.69
351.402	419.69
351.629	429.69
351.856	427.69
352.083	440.69
352.311	436.69
352.538	447.69
352.765	438.69
352.992	421.69
353.22	413.69
353.447	414.69
353.674	428.69
353.901	395.69
354.128	409.69
354.355	388.69
354.583	398.69
354.81	417.69
355.037	417.69
355.264	389.69
355.491	401.69
355.718	383.69
355.945	402.69
356.172	388.69
356.399	399.69
356.626	400.69
356.853	389.69
357.08	405.69
357.307	400.69
357.534	400.69
357.761	398.69
357.988	390.69
358.215	412.69
358.441	390.69
358.668	438.69
358.895	409.69
359.122	409.69
359.349	420.69
359.576	431.69
359.802	429.69
360.029	452.69
360.256	473.69
360.483	454.69
360.709	418.69
360.936	458.69
361.163	422.69
361.39	418.69
361.616	413.69
361.843	415.69
362.07	421.69
362.296	453.69
362.523	429.69
362.749	442.69
362.976	412.69
363.203	411.69
363.429	425.69
363.656	406.69
363.882	403.69
364.109	416.69
364.335	424.69
364.562	424.69
364.788	409.69
365.015	426.69
365.241	404.69
365.468	426.69
365.694	401.69
365.92	444.69
366.147	416.69
366.373	421.69
366.599	419.69
366.826	401.69
367.052	425.69
367.278	414.69
367.505	420.69
367.731	405.69
367.957	438.69
368.184	426.69
368.41	428.69
368.636	441.69
368.862	438.69
369.089	415.69
369.315	424.69
369.541	430.69
369.767	414.69
369.993	436.69
370.219	433.69
370.445	431.69
370.672	410.69
370.898	417.69
371.124	409.69
371.35	407.69
371.576	409.69
371.802	413.69
372.028	420.69
372.254	412.69
372.48	420.69
372.706	429.69
372.932	429.69
373.158	421.69
373.384	429.69
373.61	413.69
373.835	422.69
374.061	423.69
374.287	442.69
374.513	434.69
374.739	444.69
374.965	444.69
375.191	449.69
375.416	427.69
375.642	433.69
375.868	431.69
376.094	423.69
376.319	424.69
376.545	430.69
376.771	431.69
376.997	406.69
377.222	423.69
377.448	421.69
377.674	443.69
377.899	425.69
378.125	439.69
378.35	438.69
378.576	416.69
378.802	414.69
379.027	399.69
379.253	422.69
379.478	408.69
379.704	406.69
379.929	400.69
380.155	430.69
380.38	427.69
380.606	438.69
380.831	424.69
381.057	420.69
381.282	437.69
381.507	424.69
381.733	429.69
381.958	445.69
382.184	431.69
382.409	432.69
382.634	469.69
382.86	444.69
383.085	439.69
383.31	437.69
383.535	439.69
383.761	436.69
383.986	444.69
384.211	453.69
384.436	460.69
384.662	444.69
384.887	461.69
385.112	473.69
385.337	455.69
385.562	467.69
385.787	460.69
386.013	472.69
386.238	497.69
386.463	492.69
386.688	483.69
386.913	457.69
387.138	457.69
387.363	461.69
387.588	469.69
387.813	460.69
388.038	442.69
388.263	474.69
388.488	473.69
388.713	474.69
388.938	469.69
389.163	465.69
389.387	502.69
389.612	479.69
389.837	471.69
390.062	489.69
390.287	481.69
390.512	481.69
390.736	449.69
390.961	477.69
391.186	473.69
391.411	485.69
391.636	481.69
391.86	489.69
392.085	496.69
392.31	489.69
392.534	484.69
392.759	458.69
392.984	494.69
393.208	481.69
393.433	503.69
393.658	490.69
393.882	493.69
394.107	472.69
394.331	492.69
394.556	476.69
394.78	489.69
395.005	485.69
395.229	496.69
395.454	523.69
395.678	506.69
395.903	527.69
396.127	540.69
396.352	525.69
396.576	487.69
396.801	488.69
397.025	482.69
397.249	506.69
397.474	497.69
397.698	514.69
397.922	541.69
398.147	527.69
398.371	545.69
398.595	540.69
398.82	530.69
399.044	548.69
399.268	591.69
399.492	622.69
399.717	687.69
399.941	701.69
400.165	683.69
400.389	702.69
400.613	628.69
400.837	599.69
401.062	578.69
401.286	577.69
401.51	588.69
401.734	556.69
401.958	573.69
402.182	575.69
402.406	593.69
402.63	579.69
402.854	606.69
403.078	574.69
403.302	586.69
403.526	597.69
403.75	599.69
403.974	593.69
404.198	596.69
404.422	584.69
404.645	585.69
404.869	604.69
405.093	635.69
405.317	647.69
405.541	725.69
405.765	650.69
405.988	636.69
406.212	630.69
406.436	662.69
406.66	680.69
406.883	625.69
407.107	679.69
407.331	722.69
407.555	768.69
407.778	758.69
408.002	689.69
408.226	652.69
408.449	682.69
408.673	629.69
408.896	648.69
409.12	695.69
409.344	683.69
409.567	647.69
409.791	605.69
410.014	604.69
410.238	589.69
410.461	591.69
410.685	590.69
410.908	634.69
411.132	632.69
411.355	670.69
411.578	645.69
411.802	620.69
412.025	577.69
412.249	607.69
412.472	613.69
412.695	674.69
412.919	626.69
413.142	601.69
413.365	581.69
413.589	610.69
413.812	577.69
414.035	588.69
414.258	555.69
414.482	586.69
414.705	591.69
414.928	581.69
415.151	573.69
415.374	558.69
415.597	575.69
415.821	548.69
416.044	556.69
416.267	572.69
416.49	578.69
416.713	549.69
416.936	572.69
417.159	559.69
417.382	578.69
417.605	564.69
417.828	576.69
418.051	606.69
418.274	570.69
418.497	568.69
418.72	575.69
418.943	567.69
419.166	549.69
419.389	605.69
419.611	612.69
419.834	622.69
420.057	623.69
420.28	598.69
420.503	588.69
420.726	592.69
420.948	616.69
421.171	624.69
421.394	676.69
421.617	611.69
421.839	575.69
422.062	578.69
422.285	606.69
422.507	653.69
422.73	708.69
422.953	708.69
423.175	619.69
423.398	610.69
423.621	593.69
423.843	638.69
424.066	612.69
424.288	626.69
424.511	629.69
424.733	704.69
424.956	759.69
425.178	747.69
425.401	726.69
425.623	763.69
425.846	662.69
426.068	610.69
426.291	616.69
426.513	614.69
426.735	627.69
426.958	653.69
427.18	735.69
427.402	881.69
427.625	952.69
427.847	833.69
428.069	728.69
428.292	659.69
428.514	604.69
428.736	582.69
428.958	588.69
429.181	558.69
429.403	572.69
429.625	576.69
429.847	628.69
430.069	665.69
430.292	657.69
430.514	581.69
430.736	571.69
430.958	560.69
431.18	558.69
431.402	551.69
431.624	547.69
431.846	543.69
432.068	526.69
432.29	544.69
432.512	562.69
432.734	568.69
432.956	551.69
433.178	561.69
433.4	569.69
433.622	550.69
433.844	543.69
434.066	553.69
434.287	529.69
434.509	563.69
434.731	584.69
434.953	582.69
435.175	601.69
435.397	631.69
435.618	592.69
435.84	659.69
436.062	759.69
436.284	851.69
436.505	688.69
436.727	594.69
436.949	583.69
437.17	560.69
437.392	575.69
437.614	561.69
437.835	594.69
438.057	712.69
438.278	836.69
438.5	804.69
438.721	849.69
438.943	817.69
439.165	670.69
439.386	616.69
439.608	601.69
439.829	609.69
440.05	631.69
440.272	692.69
440.493	664.69
440.715	612.69
440.936	583.69
441.158	582.69
441.379	559.69
441.6	608.69
441.822	614.69
442.043	636.69
442.264	716.69
442.486	782.69
442.707	645.69
442.928	642.69
443.149	644.69
443.371	647.69
443.592	689.69
443.813	801.69
444.034	841.69
444.255	716.69
444.476	658.69
444.698	640.69
444.919	624.69
445.14	716.69
445.361	685.69
445.582	664.69
445.803	734.69
446.024	794.69
446.245	839.69
446.466	767.69
446.687	638.69
446.908	637.69
447.129	575.69
447.35	582.69
447.571	576.69
447.792	562.69
448.013	530.69
448.234	602.69
448.455	635.69
448.675	747.69
448.896	842.69
449.117	699.69
449.338	697.69
449.559	766.69
449.779	890.69
450	751.69
450.221	607.69
450.442	572.69
450.662	577.69
450.883	554.69
451.104	563.69
451.324	556.69
451.545	531.69
451.766	525.69
451.986	516.69
452.207	503.69
452.428	504.69
452.648	520.69
452.869	506.69
453.089	530.69
453.31	553.69
453.53	488.69
453.751	502.69
453.971	513.69
454.192	515.69
454.412	525.69
454.633	516.69
454.853	491.69
455.073	514.69
455.294	530.69
455.514	589.69
455.734	607.69
455.955	494.69
456.175	478.69
456.395	481.69
456.616	470.69
456.836	497.69
457.056	480.69
457.276	476.69
457.497	488.69
457.717	479.69
457.937	492.69
458.157	511.69
458.377	513.69
458.598	524.69
458.818	550.69
459.038	673.69
459.258	670.69
459.478	590.69
459.698	586.69
459.918	558.69
460.138	560.69
460.358	569.69
460.578	572.69
460.798	591.69
461.018	564.69
461.238	574.69
461.458	558.69
461.678	579.69
461.898	598.69
462.118	574.69
462.338	586.69
462.558	577.69
462.777	612.69
462.997	649.69
463.217	668.69
463.437	658.69
463.657	617.69
463.876	622.69
464.096	638.69
464.316	614.69
464.536	634.69
464.755	608.69
464.975	618.69
465.195	666.69
465.414	739.69
465.634	658.69
465.854	585.69
466.073	584.69
466.293	558.69
466.512	558.69
466.732	531.69
466.951	535.69
467.171	530.69
467.391	521.69
467.61	555.69
467.829	554.69
468.049	541.69
468.268	528.69
468.488	531.69
468.707	517.69
468.927	528.69
469.146	525.69
469.365	536.69
469.585	537.69
469.804	536.69
470.023	548.69
470.243	512.69
470.462	551.69
470.681	541.69
470.901	564.69
471.12	552.69
471.339	534.69
471.558	538.69
471.777	520.69
471.997	530.69
472.216	537.69
472.435	560.69
472.654	551.69
472.873	533.69
473.092	546.69
473.311	537.69
473.53	524.69
473.749	528.69
473.968	565.69
474.187	655.69
474.406	691.69
474.625	601.69
474.844	544.69
475.063	548.69
475.282	543.69
475.501	546.69
475.72	550.69
475.939	547.69
476.158	536.69
476.377	542.69
476.596	551.69
476.814	584.69
477.033	567.69
477.252	570.69
477.471	573.69
477.69	584.69
477.908	580.69
478.127	590.69
478.346	583.69
478.564	595.69
478.783	601.69
479.002	628.69
479.22	621.69
479.439	629.69
479.658	660.69
479.876	649.69
480.095	657.69
480.313	666.69
480.532	675.69
480.751	678.69
480.969	680.69
481.188	732.69
481.406	764.69
481.624	659.69
481.843	688.69
482.061	632.69
482.28	629.69
482.498	612.69
482.717	616.69
482.935	626.69
483.153	652.69
483.372	654.69
483.59	634.69
483.808	602.69
484.027	635.69
484.245	624.69
484.463	630.69
484.681	642.69
484.9	640.69
485.118	643.69
485.336	658.69
485.554	650.69
485.772	654.69
485.99	660.69
486.209	645.69
486.427	681.69
486.645	651.69
486.863	694.69
487.081	681.69
487.299	670.69
487.517	660.69
487.735	672.69
487.953	671.69
488.171	692.69
488.389	683.69
488.607	674.69
488.825	666.69
489.043	664.69
489.261	659.69
489.479	671.69
489.696	669.69
489.914	683.69
490.132	710.69
490.35	690.69
490.568	712.69
490.786	708.69
491.003	728.69
491.221	736.69
491.439	708.69
491.657	737.69
491.874	752.69
492.092	774.69
492.31	760.69
492.527	742.69
492.745	759.69
492.963	772.69
493.18	757.69
493.398	780.69
493.615	762.69
493.833	778.69
494.05	780.69
494.268	803.69
494.485	765.69
494.703	762.69
494.92	785.69
495.138	774.69
495.355	792.69
495.573	772.69
495.79	784.69
496.008	790.69
496.225	792.69
496.442	784.69
496.66	806.69
496.877	809.69
497.094	808.69
497.312	801.69
497.529	808.69
497.746	845.69
497.963	847.69
498.181	880.69
498.398	886.69
498.615	905.69
498.832	958.69
499.049	956.69
499.267	1002.69
499.484	1036.69
499.701	1063.69
499.918	1112.69
500.135	1167.69
500.352	1236.69
500.569	1263.69
500.786	1239.69
501.003	1206.69
501.22	1205.69
501.437	1144.69
501.654	1082.69
