Data from 1979.PennyLincolnUp.Lamp.En5.5.200Scan.071719.P1_HRD10591_16-18-19-863.txt Node
Date: Thu Jul 18 16:18:19 EDT 2019
User: cochatt
Spectrometer: HR+D1059
Trigger mode: 1
Integration Time (sec): 1.000000E-1
Scans to average: 1
Electric dark correction enabled: true
Nonlinearity correction enabled: false
Boxcar width: 0
XAxis mode: Wavelengths
Number of Pixels in Spectrum: 2048
>>>>>Begin Spectral Data<<<<<
223.165	-4.06
223.4	-4.06
223.635	-4.06
223.869	-14.06
224.104	-12.06
224.338	-15.06
224.573	-25.06
224.808	-15.06
225.042	-2.06
225.277	5.94
225.511	3.94
225.746	3.94
225.98	-2.06
226.215	18.94
226.449	17.94
226.683	4.94
226.918	12.94
227.152	20.94
227.387	23.94
227.621	41.94
227.856	31.94
228.09	37.94
228.324	48.94
228.559	55.94
228.793	65.94
229.027	87.94
229.262	83.94
229.496	99.94
229.73	107.94
229.964	136.94
230.199	117.94
230.433	117.94
230.667	101.94
230.901	99.94
231.136	87.94
231.37	95.94
231.604	104.94
231.838	106.94
232.072	105.94
232.306	102.94
232.541	108.94
232.775	90.94
233.009	112.94
233.243	107.94
233.477	113.94
233.711	103.94
233.945	101.94
234.179	103.94
234.413	117.94
234.647	120.94
234.881	112.94
235.115	124.94
235.349	107.94
235.583	97.94
235.817	111.94
236.051	111.94
236.285	106.94
236.519	114.94
236.753	107.94
236.987	131.94
237.221	152.94
237.455	185.94
237.689	160.94
237.922	123.94
238.156	125.94
238.39	124.94
238.624	123.94
238.858	107.94
239.091	121.94
239.325	115.94
239.559	123.94
239.793	116.94
240.027	121.94
240.26	127.94
240.494	141.94
240.728	131.94
240.961	151.94
241.195	135.94
241.429	119.94
241.662	132.94
241.896	123.94
242.13	117.94
242.363	126.94
242.597	140.94
242.83	130.94
243.064	124.94
243.298	132.94
243.531	128.94
243.765	146.94
243.998	124.94
244.232	138.94
244.465	131.94
244.699	134.94
244.932	139.94
245.166	116.94
245.399	125.94
245.633	142.94
245.866	137.94
246.099	137.94
246.333	140.94
246.566	143.94
246.8	149.94
247.033	149.94
247.266	141.94
247.5	156.94
247.733	153.94
247.966	171.94
248.2	149.94
248.433	161.94
248.666	160.94
248.899	166.94
249.133	177.94
249.366	181.94
249.599	181.94
249.832	164.94
250.066	183.94
250.299	156.94
250.532	174.94
250.765	180.94
250.998	192.94
251.231	184.94
251.465	185.94
251.698	187.94
251.931	170.94
252.164	179.94
252.397	170.94
252.63	180.94
252.863	183.94
253.096	199.94
253.329	201.94
253.562	184.94
253.795	186.94
254.028	182.94
254.261	187.94
254.494	189.94
254.727	209.94
254.96	244.94
255.193	243.94
255.426	202.94
255.659	215.94
255.892	204.94
256.124	197.94
256.357	203.94
256.59	180.94
256.823	178.94
257.056	192.94
257.289	197.94
257.521	185.94
257.754	198.94
257.987	192.94
258.22	193.94
258.452	175.94
258.685	193.94
258.918	179.94
259.151	187.94
259.383	186.94
259.616	183.94
259.849	193.94
260.081	213.94
260.314	215.94
260.547	201.94
260.779	209.94
261.012	205.94
261.244	200.94
261.477	183.94
261.71	192.94
261.942	219.94
262.175	220.94
262.407	216.94
262.64	184.94
262.872	175.94
263.105	195.94
263.337	195.94
263.57	193.94
263.802	189.94
264.035	184.94
264.267	179.94
264.499	208.94
264.732	199.94
264.964	189.94
265.197	196.94
265.429	191.94
265.661	188.94
265.894	193.94
266.126	200.94
266.358	211.94
266.591	198.94
266.823	200.94
267.055	203.94
267.287	224.94
267.52	202.94
267.752	197.94
267.984	229.94
268.216	212.94
268.448	204.94
268.681	204.94
268.913	217.94
269.145	229.94
269.377	255.94
269.609	228.94
269.841	236.94
270.073	241.94
270.306	235.94
270.538	259.94
270.77	257.94
271.002	249.94
271.234	258.94
271.466	251.94
271.698	259.94
271.93	263.94
272.162	269.94
272.394	284.94
272.626	252.94
272.858	253.94
273.09	255.94
273.322	241.94
273.553	217.94
273.785	244.94
274.017	227.94
274.249	232.94
274.481	230.94
274.713	243.94
274.945	243.94
275.176	243.94
275.408	253.94
275.64	255.94
275.872	229.94
276.104	230.94
276.335	236.94
276.567	258.94
276.799	252.94
277.031	259.94
277.262	288.94
277.494	264.94
277.726	271.94
277.957	252.94
278.189	242.94
278.421	258.94
278.652	245.94
278.884	240.94
279.115	236.94
279.347	252.94
279.579	241.94
279.81	243.94
280.042	227.94
280.273	233.94
280.505	249.94
280.736	231.94
280.968	254.94
281.199	244.94
281.431	232.94
281.662	239.94
281.894	235.94
282.125	231.94
282.356	263.94
282.588	260.94
282.819	263.94
283.051	263.94
283.282	245.94
283.513	249.94
283.745	259.94
283.976	247.94
284.207	254.94
284.439	244.94
284.67	253.94
284.901	244.94
285.132	265.94
285.364	252.94
285.595	264.94
285.826	242.94
286.057	251.94
286.288	253.94
286.52	260.94
286.751	249.94
286.982	259.94
287.213	263.94
287.444	259.94
287.675	265.94
287.906	259.94
288.138	264.94
288.369	285.94
288.6	271.94
288.831	272.94
289.062	269.94
289.293	247.94
289.524	253.94
289.755	279.94
289.986	275.94
290.217	273.94
290.448	265.94
290.679	284.94
290.91	254.94
291.141	249.94
291.371	276.94
291.602	274.94
291.833	275.94
292.064	255.94
292.295	280.94
292.526	282.94
292.757	261.94
292.987	269.94
293.218	256.94
293.449	271.94
293.68	267.94
293.91	260.94
294.141	268.94
294.372	274.94
294.603	281.94
294.833	266.94
295.064	269.94
295.295	268.94
295.525	266.94
295.756	288.94
295.987	279.94
296.217	283.94
296.448	296.94
296.679	286.94
296.909	274.94
297.14	285.94
297.37	270.94
297.601	297.94
297.831	277.94
298.062	284.94
298.292	284.94
298.523	274.94
298.753	281.94
298.984	284.94
299.214	276.94
299.445	271.94
299.675	285.94
299.905	288.94
300.136	275.94
300.366	291.94
300.597	292.94
300.827	276.94
301.057	291.94
301.288	296.94
301.518	279.94
301.748	289.94
301.979	289.94
302.209	300.94
302.439	314.94
302.669	304.94
302.9	308.94
303.13	304.94
303.36	315.94
303.59	301.94
303.82	296.94
304.051	295.94
304.281	281.94
304.511	306.94
304.741	309.94
304.971	272.94
305.201	294.94
305.431	285.94
305.661	312.94
305.891	297.94
306.121	307.94
306.352	325.94
306.582	300.94
306.812	289.94
307.042	293.94
307.272	307.94
307.502	300.94
307.731	306.94
307.961	297.94
308.191	303.94
308.421	303.94
308.651	318.94
308.881	317.94
309.111	311.94
309.341	292.94
309.571	330.94
309.8	332.94
310.03	330.94
310.26	314.94
310.49	331.94
310.72	334.94
310.949	353.94
311.179	351.94
311.409	357.94
311.639	343.94
311.868	325.94
312.098	342.94
312.328	331.94
312.557	341.94
312.787	351.94
313.017	345.94
313.246	339.94
313.476	352.94
313.706	343.94
313.935	341.94
314.165	348.94
314.394	332.94
314.624	341.94
314.853	343.94
315.083	358.94
315.312	344.94
315.542	337.94
315.771	323.94
316.001	327.94
316.23	333.94
316.46	330.94
316.689	352.94
316.919	355.94
317.148	347.94
317.377	352.94
317.607	348.94
317.836	338.94
318.065	355.94
318.295	356.94
318.524	369.94
318.753	361.94
318.983	346.94
319.212	342.94
319.441	363.94
319.67	361.94
319.9	323.94
320.129	348.94
320.358	338.94
320.587	345.94
320.816	352.94
321.046	376.94
321.275	354.94
321.504	373.94
321.733	356.94
321.962	361.94
322.191	365.94
322.42	365.94
322.649	393.94
322.878	401.94
323.108	424.94
323.337	422.94
323.566	445.94
323.795	423.94
324.024	481.94
324.253	538.94
324.482	767.94
324.71	1199.94
324.939	1779.94
325.168	1553.94
325.397	761.94
325.626	534.94
325.855	440.94
326.084	440.94
326.313	420.94
326.542	432.94
326.77	450.94
326.999	555.94
327.228	712.94
327.457	1130.94
327.686	1354.94
327.914	896.94
328.143	569.94
328.372	535.94
328.6	522.94
328.829	485.94
329.058	468.94
329.287	477.94
329.515	480.94
329.744	449.94
329.972	460.94
330.201	469.94
330.43	495.94
330.658	475.94
330.887	503.94
331.115	515.94
331.344	442.94
331.572	420.94
331.801	455.94
332.03	441.94
332.258	438.94
332.486	424.94
332.715	405.94
332.943	411.94
333.172	440.94
333.4	425.94
333.629	430.94
333.857	463.94
334.085	442.94
334.314	442.94
334.542	484.94
334.771	483.94
334.999	450.94
335.227	441.94
335.455	437.94
335.684	435.94
335.912	437.94
336.14	415.94
336.369	407.94
336.597	432.94
336.825	433.94
337.053	436.94
337.281	406.94
337.51	426.94
337.738	424.94
337.966	405.94
338.194	423.94
338.422	416.94
338.65	421.94
338.878	410.94
339.106	407.94
339.334	404.94
339.562	407.94
339.79	407.94
340.018	403.94
340.246	379.94
340.474	393.94
340.702	381.94
340.93	407.94
341.158	389.94
341.386	414.94
341.614	389.94
341.842	380.94
342.07	396.94
342.298	401.94
342.526	403.94
342.754	403.94
342.981	388.94
343.209	398.94
343.437	385.94
343.665	409.94
343.893	410.94
344.12	425.94
344.348	425.94
344.576	403.94
344.804	403.94
345.031	400.94
345.259	424.94
345.487	418.94
345.714	417.94
345.942	414.94
346.17	400.94
346.397	389.94
346.625	401.94
346.853	389.94
347.08	385.94
347.308	401.94
347.535	392.94
347.763	377.94
347.99	404.94
348.218	395.94
348.445	409.94
348.673	391.94
348.9	375.94
349.128	390.94
349.355	382.94
349.583	379.94
349.81	370.94
350.037	393.94
350.265	383.94
350.492	367.94
350.72	370.94
350.947	376.94
351.174	379.94
351.402	391.94
351.629	401.94
351.856	388.94
352.083	387.94
352.311	413.94
352.538	392.94
352.765	396.94
352.992	411.94
353.22	409.94
353.447	390.94
353.674	373.94
353.901	359.94
354.128	377.94
354.355	377.94
354.583	395.94
354.81	370.94
355.037	372.94
355.264	386.94
355.491	379.94
355.718	380.94
355.945	338.94
356.172	359.94
356.399	354.94
356.626	349.94
356.853	368.94
357.08	353.94
357.307	361.94
357.534	364.94
357.761	372.94
357.988	369.94
358.215	374.94
358.441	361.94
358.668	361.94
358.895	384.94
359.122	366.94
359.349	378.94
359.576	390.94
359.802	389.94
360.029	424.94
360.256	414.94
360.483	421.94
360.709	398.94
360.936	389.94
361.163	378.94
361.39	400.94
361.616	391.94
361.843	389.94
362.07	383.94
362.296	403.94
362.523	398.94
362.749	401.94
362.976	379.94
363.203	393.94
363.429	368.94
363.656	375.94
363.882	363.94
364.109	369.94
364.335	381.94
364.562	378.94
364.788	385.94
365.015	374.94
365.241	389.94
365.468	378.94
365.694	369.94
365.92	388.94
366.147	383.94
366.373	384.94
366.599	357.94
366.826	377.94
367.052	372.94
367.278	373.94
367.505	372.94
367.731	397.94
367.957	389.94
368.184	401.94
368.41	389.94
368.636	387.94
368.862	390.94
369.089	380.94
369.315	389.94
369.541	379.94
369.767	372.94
369.993	404.94
370.219	411.94
370.445	369.94
370.672	368.94
370.898	371.94
371.124	380.94
371.35	387.94
371.576	388.94
371.802	398.94
372.028	381.94
372.254	351.94
372.48	391.94
372.706	387.94
372.932	377.94
373.158	370.94
373.384	394.94
373.61	417.94
373.835	402.94
374.061	385.94
374.287	373.94
374.513	409.94
374.739	413.94
374.965	409.94
375.191	396.94
375.416	411.94
375.642	404.94
375.868	389.94
376.094	402.94
376.319	401.94
376.545	395.94
376.771	388.94
376.997	381.94
377.222	385.94
377.448	395.94
377.674	415.94
377.899	382.94
378.125	396.94
378.35	375.94
378.576	381.94
378.802	386.94
379.027	367.94
379.253	387.94
379.478	387.94
379.704	371.94
379.929	378.94
380.155	391.94
380.38	393.94
380.606	381.94
380.831	384.94
381.057	381.94
381.282	390.94
381.507	393.94
381.733	396.94
381.958	397.94
382.184	391.94
382.409	398.94
382.634	406.94
382.86	395.94
383.085	424.94
383.31	423.94
383.535	402.94
383.761	413.94
383.986	418.94
384.211	422.94
384.436	421.94
384.662	399.94
384.887	423.94
385.112	418.94
385.337	437.94
385.562	433.94
385.787	439.94
386.013	468.94
386.238	443.94
386.463	445.94
386.688	451.94
386.913	452.94
387.138	437.94
387.363	422.94
387.588	427.94
387.813	432.94
388.038	427.94
388.263	420.94
388.488	440.94
388.713	437.94
388.938	440.94
389.163	444.94
389.387	431.94
389.612	423.94
389.837	442.94
390.062	434.94
390.287	450.94
390.512	421.94
390.736	435.94
390.961	441.94
391.186	426.94
391.411	444.94
391.636	426.94
391.86	459.94
392.085	460.94
392.31	444.94
392.534	447.94
392.759	442.94
392.984	446.94
393.208	457.94
393.433	443.94
393.658	449.94
393.882	438.94
394.107	469.94
394.331	441.94
394.556	457.94
394.78	462.94
395.005	453.94
395.229	462.94
395.454	466.94
395.678	476.94
395.903	501.94
396.127	473.94
396.352	491.94
396.576	461.94
396.801	461.94
397.025	464.94
397.249	477.94
397.474	481.94
397.698	480.94
397.922	491.94
398.147	502.94
398.371	488.94
398.595	507.94
398.82	523.94
399.044	507.94
399.268	511.94
399.492	602.94
399.717	628.94
399.941	636.94
400.165	645.94
400.389	641.94
400.613	573.94
400.837	571.94
401.062	541.94
401.286	540.94
401.51	521.94
401.734	515.94
401.958	521.94
402.182	542.94
402.406	541.94
402.63	534.94
402.854	548.94
403.078	541.94
403.302	539.94
403.526	552.94
403.75	557.94
403.974	548.94
404.198	550.94
404.422	550.94
404.645	554.94
404.869	560.94
405.093	587.94
405.317	621.94
405.541	620.94
405.765	586.94
405.988	583.94
406.212	582.94
406.436	588.94
406.66	584.94
406.883	581.94
407.107	592.94
407.331	633.94
407.555	707.94
407.778	719.94
408.002	654.94
408.226	609.94
408.449	609.94
408.673	588.94
408.896	629.94
409.12	653.94
409.344	620.94
409.567	568.94
409.791	569.94
410.014	558.94
410.238	562.94
410.461	552.94
410.685	561.94
410.908	557.94
411.132	612.94
411.355	604.94
411.578	583.94
411.802	552.94
412.025	549.94
412.249	555.94
412.472	582.94
412.695	601.94
412.919	617.94
413.142	565.94
413.365	531.94
413.589	529.94
413.812	531.94
414.035	532.94
414.258	531.94
414.482	509.94
414.705	504.94
414.928	501.94
415.151	514.94
415.374	518.94
415.597	524.94
415.821	510.94
416.044	533.94
416.267	509.94
416.49	505.94
416.713	513.94
416.936	524.94
417.159	515.94
417.382	499.94
417.605	521.94
417.828	525.94
418.051	527.94
418.274	520.94
418.497	521.94
418.72	519.94
418.943	501.94
419.166	542.94
419.389	536.94
419.611	552.94
419.834	539.94
420.057	556.94
420.28	563.94
420.503	538.94
420.726	523.94
420.948	537.94
421.171	568.94
421.394	601.94
421.617	543.94
421.839	543.94
422.062	540.94
422.285	537.94
422.507	614.94
422.73	644.94
422.953	649.94
423.175	573.94
423.398	565.94
423.621	575.94
423.843	577.94
424.066	565.94
424.288	567.94
424.511	588.94
424.733	619.94
424.956	693.94
425.178	659.94
425.401	667.94
425.623	665.94
425.846	583.94
426.068	553.94
426.291	561.94
426.513	580.94
426.735	571.94
426.958	615.94
427.18	661.94
427.402	772.94
427.625	861.94
427.847	735.94
428.069	633.94
428.292	587.94
428.514	553.94
428.736	554.94
428.958	536.94
429.181	505.94
429.403	560.94
429.625	530.94
429.847	581.94
430.069	626.94
430.292	632.94
430.514	541.94
430.736	491.94
430.958	500.94
431.18	505.94
431.402	508.94
431.624	507.94
431.846	504.94
432.068	507.94
432.29	502.94
432.512	516.94
432.734	505.94
432.956	524.94
433.178	525.94
433.4	523.94
433.622	517.94
433.844	516.94
434.066	512.94
434.287	530.94
434.509	545.94
434.731	539.94
434.953	548.94
435.175	553.94
435.397	537.94
435.618	567.94
435.84	590.94
436.062	685.94
436.284	742.94
436.505	604.94
436.727	572.94
436.949	523.94
437.17	510.94
437.392	499.94
437.614	538.94
437.835	563.94
438.057	602.94
438.278	718.94
438.5	708.94
438.721	793.94
438.943	775.94
439.165	619.94
439.386	551.94
439.608	575.94
439.829	564.94
440.05	570.94
440.272	626.94
440.493	571.94
440.715	567.94
440.936	563.94
441.158	544.94
441.379	515.94
441.6	544.94
441.822	581.94
442.043	597.94
442.264	671.94
442.486	701.94
442.707	616.94
442.928	569.94
443.149	582.94
443.371	613.94
443.592	626.94
443.813	695.94
444.034	749.94
444.255	628.94
444.476	567.94
444.698	583.94
444.919	595.94
445.14	703.94
445.361	649.94
445.582	615.94
445.803	663.94
446.024	741.94
446.245	737.94
446.466	653.94
446.687	588.94
446.908	556.94
447.129	568.94
447.35	522.94
447.571	520.94
447.792	511.94
448.013	511.94
448.234	525.94
448.455	577.94
448.675	661.94
448.896	738.94
449.117	652.94
449.338	637.94
449.559	710.94
449.779	817.94
450	658.94
450.221	556.94
450.442	515.94
450.662	509.94
450.883	513.94
451.104	500.94
451.324	484.94
451.545	500.94
451.766	490.94
451.986	474.94
452.207	472.94
452.428	486.94
452.648	466.94
452.869	457.94
453.089	488.94
453.31	464.94
453.53	466.94
453.751	446.94
453.971	467.94
454.192	482.94
454.412	460.94
454.633	464.94
454.853	461.94
455.073	462.94
455.294	495.94
455.514	524.94
455.734	560.94
455.955	465.94
456.175	460.94
456.395	450.94
456.616	452.94
456.836	424.94
457.056	449.94
457.276	434.94
457.497	458.94
457.717	437.94
457.937	458.94
458.157	444.94
458.377	467.94
458.598	476.94
458.818	535.94
459.038	605.94
459.258	608.94
459.478	539.94
459.698	521.94
459.918	511.94
460.138	535.94
460.358	530.94
460.578	516.94
460.798	528.94
461.018	522.94
461.238	529.94
461.458	524.94
461.678	529.94
461.898	549.94
462.118	549.94
462.338	548.94
462.558	551.94
462.777	538.94
462.997	587.94
463.217	586.94
463.437	594.94
463.657	568.94
463.876	577.94
464.096	593.94
464.316	571.94
464.536	586.94
464.755	567.94
464.975	569.94
465.195	597.94
465.414	629.94
465.634	595.94
465.854	543.94
466.073	540.94
466.293	511.94
466.512	515.94
466.732	476.94
466.951	490.94
467.171	499.94
467.391	490.94
467.61	501.94
467.829	497.94
468.049	490.94
468.268	493.94
468.488	476.94
468.707	482.94
468.927	479.94
469.146	460.94
469.365	474.94
469.585	470.94
469.804	476.94
470.023	493.94
470.243	502.94
470.462	476.94
470.681	507.94
470.901	499.94
471.12	492.94
471.339	492.94
471.558	490.94
471.777	491.94
471.997	476.94
472.216	521.94
472.435	528.94
472.654	518.94
472.873	484.94
473.092	489.94
473.311	488.94
473.53	499.94
473.749	506.94
473.968	526.94
474.187	607.94
474.406	625.94
474.625	524.94
474.844	498.94
475.063	516.94
475.282	491.94
475.501	484.94
475.72	498.94
475.939	515.94
476.158	504.94
476.377	501.94
476.596	507.94
476.814	519.94
477.033	515.94
477.252	543.94
477.471	546.94
477.69	543.94
477.908	537.94
478.127	536.94
478.346	539.94
478.564	551.94
478.783	547.94
479.002	564.94
479.22	585.94
479.439	571.94
479.658	605.94
479.876	578.94
480.095	617.94
480.313	615.94
480.532	610.94
480.751	595.94
480.969	620.94
481.188	634.94
481.406	695.94
481.624	623.94
481.843	579.94
482.061	575.94
482.28	572.94
482.498	567.94
482.717	577.94
482.935	568.94
483.153	568.94
483.372	587.94
483.59	559.94
483.808	569.94
484.027	569.94
484.245	577.94
484.463	592.94
484.681	578.94
484.9	598.94
485.118	588.94
485.336	608.94
485.554	599.94
485.772	599.94
485.99	599.94
486.209	608.94
486.427	593.94
486.645	615.94
486.863	647.94
487.081	618.94
487.299	600.94
487.517	613.94
487.735	640.94
487.953	617.94
488.171	612.94
488.389	611.94
488.607	603.94
488.825	634.94
489.043	611.94
489.261	629.94
489.479	615.94
489.696	588.94
489.914	623.94
490.132	629.94
490.35	640.94
490.568	643.94
490.786	653.94
491.003	657.94
491.221	646.94
491.439	655.94
491.657	684.94
491.874	675.94
492.092	676.94
492.31	680.94
492.527	696.94
492.745	691.94
492.963	691.94
493.18	679.94
493.398	690.94
493.615	700.94
493.833	706.94
494.05	720.94
494.268	711.94
494.485	687.94
494.703	715.94
494.92	748.94
495.138	707.94
495.355	714.94
495.573	688.94
495.79	688.94
496.008	722.94
496.225	748.94
496.442	728.94
496.66	735.94
496.877	722.94
497.094	740.94
497.312	759.94
497.529	734.94
497.746	767.94
497.963	781.94
498.181	805.94
498.398	818.94
498.615	831.94
498.832	865.94
499.049	886.94
499.267	893.94
499.484	950.94
499.701	972.94
499.918	1009.94
500.135	1065.94
500.352	1128.94
500.569	1145.94
500.786	1171.94
501.003	1138.94
501.22	1083.94
501.437	1027.94
501.654	1004.94
501.871	988.94
502.088	948.94
