Data from 1979.PennyLincolnUp.Lamp.En5.5.200Scan.071719.P1_HRD10591_16-20-05-865.txt Node
Date: Thu Jul 18 16:20:05 EDT 2019
User: cochatt
Spectrometer: HR+D1059
Trigger mode: 1
Integration Time (sec): 1.000000E-1
Scans to average: 1
Electric dark correction enabled: true
Nonlinearity correction enabled: false
Boxcar width: 0
XAxis mode: Wavelengths
Number of Pixels in Spectrum: 2048
>>>>>Begin Spectral Data<<<<<
223.165	-18.06
223.4	-18.06
223.635	-18.06
223.869	-15.06
224.104	-18.06
224.338	-26.06
224.573	-8.06
224.808	-8.06
225.042	-24.06
225.277	-0.06
225.511	7.94
225.746	-0.06
225.98	9.94
226.215	0.94
226.449	19.94
226.683	11.94
226.918	31.94
227.152	34.94
227.387	23.94
227.621	31.94
227.856	43.94
228.09	40.94
228.324	55.94
228.559	48.94
228.793	61.94
229.027	87.94
229.262	89.94
229.496	118.94
229.73	130.94
229.964	141.94
230.199	121.94
230.433	106.94
230.667	114.94
230.901	106.94
231.136	105.94
231.37	98.94
231.604	105.94
231.838	115.94
232.072	109.94
232.306	99.94
232.541	104.94
232.775	103.94
233.009	120.94
233.243	105.94
233.477	101.94
233.711	109.94
233.945	119.94
234.179	115.94
234.413	117.94
234.647	119.94
234.881	116.94
235.115	128.94
235.349	117.94
235.583	117.94
235.817	124.94
236.051	126.94
236.285	128.94
236.519	118.94
236.753	109.94
236.987	139.94
237.221	179.94
237.455	239.94
237.689	171.94
237.922	143.94
238.156	122.94
238.39	133.94
238.624	113.94
238.858	123.94
239.091	135.94
239.325	127.94
239.559	128.94
239.793	135.94
240.027	130.94
240.26	146.94
240.494	157.94
240.728	151.94
240.961	150.94
241.195	132.94
241.429	131.94
241.662	121.94
241.896	133.94
242.13	129.94
242.363	127.94
242.597	130.94
242.83	125.94
243.064	149.94
243.298	146.94
243.531	149.94
243.765	139.94
243.998	149.94
244.232	132.94
244.465	136.94
244.699	142.94
244.932	143.94
245.166	142.94
245.399	136.94
245.633	151.94
245.866	137.94
246.099	146.94
246.333	148.94
246.566	159.94
246.8	136.94
247.033	143.94
247.266	150.94
247.5	154.94
247.733	176.94
247.966	165.94
248.2	175.94
248.433	160.94
248.666	170.94
248.899	176.94
249.133	194.94
249.366	210.94
249.599	195.94
249.832	182.94
250.066	176.94
250.299	186.94
250.532	190.94
250.765	189.94
250.998	223.94
251.231	212.94
251.465	201.94
251.698	199.94
251.931	196.94
252.164	180.94
252.397	200.94
252.63	200.94
252.863	197.94
253.096	221.94
253.329	218.94
253.562	225.94
253.795	224.94
254.028	213.94
254.261	198.94
254.494	214.94
254.727	243.94
254.96	275.94
255.193	248.94
255.426	238.94
255.659	210.94
255.892	209.94
256.124	219.94
256.357	213.94
256.59	211.94
256.823	202.94
257.056	193.94
257.289	197.94
257.521	206.94
257.754	200.94
257.987	182.94
258.22	208.94
258.452	200.94
258.685	206.94
258.918	207.94
259.151	190.94
259.383	196.94
259.616	225.94
259.849	229.94
260.081	219.94
260.314	243.94
260.547	253.94
260.779	219.94
261.012	227.94
261.244	206.94
261.477	212.94
261.71	217.94
261.942	202.94
262.175	216.94
262.407	215.94
262.64	201.94
262.872	218.94
263.105	195.94
263.337	200.94
263.57	209.94
263.802	218.94
264.035	211.94
264.267	213.94
264.499	208.94
264.732	214.94
264.964	218.94
265.197	199.94
265.429	216.94
265.661	204.94
265.894	209.94
266.126	202.94
266.358	229.94
266.591	224.94
266.823	209.94
267.055	219.94
267.287	242.94
267.52	222.94
267.752	225.94
267.984	237.94
268.216	223.94
268.448	206.94
268.681	234.94
268.913	246.94
269.145	233.94
269.377	264.94
269.609	270.94
269.841	251.94
270.073	248.94
270.306	264.94
270.538	308.94
270.77	293.94
271.002	293.94
271.234	287.94
271.466	288.94
271.698	291.94
271.93	301.94
272.162	303.94
272.394	291.94
272.626	291.94
272.858	277.94
273.09	275.94
273.322	259.94
273.553	249.94
273.785	249.94
274.017	242.94
274.249	258.94
274.481	278.94
274.713	247.94
274.945	270.94
275.176	270.94
275.408	273.94
275.64	266.94
275.872	260.94
276.104	272.94
276.335	255.94
276.567	252.94
276.799	281.94
277.031	293.94
277.262	312.94
277.494	291.94
277.726	291.94
277.957	291.94
278.189	275.94
278.421	272.94
278.652	262.94
278.884	261.94
279.115	266.94
279.347	263.94
279.579	255.94
279.81	234.94
280.042	275.94
280.273	255.94
280.505	258.94
280.736	274.94
280.968	272.94
281.199	270.94
281.431	287.94
281.662	259.94
281.894	260.94
282.125	277.94
282.356	271.94
282.588	301.94
282.819	313.94
283.051	277.94
283.282	255.94
283.513	286.94
283.745	264.94
283.976	288.94
284.207	278.94
284.439	275.94
284.67	275.94
284.901	276.94
285.132	288.94
285.364	266.94
285.595	277.94
285.826	292.94
286.057	281.94
286.288	270.94
286.52	277.94
286.751	278.94
286.982	288.94
287.213	280.94
287.444	290.94
287.675	292.94
287.906	284.94
288.138	309.94
288.369	314.94
288.6	311.94
288.831	295.94
289.062	293.94
289.293	304.94
289.524	305.94
289.755	298.94
289.986	266.94
290.217	293.94
290.448	303.94
290.679	299.94
290.91	281.94
291.141	293.94
291.371	293.94
291.602	289.94
291.833	275.94
292.064	304.94
292.295	292.94
292.526	303.94
292.757	299.94
292.987	281.94
293.218	299.94
293.449	298.94
293.68	297.94
293.91	292.94
294.141	292.94
294.372	302.94
294.603	294.94
294.833	309.94
295.064	302.94
295.295	296.94
295.525	305.94
295.756	307.94
295.987	304.94
296.217	328.94
296.448	315.94
296.679	303.94
296.909	296.94
297.14	327.94
297.37	308.94
297.601	321.94
297.831	307.94
298.062	321.94
298.292	307.94
298.523	309.94
298.753	311.94
298.984	292.94
299.214	290.94
299.445	317.94
299.675	303.94
299.905	324.94
300.136	328.94
300.366	318.94
300.597	313.94
300.827	319.94
301.057	334.94
301.288	334.94
301.518	335.94
301.748	330.94
301.979	326.94
302.209	339.94
302.439	345.94
302.669	338.94
302.9	330.94
303.13	335.94
303.36	332.94
303.59	365.94
303.82	337.94
304.051	355.94
304.281	341.94
304.511	343.94
304.741	324.94
304.971	326.94
305.201	328.94
305.431	349.94
305.661	336.94
305.891	319.94
306.121	337.94
306.352	342.94
306.582	345.94
306.812	346.94
307.042	346.94
307.272	330.94
307.502	348.94
307.731	345.94
307.961	324.94
308.191	353.94
308.421	325.94
308.651	349.94
308.881	331.94
309.111	338.94
309.341	363.94
309.571	346.94
309.8	365.94
310.03	365.94
310.26	388.94
310.49	397.94
310.72	379.94
310.949	399.94
311.179	416.94
311.409	371.94
311.639	358.94
311.868	393.94
312.098	404.94
312.328	384.94
312.557	399.94
312.787	420.94
313.017	389.94
313.246	378.94
313.476	399.94
313.706	385.94
313.935	369.94
314.165	373.94
314.394	385.94
314.624	413.94
314.853	390.94
315.083	384.94
315.312	377.94
315.542	376.94
315.771	374.94
316.001	386.94
316.23	359.94
316.46	383.94
316.689	401.94
316.919	377.94
317.148	376.94
317.377	389.94
317.607	371.94
317.836	379.94
318.065	378.94
318.295	385.94
318.524	368.94
318.753	379.94
318.983	395.94
319.212	379.94
319.441	395.94
319.67	391.94
319.9	377.94
320.129	367.94
320.358	383.94
320.587	386.94
320.816	398.94
321.046	399.94
321.275	405.94
321.504	417.94
321.733	417.94
321.962	428.94
322.191	405.94
322.42	424.94
322.649	439.94
322.878	451.94
323.108	431.94
323.337	482.94
323.566	489.94
323.795	544.94
324.024	551.94
324.253	644.94
324.482	923.94
324.71	1487.94
324.939	2175.94
325.168	1861.94
325.397	940.94
325.626	633.94
325.855	543.94
326.084	521.94
326.313	488.94
326.542	537.94
326.77	541.94
326.999	625.94
327.228	878.94
327.457	1318.94
327.686	1635.94
327.914	1081.94
328.143	698.94
328.372	608.94
328.6	567.94
328.829	560.94
329.058	550.94
329.287	573.94
329.515	560.94
329.744	517.94
329.972	506.94
330.201	528.94
330.43	551.94
330.658	566.94
330.887	621.94
331.115	592.94
331.344	518.94
331.572	496.94
331.801	478.94
332.03	484.94
332.258	470.94
332.486	483.94
332.715	463.94
332.943	471.94
333.172	490.94
333.4	471.94
333.629	481.94
333.857	518.94
334.085	523.94
334.314	531.94
334.542	568.94
334.771	566.94
334.999	516.94
335.227	511.94
335.455	494.94
335.684	471.94
335.912	474.94
336.14	469.94
336.369	462.94
336.597	491.94
336.825	485.94
337.053	465.94
337.281	450.94
337.51	454.94
337.738	461.94
337.966	464.94
338.194	441.94
338.422	460.94
338.65	463.94
338.878	444.94
339.106	433.94
339.334	449.94
339.562	439.94
339.79	453.94
340.018	454.94
340.246	448.94
340.474	463.94
340.702	458.94
340.93	441.94
341.158	434.94
341.386	444.94
341.614	452.94
341.842	462.94
342.07	441.94
342.298	437.94
342.526	425.94
342.754	437.94
342.981	432.94
343.209	435.94
343.437	447.94
343.665	459.94
343.893	460.94
344.12	467.94
344.348	454.94
344.576	445.94
344.804	467.94
345.031	482.94
345.259	466.94
345.487	466.94
345.714	451.94
345.942	433.94
346.17	423.94
346.397	431.94
346.625	431.94
346.853	416.94
347.08	440.94
347.308	441.94
347.535	442.94
347.763	421.94
347.99	434.94
348.218	426.94
348.445	441.94
348.673	433.94
348.9	425.94
349.128	392.94
349.355	421.94
349.583	410.94
349.81	423.94
350.037	419.94
350.265	411.94
350.492	407.94
350.72	416.94
350.947	409.94
351.174	427.94
351.402	442.94
351.629	434.94
351.856	425.94
352.083	414.94
352.311	437.94
352.538	454.94
352.765	447.94
352.992	428.94
353.22	429.94
353.447	428.94
353.674	414.94
353.901	419.94
354.128	414.94
354.355	399.94
354.583	403.94
354.81	411.94
355.037	405.94
355.264	390.94
355.491	386.94
355.718	395.94
355.945	405.94
356.172	421.94
356.399	424.94
356.626	413.94
356.853	380.94
357.08	409.94
357.307	409.94
357.534	412.94
357.761	400.94
357.988	416.94
358.215	408.94
358.441	403.94
358.668	404.94
358.895	419.94
359.122	399.94
359.349	430.94
359.576	429.94
359.802	458.94
360.029	466.94
360.256	491.94
360.483	469.94
360.709	444.94
360.936	425.94
361.163	415.94
361.39	411.94
361.616	431.94
361.843	411.94
362.07	419.94
362.296	430.94
362.523	430.94
362.749	426.94
362.976	411.94
363.203	429.94
363.429	421.94
363.656	418.94
363.882	413.94
364.109	406.94
364.335	438.94
364.562	431.94
364.788	416.94
365.015	417.94
365.241	420.94
365.468	436.94
365.694	433.94
365.92	448.94
366.147	423.94
366.373	413.94
366.599	420.94
366.826	421.94
367.052	442.94
367.278	421.94
367.505	434.94
367.731	415.94
367.957	431.94
368.184	412.94
368.41	412.94
368.636	436.94
368.862	442.94
369.089	431.94
369.315	421.94
369.541	417.94
369.767	422.94
369.993	437.94
370.219	409.94
370.445	415.94
370.672	421.94
370.898	407.94
371.124	424.94
371.35	441.94
371.576	419.94
371.802	427.94
372.028	419.94
372.254	444.94
372.48	431.94
372.706	450.94
372.932	434.94
373.158	441.94
373.384	429.94
373.61	429.94
373.835	425.94
374.061	437.94
374.287	423.94
374.513	453.94
374.739	459.94
374.965	439.94
375.191	441.94
375.416	436.94
375.642	439.94
375.868	422.94
376.094	407.94
376.319	449.94
376.545	421.94
376.771	431.94
376.997	449.94
377.222	435.94
377.448	425.94
377.674	413.94
377.899	434.94
378.125	414.94
378.35	425.94
378.576	417.94
378.802	410.94
379.027	421.94
379.253	432.94
379.478	416.94
379.704	437.94
379.929	421.94
380.155	429.94
380.38	461.94
380.606	442.94
380.831	426.94
381.057	431.94
381.282	429.94
381.507	422.94
381.733	448.94
381.958	436.94
382.184	442.94
382.409	467.94
382.634	446.94
382.86	435.94
383.085	414.94
383.31	453.94
383.535	456.94
383.761	456.94
383.986	453.94
384.211	448.94
384.436	489.94
384.662	487.94
384.887	475.94
385.112	467.94
385.337	468.94
385.562	494.94
385.787	472.94
386.013	497.94
386.238	490.94
386.463	472.94
386.688	493.94
386.913	479.94
387.138	480.94
387.363	465.94
387.588	497.94
387.813	496.94
388.038	482.94
388.263	462.94
388.488	467.94
388.713	493.94
388.938	482.94
389.163	487.94
389.387	483.94
389.612	469.94
389.837	493.94
390.062	450.94
390.287	479.94
390.512	495.94
390.736	470.94
390.961	495.94
391.186	483.94
391.411	488.94
391.636	484.94
391.86	517.94
392.085	501.94
392.31	485.94
392.534	496.94
392.759	475.94
392.984	509.94
393.208	490.94
393.433	498.94
393.658	500.94
393.882	485.94
394.107	504.94
394.331	484.94
394.556	483.94
394.78	479.94
395.005	508.94
395.229	509.94
395.454	533.94
395.678	530.94
395.903	563.94
396.127	562.94
396.352	542.94
396.576	529.94
396.801	506.94
397.025	506.94
397.249	547.94
397.474	536.94
397.698	518.94
397.922	561.94
398.147	545.94
398.371	545.94
398.595	561.94
398.82	539.94
399.044	561.94
399.268	583.94
399.492	650.94
399.717	697.94
399.941	686.94
400.165	739.94
400.389	698.94
400.613	633.94
400.837	606.94
401.062	578.94
401.286	570.94
401.51	573.94
401.734	574.94
401.958	573.94
402.182	582.94
402.406	590.94
402.63	603.94
402.854	596.94
403.078	594.94
403.302	600.94
403.526	607.94
403.75	630.94
403.974	592.94
404.198	594.94
404.422	598.94
404.645	606.94
404.869	607.94
405.093	657.94
405.317	693.94
405.541	710.94
405.765	660.94
405.988	644.94
406.212	650.94
406.436	675.94
406.66	682.94
406.883	643.94
407.107	662.94
407.331	747.94
407.555	794.94
407.778	795.94
408.002	730.94
408.226	705.94
408.449	669.94
408.673	650.94
408.896	669.94
409.12	723.94
409.344	687.94
409.567	641.94
409.791	629.94
410.014	600.94
410.238	610.94
410.461	602.94
410.685	615.94
410.908	641.94
411.132	649.94
411.355	712.94
411.578	671.94
411.802	633.94
412.025	602.94
412.249	616.94
412.472	637.94
412.695	676.94
412.919	651.94
413.142	610.94
413.365	601.94
413.589	630.94
413.812	578.94
414.035	575.94
414.258	568.94
414.482	567.94
414.705	569.94
414.928	573.94
415.151	551.94
415.374	561.94
415.597	585.94
415.821	549.94
416.044	562.94
416.267	574.94
416.49	571.94
416.713	563.94
416.936	568.94
417.159	554.94
417.382	576.94
417.605	574.94
417.828	584.94
418.051	591.94
418.274	588.94
418.497	573.94
418.72	574.94
418.943	572.94
419.166	603.94
419.389	632.94
419.611	607.94
419.834	619.94
420.057	586.94
420.28	618.94
420.503	583.94
420.726	595.94
420.948	604.94
421.171	649.94
421.394	687.94
421.617	600.94
421.839	589.94
422.062	616.94
422.285	613.94
422.507	682.94
422.73	739.94
422.953	712.94
423.175	614.94
423.398	623.94
423.621	614.94
423.843	631.94
424.066	637.94
424.288	631.94
424.511	666.94
424.733	703.94
424.956	801.94
425.178	743.94
425.401	760.94
425.623	791.94
425.846	655.94
426.068	626.94
426.291	614.94
426.513	626.94
426.735	631.94
426.958	685.94
427.18	738.94
427.402	903.94
427.625	992.94
427.847	868.94
428.069	750.94
428.292	667.94
428.514	600.94
428.736	587.94
428.958	584.94
429.181	573.94
429.403	572.94
429.625	571.94
429.847	630.94
430.069	698.94
430.292	674.94
430.514	593.94
430.736	577.94
430.958	592.94
431.18	568.94
431.402	544.94
431.624	536.94
431.846	541.94
432.068	537.94
432.29	557.94
432.512	578.94
432.734	586.94
432.956	568.94
433.178	574.94
433.4	559.94
433.622	575.94
433.844	567.94
434.066	553.94
434.287	550.94
434.509	582.94
434.731	577.94
434.953	588.94
435.175	618.94
435.397	629.94
435.618	610.94
435.84	672.94
436.062	774.94
436.284	829.94
436.505	687.94
436.727	646.94
436.949	611.94
437.17	591.94
437.392	593.94
437.614	628.94
437.835	637.94
438.057	711.94
438.278	821.94
438.5	818.94
438.721	910.94
438.943	837.94
439.165	699.94
439.386	661.94
439.608	655.94
439.829	656.94
440.05	667.94
440.272	706.94
440.493	646.94
440.715	618.94
440.936	605.94
441.158	621.94
441.379	609.94
441.6	599.94
441.822	643.94
442.043	666.94
442.264	738.94
442.486	809.94
442.707	676.94
442.928	643.94
443.149	665.94
443.371	698.94
443.592	717.94
443.813	835.94
444.034	886.94
444.255	719.94
444.476	678.94
444.698	665.94
444.919	651.94
445.14	755.94
445.361	717.94
445.582	691.94
445.803	732.94
446.024	839.94
446.245	862.94
446.466	789.94
446.687	682.94
446.908	640.94
447.129	602.94
447.35	613.94
447.571	570.94
447.792	573.94
448.013	576.94
448.234	597.94
448.455	641.94
448.675	741.94
448.896	870.94
449.117	730.94
449.338	672.94
449.559	793.94
449.779	939.94
450	726.94
450.221	632.94
450.442	579.94
450.662	547.94
450.883	580.94
451.104	588.94
451.324	564.94
451.545	537.94
451.766	531.94
451.986	520.94
452.207	509.94
452.428	521.94
452.648	542.94
452.869	507.94
453.089	541.94
453.31	531.94
453.53	529.94
453.751	533.94
453.971	528.94
454.192	562.94
454.412	539.94
454.633	521.94
454.853	521.94
455.073	525.94
455.294	535.94
455.514	613.94
455.734	602.94
455.955	523.94
456.175	513.94
456.395	504.94
456.616	501.94
456.836	496.94
457.056	483.94
457.276	483.94
457.497	496.94
457.717	500.94
457.937	509.94
458.157	538.94
458.377	527.94
458.598	527.94
458.818	598.94
459.038	651.94
459.258	670.94
459.478	613.94
459.698	575.94
459.918	571.94
460.138	578.94
460.358	581.94
460.578	577.94
460.798	609.94
461.018	591.94
461.238	592.94
461.458	575.94
461.678	577.94
461.898	583.94
462.118	587.94
462.338	600.94
462.558	618.94
462.777	618.94
462.997	632.94
463.217	657.94
463.437	650.94
463.657	647.94
463.876	653.94
464.096	624.94
464.316	618.94
464.536	640.94
464.755	627.94
464.975	627.94
465.195	663.94
465.414	735.94
465.634	634.94
465.854	596.94
466.073	586.94
466.293	563.94
466.512	550.94
466.732	546.94
466.951	535.94
467.171	537.94
467.391	554.94
467.61	547.94
467.829	557.94
468.049	537.94
468.268	532.94
468.488	526.94
468.707	527.94
468.927	535.94
469.146	515.94
469.365	514.94
469.585	521.94
469.804	563.94
470.023	566.94
470.243	557.94
470.462	557.94
470.681	581.94
470.901	573.94
471.12	548.94
471.339	525.94
471.558	552.94
471.777	529.94
471.997	553.94
472.216	559.94
472.435	589.94
472.654	576.94
472.873	527.94
473.092	543.94
473.311	527.94
473.53	538.94
473.749	549.94
473.968	581.94
474.187	698.94
474.406	699.94
474.625	572.94
474.844	567.94
475.063	543.94
475.282	558.94
475.501	559.94
475.72	572.94
475.939	574.94
476.158	555.94
476.377	528.94
476.596	550.94
476.814	589.94
477.033	590.94
477.252	560.94
477.471	563.94
477.69	596.94
477.908	602.94
478.127	601.94
478.346	599.94
478.564	625.94
478.783	609.94
479.002	611.94
479.22	612.94
479.439	631.94
479.658	649.94
479.876	673.94
480.095	675.94
480.313	690.94
480.532	703.94
480.751	695.94
480.969	677.94
481.188	735.94
481.406	771.94
481.624	703.94
481.843	649.94
482.061	666.94
482.28	638.94
482.498	647.94
482.717	630.94
482.935	640.94
483.153	625.94
483.372	642.94
483.59	640.94
483.808	661.94
484.027	618.94
484.245	641.94
484.463	653.94
484.681	666.94
484.9	662.94
485.118	652.94
485.336	658.94
485.554	656.94
485.772	648.94
485.99	651.94
486.209	680.94
486.427	679.94
486.645	676.94
486.863	671.94
487.081	706.94
487.299	696.94
487.517	697.94
487.735	670.94
487.953	704.94
488.171	697.94
488.389	688.94
488.607	695.94
488.825	681.94
489.043	697.94
489.261	677.94
489.479	690.94
489.696	695.94
489.914	695.94
490.132	720.94
490.35	705.94
490.568	735.94
490.786	711.94
491.003	727.94
491.221	736.94
491.439	775.94
491.657	788.94
491.874	795.94
492.092	773.94
492.31	773.94
492.527	767.94
492.745	793.94
492.963	773.94
493.18	791.94
493.398	786.94
493.615	819.94
493.833	833.94
494.05	803.94
494.268	823.94
494.485	805.94
494.703	781.94
494.92	789.94
495.138	792.94
495.355	810.94
495.573	811.94
495.79	830.94
496.008	814.94
496.225	814.94
496.442	823.94
496.66	825.94
496.877	831.94
497.094	801.94
497.312	812.94
497.529	858.94
497.746	853.94
497.963	857.94
498.181	886.94
498.398	915.94
498.615	909.94
498.832	986.94
499.049	989.94
499.267	1033.94
499.484	1048.94
499.701	1094.94
499.918	1142.94
500.135	1174.94
500.352	1305.94
500.569	1306.94
500.786	1275.94
501.003	1266.94
501.22	1203.94
501.437	1128.94
501.654	1136.94
501.871	1124.94
