Data from 1979.PennyLincolnUp.Lamp.En5.5.200Scan.071719.P1_HRD10591_16-18-09-864.txt Node
Date: Thu Jul 18 16:18:09 EDT 2019
User: cochatt
Spectrometer: HR+D1059
Trigger mode: 1
Integration Time (sec): 1.000000E-1
Scans to average: 1
Electric dark correction enabled: true
Nonlinearity correction enabled: false
Boxcar width: 0
XAxis mode: Wavelengths
Number of Pixels in Spectrum: 2048
>>>>>Begin Spectral Data<<<<<
223.165	-14.19
223.4	-14.19
223.635	-14.19
223.869	-13.19
224.104	-21.19
224.338	-6.19
224.573	-11.19
224.808	-5.19
225.042	5.81
225.277	-5.19
225.511	-11.19
225.746	15.81
225.98	0.81
226.215	10.81
226.449	11.81
226.683	6.81
226.918	4.81
227.152	30.81
227.387	16.81
227.621	34.81
227.856	52.81
228.09	50.81
228.324	51.81
228.559	63.81
228.793	71.81
229.027	90.81
229.262	103.81
229.496	90.81
229.73	97.81
229.964	115.81
230.199	119.81
230.433	102.81
230.667	120.81
230.901	95.81
231.136	105.81
231.37	102.81
231.604	94.81
231.838	110.81
232.072	103.81
232.306	118.81
232.541	110.81
232.775	122.81
233.009	113.81
233.243	104.81
233.477	108.81
233.711	109.81
233.945	122.81
234.179	117.81
234.413	97.81
234.647	96.81
234.881	111.81
235.115	119.81
235.349	104.81
235.583	106.81
235.817	132.81
236.051	117.81
236.285	122.81
236.519	113.81
236.753	120.81
236.987	141.81
237.221	143.81
237.455	201.81
237.689	186.81
237.922	141.81
238.156	129.81
238.39	124.81
238.624	125.81
238.858	122.81
239.091	121.81
239.325	126.81
239.559	134.81
239.793	121.81
240.027	126.81
240.26	114.81
240.494	148.81
240.728	143.81
240.961	145.81
241.195	131.81
241.429	137.81
241.662	127.81
241.896	119.81
242.13	136.81
242.363	117.81
242.597	127.81
242.83	135.81
243.064	126.81
243.298	129.81
243.531	132.81
243.765	127.81
243.998	129.81
244.232	142.81
244.465	132.81
244.699	129.81
244.932	149.81
245.166	144.81
245.399	153.81
245.633	137.81
245.866	143.81
246.099	118.81
246.333	150.81
246.566	141.81
246.8	131.81
247.033	150.81
247.266	155.81
247.5	152.81
247.733	157.81
247.966	155.81
248.2	155.81
248.433	161.81
248.666	157.81
248.899	163.81
249.133	180.81
249.366	177.81
249.599	180.81
249.832	163.81
250.066	156.81
250.299	177.81
250.532	166.81
250.765	183.81
250.998	197.81
251.231	202.81
251.465	188.81
251.698	205.81
251.931	166.81
252.164	167.81
252.397	197.81
252.63	188.81
252.863	188.81
253.096	198.81
253.329	205.81
253.562	193.81
253.795	191.81
254.028	186.81
254.261	205.81
254.494	208.81
254.727	221.81
254.96	246.81
255.193	221.81
255.426	210.81
255.659	194.81
255.892	207.81
256.124	216.81
256.357	190.81
256.59	189.81
256.823	181.81
257.056	203.81
257.289	191.81
257.521	191.81
257.754	186.81
257.987	194.81
258.22	207.81
258.452	195.81
258.685	193.81
258.918	197.81
259.151	193.81
259.383	184.81
259.616	181.81
259.849	206.81
260.081	213.81
260.314	217.81
260.547	222.81
260.779	205.81
261.012	220.81
261.244	201.81
261.477	207.81
261.71	200.81
261.942	193.81
262.175	196.81
262.407	220.81
262.64	193.81
262.872	199.81
263.105	188.81
263.337	191.81
263.57	183.81
263.802	196.81
264.035	194.81
264.267	181.81
264.499	217.81
264.732	202.81
264.964	219.81
265.197	210.81
265.429	193.81
265.661	197.81
265.894	195.81
266.126	216.81
266.358	215.81
266.591	215.81
266.823	215.81
267.055	211.81
267.287	222.81
267.52	213.81
267.752	197.81
267.984	207.81
268.216	212.81
268.448	220.81
268.681	224.81
268.913	227.81
269.145	228.81
269.377	254.81
269.609	245.81
269.841	223.81
270.073	247.81
270.306	252.81
270.538	278.81
270.77	271.81
271.002	251.81
271.234	244.81
271.466	253.81
271.698	270.81
271.93	277.81
272.162	272.81
272.394	266.81
272.626	251.81
272.858	248.81
273.09	242.81
273.322	249.81
273.553	246.81
273.785	232.81
274.017	224.81
274.249	225.81
274.481	245.81
274.713	239.81
274.945	245.81
275.176	230.81
275.408	230.81
275.64	239.81
275.872	248.81
276.104	251.81
276.335	232.81
276.567	250.81
276.799	270.81
277.031	281.81
277.262	267.81
277.494	273.81
277.726	261.81
277.957	251.81
278.189	243.81
278.421	247.81
278.652	248.81
278.884	238.81
279.115	227.81
279.347	244.81
279.579	250.81
279.81	261.81
280.042	259.81
280.273	245.81
280.505	246.81
280.736	243.81
280.968	236.81
281.199	261.81
281.431	253.81
281.662	242.81
281.894	255.81
282.125	243.81
282.356	268.81
282.588	267.81
282.819	290.81
283.051	251.81
283.282	257.81
283.513	249.81
283.745	254.81
283.976	270.81
284.207	244.81
284.439	259.81
284.67	262.81
284.901	267.81
285.132	259.81
285.364	257.81
285.595	265.81
285.826	246.81
286.057	259.81
286.288	273.81
286.52	236.81
286.751	275.81
286.982	261.81
287.213	245.81
287.444	258.81
287.675	284.81
287.906	263.81
288.138	267.81
288.369	279.81
288.6	277.81
288.831	271.81
289.062	254.81
289.293	284.81
289.524	281.81
289.755	266.81
289.986	273.81
290.217	266.81
290.448	284.81
290.679	283.81
290.91	268.81
291.141	255.81
291.371	261.81
291.602	292.81
291.833	269.81
292.064	278.81
292.295	285.81
292.526	267.81
292.757	282.81
292.987	268.81
293.218	270.81
293.449	291.81
293.68	283.81
293.91	281.81
294.141	274.81
294.372	265.81
294.603	263.81
294.833	270.81
295.064	285.81
295.295	285.81
295.525	265.81
295.756	291.81
295.987	294.81
296.217	294.81
296.448	299.81
296.679	283.81
296.909	281.81
297.14	281.81
297.37	289.81
297.601	287.81
297.831	271.81
298.062	285.81
298.292	291.81
298.523	276.81
298.753	290.81
298.984	306.81
299.214	299.81
299.445	284.81
299.675	289.81
299.905	295.81
300.136	301.81
300.366	308.81
300.597	310.81
300.827	289.81
301.057	317.81
301.288	318.81
301.518	308.81
301.748	307.81
301.979	318.81
302.209	313.81
302.439	325.81
302.669	327.81
302.9	287.81
303.13	289.81
303.36	312.81
303.59	326.81
303.82	314.81
304.051	325.81
304.281	313.81
304.511	302.81
304.741	310.81
304.971	325.81
305.201	316.81
305.431	309.81
305.661	298.81
305.891	330.81
306.121	319.81
306.352	318.81
306.582	297.81
306.812	313.81
307.042	310.81
307.272	309.81
307.502	303.81
307.731	334.81
307.961	317.81
308.191	317.81
308.421	328.81
308.651	319.81
308.881	316.81
309.111	312.81
309.341	323.81
309.571	341.81
309.8	335.81
310.03	342.81
310.26	341.81
310.49	338.81
310.72	347.81
310.949	354.81
311.179	379.81
311.409	362.81
311.639	345.81
311.868	362.81
312.098	331.81
312.328	357.81
312.557	362.81
312.787	371.81
313.017	378.81
313.246	349.81
313.476	354.81
313.706	337.81
313.935	343.81
314.165	357.81
314.394	362.81
314.624	361.81
314.853	359.81
315.083	352.81
315.312	365.81
315.542	360.81
315.771	335.81
316.001	357.81
316.23	348.81
316.46	335.81
316.689	362.81
316.919	361.81
317.148	377.81
317.377	369.81
317.607	367.81
317.836	351.81
318.065	343.81
318.295	347.81
318.524	360.81
318.753	342.81
318.983	368.81
319.212	358.81
319.441	351.81
319.67	347.81
319.9	349.81
320.129	357.81
320.358	360.81
320.587	346.81
320.816	342.81
321.046	379.81
321.275	366.81
321.504	361.81
321.733	356.81
321.962	382.81
322.191	395.81
322.42	388.81
322.649	412.81
322.878	382.81
323.108	394.81
323.337	424.81
323.566	443.81
323.795	459.81
324.024	471.81
324.253	583.81
324.482	790.81
324.71	1205.81
324.939	1811.81
325.168	1572.81
325.397	782.81
325.626	540.81
325.855	477.81
326.084	454.81
326.313	434.81
326.542	442.81
326.77	490.81
326.999	551.81
327.228	763.81
327.457	1137.81
327.686	1399.81
327.914	893.81
328.143	616.81
328.372	529.81
328.6	516.81
328.829	494.81
329.058	489.81
329.287	488.81
329.515	478.81
329.744	442.81
329.972	445.81
330.201	459.81
330.43	496.81
330.658	511.81
330.887	516.81
331.115	532.81
331.344	474.81
331.572	449.81
331.801	455.81
332.03	448.81
332.258	438.81
332.486	407.81
332.715	408.81
332.943	449.81
333.172	426.81
333.4	435.81
333.629	433.81
333.857	465.81
334.085	463.81
334.314	477.81
334.542	492.81
334.771	506.81
334.999	469.81
335.227	442.81
335.455	458.81
335.684	440.81
335.912	421.81
336.14	403.81
336.369	424.81
336.597	429.81
336.825	434.81
337.053	434.81
337.281	435.81
337.51	423.81
337.738	428.81
337.966	421.81
338.194	432.81
338.422	414.81
338.65	400.81
338.878	423.81
339.106	398.81
339.334	409.81
339.562	387.81
339.79	405.81
340.018	398.81
340.246	411.81
340.474	423.81
340.702	411.81
340.93	395.81
341.158	413.81
341.386	395.81
341.614	422.81
341.842	414.81
342.07	424.81
342.298	397.81
342.526	419.81
342.754	408.81
342.981	393.81
343.209	399.81
343.437	400.81
343.665	429.81
343.893	437.81
344.12	447.81
344.348	438.81
344.576	422.81
344.804	432.81
345.031	401.81
345.259	426.81
345.487	440.81
345.714	399.81
345.942	401.81
346.17	385.81
346.397	396.81
346.625	408.81
346.853	389.81
347.08	399.81
347.308	397.81
347.535	399.81
347.763	391.81
347.99	398.81
348.218	403.81
348.445	396.81
348.673	389.81
348.9	391.81
349.128	408.81
349.355	394.81
349.583	388.81
349.81	395.81
350.037	385.81
350.265	410.81
350.492	391.81
350.72	381.81
350.947	405.81
351.174	403.81
351.402	406.81
351.629	393.81
351.856	386.81
352.083	400.81
352.311	429.81
352.538	402.81
352.765	403.81
352.992	423.81
353.22	394.81
353.447	399.81
353.674	379.81
353.901	389.81
354.128	389.81
354.355	399.81
354.583	378.81
354.81	361.81
355.037	381.81
355.264	379.81
355.491	389.81
355.718	380.81
355.945	362.81
356.172	361.81
356.399	364.81
356.626	373.81
356.853	365.81
357.08	353.81
357.307	374.81
357.534	385.81
357.761	375.81
357.988	381.81
358.215	381.81
358.441	385.81
358.668	379.81
358.895	377.81
359.122	375.81
359.349	384.81
359.576	402.81
359.802	418.81
360.029	445.81
360.256	433.81
360.483	424.81
360.709	422.81
360.936	379.81
361.163	402.81
361.39	409.81
361.616	414.81
361.843	387.81
362.07	409.81
362.296	403.81
362.523	411.81
362.749	408.81
362.976	406.81
363.203	394.81
363.429	388.81
363.656	409.81
363.882	385.81
364.109	387.81
364.335	376.81
364.562	385.81
364.788	394.81
365.015	386.81
365.241	373.81
365.468	380.81
365.694	395.81
365.92	393.81
366.147	404.81
366.373	387.81
366.599	397.81
366.826	409.81
367.052	388.81
367.278	405.81
367.505	381.81
367.731	388.81
367.957	382.81
368.184	382.81
368.41	412.81
368.636	436.81
368.862	421.81
369.089	397.81
369.315	399.81
369.541	398.81
369.767	398.81
369.993	390.81
370.219	379.81
370.445	413.81
370.672	398.81
370.898	382.81
371.124	392.81
371.35	416.81
371.576	391.81
371.802	423.81
372.028	395.81
372.254	387.81
372.48	398.81
372.706	417.81
372.932	409.81
373.158	399.81
373.384	412.81
373.61	398.81
373.835	399.81
374.061	407.81
374.287	401.81
374.513	395.81
374.739	405.81
374.965	413.81
375.191	413.81
375.416	403.81
375.642	411.81
375.868	407.81
376.094	395.81
376.319	399.81
376.545	409.81
376.771	415.81
376.997	417.81
377.222	397.81
377.448	403.81
377.674	391.81
377.899	404.81
378.125	393.81
378.35	387.81
378.576	395.81
378.802	394.81
379.027	381.81
379.253	406.81
379.478	389.81
379.704	387.81
379.929	400.81
380.155	402.81
380.38	427.81
380.606	403.81
380.831	391.81
381.057	401.81
381.282	404.81
381.507	398.81
381.733	397.81
381.958	420.81
382.184	418.81
382.409	443.81
382.634	403.81
382.86	408.81
383.085	394.81
383.31	391.81
383.535	410.81
383.761	389.81
383.986	417.81
384.211	420.81
384.436	427.81
384.662	434.81
384.887	446.81
385.112	449.81
385.337	441.81
385.562	419.81
385.787	449.81
386.013	455.81
386.238	453.81
386.463	442.81
386.688	453.81
386.913	449.81
387.138	447.81
387.363	457.81
387.588	449.81
387.813	451.81
388.038	446.81
388.263	468.81
388.488	459.81
388.713	447.81
388.938	455.81
389.163	452.81
389.387	447.81
389.612	464.81
389.837	447.81
390.062	472.81
390.287	451.81
390.512	458.81
390.736	478.81
390.961	461.81
391.186	463.81
391.411	452.81
391.636	435.81
391.86	479.81
392.085	451.81
392.31	475.81
392.534	479.81
392.759	461.81
392.984	450.81
393.208	453.81
393.433	470.81
393.658	472.81
393.882	473.81
394.107	456.81
394.331	444.81
394.556	451.81
394.78	477.81
395.005	467.81
395.229	464.81
395.454	467.81
395.678	497.81
395.903	477.81
396.127	488.81
396.352	515.81
396.576	490.81
396.801	486.81
397.025	497.81
397.249	487.81
397.474	482.81
397.698	489.81
397.922	503.81
398.147	499.81
398.371	507.81
398.595	533.81
398.82	501.81
399.044	524.81
399.268	569.81
399.492	595.81
399.717	627.81
399.941	659.81
400.165	671.81
400.389	664.81
400.613	587.81
400.837	567.81
401.062	533.81
401.286	553.81
401.51	518.81
401.734	549.81
401.958	534.81
402.182	526.81
402.406	559.81
402.63	562.81
402.854	533.81
403.078	546.81
403.302	577.81
403.526	545.81
403.75	568.81
403.974	560.81
404.198	551.81
404.422	567.81
404.645	565.81
404.869	582.81
405.093	583.81
405.317	643.81
405.541	662.81
405.765	603.81
405.988	602.81
406.212	603.81
406.436	601.81
406.66	622.81
406.883	615.81
407.107	626.81
407.331	671.81
407.555	723.81
407.778	718.81
408.002	668.81
408.226	645.81
408.449	599.81
408.673	612.81
408.896	631.81
409.12	681.81
409.344	649.81
409.567	588.81
409.791	585.81
410.014	573.81
410.238	571.81
410.461	571.81
410.685	569.81
410.908	579.81
411.132	586.81
411.355	642.81
411.578	627.81
411.802	552.81
412.025	575.81
412.249	567.81
412.472	569.81
412.695	616.81
412.919	605.81
413.142	590.81
413.365	558.81
413.589	541.81
413.812	553.81
414.035	540.81
414.258	543.81
414.482	536.81
414.705	548.81
414.928	526.81
415.151	548.81
415.374	548.81
415.597	530.81
415.821	517.81
416.044	522.81
416.267	534.81
416.49	526.81
416.713	514.81
416.936	537.81
417.159	517.81
417.382	554.81
417.605	535.81
417.828	539.81
418.051	545.81
418.274	534.81
418.497	523.81
418.72	517.81
418.943	542.81
419.166	562.81
419.389	580.81
419.611	568.81
419.834	542.81
420.057	579.81
420.28	560.81
420.503	538.81
420.726	560.81
420.948	542.81
421.171	589.81
421.394	637.81
421.617	563.81
421.839	539.81
422.062	564.81
422.285	551.81
422.507	644.81
422.73	681.81
422.953	678.81
423.175	582.81
423.398	583.81
423.621	581.81
423.843	586.81
424.066	582.81
424.288	576.81
424.511	596.81
424.733	635.81
424.956	707.81
425.178	706.81
425.401	691.81
425.623	710.81
425.846	621.81
426.068	577.81
426.291	569.81
426.513	573.81
426.735	586.81
426.958	609.81
427.18	682.81
427.402	805.81
427.625	862.81
427.847	755.81
428.069	671.81
428.292	597.81
428.514	561.81
428.736	549.81
428.958	545.81
429.181	529.81
429.403	518.81
429.625	539.81
429.847	584.81
430.069	615.81
430.292	614.81
430.514	553.81
430.736	514.81
430.958	551.81
431.18	510.81
431.402	491.81
431.624	518.81
431.846	532.81
432.068	510.81
432.29	535.81
432.512	525.81
432.734	526.81
432.956	505.81
433.178	523.81
433.4	530.81
433.622	521.81
433.844	504.81
434.066	520.81
434.287	498.81
434.509	527.81
434.731	549.81
434.953	548.81
435.175	563.81
435.397	564.81
435.618	565.81
435.84	634.81
436.062	692.81
436.284	749.81
436.505	630.81
436.727	604.81
436.949	574.81
437.17	542.81
437.392	534.81
437.614	556.81
437.835	573.81
438.057	632.81
438.278	709.81
438.5	715.81
438.721	814.81
438.943	759.81
439.165	637.81
439.386	577.81
439.608	556.81
439.829	590.81
440.05	603.81
440.272	632.81
440.493	610.81
440.715	592.81
440.936	543.81
441.158	521.81
441.379	550.81
441.6	561.81
441.822	568.81
442.043	615.81
442.264	697.81
442.486	733.81
442.707	626.81
442.928	574.81
443.149	616.81
443.371	607.81
443.592	648.81
443.813	715.81
444.034	759.81
444.255	668.81
444.476	602.81
444.698	613.81
444.919	602.81
445.14	715.81
445.361	672.81
445.582	627.81
445.803	673.81
446.024	728.81
446.245	757.81
446.466	704.81
446.687	602.81
446.908	537.81
447.129	554.81
447.35	528.81
447.571	525.81
447.792	517.81
448.013	538.81
448.234	547.81
448.455	574.81
448.675	671.81
448.896	775.81
449.117	677.81
449.338	631.81
449.559	719.81
449.779	829.81
450	661.81
450.221	592.81
450.442	533.81
450.662	514.81
450.883	532.81
451.104	538.81
451.324	517.81
451.545	510.81
451.766	504.81
451.986	485.81
452.207	489.81
452.428	496.81
452.648	474.81
452.869	451.81
453.089	489.81
453.31	487.81
453.53	469.81
453.751	476.81
453.971	479.81
454.192	488.81
454.412	486.81
454.633	498.81
454.853	473.81
455.073	461.81
455.294	497.81
455.514	556.81
455.734	517.81
455.955	473.81
456.175	473.81
456.395	462.81
456.616	458.81
456.836	446.81
457.056	453.81
457.276	425.81
457.497	483.81
457.717	442.81
457.937	467.81
458.157	470.81
458.377	487.81
458.598	488.81
458.818	535.81
459.038	582.81
459.258	596.81
459.478	512.81
459.698	531.81
459.918	518.81
460.138	521.81
460.358	523.81
460.578	530.81
460.798	538.81
461.018	541.81
461.238	535.81
461.458	541.81
461.678	544.81
461.898	547.81
462.118	571.81
462.338	565.81
462.558	571.81
462.777	576.81
462.997	605.81
463.217	606.81
463.437	628.81
463.657	614.81
463.876	595.81
464.096	585.81
464.316	569.81
464.536	562.81
464.755	588.81
464.975	595.81
465.195	598.81
465.414	640.81
465.634	590.81
465.854	550.81
466.073	548.81
466.293	518.81
466.512	514.81
466.732	498.81
466.951	492.81
467.171	484.81
467.391	493.81
467.61	499.81
467.829	499.81
468.049	515.81
468.268	521.81
468.488	499.81
468.707	493.81
468.927	485.81
469.146	506.81
469.365	475.81
469.585	472.81
469.804	502.81
470.023	518.81
470.243	487.81
470.462	533.81
470.681	525.81
470.901	539.81
471.12	497.81
471.339	506.81
471.558	482.81
471.777	502.81
471.997	514.81
472.216	498.81
472.435	536.81
472.654	545.81
472.873	510.81
473.092	499.81
473.311	524.81
473.53	508.81
473.749	490.81
473.968	523.81
474.187	598.81
474.406	604.81
474.625	551.81
474.844	532.81
475.063	516.81
475.282	525.81
475.501	521.81
475.72	520.81
475.939	509.81
476.158	530.81
476.377	528.81
476.596	521.81
476.814	523.81
477.033	527.81
477.252	529.81
477.471	535.81
477.69	538.81
477.908	561.81
478.127	545.81
478.346	543.81
478.564	573.81
478.783	574.81
479.002	589.81
479.22	587.81
479.439	592.81
479.658	614.81
479.876	594.81
480.095	607.81
480.313	637.81
480.532	637.81
480.751	632.81
480.969	617.81
481.188	645.81
481.406	671.81
481.624	626.81
481.843	589.81
482.061	583.81
482.28	592.81
482.498	598.81
482.717	585.81
482.935	610.81
483.153	570.81
483.372	588.81
483.59	594.81
483.808	596.81
484.027	570.81
484.245	579.81
484.463	597.81
484.681	610.81
484.9	615.81
485.118	621.81
485.336	618.81
485.554	598.81
485.772	617.81
485.99	605.81
486.209	629.81
486.427	619.81
486.645	613.81
486.863	610.81
487.081	616.81
487.299	643.81
487.517	631.81
487.735	611.81
487.953	621.81
488.171	610.81
488.389	625.81
488.607	618.81
488.825	637.81
489.043	602.81
489.261	638.81
489.479	629.81
489.696	634.81
489.914	648.81
490.132	651.81
490.35	647.81
490.568	650.81
490.786	662.81
491.003	681.81
491.221	691.81
491.439	675.81
491.657	691.81
491.874	711.81
492.092	695.81
492.31	707.81
492.527	724.81
492.745	710.81
492.963	707.81
493.18	701.81
493.398	719.81
493.615	728.81
493.833	725.81
494.05	727.81
494.268	740.81
494.485	709.81
494.703	719.81
494.92	719.81
495.138	713.81
495.355	712.81
495.573	717.81
495.79	729.81
496.008	743.81
496.225	741.81
496.442	755.81
496.66	752.81
496.877	736.81
497.094	760.81
497.312	774.81
497.529	778.81
497.746	769.81
497.963	799.81
498.181	811.81
498.398	822.81
498.615	832.81
498.832	857.81
499.049	865.81
499.267	933.81
499.484	940.81
499.701	1011.81
499.918	1047.81
500.135	1106.81
500.352	1165.81
500.569	1175.81
500.786	1179.81
501.003	1173.81
501.22	1098.81
501.437	1093.81
501.654	1015.81
501.871	998.81
