Data from 1979.PennyLincolnUp.Lamp.En5.5.200Scan.071719.P1_HRD10591_16-18-22-863.txt Node
Date: Thu Jul 18 16:18:22 EDT 2019
User: cochatt
Spectrometer: HR+D1059
Trigger mode: 1
Integration Time (sec): 1.000000E-1
Scans to average: 1
Electric dark correction enabled: true
Nonlinearity correction enabled: false
Boxcar width: 0
XAxis mode: Wavelengths
Number of Pixels in Spectrum: 2048
>>>>>Begin Spectral Data<<<<<
223.165	-24.38
223.4	-24.38
223.635	-24.38
223.869	-13.38
224.104	-10.38
224.338	-6.38
224.573	-11.38
224.808	-13.38
225.042	-2.38
225.277	-3.38
225.511	-20.38
225.746	4.62
225.98	-9.38
226.215	5.62
226.449	20.62
226.683	33.62
226.918	27.62
227.152	22.62
227.387	48.62
227.621	30.62
227.856	60.62
228.09	41.62
228.324	54.62
228.559	71.62
228.793	74.62
229.027	101.62
229.262	108.62
229.496	103.62
229.73	124.62
229.964	130.62
230.199	109.62
230.433	114.62
230.667	108.62
230.901	108.62
231.136	100.62
231.37	118.62
231.604	105.62
231.838	107.62
232.072	115.62
232.306	107.62
232.541	102.62
232.775	114.62
233.009	97.62
233.243	96.62
233.477	92.62
233.711	124.62
233.945	101.62
234.179	111.62
234.413	119.62
234.647	114.62
234.881	107.62
235.115	121.62
235.349	107.62
235.583	130.62
235.817	109.62
236.051	110.62
236.285	119.62
236.519	119.62
236.753	126.62
236.987	132.62
237.221	160.62
237.455	197.62
237.689	171.62
237.922	134.62
238.156	130.62
238.39	131.62
238.624	120.62
238.858	111.62
239.091	123.62
239.325	128.62
239.559	124.62
239.793	130.62
240.027	121.62
240.26	125.62
240.494	145.62
240.728	130.62
240.961	145.62
241.195	128.62
241.429	130.62
241.662	116.62
241.896	129.62
242.13	132.62
242.363	131.62
242.597	131.62
242.83	127.62
243.064	125.62
243.298	123.62
243.531	127.62
243.765	150.62
243.998	140.62
244.232	132.62
244.465	144.62
244.699	122.62
244.932	157.62
245.166	150.62
245.399	152.62
245.633	155.62
245.866	136.62
246.099	144.62
246.333	133.62
246.566	144.62
246.8	132.62
247.033	153.62
247.266	150.62
247.5	159.62
247.733	150.62
247.966	165.62
248.2	166.62
248.433	158.62
248.666	168.62
248.899	185.62
249.133	164.62
249.366	194.62
249.599	179.62
249.832	174.62
250.066	186.62
250.299	158.62
250.532	191.62
250.765	176.62
250.998	187.62
251.231	189.62
251.465	194.62
251.698	188.62
251.931	183.62
252.164	181.62
252.397	180.62
252.63	187.62
252.863	197.62
253.096	212.62
253.329	204.62
253.562	178.62
253.795	205.62
254.028	198.62
254.261	193.62
254.494	212.62
254.727	198.62
254.96	200.62
255.193	223.62
255.426	214.62
255.659	200.62
255.892	210.62
256.124	202.62
256.357	208.62
256.59	200.62
256.823	201.62
257.056	192.62
257.289	198.62
257.521	194.62
257.754	187.62
257.987	189.62
258.22	212.62
258.452	174.62
258.685	195.62
258.918	201.62
259.151	200.62
259.383	211.62
259.616	200.62
259.849	188.62
260.081	200.62
260.314	205.62
260.547	217.62
260.779	213.62
261.012	220.62
261.244	210.62
261.477	195.62
261.71	199.62
261.942	200.62
262.175	223.62
262.407	209.62
262.64	190.62
262.872	190.62
263.105	184.62
263.337	205.62
263.57	202.62
263.802	212.62
264.035	202.62
264.267	193.62
264.499	205.62
264.732	190.62
264.964	201.62
265.197	200.62
265.429	202.62
265.661	198.62
265.894	203.62
266.126	197.62
266.358	214.62
266.591	205.62
266.823	213.62
267.055	201.62
267.287	206.62
267.52	205.62
267.752	202.62
267.984	215.62
268.216	198.62
268.448	216.62
268.681	213.62
268.913	222.62
269.145	232.62
269.377	251.62
269.609	228.62
269.841	234.62
270.073	241.62
270.306	244.62
270.538	265.62
270.77	260.62
271.002	262.62
271.234	259.62
271.466	262.62
271.698	273.62
271.93	282.62
272.162	262.62
272.394	291.62
272.626	253.62
272.858	259.62
273.09	251.62
273.322	232.62
273.553	240.62
273.785	239.62
274.017	241.62
274.249	231.62
274.481	229.62
274.713	221.62
274.945	244.62
275.176	236.62
275.408	229.62
275.64	242.62
275.872	253.62
276.104	239.62
276.335	234.62
276.567	245.62
276.799	256.62
277.031	276.62
277.262	282.62
277.494	261.62
277.726	262.62
277.957	268.62
278.189	250.62
278.421	256.62
278.652	255.62
278.884	247.62
279.115	237.62
279.347	230.62
279.579	261.62
279.81	260.62
280.042	249.62
280.273	246.62
280.505	262.62
280.736	264.62
280.968	239.62
281.199	236.62
281.431	254.62
281.662	242.62
281.894	258.62
282.125	264.62
282.356	268.62
282.588	282.62
282.819	279.62
283.051	256.62
283.282	241.62
283.513	268.62
283.745	251.62
283.976	256.62
284.207	250.62
284.439	255.62
284.67	272.62
284.901	270.62
285.132	281.62
285.364	259.62
285.595	252.62
285.826	262.62
286.057	264.62
286.288	285.62
286.52	282.62
286.751	272.62
286.982	263.62
287.213	274.62
287.444	266.62
287.675	271.62
287.906	292.62
288.138	279.62
288.369	278.62
288.6	287.62
288.831	285.62
289.062	282.62
289.293	283.62
289.524	262.62
289.755	273.62
289.986	277.62
290.217	284.62
290.448	278.62
290.679	268.62
290.91	276.62
291.141	272.62
291.371	264.62
291.602	268.62
291.833	262.62
292.064	268.62
292.295	278.62
292.526	260.62
292.757	280.62
292.987	271.62
293.218	264.62
293.449	266.62
293.68	275.62
293.91	276.62
294.141	284.62
294.372	281.62
294.603	287.62
294.833	283.62
295.064	283.62
295.295	276.62
295.525	276.62
295.756	267.62
295.987	292.62
296.217	292.62
296.448	289.62
296.679	303.62
296.909	290.62
297.14	287.62
297.37	270.62
297.601	293.62
297.831	286.62
298.062	282.62
298.292	284.62
298.523	293.62
298.753	274.62
298.984	277.62
299.214	293.62
299.445	292.62
299.675	293.62
299.905	310.62
300.136	307.62
300.366	304.62
300.597	290.62
300.827	301.62
301.057	311.62
301.288	314.62
301.518	287.62
301.748	312.62
301.979	310.62
302.209	316.62
302.439	316.62
302.669	299.62
302.9	305.62
303.13	294.62
303.36	338.62
303.59	294.62
303.82	298.62
304.051	318.62
304.281	309.62
304.511	312.62
304.741	303.62
304.971	310.62
305.201	304.62
305.431	296.62
305.661	319.62
305.891	306.62
306.121	314.62
306.352	314.62
306.582	314.62
306.812	315.62
307.042	306.62
307.272	303.62
307.502	313.62
307.731	303.62
307.961	319.62
308.191	317.62
308.421	339.62
308.651	299.62
308.881	324.62
309.111	323.62
309.341	325.62
309.571	328.62
309.8	341.62
310.03	345.62
310.26	335.62
310.49	323.62
310.72	355.62
310.949	351.62
311.179	352.62
311.409	344.62
311.639	348.62
311.868	342.62
312.098	353.62
312.328	350.62
312.557	359.62
312.787	381.62
313.017	363.62
313.246	360.62
313.476	352.62
313.706	339.62
313.935	378.62
314.165	365.62
314.394	360.62
314.624	375.62
314.853	363.62
315.083	365.62
315.312	355.62
315.542	350.62
315.771	350.62
316.001	343.62
316.23	363.62
316.46	345.62
316.689	362.62
316.919	350.62
317.148	352.62
317.377	375.62
317.607	363.62
317.836	347.62
318.065	349.62
318.295	357.62
318.524	347.62
318.753	354.62
318.983	350.62
319.212	344.62
319.441	355.62
319.67	372.62
319.9	357.62
320.129	354.62
320.358	355.62
320.587	367.62
320.816	370.62
321.046	353.62
321.275	381.62
321.504	365.62
321.733	372.62
321.962	384.62
322.191	389.62
322.42	388.62
322.649	388.62
322.878	405.62
323.108	418.62
323.337	420.62
323.566	443.62
323.795	478.62
324.024	484.62
324.253	602.62
324.482	788.62
324.71	1215.62
324.939	1797.62
325.168	1617.62
325.397	820.62
325.626	539.62
325.855	479.62
326.084	471.62
326.313	452.62
326.542	438.62
326.77	493.62
326.999	549.62
327.228	770.62
327.457	1134.62
327.686	1400.62
327.914	912.62
328.143	620.62
328.372	517.62
328.6	511.62
328.829	482.62
329.058	476.62
329.287	503.62
329.515	486.62
329.744	463.62
329.972	446.62
330.201	459.62
330.43	488.62
330.658	517.62
330.887	525.62
331.115	536.62
331.344	453.62
331.572	450.62
331.801	440.62
332.03	447.62
332.258	435.62
332.486	448.62
332.715	417.62
332.943	414.62
333.172	438.62
333.4	437.62
333.629	457.62
333.857	448.62
334.085	479.62
334.314	482.62
334.542	486.62
334.771	525.62
334.999	481.62
335.227	452.62
335.455	417.62
335.684	424.62
335.912	421.62
336.14	406.62
336.369	428.62
336.597	416.62
336.825	441.62
337.053	427.62
337.281	442.62
337.51	419.62
337.738	417.62
337.966	415.62
338.194	437.62
338.422	442.62
338.65	423.62
338.878	416.62
339.106	408.62
339.334	434.62
339.562	405.62
339.79	413.62
340.018	398.62
340.246	407.62
340.474	436.62
340.702	403.62
340.93	398.62
341.158	419.62
341.386	429.62
341.614	411.62
341.842	416.62
342.07	395.62
342.298	416.62
342.526	401.62
342.754	387.62
342.981	398.62
343.209	387.62
343.437	415.62
343.665	409.62
343.893	434.62
344.12	437.62
344.348	422.62
344.576	406.62
344.804	440.62
345.031	423.62
345.259	438.62
345.487	423.62
345.714	390.62
345.942	398.62
346.17	400.62
346.397	395.62
346.625	408.62
346.853	404.62
347.08	396.62
347.308	401.62
347.535	422.62
347.763	408.62
347.99	403.62
348.218	406.62
348.445	426.62
348.673	396.62
348.9	379.62
349.128	371.62
349.355	393.62
349.583	404.62
349.81	388.62
350.037	387.62
350.265	402.62
350.492	390.62
350.72	387.62
350.947	392.62
351.174	396.62
351.402	413.62
351.629	410.62
351.856	401.62
352.083	405.62
352.311	406.62
352.538	407.62
352.765	421.62
352.992	410.62
353.22	393.62
353.447	386.62
353.674	398.62
353.901	377.62
354.128	386.62
354.355	375.62
354.583	378.62
354.81	390.62
355.037	391.62
355.264	379.62
355.491	395.62
355.718	375.62
355.945	373.62
356.172	377.62
356.399	364.62
356.626	378.62
356.853	386.62
357.08	385.62
357.307	373.62
357.534	364.62
357.761	354.62
357.988	377.62
358.215	378.62
358.441	378.62
358.668	376.62
358.895	386.62
359.122	381.62
359.349	402.62
359.576	384.62
359.802	414.62
360.029	441.62
360.256	461.62
360.483	402.62
360.709	402.62
360.936	396.62
361.163	403.62
361.39	406.62
361.616	406.62
361.843	395.62
362.07	399.62
362.296	404.62
362.523	401.62
362.749	400.62
362.976	402.62
363.203	395.62
363.429	372.62
363.656	397.62
363.882	392.62
364.109	409.62
364.335	394.62
364.562	387.62
364.788	375.62
365.015	375.62
365.241	381.62
365.468	395.62
365.694	382.62
365.92	390.62
366.147	390.62
366.373	396.62
366.599	396.62
366.826	395.62
367.052	381.62
367.278	390.62
367.505	389.62
367.731	384.62
367.957	393.62
368.184	393.62
368.41	412.62
368.636	396.62
368.862	402.62
369.089	401.62
369.315	402.62
369.541	387.62
369.767	372.62
369.993	383.62
370.219	388.62
370.445	405.62
370.672	404.62
370.898	404.62
371.124	395.62
371.35	399.62
371.576	400.62
371.802	401.62
372.028	378.62
372.254	394.62
372.48	397.62
372.706	402.62
372.932	403.62
373.158	418.62
373.384	412.62
373.61	394.62
373.835	406.62
374.061	395.62
374.287	422.62
374.513	404.62
374.739	407.62
374.965	404.62
375.191	405.62
375.416	398.62
375.642	406.62
375.868	422.62
376.094	406.62
376.319	419.62
376.545	393.62
376.771	415.62
376.997	396.62
377.222	390.62
377.448	409.62
377.674	410.62
377.899	426.62
378.125	380.62
378.35	398.62
378.576	404.62
378.802	404.62
379.027	404.62
379.253	410.62
379.478	396.62
379.704	399.62
379.929	393.62
380.155	394.62
380.38	400.62
380.606	406.62
380.831	388.62
381.057	407.62
381.282	398.62
381.507	421.62
381.733	403.62
381.958	419.62
382.184	393.62
382.409	400.62
382.634	425.62
382.86	413.62
383.085	423.62
383.31	422.62
383.535	423.62
383.761	425.62
383.986	428.62
384.211	417.62
384.436	408.62
384.662	439.62
384.887	434.62
385.112	441.62
385.337	447.62
385.562	436.62
385.787	426.62
386.013	455.62
386.238	455.62
386.463	458.62
386.688	459.62
386.913	440.62
387.138	450.62
387.363	460.62
387.588	439.62
387.813	423.62
388.038	454.62
388.263	450.62
388.488	440.62
388.713	449.62
388.938	443.62
389.163	446.62
389.387	470.62
389.612	464.62
389.837	454.62
390.062	458.62
390.287	440.62
390.512	448.62
390.736	458.62
390.961	457.62
391.186	473.62
391.411	461.62
391.636	448.62
391.86	477.62
392.085	478.62
392.31	487.62
392.534	482.62
392.759	452.62
392.984	468.62
393.208	441.62
393.433	460.62
393.658	478.62
393.882	435.62
394.107	456.62
394.331	481.62
394.556	469.62
394.78	465.62
395.005	473.62
395.229	487.62
395.454	472.62
395.678	475.62
395.903	482.62
396.127	481.62
396.352	504.62
396.576	462.62
396.801	476.62
397.025	483.62
397.249	490.62
397.474	478.62
397.698	484.62
397.922	493.62
398.147	482.62
398.371	507.62
398.595	538.62
398.82	512.62
399.044	539.62
399.268	568.62
399.492	600.62
399.717	598.62
399.941	655.62
400.165	654.62
400.389	634.62
400.613	604.62
400.837	541.62
401.062	556.62
401.286	517.62
401.51	527.62
401.734	525.62
401.958	550.62
402.182	548.62
402.406	532.62
402.63	565.62
402.854	568.62
403.078	550.62
403.302	557.62
403.526	570.62
403.75	566.62
403.974	552.62
404.198	572.62
404.422	574.62
404.645	564.62
404.869	574.62
405.093	584.62
405.317	601.62
405.541	620.62
405.765	628.62
405.988	595.62
406.212	596.62
406.436	588.62
406.66	628.62
406.883	614.62
407.107	603.62
407.331	664.62
407.555	716.62
407.778	713.62
408.002	679.62
408.226	626.62
408.449	611.62
408.673	632.62
408.896	646.62
409.12	651.62
409.344	610.62
409.567	586.62
409.791	602.62
410.014	572.62
410.238	557.62
410.461	573.62
410.685	563.62
410.908	592.62
411.132	612.62
411.355	636.62
411.578	632.62
411.802	563.62
412.025	548.62
412.249	568.62
412.472	574.62
412.695	601.62
412.919	583.62
413.142	610.62
413.365	552.62
413.589	536.62
413.812	537.62
414.035	525.62
414.258	537.62
414.482	517.62
414.705	536.62
414.928	534.62
415.151	526.62
415.374	526.62
415.597	531.62
415.821	536.62
416.044	510.62
416.267	520.62
416.49	514.62
416.713	536.62
416.936	524.62
417.159	533.62
417.382	535.62
417.605	534.62
417.828	540.62
418.051	543.62
418.274	529.62
418.497	537.62
418.72	544.62
418.943	531.62
419.166	556.62
419.389	594.62
419.611	541.62
419.834	540.62
420.057	545.62
420.28	542.62
420.503	527.62
420.726	558.62
420.948	543.62
421.171	600.62
421.394	632.62
421.617	585.62
421.839	548.62
422.062	570.62
422.285	550.62
422.507	596.62
422.73	674.62
422.953	647.62
423.175	602.62
423.398	574.62
423.621	556.62
423.843	568.62
424.066	583.62
424.288	573.62
424.511	610.62
424.733	639.62
424.956	706.62
425.178	690.62
425.401	678.62
425.623	679.62
425.846	612.62
426.068	579.62
426.291	592.62
426.513	597.62
426.735	581.62
426.958	611.62
427.18	716.62
427.402	824.62
427.625	898.62
427.847	778.62
428.069	665.62
428.292	611.62
428.514	553.62
428.736	553.62
428.958	555.62
429.181	544.62
429.403	525.62
429.625	540.62
429.847	548.62
430.069	638.62
430.292	636.62
430.514	566.62
430.736	546.62
430.958	529.62
431.18	543.62
431.402	507.62
431.624	511.62
431.846	520.62
432.068	511.62
432.29	505.62
432.512	502.62
432.734	523.62
432.956	514.62
433.178	526.62
433.4	527.62
433.622	537.62
433.844	510.62
434.066	514.62
434.287	550.62
434.509	520.62
434.731	538.62
434.953	543.62
435.175	553.62
435.397	567.62
435.618	565.62
435.84	610.62
436.062	703.62
436.284	754.62
436.505	626.62
436.727	580.62
436.949	558.62
437.17	532.62
437.392	542.62
437.614	532.62
437.835	566.62
438.057	638.62
438.278	735.62
438.5	733.62
438.721	801.62
438.943	772.62
439.165	610.62
439.386	579.62
439.608	575.62
439.829	577.62
440.05	585.62
440.272	645.62
440.493	587.62
440.715	548.62
440.936	563.62
441.158	532.62
441.379	552.62
441.6	566.62
441.822	547.62
442.043	614.62
442.264	688.62
442.486	709.62
442.707	626.62
442.928	577.62
443.149	598.62
443.371	596.62
443.592	643.62
443.813	724.62
444.034	783.62
444.255	686.62
444.476	615.62
444.698	589.62
444.919	599.62
445.14	726.62
445.361	652.62
445.582	601.62
445.803	667.62
446.024	766.62
446.245	742.62
446.466	688.62
446.687	582.62
446.908	558.62
447.129	542.62
447.35	565.62
447.571	534.62
447.792	501.62
448.013	519.62
448.234	542.62
448.455	570.62
448.675	672.62
448.896	789.62
449.117	674.62
449.338	633.62
449.559	724.62
449.779	823.62
450	687.62
450.221	584.62
450.442	539.62
450.662	526.62
450.883	526.62
451.104	529.62
451.324	534.62
451.545	478.62
451.766	487.62
451.986	467.62
452.207	470.62
452.428	465.62
452.648	485.62
452.869	475.62
453.089	468.62
453.31	486.62
453.53	483.62
453.751	504.62
453.971	461.62
454.192	503.62
454.412	464.62
454.633	468.62
454.853	482.62
455.073	479.62
455.294	508.62
455.514	536.62
455.734	528.62
455.955	458.62
456.175	467.62
456.395	454.62
456.616	464.62
456.836	452.62
457.056	436.62
457.276	447.62
457.497	467.62
457.717	451.62
457.937	458.62
458.157	464.62
458.377	455.62
458.598	514.62
458.818	552.62
459.038	611.62
459.258	610.62
459.478	570.62
459.698	529.62
459.918	532.62
460.138	513.62
460.358	518.62
460.578	544.62
460.798	547.62
461.018	549.62
461.238	555.62
461.458	532.62
461.678	548.62
461.898	558.62
462.118	565.62
462.338	604.62
462.558	571.62
462.777	572.62
462.997	598.62
463.217	622.62
463.437	632.62
463.657	586.62
463.876	616.62
464.096	589.62
464.316	570.62
464.536	577.62
464.755	570.62
464.975	572.62
465.195	604.62
465.414	636.62
465.634	602.62
465.854	549.62
466.073	538.62
466.293	503.62
466.512	494.62
466.732	488.62
466.951	502.62
467.171	472.62
467.391	502.62
467.61	509.62
467.829	522.62
468.049	510.62
468.268	493.62
468.488	494.62
468.707	485.62
468.927	494.62
469.146	475.62
469.365	467.62
469.585	461.62
469.804	522.62
470.023	512.62
470.243	514.62
470.462	544.62
470.681	543.62
470.901	518.62
471.12	526.62
471.339	519.62
471.558	494.62
471.777	520.62
471.997	486.62
472.216	516.62
472.435	528.62
472.654	532.62
472.873	515.62
473.092	490.62
473.311	492.62
473.53	489.62
473.749	492.62
473.968	548.62
474.187	610.62
474.406	631.62
474.625	556.62
474.844	512.62
475.063	519.62
475.282	524.62
475.501	494.62
475.72	506.62
475.939	515.62
476.158	517.62
476.377	523.62
476.596	519.62
476.814	525.62
477.033	543.62
477.252	545.62
477.471	525.62
477.69	516.62
477.908	564.62
478.127	555.62
478.346	565.62
478.564	552.62
478.783	566.62
479.002	589.62
479.22	582.62
479.439	602.62
479.658	621.62
479.876	584.62
480.095	627.62
480.313	660.62
480.532	646.62
480.751	615.62
480.969	635.62
481.188	670.62
481.406	706.62
481.624	642.62
481.843	614.62
482.061	611.62
482.28	592.62
482.498	612.62
482.717	603.62
482.935	586.62
483.153	583.62
483.372	604.62
483.59	600.62
483.808	580.62
484.027	588.62
484.245	575.62
484.463	595.62
484.681	589.62
484.9	597.62
485.118	592.62
485.336	579.62
485.554	603.62
485.772	614.62
485.99	600.62
486.209	614.62
486.427	626.62
486.645	624.62
486.863	628.62
487.081	618.62
487.299	631.62
487.517	629.62
487.735	615.62
487.953	610.62
488.171	623.62
488.389	651.62
488.607	632.62
488.825	612.62
489.043	639.62
489.261	646.62
489.479	637.62
489.696	651.62
489.914	638.62
490.132	656.62
490.35	638.62
490.568	639.62
490.786	634.62
491.003	678.62
491.221	668.62
491.439	683.62
491.657	699.62
491.874	719.62
492.092	673.62
492.31	682.62
492.527	715.62
492.745	719.62
492.963	726.62
493.18	710.62
493.398	728.62
493.615	735.62
493.833	700.62
494.05	708.62
494.268	730.62
494.485	727.62
494.703	723.62
494.92	730.62
495.138	712.62
495.355	738.62
495.573	742.62
495.79	741.62
496.008	749.62
496.225	732.62
496.442	724.62
496.66	745.62
496.877	727.62
497.094	736.62
497.312	742.62
497.529	764.62
497.746	782.62
497.963	784.62
498.181	841.62
498.398	856.62
498.615	854.62
498.832	853.62
499.049	879.62
499.267	937.62
499.484	988.62
499.701	1030.62
499.918	1036.62
500.135	1088.62
500.352	1163.62
500.569	1212.62
500.786	1164.62
501.003	1193.62
501.22	1099.62
501.437	1068.62
501.654	989.62
501.871	989.62
