Data from 1979.PennyLincolnUp.Lamp.En5.5.200Scan.071719.P1_HRD10591_16-18-45-863.txt Node
Date: Thu Jul 18 16:18:45 EDT 2019
User: cochatt
Spectrometer: HR+D1059
Trigger mode: 1
Integration Time (sec): 1.000000E-1
Scans to average: 1
Electric dark correction enabled: true
Nonlinearity correction enabled: false
Boxcar width: 0
XAxis mode: Wavelengths
Number of Pixels in Spectrum: 2048
>>>>>Begin Spectral Data<<<<<
223.165	1.31
223.4	1.31
223.635	1.31
223.869	-20.69
224.104	-14.69
224.338	-20.69
224.573	-17.69
224.808	-3.69
225.042	-0.69
225.277	-1.69
225.511	6.31
225.746	0.31
225.98	5.31
226.215	3.31
226.449	26.31
226.683	8.31
226.918	4.31
227.152	24.31
227.387	36.31
227.621	29.31
227.856	38.31
228.09	43.31
228.324	38.31
228.559	56.31
228.793	64.31
229.027	91.31
229.262	100.31
229.496	117.31
229.73	124.31
229.964	152.31
230.199	128.31
230.433	118.31
230.667	103.31
230.901	106.31
231.136	88.31
231.37	99.31
231.604	107.31
231.838	109.31
232.072	109.31
232.306	108.31
232.541	120.31
232.775	112.31
233.009	108.31
233.243	110.31
233.477	107.31
233.711	121.31
233.945	113.31
234.179	110.31
234.413	128.31
234.647	124.31
234.881	112.31
235.115	123.31
235.349	113.31
235.583	110.31
235.817	126.31
236.051	130.31
236.285	127.31
236.519	143.31
236.753	122.31
236.987	132.31
237.221	158.31
237.455	224.31
237.689	183.31
237.922	117.31
238.156	122.31
238.39	100.31
238.624	116.31
238.858	130.31
239.091	124.31
239.325	124.31
239.559	132.31
239.793	122.31
240.027	132.31
240.26	134.31
240.494	157.31
240.728	156.31
240.961	138.31
241.195	146.31
241.429	130.31
241.662	138.31
241.896	122.31
242.13	130.31
242.363	140.31
242.597	142.31
242.83	128.31
243.064	140.31
243.298	141.31
243.531	139.31
243.765	136.31
243.998	145.31
244.232	132.31
244.465	140.31
244.699	146.31
244.932	138.31
245.166	138.31
245.399	146.31
245.633	143.31
245.866	151.31
246.099	148.31
246.333	129.31
246.566	145.31
246.8	157.31
247.033	145.31
247.266	151.31
247.5	154.31
247.733	159.31
247.966	157.31
248.2	171.31
248.433	164.31
248.666	173.31
248.899	177.31
249.133	194.31
249.366	181.31
249.599	187.31
249.832	179.31
250.066	159.31
250.299	180.31
250.532	182.31
250.765	210.31
250.998	211.31
251.231	209.31
251.465	197.31
251.698	191.31
251.931	179.31
252.164	192.31
252.397	182.31
252.63	197.31
252.863	198.31
253.096	191.31
253.329	217.31
253.562	187.31
253.795	196.31
254.028	208.31
254.261	208.31
254.494	211.31
254.727	242.31
254.96	261.31
255.193	239.31
255.426	233.31
255.659	219.31
255.892	218.31
256.124	201.31
256.357	217.31
256.59	201.31
256.823	197.31
257.056	206.31
257.289	196.31
257.521	205.31
257.754	206.31
257.987	197.31
258.22	206.31
258.452	204.31
258.685	209.31
258.918	202.31
259.151	201.31
259.383	209.31
259.616	204.31
259.849	225.31
260.081	229.31
260.314	237.31
260.547	225.31
260.779	209.31
261.012	215.31
261.244	206.31
261.477	218.31
261.71	219.31
261.942	246.31
262.175	236.31
262.407	230.31
262.64	203.31
262.872	208.31
263.105	205.31
263.337	210.31
263.57	198.31
263.802	203.31
264.035	201.31
264.267	213.31
264.499	191.31
264.732	217.31
264.964	188.31
265.197	189.31
265.429	190.31
265.661	214.31
265.894	207.31
266.126	204.31
266.358	212.31
266.591	212.31
266.823	228.31
267.055	226.31
267.287	226.31
267.52	209.31
267.752	203.31
267.984	205.31
268.216	228.31
268.448	220.31
268.681	234.31
268.913	248.31
269.145	229.31
269.377	267.31
269.609	255.31
269.841	250.31
270.073	250.31
270.306	264.31
270.538	289.31
270.77	284.31
271.002	281.31
271.234	268.31
271.466	262.31
271.698	278.31
271.93	289.31
272.162	294.31
272.394	282.31
272.626	290.31
272.858	286.31
273.09	274.31
273.322	248.31
273.553	255.31
273.785	247.31
274.017	247.31
274.249	253.31
274.481	249.31
274.713	235.31
274.945	260.31
275.176	246.31
275.408	259.31
275.64	272.31
275.872	247.31
276.104	267.31
276.335	255.31
276.567	275.31
276.799	265.31
277.031	292.31
277.262	304.31
277.494	287.31
277.726	280.31
277.957	279.31
278.189	252.31
278.421	248.31
278.652	240.31
278.884	244.31
279.115	233.31
279.347	268.31
279.579	256.31
279.81	262.31
280.042	248.31
280.273	257.31
280.505	264.31
280.736	266.31
280.968	269.31
281.199	247.31
281.431	261.31
281.662	251.31
281.894	252.31
282.125	289.31
282.356	279.31
282.588	306.31
282.819	297.31
283.051	276.31
283.282	280.31
283.513	276.31
283.745	268.31
283.976	261.31
284.207	272.31
284.439	269.31
284.67	278.31
284.901	280.31
285.132	270.31
285.364	283.31
285.595	275.31
285.826	274.31
286.057	276.31
286.288	276.31
286.52	284.31
286.751	265.31
286.982	260.31
287.213	278.31
287.444	304.31
287.675	292.31
287.906	281.31
288.138	296.31
288.369	289.31
288.6	296.31
288.831	292.31
289.062	283.31
289.293	297.31
289.524	270.31
289.755	272.31
289.986	271.31
290.217	271.31
290.448	261.31
290.679	276.31
290.91	310.31
291.141	308.31
291.371	289.31
291.602	298.31
291.833	274.31
292.064	268.31
292.295	292.31
292.526	284.31
292.757	297.31
292.987	293.31
293.218	298.31
293.449	305.31
293.68	278.31
293.91	294.31
294.141	286.31
294.372	279.31
294.603	284.31
294.833	270.31
295.064	267.31
295.295	282.31
295.525	284.31
295.756	299.31
295.987	294.31
296.217	324.31
296.448	336.31
296.679	322.31
296.909	311.31
297.14	289.31
297.37	297.31
297.601	294.31
297.831	292.31
298.062	295.31
298.292	287.31
298.523	316.31
298.753	307.31
298.984	288.31
299.214	313.31
299.445	304.31
299.675	294.31
299.905	305.31
300.136	334.31
300.366	314.31
300.597	312.31
300.827	311.31
301.057	322.31
301.288	333.31
301.518	332.31
301.748	312.31
301.979	308.31
302.209	332.31
302.439	332.31
302.669	318.31
302.9	324.31
303.13	339.31
303.36	336.31
303.59	324.31
303.82	337.31
304.051	344.31
304.281	328.31
304.511	322.31
304.741	332.31
304.971	316.31
305.201	315.31
305.431	324.31
305.661	322.31
305.891	324.31
306.121	319.31
306.352	322.31
306.582	348.31
306.812	311.31
307.042	329.31
307.272	333.31
307.502	308.31
307.731	308.31
307.961	322.31
308.191	340.31
308.421	318.31
308.651	336.31
308.881	335.31
309.111	334.31
309.341	348.31
309.571	348.31
309.8	368.31
310.03	370.31
310.26	368.31
310.49	361.31
310.72	386.31
310.949	379.31
311.179	396.31
311.409	374.31
311.639	365.31
311.868	378.31
312.098	361.31
312.328	382.31
312.557	372.31
312.787	382.31
313.017	390.31
313.246	395.31
313.476	363.31
313.706	365.31
313.935	396.31
314.165	363.31
314.394	392.31
314.624	383.31
314.853	341.31
315.083	363.31
315.312	365.31
315.542	366.31
315.771	358.31
316.001	356.31
316.23	366.31
316.46	376.31
316.689	373.31
316.919	376.31
317.148	380.31
317.377	381.31
317.607	378.31
317.836	381.31
318.065	392.31
318.295	373.31
318.524	379.31
318.753	368.31
318.983	389.31
319.212	382.31
319.441	371.31
319.67	388.31
319.9	375.31
320.129	365.31
320.358	354.31
320.587	368.31
320.816	377.31
321.046	396.31
321.275	400.31
321.504	404.31
321.733	418.31
321.962	389.31
322.191	404.31
322.42	420.31
322.649	429.31
322.878	439.31
323.108	442.31
323.337	445.31
323.566	459.31
323.795	512.31
324.024	538.31
324.253	652.31
324.482	907.31
324.71	1347.31
324.939	2104.31
325.168	1832.31
325.397	876.31
325.626	613.31
325.855	515.31
326.084	490.31
326.313	488.31
326.542	518.31
326.77	530.31
326.999	616.31
327.228	856.31
327.457	1269.31
327.686	1576.31
327.914	1022.31
328.143	676.31
328.372	597.31
328.6	542.31
328.829	516.31
329.058	550.31
329.287	555.31
329.515	536.31
329.744	511.31
329.972	480.31
330.201	502.31
330.43	541.31
330.658	560.31
330.887	591.31
331.115	585.31
331.344	489.31
331.572	462.31
331.801	486.31
332.03	474.31
332.258	476.31
332.486	441.31
332.715	456.31
332.943	449.31
333.172	450.31
333.4	478.31
333.629	478.31
333.857	477.31
334.085	509.31
334.314	508.31
334.542	532.31
334.771	515.31
334.999	514.31
335.227	487.31
335.455	474.31
335.684	470.31
335.912	471.31
336.14	448.31
336.369	452.31
336.597	460.31
336.825	481.31
337.053	459.31
337.281	454.31
337.51	458.31
337.738	445.31
337.966	449.31
338.194	450.31
338.422	455.31
338.65	451.31
338.878	428.31
339.106	436.31
339.334	442.31
339.562	440.31
339.79	433.31
340.018	456.31
340.246	438.31
340.474	437.31
340.702	415.31
340.93	428.31
341.158	438.31
341.386	418.31
341.614	434.31
341.842	444.31
342.07	436.31
342.298	418.31
342.526	448.31
342.754	436.31
342.981	419.31
343.209	388.31
343.437	423.31
343.665	416.31
343.893	470.31
344.12	450.31
344.348	448.31
344.576	440.31
344.804	457.31
345.031	457.31
345.259	445.31
345.487	451.31
345.714	434.31
345.942	434.31
346.17	436.31
346.397	396.31
346.625	407.31
346.853	449.31
347.08	413.31
347.308	426.31
347.535	443.31
347.763	414.31
347.99	416.31
348.218	418.31
348.445	407.31
348.673	437.31
348.9	409.31
349.128	427.31
349.355	397.31
349.583	389.31
349.81	420.31
350.037	417.31
350.265	416.31
350.492	420.31
350.72	405.31
350.947	405.31
351.174	447.31
351.402	427.31
351.629	443.31
351.856	417.31
352.083	414.31
352.311	431.31
352.538	419.31
352.765	441.31
352.992	452.31
353.22	426.31
353.447	435.31
353.674	421.31
353.901	396.31
354.128	397.31
354.355	399.31
354.583	407.31
354.81	413.31
355.037	414.31
355.264	399.31
355.491	384.31
355.718	386.31
355.945	401.31
356.172	397.31
356.399	382.31
356.626	380.31
356.853	400.31
357.08	393.31
357.307	408.31
357.534	384.31
357.761	378.31
357.988	414.31
358.215	398.31
358.441	397.31
358.668	392.31
358.895	398.31
359.122	390.31
359.349	407.31
359.576	428.31
359.802	435.31
360.029	455.31
360.256	490.31
360.483	465.31
360.709	434.31
360.936	415.31
361.163	412.31
361.39	420.31
361.616	442.31
361.843	411.31
362.07	424.31
362.296	432.31
362.523	414.31
362.749	408.31
362.976	423.31
363.203	410.31
363.429	398.31
363.656	411.31
363.882	419.31
364.109	412.31
364.335	410.31
364.562	416.31
364.788	394.31
365.015	422.31
365.241	398.31
365.468	415.31
365.694	417.31
365.92	409.31
366.147	401.31
366.373	416.31
366.599	404.31
366.826	404.31
367.052	402.31
367.278	405.31
367.505	412.31
367.731	404.31
367.957	411.31
368.184	424.31
368.41	402.31
368.636	426.31
368.862	423.31
369.089	436.31
369.315	418.31
369.541	424.31
369.767	421.31
369.993	407.31
370.219	388.31
370.445	414.31
370.672	416.31
370.898	420.31
371.124	391.31
371.35	428.31
371.576	435.31
371.802	408.31
372.028	432.31
372.254	410.31
372.48	397.31
372.706	405.31
372.932	413.31
373.158	406.31
373.384	412.31
373.61	416.31
373.835	434.31
374.061	423.31
374.287	433.31
374.513	431.31
374.739	434.31
374.965	412.31
375.191	443.31
375.416	422.31
375.642	417.31
375.868	429.31
376.094	435.31
376.319	416.31
376.545	411.31
376.771	408.31
376.997	421.31
377.222	416.31
377.448	418.31
377.674	401.31
377.899	421.31
378.125	417.31
378.35	400.31
378.576	449.31
378.802	419.31
379.027	396.31
379.253	424.31
379.478	412.31
379.704	403.31
379.929	408.31
380.155	426.31
380.38	426.31
380.606	430.31
380.831	409.31
381.057	418.31
381.282	433.31
381.507	418.31
381.733	427.31
381.958	413.31
382.184	421.31
382.409	441.31
382.634	432.31
382.86	404.31
383.085	423.31
383.31	454.31
383.535	426.31
383.761	442.31
383.986	450.31
384.211	445.31
384.436	458.31
384.662	436.31
384.887	458.31
385.112	461.31
385.337	459.31
385.562	454.31
385.787	473.31
386.013	474.31
386.238	452.31
386.463	467.31
386.688	491.31
386.913	467.31
387.138	454.31
387.363	451.31
387.588	476.31
387.813	458.31
388.038	474.31
388.263	470.31
388.488	482.31
388.713	452.31
388.938	489.31
389.163	486.31
389.387	468.31
389.612	468.31
389.837	465.31
390.062	468.31
390.287	475.31
390.512	457.31
390.736	455.31
390.961	472.31
391.186	471.31
391.411	456.31
391.636	491.31
391.86	500.31
392.085	500.31
392.31	491.31
392.534	506.31
392.759	482.31
392.984	501.31
393.208	482.31
393.433	516.31
393.658	510.31
393.882	478.31
394.107	475.31
394.331	462.31
394.556	467.31
394.78	499.31
395.005	498.31
395.229	491.31
395.454	481.31
395.678	519.31
395.903	525.31
396.127	518.31
396.352	552.31
396.576	496.31
396.801	517.31
397.025	512.31
397.249	506.31
397.474	509.31
397.698	510.31
397.922	523.31
398.147	518.31
398.371	552.31
398.595	550.31
398.82	562.31
399.044	555.31
399.268	590.31
399.492	633.31
399.717	661.31
399.941	678.31
400.165	704.31
400.389	662.31
400.613	603.31
400.837	593.31
401.062	589.31
401.286	562.31
401.51	579.31
401.734	556.31
401.958	566.31
402.182	569.31
402.406	553.31
402.63	572.31
402.854	608.31
403.078	564.31
403.302	588.31
403.526	585.31
403.75	574.31
403.974	576.31
404.198	584.31
404.422	587.31
404.645	598.31
404.869	590.31
405.093	616.31
405.317	634.31
405.541	689.31
405.765	657.31
405.988	598.31
406.212	626.31
406.436	630.31
406.66	650.31
406.883	637.31
407.107	662.31
407.331	709.31
407.555	749.31
407.778	745.31
408.002	693.31
408.226	674.31
408.449	642.31
408.673	630.31
408.896	662.31
409.12	689.31
409.344	649.31
409.567	597.31
409.791	608.31
410.014	594.31
410.238	580.31
410.461	586.31
410.685	586.31
410.908	586.31
411.132	643.31
411.355	664.31
411.578	655.31
411.802	606.31
412.025	589.31
412.249	572.31
412.472	631.31
412.695	644.31
412.919	644.31
413.142	607.31
413.365	596.31
413.589	592.31
413.812	569.31
414.035	577.31
414.258	563.31
414.482	563.31
414.705	572.31
414.928	572.31
415.151	533.31
415.374	556.31
415.597	558.31
415.821	552.31
416.044	547.31
416.267	568.31
416.49	560.31
416.713	542.31
416.936	567.31
417.159	542.31
417.382	541.31
417.605	568.31
417.828	564.31
418.051	596.31
418.274	583.31
418.497	563.31
418.72	553.31
418.943	542.31
419.166	575.31
419.389	612.31
419.611	586.31
419.834	610.31
420.057	596.31
420.28	591.31
420.503	591.31
420.726	574.31
420.948	590.31
421.171	617.31
421.394	657.31
421.617	584.31
421.839	570.31
422.062	594.31
422.285	568.31
422.507	637.31
422.73	710.31
422.953	689.31
423.175	596.31
423.398	615.31
423.621	599.31
423.843	647.31
424.066	635.31
424.288	620.31
424.511	630.31
424.733	677.31
424.956	742.31
425.178	708.31
425.401	709.31
425.623	754.31
425.846	658.31
426.068	596.31
426.291	581.31
426.513	621.31
426.735	603.31
426.958	646.31
427.18	720.31
427.402	851.31
427.625	937.31
427.847	824.31
428.069	706.31
428.292	639.31
428.514	597.31
428.736	572.31
428.958	581.31
429.181	572.31
429.403	567.31
429.625	586.31
429.847	611.31
430.069	651.31
430.292	658.31
430.514	570.31
430.736	525.31
430.958	531.31
431.18	524.31
431.402	541.31
431.624	568.31
431.846	550.31
432.068	546.31
432.29	544.31
432.512	564.31
432.734	578.31
432.956	542.31
433.178	570.31
433.4	538.31
433.622	556.31
433.844	538.31
434.066	532.31
434.287	548.31
434.509	529.31
434.731	550.31
434.953	561.31
435.175	577.31
435.397	615.31
435.618	617.31
435.84	645.31
436.062	721.31
436.284	814.31
436.505	682.31
436.727	630.31
436.949	573.31
437.17	565.31
437.392	576.31
437.614	584.31
437.835	598.31
438.057	699.31
438.278	791.31
438.5	761.31
438.721	857.31
438.943	844.31
439.165	668.31
439.386	627.31
439.608	627.31
439.829	599.31
440.05	643.31
440.272	692.31
440.493	654.31
440.715	602.31
440.936	581.31
441.158	566.31
441.379	565.31
441.6	580.31
441.822	621.31
442.043	648.31
442.264	733.31
442.486	752.31
442.707	684.31
442.928	637.31
443.149	650.31
443.371	642.31
443.592	684.31
443.813	765.31
444.034	832.31
444.255	687.31
444.476	640.31
444.698	637.31
444.919	618.31
445.14	732.31
445.361	677.31
445.582	659.31
445.803	726.31
446.024	811.31
446.245	826.31
446.466	740.31
446.687	668.31
446.908	614.31
447.129	540.31
447.35	563.31
447.571	560.31
447.792	546.31
448.013	560.31
448.234	585.31
448.455	620.31
448.675	713.31
448.896	842.31
449.117	689.31
449.338	672.31
449.559	789.31
449.779	891.31
450	704.31
450.221	585.31
450.442	553.31
450.662	578.31
450.883	544.31
451.104	553.31
451.324	537.31
451.545	531.31
451.766	510.31
451.986	510.31
452.207	513.31
452.428	480.31
452.648	512.31
452.869	510.31
453.089	500.31
453.31	515.31
453.53	516.31
453.751	500.31
453.971	524.31
454.192	498.31
454.412	507.31
454.633	516.31
454.853	488.31
455.073	491.31
455.294	537.31
455.514	591.31
455.734	580.31
455.955	508.31
456.175	498.31
456.395	483.31
456.616	477.31
456.836	488.31
457.056	483.31
457.276	458.31
457.497	483.31
457.717	485.31
457.937	477.31
458.157	481.31
458.377	512.31
458.598	518.31
458.818	576.31
459.038	626.31
459.258	689.31
459.478	600.31
459.698	568.31
459.918	562.31
460.138	544.31
460.358	578.31
460.578	582.31
460.798	578.31
461.018	577.31
461.238	572.31
461.458	582.31
461.678	556.31
461.898	581.31
462.118	583.31
462.338	586.31
462.558	592.31
462.777	612.31
462.997	614.31
463.217	643.31
463.437	634.31
463.657	647.31
463.876	597.31
464.096	616.31
464.316	601.31
464.536	615.31
464.755	621.31
464.975	614.31
465.195	652.31
465.414	692.31
465.634	614.31
465.854	588.31
466.073	569.31
466.293	529.31
466.512	540.31
466.732	550.31
466.951	540.31
467.171	540.31
467.391	516.31
467.61	538.31
467.829	540.31
468.049	554.31
468.268	544.31
468.488	525.31
468.707	509.31
468.927	536.31
469.146	512.31
469.365	502.31
469.585	532.31
469.804	537.31
470.023	530.31
470.243	522.31
470.462	537.31
470.681	568.31
470.901	560.31
471.12	545.31
471.339	547.31
471.558	524.31
471.777	542.31
471.997	526.31
472.216	548.31
472.435	568.31
472.654	552.31
472.873	520.31
473.092	502.31
473.311	525.31
473.53	525.31
473.749	555.31
473.968	557.31
474.187	645.31
474.406	659.31
474.625	556.31
474.844	544.31
475.063	527.31
475.282	544.31
475.501	525.31
475.72	551.31
475.939	552.31
476.158	542.31
476.377	540.31
476.596	537.31
476.814	535.31
477.033	565.31
477.252	564.31
477.471	565.31
477.69	591.31
477.908	594.31
478.127	595.31
478.346	582.31
478.564	590.31
478.783	609.31
479.002	602.31
479.22	611.31
479.439	615.31
479.658	653.31
479.876	652.31
480.095	644.31
480.313	685.31
480.532	656.31
480.751	638.31
480.969	673.31
481.188	728.31
481.406	752.31
481.624	644.31
481.843	657.31
482.061	634.31
482.28	636.31
482.498	604.31
482.717	626.31
482.935	625.31
483.153	614.31
483.372	618.31
483.59	642.31
483.808	624.31
484.027	624.31
484.245	636.31
484.463	624.31
484.681	613.31
484.9	646.31
485.118	625.31
485.336	627.31
485.554	634.31
485.772	657.31
485.99	668.31
486.209	624.31
486.427	645.31
486.645	647.31
486.863	663.31
487.081	671.31
487.299	673.31
487.517	639.31
487.735	655.31
487.953	669.31
488.171	682.31
488.389	656.31
488.607	669.31
488.825	680.31
489.043	677.31
489.261	647.31
489.479	691.31
489.696	654.31
489.914	685.31
490.132	670.31
490.35	699.31
490.568	697.31
490.786	704.31
491.003	699.31
491.221	728.31
491.439	742.31
491.657	729.31
491.874	733.31
492.092	737.31
492.31	720.31
492.527	742.31
492.745	734.31
492.963	769.31
493.18	778.31
493.398	762.31
493.615	774.31
493.833	771.31
494.05	790.31
494.268	793.31
494.485	770.31
494.703	731.31
494.92	767.31
495.138	768.31
495.355	782.31
495.573	795.31
495.79	770.31
496.008	783.31
496.225	769.31
496.442	793.31
496.66	790.31
496.877	812.31
497.094	812.31
497.312	803.31
497.529	823.31
497.746	835.31
497.963	834.31
498.181	882.31
498.398	880.31
498.615	895.31
498.832	910.31
499.049	950.31
499.267	991.31
499.484	1010.31
499.701	1029.31
499.918	1106.31
500.135	1132.31
500.352	1220.31
500.569	1244.31
500.786	1242.31
501.003	1196.31
501.22	1170.31
501.437	1148.31
501.654	1076.31
501.871	1039.31
