Data from 1979.PennyLincolnUp.Lamp.En5.5.200Scan.071719.P1_HRD10591_16-18-42-863.txt Node
Date: Thu Jul 18 16:18:42 EDT 2019
User: cochatt
Spectrometer: HR+D1059
Trigger mode: 1
Integration Time (sec): 1.000000E-1
Scans to average: 1
Electric dark correction enabled: true
Nonlinearity correction enabled: false
Boxcar width: 0
XAxis mode: Wavelengths
Number of Pixels in Spectrum: 2048
>>>>>Begin Spectral Data<<<<<
223.165	-18.94
223.4	-18.94
223.635	-18.94
223.869	-17.94
224.104	-19.94
224.338	-19.94
224.573	-9.94
224.808	2.06
225.042	-6.94
225.277	-5.94
225.511	-11.94
225.746	-3.94
225.98	8.06
226.215	17.06
226.449	13.06
226.683	17.06
226.918	24.06
227.152	34.06
227.387	30.06
227.621	42.06
227.856	39.06
228.09	47.06
228.324	57.06
228.559	43.06
228.793	65.06
229.027	100.06
229.262	108.06
229.496	102.06
229.73	130.06
229.964	140.06
230.199	119.06
230.433	121.06
230.667	121.06
230.901	105.06
231.136	111.06
231.37	110.06
231.604	119.06
231.838	95.06
232.072	109.06
232.306	122.06
232.541	109.06
232.775	112.06
233.009	118.06
233.243	104.06
233.477	110.06
233.711	107.06
233.945	110.06
234.179	117.06
234.413	124.06
234.647	128.06
234.881	123.06
235.115	108.06
235.349	116.06
235.583	126.06
235.817	122.06
236.051	119.06
236.285	114.06
236.519	125.06
236.753	121.06
236.987	136.06
237.221	166.06
237.455	220.06
237.689	164.06
237.922	127.06
238.156	134.06
238.39	126.06
238.624	136.06
238.858	134.06
239.091	142.06
239.325	117.06
239.559	119.06
239.793	138.06
240.027	148.06
240.26	154.06
240.494	156.06
240.728	149.06
240.961	124.06
241.195	132.06
241.429	118.06
241.662	143.06
241.896	130.06
242.13	134.06
242.363	126.06
242.597	122.06
242.83	140.06
243.064	140.06
243.298	147.06
243.531	128.06
243.765	152.06
243.998	142.06
244.232	153.06
244.465	139.06
244.699	129.06
244.932	151.06
245.166	143.06
245.399	149.06
245.633	143.06
245.866	145.06
246.099	133.06
246.333	140.06
246.566	148.06
246.8	143.06
247.033	150.06
247.266	150.06
247.5	155.06
247.733	157.06
247.966	183.06
248.2	167.06
248.433	164.06
248.666	167.06
248.899	183.06
249.133	192.06
249.366	195.06
249.599	182.06
249.832	162.06
250.066	182.06
250.299	165.06
250.532	179.06
250.765	174.06
250.998	212.06
251.231	214.06
251.465	205.06
251.698	212.06
251.931	191.06
252.164	184.06
252.397	176.06
252.63	183.06
252.863	184.06
253.096	197.06
253.329	202.06
253.562	208.06
253.795	215.06
254.028	206.06
254.261	208.06
254.494	211.06
254.727	226.06
254.96	222.06
255.193	224.06
255.426	213.06
255.659	210.06
255.892	215.06
256.124	207.06
256.357	211.06
256.59	212.06
256.823	195.06
257.056	182.06
257.289	199.06
257.521	214.06
257.754	218.06
257.987	191.06
258.22	206.06
258.452	186.06
258.685	182.06
258.918	198.06
259.151	211.06
259.383	201.06
259.616	215.06
259.849	203.06
260.081	215.06
260.314	237.06
260.547	232.06
260.779	213.06
261.012	223.06
261.244	212.06
261.477	211.06
261.71	220.06
261.942	205.06
262.175	229.06
262.407	220.06
262.64	214.06
262.872	214.06
263.105	193.06
263.337	200.06
263.57	195.06
263.802	203.06
264.035	207.06
264.267	204.06
264.499	210.06
264.732	209.06
264.964	187.06
265.197	200.06
265.429	203.06
265.661	197.06
265.894	209.06
266.126	204.06
266.358	196.06
266.591	223.06
266.823	216.06
267.055	194.06
267.287	217.06
267.52	212.06
267.752	213.06
267.984	211.06
268.216	215.06
268.448	239.06
268.681	221.06
268.913	213.06
269.145	243.06
269.377	254.06
269.609	263.06
269.841	246.06
270.073	245.06
270.306	270.06
270.538	270.06
270.77	306.06
271.002	272.06
271.234	244.06
271.466	253.06
271.698	277.06
271.93	276.06
272.162	260.06
272.394	293.06
272.626	277.06
272.858	266.06
273.09	258.06
273.322	271.06
273.553	253.06
273.785	259.06
274.017	244.06
274.249	262.06
274.481	244.06
274.713	260.06
274.945	235.06
275.176	238.06
275.408	243.06
275.64	262.06
275.872	247.06
276.104	254.06
276.335	244.06
276.567	251.06
276.799	258.06
277.031	281.06
277.262	292.06
277.494	299.06
277.726	278.06
277.957	260.06
278.189	255.06
278.421	260.06
278.652	256.06
278.884	251.06
279.115	259.06
279.347	257.06
279.579	250.06
279.81	271.06
280.042	273.06
280.273	260.06
280.505	242.06
280.736	245.06
280.968	252.06
281.199	266.06
281.431	252.06
281.662	264.06
281.894	269.06
282.125	264.06
282.356	292.06
282.588	303.06
282.819	293.06
283.051	278.06
283.282	246.06
283.513	292.06
283.745	263.06
283.976	263.06
284.207	280.06
284.439	262.06
284.67	255.06
284.901	248.06
285.132	273.06
285.364	259.06
285.595	279.06
285.826	264.06
286.057	263.06
286.288	248.06
286.52	261.06
286.751	261.06
286.982	273.06
287.213	281.06
287.444	289.06
287.675	283.06
287.906	278.06
288.138	293.06
288.369	297.06
288.6	280.06
288.831	272.06
289.062	288.06
289.293	290.06
289.524	292.06
289.755	270.06
289.986	269.06
290.217	287.06
290.448	304.06
290.679	283.06
290.91	282.06
291.141	287.06
291.371	296.06
291.602	275.06
291.833	269.06
292.064	296.06
292.295	284.06
292.526	284.06
292.757	278.06
292.987	294.06
293.218	266.06
293.449	292.06
293.68	286.06
293.91	279.06
294.141	282.06
294.372	288.06
294.603	266.06
294.833	290.06
295.064	290.06
295.295	293.06
295.525	279.06
295.756	306.06
295.987	319.06
296.217	299.06
296.448	306.06
296.679	308.06
296.909	308.06
297.14	281.06
297.37	278.06
297.601	280.06
297.831	310.06
298.062	288.06
298.292	281.06
298.523	293.06
298.753	309.06
298.984	292.06
299.214	315.06
299.445	303.06
299.675	322.06
299.905	328.06
300.136	299.06
300.366	313.06
300.597	311.06
300.827	312.06
301.057	327.06
301.288	328.06
301.518	331.06
301.748	324.06
301.979	303.06
302.209	324.06
302.439	326.06
302.669	340.06
302.9	306.06
303.13	310.06
303.36	314.06
303.59	323.06
303.82	314.06
304.051	327.06
304.281	333.06
304.511	320.06
304.741	333.06
304.971	298.06
305.201	328.06
305.431	315.06
305.661	327.06
305.891	296.06
306.121	320.06
306.352	318.06
306.582	327.06
306.812	318.06
307.042	324.06
307.272	342.06
307.502	322.06
307.731	330.06
307.961	324.06
308.191	334.06
308.421	308.06
308.651	343.06
308.881	323.06
309.111	343.06
309.341	342.06
309.571	343.06
309.8	357.06
310.03	348.06
310.26	345.06
310.49	348.06
310.72	352.06
310.949	361.06
311.179	371.06
311.409	374.06
311.639	362.06
311.868	380.06
312.098	359.06
312.328	372.06
312.557	380.06
312.787	392.06
313.017	389.06
313.246	372.06
313.476	372.06
313.706	364.06
313.935	360.06
314.165	372.06
314.394	378.06
314.624	381.06
314.853	374.06
315.083	350.06
315.312	358.06
315.542	355.06
315.771	374.06
316.001	357.06
316.23	361.06
316.46	373.06
316.689	379.06
316.919	371.06
317.148	368.06
317.377	373.06
317.607	390.06
317.836	374.06
318.065	360.06
318.295	365.06
318.524	389.06
318.753	396.06
318.983	375.06
319.212	362.06
319.441	353.06
319.67	386.06
319.9	372.06
320.129	377.06
320.358	385.06
320.587	378.06
320.816	390.06
321.046	378.06
321.275	397.06
321.504	390.06
321.733	377.06
321.962	393.06
322.191	400.06
322.42	415.06
322.649	410.06
322.878	430.06
323.108	416.06
323.337	460.06
323.566	455.06
323.795	469.06
324.024	506.06
324.253	606.06
324.482	846.06
324.71	1343.06
324.939	1936.06
325.168	1743.06
325.397	854.06
325.626	586.06
325.855	503.06
326.084	452.06
326.313	461.06
326.542	457.06
326.77	515.06
326.999	574.06
327.228	825.06
327.457	1232.06
327.686	1560.06
327.914	962.06
328.143	652.06
328.372	569.06
328.6	522.06
328.829	539.06
329.058	526.06
329.287	539.06
329.515	503.06
329.744	484.06
329.972	478.06
330.201	494.06
330.43	513.06
330.658	531.06
330.887	563.06
331.115	554.06
331.344	516.06
331.572	443.06
331.801	471.06
332.03	470.06
332.258	464.06
332.486	448.06
332.715	437.06
332.943	450.06
333.172	473.06
333.4	457.06
333.629	461.06
333.857	476.06
334.085	489.06
334.314	487.06
334.542	526.06
334.771	516.06
334.999	490.06
335.227	495.06
335.455	465.06
335.684	456.06
335.912	455.06
336.14	439.06
336.369	454.06
336.597	434.06
336.825	451.06
337.053	448.06
337.281	444.06
337.51	424.06
337.738	443.06
337.966	429.06
338.194	418.06
338.422	436.06
338.65	416.06
338.878	431.06
339.106	431.06
339.334	434.06
339.562	432.06
339.79	420.06
340.018	407.06
340.246	426.06
340.474	414.06
340.702	418.06
340.93	409.06
341.158	430.06
341.386	420.06
341.614	421.06
341.842	434.06
342.07	397.06
342.298	411.06
342.526	430.06
342.754	422.06
342.981	405.06
343.209	407.06
343.437	428.06
343.665	438.06
343.893	442.06
344.12	425.06
344.348	434.06
344.576	428.06
344.804	424.06
345.031	437.06
345.259	444.06
345.487	432.06
345.714	414.06
345.942	434.06
346.17	417.06
346.397	412.06
346.625	408.06
346.853	407.06
347.08	429.06
347.308	415.06
347.535	413.06
347.763	430.06
347.99	416.06
348.218	416.06
348.445	389.06
348.673	436.06
348.9	413.06
349.128	384.06
349.355	399.06
349.583	409.06
349.81	405.06
350.037	419.06
350.265	411.06
350.492	394.06
350.72	403.06
350.947	397.06
351.174	410.06
351.402	409.06
351.629	419.06
351.856	393.06
352.083	429.06
352.311	400.06
352.538	430.06
352.765	431.06
352.992	406.06
353.22	416.06
353.447	419.06
353.674	390.06
353.901	394.06
354.128	379.06
354.355	391.06
354.583	397.06
354.81	388.06
355.037	412.06
355.264	387.06
355.491	395.06
355.718	382.06
355.945	401.06
356.172	385.06
356.399	388.06
356.626	404.06
356.853	402.06
357.08	394.06
357.307	393.06
357.534	400.06
357.761	387.06
357.988	378.06
358.215	383.06
358.441	401.06
358.668	390.06
358.895	412.06
359.122	404.06
359.349	416.06
359.576	414.06
359.802	434.06
360.029	435.06
360.256	446.06
360.483	452.06
360.709	410.06
360.936	423.06
361.163	402.06
361.39	414.06
361.616	444.06
361.843	416.06
362.07	401.06
362.296	417.06
362.523	423.06
362.749	401.06
362.976	406.06
363.203	393.06
363.429	386.06
363.656	407.06
363.882	416.06
364.109	422.06
364.335	404.06
364.562	406.06
364.788	397.06
365.015	399.06
365.241	389.06
365.468	406.06
365.694	405.06
365.92	410.06
366.147	393.06
366.373	394.06
366.599	392.06
366.826	410.06
367.052	400.06
367.278	399.06
367.505	401.06
367.731	413.06
367.957	401.06
368.184	408.06
368.41	424.06
368.636	420.06
368.862	408.06
369.089	439.06
369.315	389.06
369.541	415.06
369.767	415.06
369.993	399.06
370.219	395.06
370.445	422.06
370.672	416.06
370.898	421.06
371.124	403.06
371.35	408.06
371.576	421.06
371.802	416.06
372.028	412.06
372.254	395.06
372.48	414.06
372.706	451.06
372.932	444.06
373.158	410.06
373.384	427.06
373.61	429.06
373.835	405.06
374.061	399.06
374.287	421.06
374.513	431.06
374.739	435.06
374.965	414.06
375.191	431.06
375.416	425.06
375.642	446.06
375.868	420.06
376.094	427.06
376.319	398.06
376.545	417.06
376.771	407.06
376.997	421.06
377.222	408.06
377.448	406.06
377.674	425.06
377.899	428.06
378.125	411.06
378.35	407.06
378.576	392.06
378.802	418.06
379.027	412.06
379.253	415.06
379.478	411.06
379.704	415.06
379.929	420.06
380.155	418.06
380.38	423.06
380.606	414.06
380.831	422.06
381.057	404.06
381.282	420.06
381.507	427.06
381.733	420.06
381.958	417.06
382.184	392.06
382.409	411.06
382.634	427.06
382.86	426.06
383.085	428.06
383.31	421.06
383.535	421.06
383.761	426.06
383.986	448.06
384.211	417.06
384.436	463.06
384.662	471.06
384.887	469.06
385.112	455.06
385.337	452.06
385.562	470.06
385.787	451.06
386.013	463.06
386.238	477.06
386.463	460.06
386.688	483.06
386.913	465.06
387.138	464.06
387.363	458.06
387.588	460.06
387.813	494.06
388.038	471.06
388.263	470.06
388.488	459.06
388.713	456.06
388.938	448.06
389.163	445.06
389.387	443.06
389.612	457.06
389.837	464.06
390.062	458.06
390.287	487.06
390.512	451.06
390.736	455.06
390.961	468.06
391.186	462.06
391.411	485.06
391.636	475.06
391.86	462.06
392.085	495.06
392.31	517.06
392.534	474.06
392.759	492.06
392.984	494.06
393.208	476.06
393.433	514.06
393.658	494.06
393.882	468.06
394.107	490.06
394.331	502.06
394.556	469.06
394.78	467.06
395.005	495.06
395.229	501.06
395.454	496.06
395.678	486.06
395.903	499.06
396.127	518.06
396.352	516.06
396.576	507.06
396.801	513.06
397.025	494.06
397.249	512.06
397.474	521.06
397.698	505.06
397.922	536.06
398.147	541.06
398.371	527.06
398.595	550.06
398.82	536.06
399.044	574.06
399.268	584.06
399.492	597.06
399.717	659.06
399.941	679.06
400.165	694.06
400.389	670.06
400.613	634.06
400.837	596.06
401.062	570.06
401.286	548.06
401.51	546.06
401.734	558.06
401.958	567.06
402.182	552.06
402.406	560.06
402.63	578.06
402.854	546.06
403.078	557.06
403.302	578.06
403.526	572.06
403.75	574.06
403.974	586.06
404.198	560.06
404.422	587.06
404.645	592.06
404.869	603.06
405.093	615.06
405.317	652.06
405.541	686.06
405.765	640.06
405.988	609.06
406.212	632.06
406.436	631.06
406.66	645.06
406.883	648.06
407.107	643.06
407.331	687.06
407.555	754.06
407.778	740.06
408.002	708.06
408.226	664.06
408.449	642.06
408.673	642.06
408.896	650.06
409.12	703.06
409.344	664.06
409.567	606.06
409.791	586.06
410.014	590.06
410.238	592.06
410.461	600.06
410.685	589.06
410.908	593.06
411.132	624.06
411.355	665.06
411.578	636.06
411.802	594.06
412.025	592.06
412.249	602.06
412.472	617.06
412.695	660.06
412.919	594.06
413.142	582.06
413.365	588.06
413.589	582.06
413.812	593.06
414.035	563.06
414.258	549.06
414.482	557.06
414.705	568.06
414.928	558.06
415.151	547.06
415.374	547.06
415.597	548.06
415.821	536.06
416.044	521.06
416.267	534.06
416.49	557.06
416.713	520.06
416.936	528.06
417.159	545.06
417.382	532.06
417.605	538.06
417.828	569.06
418.051	562.06
418.274	576.06
418.497	570.06
418.72	557.06
418.943	557.06
419.166	587.06
419.389	601.06
419.611	593.06
419.834	589.06
420.057	602.06
420.28	593.06
420.503	560.06
420.726	580.06
420.948	573.06
421.171	638.06
421.394	616.06
421.617	592.06
421.839	584.06
422.062	591.06
422.285	576.06
422.507	633.06
422.73	697.06
422.953	672.06
423.175	613.06
423.398	593.06
423.621	598.06
423.843	591.06
424.066	603.06
424.288	580.06
424.511	618.06
424.733	680.06
424.956	751.06
425.178	726.06
425.401	699.06
425.623	766.06
425.846	644.06
426.068	614.06
426.291	586.06
426.513	567.06
426.735	597.06
426.958	644.06
427.18	728.06
427.402	844.06
427.625	954.06
427.847	802.06
428.069	695.06
428.292	638.06
428.514	594.06
428.736	565.06
428.958	564.06
429.181	570.06
429.403	545.06
429.625	559.06
429.847	604.06
430.069	659.06
430.292	642.06
430.514	576.06
430.736	580.06
430.958	536.06
431.18	526.06
431.402	538.06
431.624	516.06
431.846	531.06
432.068	536.06
432.29	531.06
432.512	538.06
432.734	552.06
432.956	550.06
433.178	555.06
433.4	545.06
433.622	548.06
433.844	534.06
434.066	550.06
434.287	542.06
434.509	540.06
434.731	564.06
434.953	555.06
435.175	559.06
435.397	581.06
435.618	598.06
435.84	647.06
436.062	719.06
436.284	798.06
436.505	652.06
436.727	636.06
436.949	566.06
437.17	564.06
437.392	566.06
437.614	575.06
437.835	575.06
438.057	681.06
438.278	752.06
438.5	748.06
438.721	834.06
438.943	830.06
439.165	652.06
439.386	598.06
439.608	602.06
439.829	601.06
440.05	623.06
440.272	670.06
440.493	626.06
440.715	607.06
440.936	585.06
441.158	558.06
441.379	582.06
441.6	583.06
441.822	594.06
442.043	615.06
442.264	728.06
442.486	755.06
442.707	663.06
442.928	635.06
443.149	638.06
443.371	644.06
443.592	665.06
443.813	760.06
444.034	828.06
444.255	708.06
444.476	636.06
444.698	625.06
444.919	639.06
445.14	722.06
445.361	674.06
445.582	642.06
445.803	688.06
446.024	779.06
446.245	802.06
446.466	731.06
446.687	638.06
446.908	595.06
447.129	574.06
447.35	541.06
447.571	567.06
447.792	557.06
448.013	560.06
448.234	540.06
448.455	608.06
448.675	723.06
448.896	818.06
449.117	700.06
449.338	663.06
449.559	736.06
449.779	840.06
450	687.06
450.221	589.06
450.442	555.06
450.662	524.06
450.883	546.06
451.104	551.06
451.324	524.06
451.545	538.06
451.766	519.06
451.986	495.06
452.207	503.06
452.428	491.06
452.648	488.06
452.869	481.06
453.089	499.06
453.31	535.06
453.53	508.06
453.751	489.06
453.971	504.06
454.192	517.06
454.412	491.06
454.633	475.06
454.853	483.06
455.073	491.06
455.294	513.06
455.514	578.06
455.734	567.06
455.955	501.06
456.175	476.06
456.395	456.06
456.616	473.06
456.836	492.06
457.056	488.06
457.276	471.06
457.497	467.06
457.717	467.06
457.937	516.06
458.157	483.06
458.377	492.06
458.598	511.06
458.818	566.06
459.038	636.06
459.258	662.06
459.478	602.06
459.698	536.06
459.918	544.06
460.138	553.06
460.358	548.06
460.578	577.06
460.798	562.06
461.018	580.06
461.238	573.06
461.458	555.06
461.678	567.06
461.898	581.06
462.118	552.06
462.338	575.06
462.558	565.06
462.777	592.06
462.997	617.06
463.217	621.06
463.437	645.06
463.657	601.06
463.876	614.06
464.096	612.06
464.316	638.06
464.536	608.06
464.755	607.06
464.975	613.06
465.195	652.06
465.414	692.06
465.634	616.06
465.854	578.06
466.073	559.06
466.293	552.06
466.512	549.06
466.732	536.06
466.951	541.06
467.171	526.06
467.391	543.06
467.61	531.06
467.829	554.06
468.049	543.06
468.268	540.06
468.488	522.06
468.707	521.06
468.927	525.06
469.146	480.06
469.365	520.06
469.585	500.06
469.804	521.06
470.023	529.06
470.243	527.06
470.462	527.06
470.681	524.06
470.901	520.06
471.12	533.06
471.339	520.06
471.558	538.06
471.777	529.06
471.997	520.06
472.216	527.06
472.435	578.06
472.654	560.06
472.873	527.06
473.092	494.06
473.311	487.06
473.53	528.06
473.749	531.06
473.968	584.06
474.187	652.06
474.406	654.06
474.625	564.06
474.844	523.06
475.063	514.06
475.282	514.06
475.501	526.06
475.72	550.06
475.939	534.06
476.158	526.06
476.377	538.06
476.596	559.06
476.814	541.06
477.033	555.06
477.252	571.06
477.471	554.06
477.69	563.06
477.908	592.06
478.127	576.06
478.346	551.06
478.564	579.06
478.783	620.06
479.002	597.06
479.22	610.06
479.439	626.06
479.658	626.06
479.876	624.06
480.095	642.06
480.313	645.06
480.532	671.06
480.751	632.06
480.969	630.06
481.188	687.06
481.406	740.06
481.624	675.06
481.843	624.06
482.061	639.06
482.28	610.06
482.498	590.06
482.717	599.06
482.935	627.06
483.153	622.06
483.372	595.06
483.59	596.06
483.808	623.06
484.027	598.06
484.245	608.06
484.463	618.06
484.681	637.06
484.9	621.06
485.118	646.06
485.336	637.06
485.554	650.06
485.772	645.06
485.99	651.06
486.209	638.06
486.427	672.06
486.645	647.06
486.863	666.06
487.081	660.06
487.299	642.06
487.517	648.06
487.735	653.06
487.953	670.06
488.171	651.06
488.389	666.06
488.607	637.06
488.825	639.06
489.043	651.06
489.261	636.06
489.479	670.06
489.696	660.06
489.914	653.06
490.132	655.06
490.35	666.06
490.568	687.06
490.786	703.06
491.003	706.06
491.221	719.06
491.439	717.06
491.657	731.06
491.874	714.06
492.092	717.06
492.31	729.06
492.527	748.06
492.745	755.06
492.963	770.06
493.18	738.06
493.398	742.06
493.615	746.06
493.833	787.06
494.05	752.06
494.268	754.06
494.485	758.06
494.703	733.06
494.92	772.06
495.138	746.06
495.355	758.06
495.573	750.06
495.79	747.06
496.008	745.06
496.225	778.06
496.442	764.06
496.66	777.06
496.877	762.06
497.094	779.06
497.312	810.06
497.529	812.06
497.746	828.06
497.963	827.06
498.181	844.06
498.398	860.06
498.615	887.06
498.832	898.06
499.049	926.06
499.267	934.06
499.484	994.06
499.701	1025.06
499.918	1107.06
500.135	1138.06
500.352	1195.06
500.569	1224.06
500.786	1227.06
501.003	1183.06
501.22	1155.06
501.437	1122.06
501.654	1053.06
501.871	1036.06
