Data from 1979.PennyLincolnUp.Lamp.En5.5.200Scan.071719.P1_HRD10591_16-18-38-863.txt Node
Date: Thu Jul 18 16:18:38 EDT 2019
User: cochatt
Spectrometer: HR+D1059
Trigger mode: 1
Integration Time (sec): 1.000000E-1
Scans to average: 1
Electric dark correction enabled: true
Nonlinearity correction enabled: false
Boxcar width: 0
XAxis mode: Wavelengths
Number of Pixels in Spectrum: 2048
>>>>>Begin Spectral Data<<<<<
223.165	-28.81
223.4	-28.81
223.635	-28.81
223.869	-17.81
224.104	-13.81
224.338	-21.81
224.573	-10.81
224.808	-13.81
225.042	5.19
225.277	-10.81
225.511	-11.81
225.746	8.19
225.98	7.19
226.215	11.19
226.449	10.19
226.683	19.19
226.918	29.19
227.152	39.19
227.387	39.19
227.621	31.19
227.856	47.19
228.09	47.19
228.324	51.19
228.559	68.19
228.793	66.19
229.027	89.19
229.262	103.19
229.496	117.19
229.73	130.19
229.964	131.19
230.199	131.19
230.433	109.19
230.667	123.19
230.901	117.19
231.136	118.19
231.37	115.19
231.604	101.19
231.838	108.19
232.072	110.19
232.306	101.19
232.541	119.19
232.775	106.19
233.009	116.19
233.243	115.19
233.477	119.19
233.711	103.19
233.945	109.19
234.179	112.19
234.413	117.19
234.647	105.19
234.881	127.19
235.115	114.19
235.349	117.19
235.583	127.19
235.817	120.19
236.051	124.19
236.285	131.19
236.519	122.19
236.753	135.19
236.987	134.19
237.221	163.19
237.455	203.19
237.689	169.19
237.922	150.19
238.156	128.19
238.39	120.19
238.624	130.19
238.858	124.19
239.091	126.19
239.325	106.19
239.559	117.19
239.793	121.19
240.027	136.19
240.26	132.19
240.494	134.19
240.728	133.19
240.961	134.19
241.195	134.19
241.429	134.19
241.662	148.19
241.896	118.19
242.13	128.19
242.363	126.19
242.597	134.19
242.83	130.19
243.064	134.19
243.298	107.19
243.531	141.19
243.765	142.19
243.998	140.19
244.232	135.19
244.465	137.19
244.699	159.19
244.932	150.19
245.166	143.19
245.399	146.19
245.633	144.19
245.866	148.19
246.099	144.19
246.333	138.19
246.566	156.19
246.8	156.19
247.033	139.19
247.266	150.19
247.5	158.19
247.733	168.19
247.966	145.19
248.2	159.19
248.433	153.19
248.666	145.19
248.899	180.19
249.133	185.19
249.366	193.19
249.599	189.19
249.832	180.19
250.066	178.19
250.299	173.19
250.532	174.19
250.765	174.19
250.998	206.19
251.231	210.19
251.465	204.19
251.698	189.19
251.931	183.19
252.164	190.19
252.397	199.19
252.63	183.19
252.863	173.19
253.096	194.19
253.329	206.19
253.562	207.19
253.795	196.19
254.028	200.19
254.261	194.19
254.494	194.19
254.727	227.19
254.96	236.19
255.193	222.19
255.426	231.19
255.659	218.19
255.892	193.19
256.124	223.19
256.357	191.19
256.59	216.19
256.823	202.19
257.056	189.19
257.289	186.19
257.521	187.19
257.754	194.19
257.987	183.19
258.22	207.19
258.452	216.19
258.685	196.19
258.918	191.19
259.151	189.19
259.383	206.19
259.616	199.19
259.849	202.19
260.081	208.19
260.314	221.19
260.547	238.19
260.779	227.19
261.012	214.19
261.244	208.19
261.477	196.19
261.71	204.19
261.942	209.19
262.175	228.19
262.407	209.19
262.64	209.19
262.872	204.19
263.105	200.19
263.337	212.19
263.57	190.19
263.802	215.19
264.035	216.19
264.267	216.19
264.499	198.19
264.732	209.19
264.964	202.19
265.197	218.19
265.429	195.19
265.661	204.19
265.894	208.19
266.126	192.19
266.358	212.19
266.591	197.19
266.823	216.19
267.055	213.19
267.287	218.19
267.52	213.19
267.752	197.19
267.984	210.19
268.216	205.19
268.448	209.19
268.681	206.19
268.913	232.19
269.145	233.19
269.377	251.19
269.609	249.19
269.841	242.19
270.073	263.19
270.306	263.19
270.538	277.19
270.77	278.19
271.002	272.19
271.234	264.19
271.466	265.19
271.698	259.19
271.93	275.19
272.162	280.19
272.394	255.19
272.626	269.19
272.858	258.19
273.09	251.19
273.322	243.19
273.553	239.19
273.785	236.19
274.017	225.19
274.249	245.19
274.481	247.19
274.713	234.19
274.945	270.19
275.176	248.19
275.408	229.19
275.64	243.19
275.872	254.19
276.104	230.19
276.335	243.19
276.567	249.19
276.799	269.19
277.031	278.19
277.262	265.19
277.494	290.19
277.726	261.19
277.957	249.19
278.189	250.19
278.421	260.19
278.652	237.19
278.884	246.19
279.115	251.19
279.347	256.19
279.579	235.19
279.81	251.19
280.042	260.19
280.273	244.19
280.505	245.19
280.736	255.19
280.968	260.19
281.199	256.19
281.431	243.19
281.662	256.19
281.894	256.19
282.125	239.19
282.356	275.19
282.588	290.19
282.819	298.19
283.051	255.19
283.282	264.19
283.513	248.19
283.745	261.19
283.976	273.19
284.207	257.19
284.439	262.19
284.67	279.19
284.901	260.19
285.132	270.19
285.364	258.19
285.595	268.19
285.826	264.19
286.057	258.19
286.288	288.19
286.52	282.19
286.751	258.19
286.982	265.19
287.213	268.19
287.444	268.19
287.675	284.19
287.906	286.19
288.138	283.19
288.369	287.19
288.6	300.19
288.831	280.19
289.062	279.19
289.293	283.19
289.524	284.19
289.755	284.19
289.986	262.19
290.217	269.19
290.448	271.19
290.679	276.19
290.91	263.19
291.141	266.19
291.371	268.19
291.602	275.19
291.833	266.19
292.064	289.19
292.295	284.19
292.526	281.19
292.757	282.19
292.987	268.19
293.218	274.19
293.449	273.19
293.68	283.19
293.91	256.19
294.141	281.19
294.372	277.19
294.603	283.19
294.833	281.19
295.064	278.19
295.295	284.19
295.525	273.19
295.756	286.19
295.987	302.19
296.217	310.19
296.448	308.19
296.679	293.19
296.909	276.19
297.14	280.19
297.37	286.19
297.601	295.19
297.831	270.19
298.062	299.19
298.292	285.19
298.523	308.19
298.753	296.19
298.984	295.19
299.214	306.19
299.445	303.19
299.675	322.19
299.905	306.19
300.136	295.19
300.366	302.19
300.597	311.19
300.827	294.19
301.057	310.19
301.288	316.19
301.518	307.19
301.748	326.19
301.979	318.19
302.209	314.19
302.439	322.19
302.669	308.19
302.9	300.19
303.13	306.19
303.36	318.19
303.59	322.19
303.82	316.19
304.051	329.19
304.281	325.19
304.511	322.19
304.741	317.19
304.971	305.19
305.201	313.19
305.431	315.19
305.661	295.19
305.891	309.19
306.121	327.19
306.352	318.19
306.582	327.19
306.812	314.19
307.042	311.19
307.272	307.19
307.502	328.19
307.731	332.19
307.961	319.19
308.191	319.19
308.421	315.19
308.651	323.19
308.881	322.19
309.111	339.19
309.341	298.19
309.571	327.19
309.8	347.19
310.03	351.19
310.26	347.19
310.49	358.19
310.72	340.19
310.949	351.19
311.179	378.19
311.409	359.19
311.639	338.19
311.868	358.19
312.098	353.19
312.328	352.19
312.557	356.19
312.787	371.19
313.017	391.19
313.246	387.19
313.476	370.19
313.706	373.19
313.935	352.19
314.165	397.19
314.394	364.19
314.624	367.19
314.853	367.19
315.083	367.19
315.312	376.19
315.542	368.19
315.771	353.19
316.001	358.19
316.23	359.19
316.46	363.19
316.689	337.19
316.919	348.19
317.148	365.19
317.377	374.19
317.607	376.19
317.836	373.19
318.065	379.19
318.295	352.19
318.524	356.19
318.753	374.19
318.983	351.19
319.212	358.19
319.441	372.19
319.67	358.19
319.9	379.19
320.129	359.19
320.358	377.19
320.587	356.19
320.816	375.19
321.046	358.19
321.275	384.19
321.504	371.19
321.733	386.19
321.962	375.19
322.191	370.19
322.42	400.19
322.649	417.19
322.878	410.19
323.108	414.19
323.337	445.19
323.566	461.19
323.795	478.19
324.024	493.19
324.253	597.19
324.482	846.19
324.71	1273.19
324.939	1916.19
325.168	1660.19
325.397	847.19
325.626	587.19
325.855	504.19
326.084	479.19
326.313	468.19
326.542	463.19
326.77	493.19
326.999	571.19
327.228	748.19
327.457	1176.19
327.686	1476.19
327.914	976.19
328.143	634.19
328.372	538.19
328.6	515.19
328.829	482.19
329.058	528.19
329.287	530.19
329.515	502.19
329.744	476.19
329.972	457.19
330.201	478.19
330.43	514.19
330.658	518.19
330.887	552.19
331.115	539.19
331.344	453.19
331.572	457.19
331.801	458.19
332.03	438.19
332.258	436.19
332.486	435.19
332.715	411.19
332.943	456.19
333.172	447.19
333.4	446.19
333.629	480.19
333.857	451.19
334.085	472.19
334.314	474.19
334.542	496.19
334.771	522.19
334.999	492.19
335.227	470.19
335.455	442.19
335.684	451.19
335.912	420.19
336.14	423.19
336.369	425.19
336.597	463.19
336.825	442.19
337.053	443.19
337.281	416.19
337.51	437.19
337.738	442.19
337.966	432.19
338.194	431.19
338.422	440.19
338.65	420.19
338.878	422.19
339.106	414.19
339.334	401.19
339.562	415.19
339.79	424.19
340.018	404.19
340.246	418.19
340.474	439.19
340.702	414.19
340.93	391.19
341.158	427.19
341.386	426.19
341.614	400.19
341.842	410.19
342.07	408.19
342.298	420.19
342.526	399.19
342.754	410.19
342.981	406.19
343.209	423.19
343.437	414.19
343.665	418.19
343.893	428.19
344.12	465.19
344.348	443.19
344.576	436.19
344.804	437.19
345.031	447.19
345.259	447.19
345.487	424.19
345.714	406.19
345.942	425.19
346.17	412.19
346.397	426.19
346.625	400.19
346.853	429.19
347.08	422.19
347.308	421.19
347.535	415.19
347.763	423.19
347.99	418.19
348.218	393.19
348.445	416.19
348.673	403.19
348.9	434.19
349.128	406.19
349.355	408.19
349.583	390.19
349.81	394.19
350.037	391.19
350.265	391.19
350.492	381.19
350.72	397.19
350.947	393.19
351.174	418.19
351.402	422.19
351.629	399.19
351.856	414.19
352.083	384.19
352.311	400.19
352.538	420.19
352.765	420.19
352.992	415.19
353.22	394.19
353.447	404.19
353.674	383.19
353.901	392.19
354.128	380.19
354.355	383.19
354.583	396.19
354.81	383.19
355.037	390.19
355.264	387.19
355.491	379.19
355.718	358.19
355.945	379.19
356.172	388.19
356.399	382.19
356.626	384.19
356.853	380.19
357.08	361.19
357.307	382.19
357.534	367.19
357.761	352.19
357.988	382.19
358.215	379.19
358.441	375.19
358.668	413.19
358.895	375.19
359.122	387.19
359.349	395.19
359.576	397.19
359.802	406.19
360.029	426.19
360.256	457.19
360.483	437.19
360.709	397.19
360.936	405.19
361.163	410.19
361.39	406.19
361.616	399.19
361.843	396.19
362.07	391.19
362.296	409.19
362.523	419.19
362.749	386.19
362.976	395.19
363.203	383.19
363.429	408.19
363.656	389.19
363.882	397.19
364.109	403.19
364.335	407.19
364.562	393.19
364.788	386.19
365.015	386.19
365.241	409.19
365.468	392.19
365.694	394.19
365.92	402.19
366.147	390.19
366.373	381.19
366.599	390.19
366.826	403.19
367.052	416.19
367.278	400.19
367.505	381.19
367.731	387.19
367.957	406.19
368.184	399.19
368.41	406.19
368.636	402.19
368.862	405.19
369.089	407.19
369.315	403.19
369.541	398.19
369.767	398.19
369.993	396.19
370.219	411.19
370.445	410.19
370.672	398.19
370.898	410.19
371.124	407.19
371.35	406.19
371.576	403.19
371.802	402.19
372.028	415.19
372.254	388.19
372.48	403.19
372.706	388.19
372.932	433.19
373.158	399.19
373.384	416.19
373.61	395.19
373.835	424.19
374.061	407.19
374.287	415.19
374.513	416.19
374.739	440.19
374.965	442.19
375.191	414.19
375.416	438.19
375.642	411.19
375.868	397.19
376.094	438.19
376.319	405.19
376.545	408.19
376.771	395.19
376.997	411.19
377.222	383.19
377.448	392.19
377.674	418.19
377.899	400.19
378.125	404.19
378.35	400.19
378.576	401.19
378.802	390.19
379.027	406.19
379.253	395.19
379.478	406.19
379.704	435.19
379.929	414.19
380.155	421.19
380.38	406.19
380.606	406.19
380.831	387.19
381.057	404.19
381.282	397.19
381.507	425.19
381.733	416.19
381.958	416.19
382.184	406.19
382.409	430.19
382.634	435.19
382.86	412.19
383.085	405.19
383.31	426.19
383.535	421.19
383.761	424.19
383.986	432.19
384.211	423.19
384.436	426.19
384.662	441.19
384.887	440.19
385.112	438.19
385.337	436.19
385.562	443.19
385.787	461.19
386.013	480.19
386.238	453.19
386.463	463.19
386.688	470.19
386.913	448.19
387.138	442.19
387.363	454.19
387.588	444.19
387.813	444.19
388.038	440.19
388.263	452.19
388.488	435.19
388.713	445.19
388.938	458.19
389.163	460.19
389.387	462.19
389.612	471.19
389.837	452.19
390.062	473.19
390.287	454.19
390.512	440.19
390.736	462.19
390.961	441.19
391.186	466.19
391.411	450.19
391.636	477.19
391.86	460.19
392.085	467.19
392.31	463.19
392.534	477.19
392.759	482.19
392.984	456.19
393.208	467.19
393.433	463.19
393.658	492.19
393.882	455.19
394.107	464.19
394.331	467.19
394.556	459.19
394.78	475.19
395.005	482.19
395.229	472.19
395.454	500.19
395.678	498.19
395.903	487.19
396.127	506.19
396.352	520.19
396.576	518.19
396.801	509.19
397.025	495.19
397.249	488.19
397.474	509.19
397.698	471.19
397.922	489.19
398.147	513.19
398.371	491.19
398.595	523.19
398.82	527.19
399.044	544.19
399.268	558.19
399.492	601.19
399.717	656.19
399.941	644.19
400.165	671.19
400.389	681.19
400.613	615.19
400.837	574.19
401.062	548.19
401.286	549.19
401.51	549.19
401.734	542.19
401.958	557.19
402.182	558.19
402.406	554.19
402.63	567.19
402.854	548.19
403.078	576.19
403.302	560.19
403.526	558.19
403.75	581.19
403.974	589.19
404.198	564.19
404.422	571.19
404.645	578.19
404.869	582.19
405.093	583.19
405.317	623.19
405.541	653.19
405.765	614.19
405.988	594.19
406.212	564.19
406.436	622.19
406.66	630.19
406.883	602.19
407.107	647.19
407.331	657.19
407.555	722.19
407.778	758.19
408.002	691.19
408.226	646.19
408.449	636.19
408.673	629.19
408.896	621.19
409.12	666.19
409.344	661.19
409.567	599.19
409.791	616.19
410.014	572.19
410.238	577.19
410.461	570.19
410.685	578.19
410.908	590.19
411.132	611.19
411.355	666.19
411.578	614.19
411.802	568.19
412.025	578.19
412.249	573.19
412.472	605.19
412.695	631.19
412.919	609.19
413.142	586.19
413.365	579.19
413.589	559.19
413.812	520.19
414.035	531.19
414.258	522.19
414.482	549.19
414.705	548.19
414.928	555.19
415.151	533.19
415.374	544.19
415.597	553.19
415.821	517.19
416.044	526.19
416.267	547.19
416.49	524.19
416.713	557.19
416.936	560.19
417.159	533.19
417.382	538.19
417.605	515.19
417.828	526.19
418.051	549.19
418.274	553.19
418.497	522.19
418.72	537.19
418.943	549.19
419.166	547.19
419.389	567.19
419.611	584.19
419.834	571.19
420.057	569.19
420.28	543.19
420.503	550.19
420.726	545.19
420.948	579.19
421.171	605.19
421.394	631.19
421.617	565.19
421.839	556.19
422.062	552.19
422.285	542.19
422.507	621.19
422.73	706.19
422.953	660.19
423.175	585.19
423.398	575.19
423.621	570.19
423.843	578.19
424.066	593.19
424.288	604.19
424.511	605.19
424.733	636.19
424.956	715.19
425.178	706.19
425.401	702.19
425.623	702.19
425.846	639.19
426.068	574.19
426.291	593.19
426.513	590.19
426.735	598.19
426.958	614.19
427.18	718.19
427.402	799.19
427.625	903.19
427.847	788.19
428.069	666.19
428.292	627.19
428.514	582.19
428.736	553.19
428.958	546.19
429.181	559.19
429.403	549.19
429.625	546.19
429.847	573.19
430.069	638.19
430.292	618.19
430.514	553.19
430.736	568.19
430.958	527.19
431.18	515.19
431.402	540.19
431.624	509.19
431.846	518.19
432.068	493.19
432.29	539.19
432.512	517.19
432.734	533.19
432.956	542.19
433.178	541.19
433.4	544.19
433.622	533.19
433.844	525.19
434.066	509.19
434.287	527.19
434.509	533.19
434.731	533.19
434.953	547.19
435.175	571.19
435.397	607.19
435.618	559.19
435.84	627.19
436.062	678.19
436.284	782.19
436.505	645.19
436.727	575.19
436.949	557.19
437.17	546.19
437.392	536.19
437.614	552.19
437.835	565.19
438.057	657.19
438.278	740.19
438.5	731.19
438.721	805.19
438.943	790.19
439.165	643.19
439.386	591.19
439.608	603.19
439.829	570.19
440.05	627.19
440.272	650.19
440.493	619.19
440.715	574.19
440.936	541.19
441.158	554.19
441.379	562.19
441.6	579.19
441.822	587.19
442.043	608.19
442.264	692.19
442.486	744.19
442.707	640.19
442.928	606.19
443.149	607.19
443.371	620.19
443.592	642.19
443.813	743.19
444.034	820.19
444.255	668.19
444.476	617.19
444.698	598.19
444.919	614.19
445.14	749.19
445.361	673.19
445.582	626.19
445.803	702.19
446.024	775.19
446.245	794.19
446.466	726.19
446.687	620.19
446.908	583.19
447.129	582.19
447.35	565.19
447.571	546.19
447.792	518.19
448.013	522.19
448.234	536.19
448.455	596.19
448.675	690.19
448.896	796.19
449.117	687.19
449.338	655.19
449.559	729.19
449.779	842.19
450	665.19
450.221	586.19
450.442	559.19
450.662	526.19
450.883	511.19
451.104	553.19
451.324	547.19
451.545	511.19
451.766	479.19
451.986	490.19
452.207	456.19
452.428	485.19
452.648	480.19
452.869	496.19
453.089	499.19
453.31	500.19
453.53	492.19
453.751	495.19
453.971	478.19
454.192	512.19
454.412	478.19
454.633	475.19
454.853	481.19
455.073	461.19
455.294	511.19
455.514	550.19
455.734	549.19
455.955	490.19
456.175	479.19
456.395	483.19
456.616	466.19
456.836	480.19
457.056	449.19
457.276	462.19
457.497	432.19
457.717	452.19
457.937	468.19
458.157	484.19
458.377	468.19
458.598	503.19
458.818	532.19
459.038	609.19
459.258	631.19
459.478	540.19
459.698	527.19
459.918	535.19
460.138	507.19
460.358	548.19
460.578	536.19
460.798	543.19
461.018	551.19
461.238	568.19
461.458	567.19
461.678	540.19
461.898	549.19
462.118	550.19
462.338	576.19
462.558	575.19
462.777	591.19
462.997	597.19
463.217	611.19
463.437	623.19
463.657	606.19
463.876	574.19
464.096	583.19
464.316	574.19
464.536	603.19
464.755	595.19
464.975	569.19
465.195	611.19
465.414	672.19
465.634	597.19
465.854	584.19
466.073	548.19
466.293	533.19
466.512	520.19
466.732	523.19
466.951	514.19
467.171	507.19
467.391	509.19
467.61	538.19
467.829	519.19
468.049	539.19
468.268	522.19
468.488	484.19
468.707	486.19
468.927	489.19
469.146	496.19
469.365	498.19
469.585	509.19
469.804	502.19
470.023	523.19
470.243	512.19
470.462	518.19
470.681	537.19
470.901	519.19
471.12	520.19
471.339	510.19
471.558	517.19
471.777	493.19
471.997	498.19
472.216	538.19
472.435	518.19
472.654	524.19
472.873	520.19
473.092	509.19
473.311	496.19
473.53	488.19
473.749	511.19
473.968	550.19
474.187	622.19
474.406	650.19
474.625	551.19
474.844	534.19
475.063	505.19
475.282	490.19
475.501	521.19
475.72	505.19
475.939	525.19
476.158	519.19
476.377	531.19
476.596	535.19
476.814	547.19
477.033	538.19
477.252	537.19
477.471	542.19
477.69	552.19
477.908	540.19
478.127	578.19
478.346	572.19
478.564	566.19
478.783	592.19
479.002	606.19
479.22	610.19
479.439	588.19
479.658	606.19
479.876	607.19
480.095	634.19
480.313	671.19
480.532	657.19
480.751	620.19
480.969	634.19
481.188	672.19
481.406	732.19
481.624	627.19
481.843	598.19
482.061	607.19
482.28	582.19
482.498	596.19
482.717	582.19
482.935	600.19
483.153	603.19
483.372	609.19
483.59	601.19
483.808	602.19
484.027	587.19
484.245	608.19
484.463	605.19
484.681	611.19
484.9	610.19
485.118	605.19
485.336	611.19
485.554	612.19
485.772	615.19
485.99	596.19
486.209	613.19
486.427	627.19
486.645	620.19
486.863	667.19
487.081	638.19
487.299	620.19
487.517	642.19
487.735	642.19
487.953	649.19
488.171	619.19
488.389	629.19
488.607	619.19
488.825	642.19
489.043	655.19
489.261	646.19
489.479	629.19
489.696	630.19
489.914	633.19
490.132	632.19
490.35	648.19
490.568	661.19
490.786	666.19
491.003	662.19
491.221	709.19
491.439	687.19
491.657	692.19
491.874	702.19
492.092	708.19
492.31	706.19
492.527	737.19
492.745	744.19
492.963	707.19
493.18	732.19
493.398	732.19
493.615	720.19
493.833	731.19
494.05	738.19
494.268	734.19
494.485	723.19
494.703	724.19
494.92	716.19
495.138	725.19
495.355	714.19
495.573	734.19
495.79	728.19
496.008	739.19
496.225	743.19
496.442	764.19
496.66	748.19
496.877	751.19
497.094	758.19
497.312	778.19
497.529	762.19
497.746	789.19
497.963	788.19
498.181	839.19
498.398	828.19
498.615	858.19
498.832	885.19
499.049	884.19
499.267	934.19
499.484	977.19
499.701	1007.19
499.918	1058.19
500.135	1103.19
500.352	1150.19
500.569	1221.19
500.786	1186.19
501.003	1190.19
501.22	1122.19
501.437	1067.19
501.654	1035.19
501.871	982.19
