Data from 1979.PennyLincolnUp.Lamp.En5.5.200Scan.071719.P1_HRD10591_16-19-27-863.txt Node
Date: Thu Jul 18 16:19:27 EDT 2019
User: cochatt
Spectrometer: HR+D1059
Trigger mode: 1
Integration Time (sec): 1.000000E-1
Scans to average: 1
Electric dark correction enabled: true
Nonlinearity correction enabled: false
Boxcar width: 0
XAxis mode: Wavelengths
Number of Pixels in Spectrum: 2048
>>>>>Begin Spectral Data<<<<<
223.165	-16.38
223.4	-16.38
223.635	-16.38
223.869	-7.38
224.104	-20.38
224.338	-20.38
224.573	-12.38
224.808	-16.38
225.042	0.62
225.277	-9.38
225.511	0.62
225.746	6.62
225.98	15.62
226.215	9.62
226.449	17.62
226.683	14.62
226.918	12.62
227.152	24.62
227.387	42.62
227.621	45.62
227.856	52.62
228.09	61.62
228.324	54.62
228.559	63.62
228.793	71.62
229.027	103.62
229.262	117.62
229.496	115.62
229.73	129.62
229.964	162.62
230.199	117.62
230.433	118.62
230.667	113.62
230.901	114.62
231.136	115.62
231.37	119.62
231.604	108.62
231.838	104.62
232.072	116.62
232.306	114.62
232.541	122.62
232.775	111.62
233.009	126.62
233.243	124.62
233.477	118.62
233.711	121.62
233.945	107.62
234.179	118.62
234.413	122.62
234.647	104.62
234.881	114.62
235.115	109.62
235.349	118.62
235.583	115.62
235.817	118.62
236.051	120.62
236.285	112.62
236.519	128.62
236.753	150.62
236.987	137.62
237.221	160.62
237.455	213.62
237.689	174.62
237.922	147.62
238.156	134.62
238.39	141.62
238.624	135.62
238.858	133.62
239.091	121.62
239.325	118.62
239.559	133.62
239.793	143.62
240.027	137.62
240.26	144.62
240.494	141.62
240.728	163.62
240.961	152.62
241.195	145.62
241.429	148.62
241.662	123.62
241.896	132.62
242.13	123.62
242.363	134.62
242.597	124.62
242.83	136.62
243.064	135.62
243.298	154.62
243.531	138.62
243.765	144.62
243.998	142.62
244.232	139.62
244.465	142.62
244.699	135.62
244.932	149.62
245.166	166.62
245.399	154.62
245.633	153.62
245.866	144.62
246.099	146.62
246.333	158.62
246.566	162.62
246.8	143.62
247.033	150.62
247.266	148.62
247.5	156.62
247.733	175.62
247.966	168.62
248.2	176.62
248.433	178.62
248.666	162.62
248.899	189.62
249.133	201.62
249.366	202.62
249.599	194.62
249.832	182.62
250.066	172.62
250.299	183.62
250.532	190.62
250.765	187.62
250.998	211.62
251.231	221.62
251.465	213.62
251.698	193.62
251.931	186.62
252.164	204.62
252.397	206.62
252.63	203.62
252.863	196.62
253.096	182.62
253.329	206.62
253.562	228.62
253.795	194.62
254.028	195.62
254.261	202.62
254.494	229.62
254.727	230.62
254.96	245.62
255.193	258.62
255.426	233.62
255.659	201.62
255.892	234.62
256.124	217.62
256.357	203.62
256.59	200.62
256.823	206.62
257.056	205.62
257.289	202.62
257.521	200.62
257.754	218.62
257.987	194.62
258.22	196.62
258.452	208.62
258.685	199.62
258.918	187.62
259.151	203.62
259.383	220.62
259.616	210.62
259.849	220.62
260.081	221.62
260.314	249.62
260.547	239.62
260.779	246.62
261.012	216.62
261.244	231.62
261.477	210.62
261.71	236.62
261.942	232.62
262.175	212.62
262.407	211.62
262.64	212.62
262.872	226.62
263.105	210.62
263.337	205.62
263.57	205.62
263.802	206.62
264.035	206.62
264.267	206.62
264.499	216.62
264.732	216.62
264.964	214.62
265.197	218.62
265.429	204.62
265.661	213.62
265.894	210.62
266.126	218.62
266.358	223.62
266.591	224.62
266.823	223.62
267.055	220.62
267.287	221.62
267.52	234.62
267.752	233.62
267.984	214.62
268.216	223.62
268.448	223.62
268.681	227.62
268.913	240.62
269.145	263.62
269.377	266.62
269.609	263.62
269.841	258.62
270.073	251.62
270.306	273.62
270.538	302.62
270.77	306.62
271.002	303.62
271.234	274.62
271.466	275.62
271.698	285.62
271.93	291.62
272.162	286.62
272.394	290.62
272.626	271.62
272.858	261.62
273.09	271.62
273.322	260.62
273.553	264.62
273.785	263.62
274.017	267.62
274.249	252.62
274.481	255.62
274.713	258.62
274.945	274.62
275.176	259.62
275.408	254.62
275.64	262.62
275.872	262.62
276.104	259.62
276.335	258.62
276.567	280.62
276.799	269.62
277.031	302.62
277.262	301.62
277.494	290.62
277.726	283.62
277.957	268.62
278.189	259.62
278.421	286.62
278.652	261.62
278.884	272.62
279.115	266.62
279.347	267.62
279.579	262.62
279.81	261.62
280.042	251.62
280.273	257.62
280.505	269.62
280.736	253.62
280.968	271.62
281.199	265.62
281.431	280.62
281.662	261.62
281.894	264.62
282.125	277.62
282.356	270.62
282.588	284.62
282.819	300.62
283.051	277.62
283.282	263.62
283.513	279.62
283.745	274.62
283.976	282.62
284.207	284.62
284.439	280.62
284.67	264.62
284.901	283.62
285.132	281.62
285.364	264.62
285.595	264.62
285.826	277.62
286.057	277.62
286.288	274.62
286.52	299.62
286.751	294.62
286.982	302.62
287.213	275.62
287.444	290.62
287.675	287.62
287.906	291.62
288.138	298.62
288.369	296.62
288.6	297.62
288.831	281.62
289.062	282.62
289.293	299.62
289.524	280.62
289.755	305.62
289.986	283.62
290.217	292.62
290.448	286.62
290.679	294.62
290.91	284.62
291.141	279.62
291.371	290.62
291.602	284.62
291.833	280.62
292.064	277.62
292.295	303.62
292.526	302.62
292.757	273.62
292.987	282.62
293.218	298.62
293.449	277.62
293.68	299.62
293.91	304.62
294.141	281.62
294.372	286.62
294.603	304.62
294.833	293.62
295.064	306.62
295.295	301.62
295.525	299.62
295.756	300.62
295.987	302.62
296.217	334.62
296.448	329.62
296.679	316.62
296.909	302.62
297.14	304.62
297.37	294.62
297.601	291.62
297.831	306.62
298.062	310.62
298.292	309.62
298.523	325.62
298.753	333.62
298.984	326.62
299.214	317.62
299.445	314.62
299.675	310.62
299.905	304.62
300.136	315.62
300.366	292.62
300.597	301.62
300.827	318.62
301.057	317.62
301.288	339.62
301.518	347.62
301.748	322.62
301.979	334.62
302.209	331.62
302.439	332.62
302.669	360.62
302.9	326.62
303.13	317.62
303.36	339.62
303.59	329.62
303.82	350.62
304.051	335.62
304.281	330.62
304.511	322.62
304.741	346.62
304.971	325.62
305.201	316.62
305.431	334.62
305.661	328.62
305.891	332.62
306.121	319.62
306.352	325.62
306.582	345.62
306.812	347.62
307.042	338.62
307.272	338.62
307.502	345.62
307.731	356.62
307.961	333.62
308.191	324.62
308.421	349.62
308.651	337.62
308.881	348.62
309.111	341.62
309.341	334.62
309.571	351.62
309.8	363.62
310.03	360.62
310.26	356.62
310.49	379.62
310.72	370.62
310.949	388.62
311.179	381.62
311.409	380.62
311.639	377.62
311.868	380.62
312.098	397.62
312.328	367.62
312.557	397.62
312.787	403.62
313.017	428.62
313.246	393.62
313.476	391.62
313.706	379.62
313.935	365.62
314.165	407.62
314.394	392.62
314.624	391.62
314.853	410.62
315.083	386.62
315.312	390.62
315.542	375.62
315.771	385.62
316.001	368.62
316.23	376.62
316.46	366.62
316.689	371.62
316.919	396.62
317.148	386.62
317.377	410.62
317.607	360.62
317.836	388.62
318.065	386.62
318.295	394.62
318.524	371.62
318.753	363.62
318.983	369.62
319.212	371.62
319.441	390.62
319.67	396.62
319.9	379.62
320.129	390.62
320.358	378.62
320.587	380.62
320.816	396.62
321.046	400.62
321.275	405.62
321.504	411.62
321.733	394.62
321.962	425.62
322.191	420.62
322.42	431.62
322.649	432.62
322.878	415.62
323.108	452.62
323.337	474.62
323.566	472.62
323.795	484.62
324.024	554.62
324.253	649.62
324.482	902.62
324.71	1418.62
324.939	2110.62
325.168	1830.62
325.397	913.62
325.626	613.62
325.855	548.62
326.084	487.62
326.313	482.62
326.542	502.62
326.77	528.62
326.999	600.62
327.228	821.62
327.457	1302.62
327.686	1616.62
327.914	1010.62
328.143	673.62
328.372	591.62
328.6	559.62
328.829	543.62
329.058	548.62
329.287	567.62
329.515	532.62
329.744	530.62
329.972	507.62
330.201	515.62
330.43	562.62
330.658	571.62
330.887	570.62
331.115	572.62
331.344	510.62
331.572	458.62
331.801	490.62
332.03	504.62
332.258	493.62
332.486	464.62
332.715	457.62
332.943	439.62
333.172	478.62
333.4	468.62
333.629	493.62
333.857	500.62
334.085	510.62
334.314	510.62
334.542	559.62
334.771	557.62
334.999	535.62
335.227	492.62
335.455	475.62
335.684	476.62
335.912	476.62
336.14	471.62
336.369	477.62
336.597	484.62
336.825	460.62
337.053	460.62
337.281	447.62
337.51	460.62
337.738	463.62
337.966	454.62
338.194	445.62
338.422	447.62
338.65	445.62
338.878	456.62
339.106	430.62
339.334	434.62
339.562	428.62
339.79	425.62
340.018	435.62
340.246	455.62
340.474	437.62
340.702	439.62
340.93	425.62
341.158	454.62
341.386	448.62
341.614	448.62
341.842	430.62
342.07	430.62
342.298	440.62
342.526	413.62
342.754	430.62
342.981	420.62
343.209	432.62
343.437	423.62
343.665	446.62
343.893	457.62
344.12	446.62
344.348	457.62
344.576	472.62
344.804	456.62
345.031	476.62
345.259	460.62
345.487	462.62
345.714	427.62
345.942	431.62
346.17	456.62
346.397	431.62
346.625	415.62
346.853	418.62
347.08	440.62
347.308	424.62
347.535	435.62
347.763	434.62
347.99	437.62
348.218	436.62
348.445	434.62
348.673	441.62
348.9	413.62
349.128	429.62
349.355	417.62
349.583	415.62
349.81	425.62
350.037	403.62
350.265	423.62
350.492	406.62
350.72	411.62
350.947	430.62
351.174	430.62
351.402	437.62
351.629	438.62
351.856	428.62
352.083	425.62
352.311	421.62
352.538	426.62
352.765	440.62
352.992	454.62
353.22	418.62
353.447	430.62
353.674	429.62
353.901	412.62
354.128	404.62
354.355	417.62
354.583	415.62
354.81	419.62
355.037	410.62
355.264	409.62
355.491	409.62
355.718	411.62
355.945	394.62
356.172	418.62
356.399	408.62
356.626	395.62
356.853	398.62
357.08	412.62
357.307	404.62
357.534	395.62
357.761	400.62
357.988	404.62
358.215	402.62
358.441	379.62
358.668	412.62
358.895	419.62
359.122	389.62
359.349	418.62
359.576	430.62
359.802	457.62
360.029	466.62
360.256	471.62
360.483	430.62
360.709	446.62
360.936	424.62
361.163	436.62
361.39	437.62
361.616	451.62
361.843	424.62
362.07	429.62
362.296	428.62
362.523	423.62
362.749	456.62
362.976	425.62
363.203	416.62
363.429	409.62
363.656	400.62
363.882	425.62
364.109	408.62
364.335	402.62
364.562	418.62
364.788	410.62
365.015	420.62
365.241	414.62
365.468	432.62
365.694	412.62
365.92	412.62
366.147	420.62
366.373	412.62
366.599	406.62
366.826	382.62
367.052	418.62
367.278	408.62
367.505	424.62
367.731	435.62
367.957	430.62
368.184	398.62
368.41	433.62
368.636	430.62
368.862	436.62
369.089	433.62
369.315	423.62
369.541	411.62
369.767	415.62
369.993	428.62
370.219	412.62
370.445	445.62
370.672	439.62
370.898	423.62
371.124	403.62
371.35	445.62
371.576	410.62
371.802	440.62
372.028	432.62
372.254	419.62
372.48	430.62
372.706	426.62
372.932	435.62
373.158	424.62
373.384	453.62
373.61	447.62
373.835	418.62
374.061	426.62
374.287	441.62
374.513	431.62
374.739	441.62
374.965	452.62
375.191	429.62
375.416	420.62
375.642	434.62
375.868	458.62
376.094	430.62
376.319	436.62
376.545	429.62
376.771	426.62
376.997	431.62
377.222	435.62
377.448	410.62
377.674	429.62
377.899	420.62
378.125	419.62
378.35	421.62
378.576	431.62
378.802	428.62
379.027	425.62
379.253	426.62
379.478	423.62
379.704	443.62
379.929	426.62
380.155	414.62
380.38	415.62
380.606	431.62
380.831	432.62
381.057	426.62
381.282	422.62
381.507	420.62
381.733	427.62
381.958	433.62
382.184	425.62
382.409	435.62
382.634	434.62
382.86	446.62
383.085	434.62
383.31	445.62
383.535	449.62
383.761	449.62
383.986	462.62
384.211	451.62
384.436	455.62
384.662	460.62
384.887	452.62
385.112	451.62
385.337	471.62
385.562	473.62
385.787	466.62
386.013	468.62
386.238	471.62
386.463	490.62
386.688	499.62
386.913	475.62
387.138	484.62
387.363	504.62
387.588	483.62
387.813	493.62
388.038	482.62
388.263	487.62
388.488	490.62
388.713	490.62
388.938	494.62
389.163	482.62
389.387	492.62
389.612	473.62
389.837	481.62
390.062	452.62
390.287	479.62
390.512	458.62
390.736	475.62
390.961	476.62
391.186	443.62
391.411	478.62
391.636	480.62
391.86	495.62
392.085	510.62
392.31	499.62
392.534	486.62
392.759	483.62
392.984	503.62
393.208	507.62
393.433	490.62
393.658	499.62
393.882	485.62
394.107	479.62
394.331	476.62
394.556	494.62
394.78	499.62
395.005	508.62
395.229	491.62
395.454	491.62
395.678	513.62
395.903	521.62
396.127	535.62
396.352	546.62
396.576	516.62
396.801	497.62
397.025	508.62
397.249	514.62
397.474	532.62
397.698	526.62
397.922	553.62
398.147	563.62
398.371	556.62
398.595	556.62
398.82	560.62
399.044	582.62
399.268	591.62
399.492	623.62
399.717	670.62
399.941	721.62
400.165	712.62
400.389	712.62
400.613	623.62
400.837	614.62
401.062	578.62
401.286	588.62
401.51	569.62
401.734	557.62
401.958	570.62
402.182	588.62
402.406	591.62
402.63	584.62
402.854	572.62
403.078	574.62
403.302	580.62
403.526	582.62
403.75	601.62
403.974	599.62
404.198	602.62
404.422	594.62
404.645	599.62
404.869	619.62
405.093	637.62
405.317	658.62
405.541	708.62
405.765	652.62
405.988	638.62
406.212	643.62
406.436	636.62
406.66	654.62
406.883	642.62
407.107	686.62
407.331	688.62
407.555	779.62
407.778	757.62
408.002	711.62
408.226	646.62
408.449	653.62
408.673	660.62
408.896	672.62
409.12	706.62
409.344	660.62
409.567	645.62
409.791	626.62
410.014	614.62
410.238	615.62
410.461	608.62
410.685	594.62
410.908	629.62
411.132	617.62
411.355	678.62
411.578	660.62
411.802	610.62
412.025	594.62
412.249	637.62
412.472	622.62
412.695	657.62
412.919	648.62
413.142	637.62
413.365	599.62
413.589	580.62
413.812	582.62
414.035	591.62
414.258	590.62
414.482	581.62
414.705	568.62
414.928	564.62
415.151	584.62
415.374	568.62
415.597	550.62
415.821	575.62
416.044	551.62
416.267	567.62
416.49	567.62
416.713	543.62
416.936	552.62
417.159	554.62
417.382	558.62
417.605	572.62
417.828	577.62
418.051	589.62
418.274	591.62
418.497	551.62
418.72	572.62
418.943	582.62
419.166	597.62
419.389	616.62
419.611	607.62
419.834	628.62
420.057	594.62
420.28	589.62
420.503	581.62
420.726	571.62
420.948	596.62
421.171	652.62
421.394	651.62
421.617	618.62
421.839	602.62
422.062	575.62
422.285	597.62
422.507	654.62
422.73	724.62
422.953	703.62
423.175	638.62
423.398	614.62
423.621	642.62
423.843	611.62
424.066	626.62
424.288	615.62
424.511	651.62
424.733	692.62
424.956	790.62
425.178	749.62
425.401	740.62
425.623	739.62
425.846	670.62
426.068	603.62
426.291	618.62
426.513	627.62
426.735	611.62
426.958	656.62
427.18	725.62
427.402	887.62
427.625	970.62
427.847	831.62
428.069	711.62
428.292	660.62
428.514	634.62
428.736	599.62
428.958	587.62
429.181	575.62
429.403	575.62
429.625	586.62
429.847	623.62
430.069	668.62
430.292	673.62
430.514	600.62
430.736	568.62
430.958	570.62
431.18	574.62
431.402	540.62
431.624	548.62
431.846	558.62
432.068	544.62
432.29	559.62
432.512	540.62
432.734	539.62
432.956	561.62
433.178	557.62
433.4	551.62
433.622	579.62
433.844	562.62
434.066	562.62
434.287	559.62
434.509	574.62
434.731	564.62
434.953	576.62
435.175	600.62
435.397	610.62
435.618	635.62
435.84	667.62
436.062	738.62
436.284	802.62
436.505	687.62
436.727	644.62
436.949	606.62
437.17	572.62
437.392	592.62
437.614	582.62
437.835	615.62
438.057	723.62
438.278	804.62
438.5	797.62
438.721	879.62
438.943	843.62
439.165	677.62
439.386	632.62
439.608	619.62
439.829	607.62
440.05	628.62
440.272	706.62
440.493	648.62
440.715	613.62
440.936	592.62
441.158	558.62
441.379	568.62
441.6	615.62
441.822	622.62
442.043	670.62
442.264	743.62
442.486	778.62
442.707	670.62
442.928	645.62
443.149	637.62
443.371	649.62
443.592	704.62
443.813	816.62
444.034	851.62
444.255	708.62
444.476	653.62
444.698	624.62
444.919	638.62
445.14	717.62
445.361	676.62
445.582	669.62
445.803	747.62
446.024	823.62
446.245	810.62
446.466	744.62
446.687	665.62
446.908	620.62
447.129	581.62
447.35	574.62
447.571	591.62
447.792	563.62
448.013	558.62
448.234	574.62
448.455	626.62
448.675	739.62
448.896	855.62
449.117	700.62
449.338	712.62
449.559	804.62
449.779	923.62
450	727.62
450.221	619.62
450.442	558.62
450.662	545.62
450.883	552.62
451.104	587.62
451.324	584.62
451.545	542.62
451.766	551.62
451.986	510.62
452.207	504.62
452.428	513.62
452.648	509.62
452.869	506.62
453.089	542.62
453.31	550.62
453.53	514.62
453.751	521.62
453.971	494.62
454.192	539.62
454.412	530.62
454.633	515.62
454.853	492.62
455.073	498.62
455.294	519.62
455.514	598.62
455.734	576.62
455.955	520.62
456.175	478.62
456.395	485.62
456.616	472.62
456.836	496.62
457.056	485.62
457.276	487.62
457.497	503.62
457.717	488.62
457.937	486.62
458.157	502.62
458.377	504.62
458.598	535.62
458.818	576.62
459.038	630.62
459.258	656.62
459.478	587.62
459.698	587.62
459.918	558.62
460.138	562.62
460.358	558.62
460.578	568.62
460.798	595.62
461.018	589.62
461.238	580.62
461.458	571.62
461.678	592.62
461.898	588.62
462.118	585.62
462.338	584.62
462.558	607.62
462.777	603.62
462.997	628.62
463.217	651.62
463.437	647.62
463.657	655.62
463.876	619.62
464.096	615.62
464.316	616.62
464.536	609.62
464.755	624.62
464.975	613.62
465.195	667.62
465.414	714.62
465.634	619.62
465.854	578.62
466.073	588.62
466.293	589.62
466.512	547.62
466.732	535.62
466.951	535.62
467.171	532.62
467.391	544.62
467.61	553.62
467.829	541.62
468.049	547.62
468.268	544.62
468.488	526.62
468.707	535.62
468.927	551.62
469.146	510.62
469.365	532.62
469.585	504.62
469.804	541.62
470.023	531.62
470.243	573.62
470.462	552.62
470.681	581.62
470.901	589.62
471.12	543.62
471.339	552.62
471.558	536.62
471.777	537.62
471.997	540.62
472.216	554.62
472.435	574.62
472.654	585.62
472.873	545.62
473.092	540.62
473.311	540.62
473.53	532.62
473.749	539.62
473.968	584.62
474.187	670.62
474.406	679.62
474.625	590.62
474.844	552.62
475.063	526.62
475.282	545.62
475.501	523.62
475.72	550.62
475.939	576.62
476.158	562.62
476.377	570.62
476.596	559.62
476.814	562.62
477.033	576.62
477.252	588.62
477.471	586.62
477.69	582.62
477.908	584.62
478.127	587.62
478.346	596.62
478.564	601.62
478.783	591.62
479.002	627.62
479.22	623.62
479.439	648.62
479.658	644.62
479.876	665.62
480.095	667.62
480.313	681.62
480.532	649.62
480.751	644.62
480.969	664.62
481.188	740.62
481.406	760.62
481.624	672.62
481.843	663.62
482.061	654.62
482.28	638.62
482.498	642.62
482.717	624.62
482.935	639.62
483.153	634.62
483.372	594.62
483.59	626.62
483.808	633.62
484.027	623.62
484.245	642.62
484.463	642.62
484.681	665.62
484.9	649.62
485.118	652.62
485.336	656.62
485.554	656.62
485.772	661.62
485.99	642.62
486.209	665.62
486.427	671.62
486.645	665.62
486.863	675.62
487.081	666.62
487.299	667.62
487.517	685.62
487.735	679.62
487.953	658.62
488.171	667.62
488.389	676.62
488.607	670.62
488.825	685.62
489.043	662.62
489.261	663.62
489.479	675.62
489.696	684.62
489.914	702.62
490.132	684.62
490.35	715.62
490.568	693.62
490.786	709.62
491.003	717.62
491.221	731.62
491.439	741.62
491.657	743.62
491.874	745.62
492.092	774.62
492.31	773.62
492.527	775.62
492.745	774.62
492.963	757.62
493.18	785.62
493.398	775.62
493.615	794.62
493.833	764.62
494.05	814.62
494.268	778.62
494.485	801.62
494.703	780.62
494.92	794.62
495.138	750.62
495.355	794.62
495.573	780.62
495.79	809.62
496.008	804.62
496.225	796.62
496.442	801.62
496.66	781.62
496.877	804.62
497.094	825.62
497.312	804.62
497.529	823.62
497.746	869.62
497.963	852.62
498.181	864.62
498.398	896.62
498.615	931.62
498.832	956.62
499.049	943.62
499.267	970.62
499.484	1007.62
499.701	1072.62
499.918	1112.62
500.135	1179.62
500.352	1251.62
500.569	1258.62
500.786	1250.62
501.003	1225.62
501.22	1194.62
501.437	1127.62
501.654	1082.62
501.871	1092.62
