Data from 1979.PennyLincolnUp.Lamp.En5.5.200Scan.071719.P1_HRD10591_16-20-25-864.txt Node
Date: Thu Jul 18 16:20:25 EDT 2019
User: cochatt
Spectrometer: HR+D1059
Trigger mode: 1
Integration Time (sec): 1.000000E-1
Scans to average: 1
Electric dark correction enabled: true
Nonlinearity correction enabled: false
Boxcar width: 0
XAxis mode: Wavelengths
Number of Pixels in Spectrum: 2048
>>>>>Begin Spectral Data<<<<<
223.165	-21.75
223.4	-21.75
223.635	-21.75
223.869	-19.75
224.104	-27.75
224.338	-4.75
224.573	-27.75
224.808	-5.75
225.042	-12.75
225.277	-4.75
225.511	0.25
225.746	2.25
225.98	9.25
226.215	13.25
226.449	13.25
226.683	13.25
226.918	40.25
227.152	33.25
227.387	41.25
227.621	29.25
227.856	47.25
228.09	47.25
228.324	52.25
228.559	63.25
228.793	64.25
229.027	74.25
229.262	92.25
229.496	107.25
229.73	122.25
229.964	151.25
230.199	126.25
230.433	124.25
230.667	104.25
230.901	107.25
231.136	122.25
231.37	111.25
231.604	112.25
231.838	99.25
232.072	116.25
232.306	111.25
232.541	115.25
232.775	106.25
233.009	92.25
233.243	99.25
233.477	100.25
233.711	92.25
233.945	109.25
234.179	124.25
234.413	121.25
234.647	120.25
234.881	117.25
235.115	127.25
235.349	92.25
235.583	119.25
235.817	118.25
236.051	100.25
236.285	106.25
236.519	127.25
236.753	106.25
236.987	138.25
237.221	160.25
237.455	215.25
237.689	166.25
237.922	129.25
238.156	121.25
238.39	140.25
238.624	124.25
238.858	125.25
239.091	124.25
239.325	132.25
239.559	124.25
239.793	128.25
240.027	135.25
240.26	133.25
240.494	150.25
240.728	163.25
240.961	153.25
241.195	143.25
241.429	135.25
241.662	136.25
241.896	124.25
242.13	129.25
242.363	147.25
242.597	126.25
242.83	132.25
243.064	127.25
243.298	134.25
243.531	141.25
243.765	129.25
243.998	136.25
244.232	148.25
244.465	140.25
244.699	140.25
244.932	136.25
245.166	143.25
245.399	159.25
245.633	135.25
245.866	149.25
246.099	156.25
246.333	146.25
246.566	144.25
246.8	160.25
247.033	149.25
247.266	161.25
247.5	146.25
247.733	175.25
247.966	154.25
248.2	170.25
248.433	157.25
248.666	164.25
248.899	183.25
249.133	204.25
249.366	200.25
249.599	208.25
249.832	168.25
250.066	169.25
250.299	184.25
250.532	193.25
250.765	187.25
250.998	205.25
251.231	227.25
251.465	224.25
251.698	196.25
251.931	189.25
252.164	186.25
252.397	200.25
252.63	192.25
252.863	203.25
253.096	210.25
253.329	209.25
253.562	220.25
253.795	205.25
254.028	196.25
254.261	219.25
254.494	221.25
254.727	243.25
254.96	254.25
255.193	241.25
255.426	220.25
255.659	209.25
255.892	223.25
256.124	230.25
256.357	230.25
256.59	225.25
256.823	205.25
257.056	203.25
257.289	210.25
257.521	200.25
257.754	189.25
257.987	201.25
258.22	215.25
258.452	206.25
258.685	209.25
258.918	198.25
259.151	198.25
259.383	213.25
259.616	216.25
259.849	209.25
260.081	223.25
260.314	244.25
260.547	235.25
260.779	212.25
261.012	231.25
261.244	213.25
261.477	224.25
261.71	207.25
261.942	218.25
262.175	208.25
262.407	210.25
262.64	193.25
262.872	206.25
263.105	203.25
263.337	211.25
263.57	199.25
263.802	203.25
264.035	205.25
264.267	209.25
264.499	205.25
264.732	224.25
264.964	214.25
265.197	200.25
265.429	211.25
265.661	217.25
265.894	200.25
266.126	231.25
266.358	199.25
266.591	208.25
266.823	213.25
267.055	224.25
267.287	223.25
267.52	225.25
267.752	201.25
267.984	211.25
268.216	220.25
268.448	227.25
268.681	242.25
268.913	245.25
269.145	243.25
269.377	256.25
269.609	258.25
269.841	249.25
270.073	262.25
270.306	269.25
270.538	273.25
270.77	310.25
271.002	290.25
271.234	266.25
271.466	283.25
271.698	292.25
271.93	299.25
272.162	298.25
272.394	293.25
272.626	275.25
272.858	271.25
273.09	264.25
273.322	240.25
273.553	241.25
273.785	257.25
274.017	238.25
274.249	235.25
274.481	244.25
274.713	247.25
274.945	257.25
275.176	267.25
275.408	258.25
275.64	265.25
275.872	250.25
276.104	242.25
276.335	264.25
276.567	279.25
276.799	269.25
277.031	295.25
277.262	304.25
277.494	304.25
277.726	287.25
277.957	266.25
278.189	296.25
278.421	274.25
278.652	257.25
278.884	264.25
279.115	269.25
279.347	260.25
279.579	263.25
279.81	265.25
280.042	259.25
280.273	260.25
280.505	252.25
280.736	265.25
280.968	268.25
281.199	245.25
281.431	256.25
281.662	276.25
281.894	275.25
282.125	279.25
282.356	256.25
282.588	299.25
282.819	293.25
283.051	268.25
283.282	263.25
283.513	277.25
283.745	280.25
283.976	275.25
284.207	283.25
284.439	284.25
284.67	284.25
284.901	281.25
285.132	271.25
285.364	265.25
285.595	285.25
285.826	271.25
286.057	279.25
286.288	267.25
286.52	274.25
286.751	279.25
286.982	291.25
287.213	283.25
287.444	282.25
287.675	287.25
287.906	295.25
288.138	308.25
288.369	289.25
288.6	298.25
288.831	295.25
289.062	265.25
289.293	285.25
289.524	285.25
289.755	289.25
289.986	285.25
290.217	280.25
290.448	284.25
290.679	307.25
290.91	284.25
291.141	285.25
291.371	284.25
291.602	277.25
291.833	296.25
292.064	310.25
292.295	287.25
292.526	300.25
292.757	283.25
292.987	297.25
293.218	260.25
293.449	285.25
293.68	291.25
293.91	296.25
294.141	305.25
294.372	299.25
294.603	301.25
294.833	287.25
295.064	295.25
295.295	296.25
295.525	313.25
295.756	308.25
295.987	307.25
296.217	315.25
296.448	314.25
296.679	303.25
296.909	292.25
297.14	298.25
297.37	292.25
297.601	307.25
297.831	298.25
298.062	299.25
298.292	318.25
298.523	307.25
298.753	302.25
298.984	299.25
299.214	327.25
299.445	310.25
299.675	314.25
299.905	315.25
300.136	311.25
300.366	300.25
300.597	309.25
300.827	331.25
301.057	332.25
301.288	326.25
301.518	322.25
301.748	344.25
301.979	335.25
302.209	317.25
302.439	308.25
302.669	332.25
302.9	323.25
303.13	322.25
303.36	326.25
303.59	327.25
303.82	324.25
304.051	346.25
304.281	325.25
304.511	329.25
304.741	328.25
304.971	313.25
305.201	340.25
305.431	328.25
305.661	334.25
305.891	326.25
306.121	340.25
306.352	313.25
306.582	332.25
306.812	317.25
307.042	337.25
307.272	316.25
307.502	338.25
307.731	333.25
307.961	339.25
308.191	326.25
308.421	346.25
308.651	332.25
308.881	317.25
309.111	325.25
309.341	344.25
309.571	341.25
309.8	353.25
310.03	368.25
310.26	363.25
310.49	348.25
310.72	388.25
310.949	397.25
311.179	412.25
311.409	374.25
311.639	362.25
311.868	375.25
312.098	362.25
312.328	351.25
312.557	382.25
312.787	387.25
313.017	401.25
313.246	370.25
313.476	376.25
313.706	381.25
313.935	383.25
314.165	399.25
314.394	383.25
314.624	402.25
314.853	388.25
315.083	372.25
315.312	387.25
315.542	377.25
315.771	377.25
316.001	358.25
316.23	347.25
316.46	369.25
316.689	395.25
316.919	378.25
317.148	384.25
317.377	399.25
317.607	383.25
317.836	394.25
318.065	376.25
318.295	363.25
318.524	373.25
318.753	380.25
318.983	377.25
319.212	378.25
319.441	384.25
319.67	385.25
319.9	379.25
320.129	382.25
320.358	390.25
320.587	386.25
320.816	388.25
321.046	401.25
321.275	406.25
321.504	383.25
321.733	391.25
321.962	424.25
322.191	422.25
322.42	412.25
322.649	442.25
322.878	433.25
323.108	445.25
323.337	453.25
323.566	468.25
323.795	489.25
324.024	549.25
324.253	660.25
324.482	929.25
324.71	1463.25
324.939	2182.25
325.168	1841.25
325.397	909.25
325.626	627.25
325.855	532.25
326.084	490.25
326.313	501.25
326.542	499.25
326.77	534.25
326.999	624.25
327.228	867.25
327.457	1348.25
327.686	1643.25
327.914	1060.25
328.143	690.25
328.372	610.25
328.6	559.25
328.829	544.25
329.058	559.25
329.287	571.25
329.515	563.25
329.744	493.25
329.972	486.25
330.201	524.25
330.43	556.25
330.658	574.25
330.887	592.25
331.115	585.25
331.344	529.25
331.572	489.25
331.801	503.25
332.03	486.25
332.258	464.25
332.486	461.25
332.715	451.25
332.943	441.25
333.172	461.25
333.4	487.25
333.629	498.25
333.857	493.25
334.085	481.25
334.314	526.25
334.542	521.25
334.771	579.25
334.999	533.25
335.227	496.25
335.455	481.25
335.684	472.25
335.912	484.25
336.14	455.25
336.369	451.25
336.597	461.25
336.825	469.25
337.053	466.25
337.281	450.25
337.51	442.25
337.738	448.25
337.966	453.25
338.194	468.25
338.422	450.25
338.65	450.25
338.878	434.25
339.106	425.25
339.334	431.25
339.562	416.25
339.79	431.25
340.018	427.25
340.246	450.25
340.474	440.25
340.702	444.25
340.93	435.25
341.158	409.25
341.386	457.25
341.614	431.25
341.842	427.25
342.07	443.25
342.298	420.25
342.526	412.25
342.754	423.25
342.981	420.25
343.209	407.25
343.437	423.25
343.665	423.25
343.893	437.25
344.12	465.25
344.348	452.25
344.576	446.25
344.804	443.25
345.031	433.25
345.259	451.25
345.487	435.25
345.714	444.25
345.942	444.25
346.17	424.25
346.397	430.25
346.625	417.25
346.853	433.25
347.08	408.25
347.308	429.25
347.535	453.25
347.763	447.25
347.99	413.25
348.218	431.25
348.445	413.25
348.673	415.25
348.9	430.25
349.128	422.25
349.355	421.25
349.583	420.25
349.81	421.25
350.037	407.25
350.265	397.25
350.492	399.25
350.72	416.25
350.947	416.25
351.174	426.25
351.402	435.25
351.629	415.25
351.856	423.25
352.083	448.25
352.311	429.25
352.538	427.25
352.765	436.25
352.992	426.25
353.22	422.25
353.447	447.25
353.674	431.25
353.901	431.25
354.128	418.25
354.355	395.25
354.583	404.25
354.81	410.25
355.037	399.25
355.264	386.25
355.491	409.25
355.718	405.25
355.945	396.25
356.172	433.25
356.399	387.25
356.626	403.25
356.853	415.25
357.08	405.25
357.307	407.25
357.534	401.25
357.761	394.25
357.988	424.25
358.215	404.25
358.441	398.25
358.668	401.25
358.895	407.25
359.122	410.25
359.349	413.25
359.576	440.25
359.802	424.25
360.029	468.25
360.256	465.25
360.483	451.25
360.709	449.25
360.936	428.25
361.163	410.25
361.39	434.25
361.616	430.25
361.843	420.25
362.07	435.25
362.296	435.25
362.523	432.25
362.749	432.25
362.976	433.25
363.203	415.25
363.429	412.25
363.656	411.25
363.882	415.25
364.109	406.25
364.335	423.25
364.562	417.25
364.788	397.25
365.015	420.25
365.241	415.25
365.468	421.25
365.694	416.25
365.92	401.25
366.147	416.25
366.373	396.25
366.599	398.25
366.826	405.25
367.052	421.25
367.278	412.25
367.505	411.25
367.731	419.25
367.957	415.25
368.184	419.25
368.41	402.25
368.636	395.25
368.862	428.25
369.089	424.25
369.315	418.25
369.541	428.25
369.767	422.25
369.993	422.25
370.219	425.25
370.445	418.25
370.672	407.25
370.898	420.25
371.124	423.25
371.35	407.25
371.576	442.25
371.802	412.25
372.028	443.25
372.254	434.25
372.48	421.25
372.706	445.25
372.932	438.25
373.158	433.25
373.384	451.25
373.61	432.25
373.835	420.25
374.061	416.25
374.287	418.25
374.513	437.25
374.739	448.25
374.965	449.25
375.191	442.25
375.416	451.25
375.642	432.25
375.868	439.25
376.094	431.25
376.319	409.25
376.545	411.25
376.771	432.25
376.997	419.25
377.222	415.25
377.448	424.25
377.674	434.25
377.899	435.25
378.125	416.25
378.35	418.25
378.576	443.25
378.802	394.25
379.027	398.25
379.253	426.25
379.478	433.25
379.704	425.25
379.929	423.25
380.155	412.25
380.38	426.25
380.606	446.25
380.831	399.25
381.057	429.25
381.282	413.25
381.507	432.25
381.733	445.25
381.958	440.25
382.184	420.25
382.409	419.25
382.634	446.25
382.86	437.25
383.085	426.25
383.31	452.25
383.535	448.25
383.761	435.25
383.986	458.25
384.211	454.25
384.436	454.25
384.662	439.25
384.887	477.25
385.112	449.25
385.337	457.25
385.562	455.25
385.787	490.25
386.013	476.25
386.238	484.25
386.463	469.25
386.688	481.25
386.913	477.25
387.138	465.25
387.363	472.25
387.588	461.25
387.813	460.25
388.038	476.25
388.263	471.25
388.488	474.25
388.713	472.25
388.938	481.25
389.163	474.25
389.387	473.25
389.612	496.25
389.837	471.25
390.062	469.25
390.287	485.25
390.512	449.25
390.736	491.25
390.961	471.25
391.186	479.25
391.411	510.25
391.636	471.25
391.86	485.25
392.085	488.25
392.31	507.25
392.534	497.25
392.759	503.25
392.984	510.25
393.208	486.25
393.433	482.25
393.658	485.25
393.882	492.25
394.107	477.25
394.331	500.25
394.556	482.25
394.78	477.25
395.005	476.25
395.229	481.25
395.454	509.25
395.678	483.25
395.903	506.25
396.127	551.25
396.352	532.25
396.576	512.25
396.801	515.25
397.025	499.25
397.249	511.25
397.474	519.25
397.698	520.25
397.922	518.25
398.147	550.25
398.371	550.25
398.595	540.25
398.82	534.25
399.044	543.25
399.268	571.25
399.492	626.25
399.717	648.25
399.941	690.25
400.165	703.25
400.389	698.25
400.613	640.25
400.837	592.25
401.062	591.25
401.286	578.25
401.51	566.25
401.734	586.25
401.958	596.25
402.182	563.25
402.406	569.25
402.63	568.25
402.854	566.25
403.078	568.25
403.302	583.25
403.526	579.25
403.75	577.25
403.974	595.25
404.198	579.25
404.422	600.25
404.645	611.25
404.869	609.25
405.093	638.25
405.317	680.25
405.541	707.25
405.765	640.25
405.988	617.25
406.212	636.25
406.436	641.25
406.66	682.25
406.883	657.25
407.107	664.25
407.331	722.25
407.555	774.25
407.778	778.25
408.002	701.25
408.226	681.25
408.449	673.25
408.673	645.25
408.896	662.25
409.12	708.25
409.344	696.25
409.567	625.25
409.791	616.25
410.014	617.25
410.238	587.25
410.461	569.25
410.685	593.25
410.908	625.25
411.132	663.25
411.355	656.25
411.578	659.25
411.802	602.25
412.025	586.25
412.249	610.25
412.472	630.25
412.695	647.25
412.919	653.25
413.142	648.25
413.365	570.25
413.589	583.25
413.812	588.25
414.035	562.25
414.258	563.25
414.482	545.25
414.705	571.25
414.928	550.25
415.151	555.25
415.374	556.25
415.597	569.25
415.821	566.25
416.044	567.25
416.267	557.25
416.49	555.25
416.713	542.25
416.936	543.25
417.159	550.25
417.382	553.25
417.605	566.25
417.828	574.25
418.051	576.25
418.274	565.25
418.497	577.25
418.72	551.25
418.943	549.25
419.166	585.25
419.389	623.25
419.611	607.25
419.834	593.25
420.057	593.25
420.28	601.25
420.503	608.25
420.726	577.25
420.948	584.25
421.171	635.25
421.394	658.25
421.617	594.25
421.839	587.25
422.062	585.25
422.285	594.25
422.507	670.25
422.73	735.25
422.953	716.25
423.175	632.25
423.398	595.25
423.621	591.25
423.843	617.25
424.066	616.25
424.288	608.25
424.511	650.25
424.733	685.25
424.956	777.25
425.178	773.25
425.401	741.25
425.623	777.25
425.846	645.25
426.068	630.25
426.291	606.25
426.513	629.25
426.735	634.25
426.958	661.25
427.18	747.25
427.402	872.25
427.625	974.25
427.847	810.25
428.069	729.25
428.292	655.25
428.514	609.25
428.736	584.25
428.958	569.25
429.181	567.25
429.403	580.25
429.625	571.25
429.847	610.25
430.069	673.25
430.292	663.25
430.514	585.25
430.736	567.25
430.958	544.25
431.18	555.25
431.402	547.25
431.624	543.25
431.846	562.25
432.068	533.25
432.29	527.25
432.512	559.25
432.734	545.25
432.956	570.25
433.178	550.25
433.4	533.25
433.622	556.25
433.844	534.25
434.066	541.25
434.287	538.25
434.509	547.25
434.731	565.25
434.953	577.25
435.175	599.25
435.397	627.25
435.618	609.25
435.84	665.25
436.062	759.25
436.284	817.25
436.505	677.25
436.727	627.25
436.949	600.25
437.17	595.25
437.392	567.25
437.614	573.25
437.835	640.25
438.057	708.25
438.278	816.25
438.5	815.25
438.721	883.25
438.943	837.25
439.165	664.25
439.386	629.25
439.608	595.25
439.829	610.25
440.05	636.25
440.272	698.25
440.493	665.25
440.715	594.25
440.936	588.25
441.158	590.25
441.379	579.25
441.6	593.25
441.822	646.25
442.043	661.25
442.264	717.25
442.486	774.25
442.707	679.25
442.928	637.25
443.149	633.25
443.371	650.25
443.592	699.25
443.813	814.25
444.034	868.25
444.255	700.25
444.476	645.25
444.698	645.25
444.919	642.25
445.14	708.25
445.361	679.25
445.582	660.25
445.803	728.25
446.024	826.25
446.245	819.25
446.466	777.25
446.687	651.25
446.908	623.25
447.129	565.25
447.35	576.25
447.571	577.25
447.792	578.25
448.013	567.25
448.234	583.25
448.455	627.25
448.675	743.25
448.896	864.25
449.117	747.25
449.338	673.25
449.559	797.25
449.779	927.25
450	715.25
450.221	614.25
450.442	572.25
450.662	586.25
450.883	552.25
451.104	575.25
451.324	575.25
451.545	559.25
451.766	525.25
451.986	516.25
452.207	499.25
452.428	500.25
452.648	508.25
452.869	516.25
453.089	508.25
453.31	531.25
453.53	517.25
453.751	519.25
453.971	521.25
454.192	536.25
454.412	515.25
454.633	526.25
454.853	523.25
455.073	497.25
455.294	540.25
455.514	582.25
455.734	573.25
455.955	508.25
456.175	477.25
456.395	469.25
456.616	461.25
456.836	458.25
457.056	477.25
457.276	470.25
457.497	494.25
457.717	466.25
457.937	509.25
458.157	492.25
458.377	471.25
458.598	516.25
458.818	575.25
459.038	641.25
459.258	680.25
459.478	598.25
459.698	552.25
459.918	581.25
460.138	564.25
460.358	567.25
460.578	579.25
460.798	585.25
461.018	582.25
461.238	561.25
461.458	579.25
461.678	539.25
461.898	595.25
462.118	564.25
462.338	604.25
462.558	603.25
462.777	592.25
462.997	629.25
463.217	645.25
463.437	647.25
463.657	617.25
463.876	631.25
464.096	627.25
464.316	622.25
464.536	636.25
464.755	612.25
464.975	633.25
465.195	650.25
465.414	712.25
465.634	641.25
465.854	587.25
466.073	560.25
466.293	559.25
466.512	534.25
466.732	547.25
466.951	529.25
467.171	546.25
467.391	539.25
467.61	541.25
467.829	554.25
468.049	560.25
468.268	538.25
468.488	528.25
468.707	510.25
468.927	531.25
469.146	522.25
469.365	533.25
469.585	522.25
469.804	525.25
470.023	554.25
470.243	537.25
470.462	562.25
470.681	583.25
470.901	559.25
471.12	537.25
471.339	556.25
471.558	539.25
471.777	548.25
471.997	544.25
472.216	524.25
472.435	562.25
472.654	552.25
472.873	547.25
473.092	548.25
473.311	504.25
473.53	543.25
473.749	546.25
473.968	593.25
474.187	670.25
474.406	702.25
474.625	588.25
474.844	553.25
475.063	557.25
475.282	549.25
475.501	538.25
475.72	537.25
475.939	541.25
476.158	532.25
476.377	535.25
476.596	551.25
476.814	563.25
477.033	591.25
477.252	565.25
477.471	576.25
477.69	579.25
477.908	573.25
478.127	573.25
478.346	582.25
478.564	600.25
478.783	605.25
479.002	619.25
479.22	616.25
479.439	641.25
479.658	641.25
479.876	644.25
480.095	637.25
480.313	697.25
480.532	656.25
480.751	655.25
480.969	672.25
481.188	735.25
481.406	750.25
481.624	689.25
481.843	660.25
482.061	644.25
482.28	646.25
482.498	607.25
482.717	595.25
482.935	634.25
483.153	632.25
483.372	629.25
483.59	615.25
483.808	630.25
484.027	637.25
484.245	650.25
484.463	631.25
484.681	645.25
484.9	631.25
485.118	637.25
485.336	651.25
485.554	634.25
485.772	680.25
485.99	650.25
486.209	637.25
486.427	636.25
486.645	660.25
486.863	684.25
487.081	685.25
487.299	660.25
487.517	666.25
487.735	667.25
487.953	679.25
488.171	677.25
488.389	696.25
488.607	676.25
488.825	657.25
489.043	650.25
489.261	671.25
489.479	668.25
489.696	667.25
489.914	699.25
490.132	671.25
490.35	687.25
490.568	696.25
490.786	722.25
491.003	724.25
491.221	701.25
491.439	716.25
491.657	752.25
491.874	755.25
492.092	741.25
492.31	754.25
492.527	760.25
492.745	770.25
492.963	777.25
493.18	795.25
493.398	772.25
493.615	785.25
493.833	777.25
494.05	804.25
494.268	793.25
494.485	765.25
494.703	777.25
494.92	777.25
495.138	760.25
495.355	804.25
495.573	784.25
495.79	775.25
496.008	802.25
496.225	796.25
496.442	801.25
496.66	802.25
496.877	809.25
497.094	823.25
497.312	804.25
497.529	828.25
497.746	829.25
497.963	835.25
498.181	866.25
498.398	917.25
498.615	885.25
498.832	929.25
499.049	943.25
499.267	962.25
499.484	995.25
499.701	1076.25
499.918	1096.25
500.135	1153.25
500.352	1225.25
500.569	1206.25
500.786	1251.25
501.003	1231.25
501.22	1201.25
501.437	1137.25
501.654	1078.25
501.871	1081.25
