Data from 1979.PennyLincolnUp.Lamp.En5.5.200Scan.071719.P1_HRD10591_16-19-20-863.txt Node
Date: Thu Jul 18 16:19:20 EDT 2019
User: cochatt
Spectrometer: HR+D1059
Trigger mode: 1
Integration Time (sec): 1.000000E-1
Scans to average: 1
Electric dark correction enabled: true
Nonlinearity correction enabled: false
Boxcar width: 0
XAxis mode: Wavelengths
Number of Pixels in Spectrum: 2048
>>>>>Begin Spectral Data<<<<<
223.165	-10.75
223.4	-10.75
223.635	-10.75
223.869	-20.75
224.104	-17.75
224.338	-13.75
224.573	-11.75
224.808	-11.75
225.042	-9.75
225.277	8.25
225.511	5.25
225.746	8.25
225.98	3.25
226.215	-2.75
226.449	11.25
226.683	13.25
226.918	23.25
227.152	26.25
227.387	37.25
227.621	34.25
227.856	49.25
228.09	44.25
228.324	31.25
228.559	54.25
228.793	78.25
229.027	104.25
229.262	101.25
229.496	106.25
229.73	133.25
229.964	132.25
230.199	129.25
230.433	108.25
230.667	103.25
230.901	109.25
231.136	104.25
231.37	114.25
231.604	111.25
231.838	105.25
232.072	120.25
232.306	111.25
232.541	102.25
232.775	122.25
233.009	122.25
233.243	125.25
233.477	117.25
233.711	107.25
233.945	115.25
234.179	121.25
234.413	124.25
234.647	115.25
234.881	111.25
235.115	109.25
235.349	127.25
235.583	113.25
235.817	107.25
236.051	122.25
236.285	103.25
236.519	141.25
236.753	121.25
236.987	126.25
237.221	161.25
237.455	218.25
237.689	177.25
237.922	151.25
238.156	134.25
238.39	118.25
238.624	115.25
238.858	120.25
239.091	116.25
239.325	124.25
239.559	125.25
239.793	126.25
240.027	121.25
240.26	134.25
240.494	166.25
240.728	137.25
240.961	153.25
241.195	124.25
241.429	116.25
241.662	139.25
241.896	135.25
242.13	148.25
242.363	144.25
242.597	136.25
242.83	146.25
243.064	130.25
243.298	140.25
243.531	134.25
243.765	129.25
243.998	136.25
244.232	138.25
244.465	142.25
244.699	135.25
244.932	154.25
245.166	151.25
245.399	155.25
245.633	129.25
245.866	145.25
246.099	135.25
246.333	134.25
246.566	135.25
246.8	147.25
247.033	151.25
247.266	147.25
247.5	152.25
247.733	170.25
247.966	169.25
248.2	164.25
248.433	169.25
248.666	170.25
248.899	178.25
249.133	190.25
249.366	191.25
249.599	196.25
249.832	166.25
250.066	183.25
250.299	181.25
250.532	184.25
250.765	181.25
250.998	216.25
251.231	201.25
251.465	203.25
251.698	203.25
251.931	196.25
252.164	178.25
252.397	174.25
252.63	201.25
252.863	192.25
253.096	206.25
253.329	206.25
253.562	212.25
253.795	200.25
254.028	201.25
254.261	193.25
254.494	205.25
254.727	242.25
254.96	228.25
255.193	240.25
255.426	201.25
255.659	208.25
255.892	215.25
256.124	220.25
256.357	215.25
256.59	225.25
256.823	216.25
257.056	210.25
257.289	213.25
257.521	207.25
257.754	208.25
257.987	185.25
258.22	189.25
258.452	194.25
258.685	197.25
258.918	194.25
259.151	196.25
259.383	218.25
259.616	195.25
259.849	202.25
260.081	210.25
260.314	225.25
260.547	212.25
260.779	232.25
261.012	224.25
261.244	209.25
261.477	217.25
261.71	211.25
261.942	236.25
262.175	230.25
262.407	226.25
262.64	204.25
262.872	213.25
263.105	196.25
263.337	211.25
263.57	210.25
263.802	205.25
264.035	206.25
264.267	197.25
264.499	184.25
264.732	213.25
264.964	201.25
265.197	215.25
265.429	205.25
265.661	208.25
265.894	217.25
266.126	201.25
266.358	207.25
266.591	213.25
266.823	219.25
267.055	214.25
267.287	224.25
267.52	215.25
267.752	206.25
267.984	204.25
268.216	218.25
268.448	221.25
268.681	205.25
268.913	250.25
269.145	259.25
269.377	253.25
269.609	252.25
269.841	255.25
270.073	261.25
270.306	274.25
270.538	286.25
270.77	287.25
271.002	282.25
271.234	263.25
271.466	273.25
271.698	283.25
271.93	287.25
272.162	284.25
272.394	279.25
272.626	285.25
272.858	279.25
273.09	259.25
273.322	271.25
273.553	257.25
273.785	232.25
274.017	245.25
274.249	263.25
274.481	242.25
274.713	223.25
274.945	251.25
275.176	249.25
275.408	250.25
275.64	249.25
275.872	245.25
276.104	254.25
276.335	261.25
276.567	241.25
276.799	262.25
277.031	293.25
277.262	300.25
277.494	301.25
277.726	282.25
277.957	263.25
278.189	271.25
278.421	241.25
278.652	266.25
278.884	261.25
279.115	258.25
279.347	259.25
279.579	250.25
279.81	261.25
280.042	249.25
280.273	260.25
280.505	252.25
280.736	247.25
280.968	250.25
281.199	275.25
281.431	277.25
281.662	266.25
281.894	263.25
282.125	262.25
282.356	278.25
282.588	284.25
282.819	308.25
283.051	263.25
283.282	277.25
283.513	264.25
283.745	261.25
283.976	264.25
284.207	260.25
284.439	277.25
284.67	279.25
284.901	280.25
285.132	275.25
285.364	258.25
285.595	262.25
285.826	278.25
286.057	285.25
286.288	277.25
286.52	273.25
286.751	275.25
286.982	276.25
287.213	270.25
287.444	279.25
287.675	271.25
287.906	280.25
288.138	294.25
288.369	302.25
288.6	286.25
288.831	307.25
289.062	297.25
289.293	295.25
289.524	271.25
289.755	285.25
289.986	278.25
290.217	285.25
290.448	277.25
290.679	286.25
290.91	280.25
291.141	300.25
291.371	298.25
291.602	285.25
291.833	285.25
292.064	276.25
292.295	290.25
292.526	286.25
292.757	277.25
292.987	302.25
293.218	289.25
293.449	287.25
293.68	309.25
293.91	275.25
294.141	296.25
294.372	288.25
294.603	273.25
294.833	305.25
295.064	299.25
295.295	286.25
295.525	285.25
295.756	298.25
295.987	285.25
296.217	310.25
296.448	324.25
296.679	279.25
296.909	301.25
297.14	286.25
297.37	298.25
297.601	294.25
297.831	311.25
298.062	306.25
298.292	321.25
298.523	297.25
298.753	315.25
298.984	302.25
299.214	305.25
299.445	309.25
299.675	302.25
299.905	304.25
300.136	321.25
300.366	319.25
300.597	309.25
300.827	315.25
301.057	319.25
301.288	342.25
301.518	309.25
301.748	318.25
301.979	305.25
302.209	332.25
302.439	321.25
302.669	324.25
302.9	330.25
303.13	321.25
303.36	327.25
303.59	326.25
303.82	342.25
304.051	333.25
304.281	338.25
304.511	313.25
304.741	316.25
304.971	337.25
305.201	321.25
305.431	318.25
305.661	343.25
305.891	321.25
306.121	321.25
306.352	338.25
306.582	329.25
306.812	317.25
307.042	326.25
307.272	337.25
307.502	335.25
307.731	334.25
307.961	324.25
308.191	330.25
308.421	319.25
308.651	338.25
308.881	325.25
309.111	321.25
309.341	334.25
309.571	325.25
309.8	353.25
310.03	357.25
310.26	346.25
310.49	359.25
310.72	378.25
310.949	374.25
311.179	360.25
311.409	385.25
311.639	357.25
311.868	373.25
312.098	359.25
312.328	379.25
312.557	385.25
312.787	385.25
313.017	378.25
313.246	371.25
313.476	373.25
313.706	389.25
313.935	381.25
314.165	367.25
314.394	386.25
314.624	405.25
314.853	377.25
315.083	379.25
315.312	368.25
315.542	361.25
315.771	359.25
316.001	357.25
316.23	355.25
316.46	361.25
316.689	359.25
316.919	368.25
317.148	375.25
317.377	366.25
317.607	373.25
317.836	369.25
318.065	368.25
318.295	366.25
318.524	369.25
318.753	381.25
318.983	375.25
319.212	406.25
319.441	372.25
319.67	382.25
319.9	390.25
320.129	357.25
320.358	351.25
320.587	381.25
320.816	367.25
321.046	388.25
321.275	403.25
321.504	384.25
321.733	395.25
321.962	396.25
322.191	411.25
322.42	415.25
322.649	442.25
322.878	446.25
323.108	472.25
323.337	456.25
323.566	486.25
323.795	504.25
324.024	538.25
324.253	607.25
324.482	897.25
324.71	1373.25
324.939	2078.25
325.168	1797.25
325.397	887.25
325.626	610.25
325.855	544.25
326.084	525.25
326.313	489.25
326.542	485.25
326.77	528.25
326.999	621.25
327.228	810.25
327.457	1261.25
327.686	1589.25
327.914	1005.25
328.143	653.25
328.372	575.25
328.6	572.25
328.829	524.25
329.058	540.25
329.287	549.25
329.515	519.25
329.744	496.25
329.972	486.25
330.201	495.25
330.43	553.25
330.658	560.25
330.887	588.25
331.115	578.25
331.344	520.25
331.572	485.25
331.801	478.25
332.03	468.25
332.258	453.25
332.486	447.25
332.715	444.25
332.943	444.25
333.172	462.25
333.4	452.25
333.629	490.25
333.857	491.25
334.085	489.25
334.314	485.25
334.542	509.25
334.771	554.25
334.999	489.25
335.227	458.25
335.455	475.25
335.684	443.25
335.912	471.25
336.14	443.25
336.369	439.25
336.597	462.25
336.825	464.25
337.053	437.25
337.281	457.25
337.51	433.25
337.738	451.25
337.966	442.25
338.194	443.25
338.422	450.25
338.65	434.25
338.878	451.25
339.106	425.25
339.334	425.25
339.562	437.25
339.79	429.25
340.018	421.25
340.246	425.25
340.474	421.25
340.702	442.25
340.93	441.25
341.158	427.25
341.386	418.25
341.614	435.25
341.842	422.25
342.07	406.25
342.298	414.25
342.526	410.25
342.754	440.25
342.981	402.25
343.209	442.25
343.437	436.25
343.665	431.25
343.893	475.25
344.12	447.25
344.348	435.25
344.576	456.25
344.804	452.25
345.031	449.25
345.259	447.25
345.487	416.25
345.714	439.25
345.942	427.25
346.17	431.25
346.397	424.25
346.625	410.25
346.853	409.25
347.08	439.25
347.308	438.25
347.535	423.25
347.763	436.25
347.99	420.25
348.218	423.25
348.445	413.25
348.673	443.25
348.9	426.25
349.128	418.25
349.355	398.25
349.583	402.25
349.81	418.25
350.037	418.25
350.265	408.25
350.492	405.25
350.72	416.25
350.947	405.25
351.174	431.25
351.402	423.25
351.629	420.25
351.856	415.25
352.083	429.25
352.311	423.25
352.538	417.25
352.765	417.25
352.992	434.25
353.22	421.25
353.447	414.25
353.674	407.25
353.901	418.25
354.128	398.25
354.355	423.25
354.583	414.25
354.81	406.25
355.037	408.25
355.264	391.25
355.491	395.25
355.718	385.25
355.945	418.25
356.172	383.25
356.399	395.25
356.626	390.25
356.853	394.25
357.08	385.25
357.307	407.25
357.534	380.25
357.761	395.25
357.988	407.25
358.215	399.25
358.441	411.25
358.668	399.25
358.895	393.25
359.122	389.25
359.349	393.25
359.576	411.25
359.802	434.25
360.029	458.25
360.256	473.25
360.483	458.25
360.709	415.25
360.936	426.25
361.163	424.25
361.39	445.25
361.616	416.25
361.843	421.25
362.07	414.25
362.296	439.25
362.523	405.25
362.749	419.25
362.976	419.25
363.203	427.25
363.429	423.25
363.656	406.25
363.882	382.25
364.109	389.25
364.335	389.25
364.562	412.25
364.788	418.25
365.015	417.25
365.241	403.25
365.468	414.25
365.694	422.25
365.92	413.25
366.147	412.25
366.373	396.25
366.599	404.25
366.826	404.25
367.052	412.25
367.278	412.25
367.505	405.25
367.731	416.25
367.957	428.25
368.184	399.25
368.41	403.25
368.636	433.25
368.862	426.25
369.089	417.25
369.315	437.25
369.541	406.25
369.767	419.25
369.993	415.25
370.219	425.25
370.445	414.25
370.672	416.25
370.898	405.25
371.124	425.25
371.35	434.25
371.576	419.25
371.802	412.25
372.028	404.25
372.254	411.25
372.48	400.25
372.706	408.25
372.932	408.25
373.158	422.25
373.384	412.25
373.61	420.25
373.835	427.25
374.061	423.25
374.287	421.25
374.513	425.25
374.739	441.25
374.965	435.25
375.191	419.25
375.416	443.25
375.642	431.25
375.868	427.25
376.094	426.25
376.319	420.25
376.545	425.25
376.771	419.25
376.997	429.25
377.222	440.25
377.448	412.25
377.674	424.25
377.899	413.25
378.125	410.25
378.35	416.25
378.576	416.25
378.802	418.25
379.027	409.25
379.253	437.25
379.478	399.25
379.704	424.25
379.929	433.25
380.155	446.25
380.38	394.25
380.606	425.25
380.831	412.25
381.057	404.25
381.282	406.25
381.507	438.25
381.733	429.25
381.958	426.25
382.184	417.25
382.409	433.25
382.634	428.25
382.86	416.25
383.085	447.25
383.31	415.25
383.535	462.25
383.761	436.25
383.986	438.25
384.211	456.25
384.436	456.25
384.662	453.25
384.887	456.25
385.112	461.25
385.337	439.25
385.562	461.25
385.787	471.25
386.013	485.25
386.238	471.25
386.463	469.25
386.688	470.25
386.913	465.25
387.138	470.25
387.363	484.25
387.588	490.25
387.813	473.25
388.038	461.25
388.263	469.25
388.488	475.25
388.713	465.25
388.938	451.25
389.163	465.25
389.387	455.25
389.612	461.25
389.837	458.25
390.062	479.25
390.287	466.25
390.512	459.25
390.736	473.25
390.961	482.25
391.186	486.25
391.411	466.25
391.636	490.25
391.86	479.25
392.085	511.25
392.31	479.25
392.534	490.25
392.759	459.25
392.984	489.25
393.208	501.25
393.433	471.25
393.658	485.25
393.882	469.25
394.107	486.25
394.331	468.25
394.556	483.25
394.78	475.25
395.005	507.25
395.229	473.25
395.454	487.25
395.678	512.25
395.903	492.25
396.127	519.25
396.352	517.25
396.576	493.25
396.801	495.25
397.025	495.25
397.249	501.25
397.474	525.25
397.698	498.25
397.922	527.25
398.147	535.25
398.371	570.25
398.595	538.25
398.82	557.25
399.044	581.25
399.268	587.25
399.492	618.25
399.717	661.25
399.941	694.25
400.165	673.25
400.389	694.25
400.613	597.25
400.837	585.25
401.062	579.25
401.286	575.25
401.51	561.25
401.734	536.25
401.958	563.25
402.182	553.25
402.406	577.25
402.63	579.25
402.854	570.25
403.078	583.25
403.302	568.25
403.526	583.25
403.75	597.25
403.974	583.25
404.198	595.25
404.422	587.25
404.645	590.25
404.869	601.25
405.093	634.25
405.317	665.25
405.541	685.25
405.765	613.25
405.988	621.25
406.212	615.25
406.436	617.25
406.66	649.25
406.883	631.25
407.107	658.25
407.331	704.25
407.555	770.25
407.778	771.25
408.002	703.25
408.226	639.25
408.449	650.25
408.673	632.25
408.896	664.25
409.12	697.25
409.344	681.25
409.567	625.25
409.791	612.25
410.014	592.25
410.238	588.25
410.461	599.25
410.685	613.25
410.908	620.25
411.132	626.25
411.355	671.25
411.578	628.25
411.802	592.25
412.025	591.25
412.249	614.25
412.472	589.25
412.695	646.25
412.919	618.25
413.142	573.25
413.365	588.25
413.589	581.25
413.812	556.25
414.035	565.25
414.258	551.25
414.482	575.25
414.705	582.25
414.928	570.25
415.151	558.25
415.374	559.25
415.597	543.25
415.821	549.25
416.044	563.25
416.267	568.25
416.49	566.25
416.713	534.25
416.936	557.25
417.159	564.25
417.382	563.25
417.605	555.25
417.828	558.25
418.051	565.25
418.274	574.25
418.497	562.25
418.72	559.25
418.943	561.25
419.166	590.25
419.389	587.25
419.611	602.25
419.834	584.25
420.057	612.25
420.28	597.25
420.503	565.25
420.726	573.25
420.948	591.25
421.171	613.25
421.394	641.25
421.617	598.25
421.839	593.25
422.062	566.25
422.285	593.25
422.507	643.25
422.73	720.25
422.953	669.25
423.175	633.25
423.398	621.25
423.621	595.25
423.843	616.25
424.066	613.25
424.288	615.25
424.511	620.25
424.733	683.25
424.956	745.25
425.178	710.25
425.401	717.25
425.623	732.25
425.846	646.25
426.068	606.25
426.291	613.25
426.513	591.25
426.735	630.25
426.958	666.25
427.18	735.25
427.402	850.25
427.625	932.25
427.847	821.25
428.069	725.25
428.292	633.25
428.514	601.25
428.736	582.25
428.958	558.25
429.181	573.25
429.403	558.25
429.625	572.25
429.847	602.25
430.069	654.25
430.292	659.25
430.514	564.25
430.736	565.25
430.958	548.25
431.18	539.25
431.402	561.25
431.624	550.25
431.846	526.25
432.068	551.25
432.29	546.25
432.512	542.25
432.734	530.25
432.956	533.25
433.178	571.25
433.4	574.25
433.622	539.25
433.844	575.25
434.066	535.25
434.287	551.25
434.509	569.25
434.731	572.25
434.953	551.25
435.175	579.25
435.397	597.25
435.618	599.25
435.84	626.25
436.062	722.25
436.284	798.25
436.505	667.25
436.727	619.25
436.949	571.25
437.17	552.25
437.392	573.25
437.614	588.25
437.835	600.25
438.057	678.25
438.278	806.25
438.5	791.25
438.721	871.25
438.943	836.25
439.165	668.25
439.386	640.25
439.608	609.25
439.829	611.25
440.05	634.25
440.272	667.25
440.493	653.25
440.715	591.25
440.936	589.25
441.158	570.25
441.379	567.25
441.6	594.25
441.822	625.25
442.043	637.25
442.264	719.25
442.486	739.25
442.707	650.25
442.928	627.25
443.149	622.25
443.371	647.25
443.592	692.25
443.813	768.25
444.034	825.25
444.255	702.25
444.476	649.25
444.698	630.25
444.919	643.25
445.14	683.25
445.361	667.25
445.582	663.25
445.803	702.25
446.024	802.25
446.245	830.25
446.466	737.25
446.687	633.25
446.908	586.25
447.129	572.25
447.35	559.25
447.571	563.25
447.792	548.25
448.013	551.25
448.234	571.25
448.455	634.25
448.675	734.25
448.896	828.25
449.117	704.25
449.338	653.25
449.559	789.25
449.779	875.25
450	711.25
450.221	574.25
450.442	565.25
450.662	526.25
450.883	533.25
451.104	558.25
451.324	563.25
451.545	541.25
451.766	523.25
451.986	497.25
452.207	513.25
452.428	531.25
452.648	494.25
452.869	502.25
453.089	511.25
453.31	521.25
453.53	503.25
453.751	508.25
453.971	502.25
454.192	516.25
454.412	524.25
454.633	499.25
454.853	502.25
455.073	499.25
455.294	516.25
455.514	575.25
455.734	572.25
455.955	507.25
456.175	477.25
456.395	469.25
456.616	477.25
456.836	510.25
457.056	481.25
457.276	467.25
457.497	490.25
457.717	481.25
457.937	497.25
458.157	488.25
458.377	511.25
458.598	527.25
458.818	560.25
459.038	635.25
459.258	680.25
459.478	583.25
459.698	554.25
459.918	553.25
460.138	550.25
460.358	577.25
460.578	580.25
460.798	580.25
461.018	559.25
461.238	578.25
461.458	561.25
461.678	569.25
461.898	565.25
462.118	580.25
462.338	607.25
462.558	577.25
462.777	593.25
462.997	653.25
463.217	640.25
463.437	655.25
463.657	635.25
463.876	611.25
464.096	625.25
464.316	610.25
464.536	621.25
464.755	617.25
464.975	615.25
465.195	646.25
465.414	715.25
465.634	644.25
465.854	606.25
466.073	565.25
466.293	533.25
466.512	535.25
466.732	534.25
466.951	526.25
467.171	540.25
467.391	552.25
467.61	539.25
467.829	545.25
468.049	540.25
468.268	523.25
468.488	537.25
468.707	508.25
468.927	528.25
469.146	508.25
469.365	518.25
469.585	527.25
469.804	525.25
470.023	531.25
470.243	531.25
470.462	535.25
470.681	561.25
470.901	563.25
471.12	529.25
471.339	548.25
471.558	519.25
471.777	533.25
471.997	546.25
472.216	534.25
472.435	590.25
472.654	579.25
472.873	542.25
473.092	515.25
473.311	518.25
473.53	519.25
473.749	510.25
473.968	545.25
474.187	647.25
474.406	686.25
474.625	588.25
474.844	531.25
475.063	524.25
475.282	534.25
475.501	514.25
475.72	569.25
475.939	539.25
476.158	564.25
476.377	533.25
476.596	552.25
476.814	567.25
477.033	587.25
477.252	563.25
477.471	555.25
477.69	563.25
477.908	568.25
478.127	604.25
478.346	601.25
478.564	603.25
478.783	586.25
479.002	586.25
479.22	605.25
479.439	632.25
479.658	629.25
479.876	611.25
480.095	631.25
480.313	676.25
480.532	661.25
480.751	639.25
480.969	645.25
481.188	703.25
481.406	746.25
481.624	669.25
481.843	641.25
482.061	629.25
482.28	647.25
482.498	614.25
482.717	612.25
482.935	599.25
483.153	605.25
483.372	593.25
483.59	630.25
483.808	609.25
484.027	604.25
484.245	639.25
484.463	625.25
484.681	630.25
484.9	645.25
485.118	626.25
485.336	618.25
485.554	643.25
485.772	628.25
485.99	650.25
486.209	628.25
486.427	659.25
486.645	634.25
486.863	693.25
487.081	677.25
487.299	673.25
487.517	663.25
487.735	631.25
487.953	627.25
488.171	665.25
488.389	653.25
488.607	655.25
488.825	668.25
489.043	648.25
489.261	681.25
489.479	677.25
489.696	674.25
489.914	664.25
490.132	662.25
490.35	698.25
490.568	698.25
490.786	699.25
491.003	724.25
491.221	715.25
491.439	753.25
491.657	725.25
491.874	740.25
492.092	726.25
492.31	748.25
492.527	754.25
492.745	758.25
492.963	754.25
493.18	778.25
493.398	764.25
493.615	779.25
493.833	773.25
494.05	760.25
494.268	777.25
494.485	773.25
494.703	774.25
494.92	745.25
495.138	753.25
495.355	787.25
495.573	767.25
495.79	775.25
496.008	770.25
496.225	773.25
496.442	797.25
496.66	781.25
496.877	786.25
497.094	809.25
497.312	811.25
497.529	821.25
497.746	843.25
497.963	831.25
498.181	847.25
498.398	897.25
498.615	865.25
498.832	913.25
499.049	927.25
499.267	958.25
499.484	991.25
499.701	1050.25
499.918	1075.25
500.135	1171.25
500.352	1189.25
500.569	1230.25
500.786	1206.25
501.003	1237.25
501.22	1203.25
501.437	1091.25
501.654	1076.25
501.871	1060.25
