Data from 1979.PennyLincolnUp.Lamp.En5.5.200Scan.071719.P1_HRD10591_16-18-54-865.txt Node
Date: Thu Jul 18 16:18:54 EDT 2019
User: cochatt
Spectrometer: HR+D1059
Trigger mode: 1
Integration Time (sec): 1.000000E-1
Scans to average: 1
Electric dark correction enabled: true
Nonlinearity correction enabled: false
Boxcar width: 0
XAxis mode: Wavelengths
Number of Pixels in Spectrum: 2048
>>>>>Begin Spectral Data<<<<<
223.165	-14.69
223.4	-14.69
223.635	-14.69
223.869	-19.69
224.104	-23.69
224.338	-0.69
224.573	-15.69
224.808	-5.69
225.042	-7.69
225.277	0.31
225.511	-9.69
225.746	-4.69
225.98	1.31
226.215	20.31
226.449	14.31
226.683	12.31
226.918	30.31
227.152	23.31
227.387	23.31
227.621	41.31
227.856	43.31
228.09	45.31
228.324	50.31
228.559	66.31
228.793	75.31
229.027	76.31
229.262	92.31
229.496	125.31
229.73	134.31
229.964	141.31
230.199	136.31
230.433	108.31
230.667	104.31
230.901	116.31
231.136	92.31
231.37	114.31
231.604	119.31
231.838	115.31
232.072	94.31
232.306	112.31
232.541	112.31
232.775	112.31
233.009	102.31
233.243	103.31
233.477	125.31
233.711	124.31
233.945	112.31
234.179	109.31
234.413	117.31
234.647	107.31
234.881	127.31
235.115	121.31
235.349	122.31
235.583	103.31
235.817	127.31
236.051	132.31
236.285	121.31
236.519	114.31
236.753	137.31
236.987	143.31
237.221	164.31
237.455	207.31
237.689	176.31
237.922	133.31
238.156	125.31
238.39	120.31
238.624	132.31
238.858	128.31
239.091	131.31
239.325	132.31
239.559	123.31
239.793	116.31
240.027	132.31
240.26	125.31
240.494	134.31
240.728	152.31
240.961	143.31
241.195	135.31
241.429	144.31
241.662	132.31
241.896	121.31
242.13	134.31
242.363	130.31
242.597	139.31
242.83	125.31
243.064	147.31
243.298	136.31
243.531	136.31
243.765	129.31
243.998	119.31
244.232	158.31
244.465	140.31
244.699	139.31
244.932	152.31
245.166	152.31
245.399	138.31
245.633	130.31
245.866	127.31
246.099	141.31
246.333	143.31
246.566	148.31
246.8	150.31
247.033	161.31
247.266	151.31
247.5	157.31
247.733	154.31
247.966	165.31
248.2	169.31
248.433	172.31
248.666	166.31
248.899	187.31
249.133	179.31
249.366	190.31
249.599	184.31
249.832	181.31
250.066	168.31
250.299	171.31
250.532	169.31
250.765	193.31
250.998	205.31
251.231	207.31
251.465	210.31
251.698	201.31
251.931	184.31
252.164	183.31
252.397	187.31
252.63	195.31
252.863	200.31
253.096	205.31
253.329	210.31
253.562	213.31
253.795	201.31
254.028	208.31
254.261	192.31
254.494	176.31
254.727	217.31
254.96	258.31
255.193	279.31
255.426	226.31
255.659	212.31
255.892	205.31
256.124	204.31
256.357	214.31
256.59	210.31
256.823	199.31
257.056	198.31
257.289	216.31
257.521	216.31
257.754	209.31
257.987	205.31
258.22	187.31
258.452	189.31
258.685	212.31
258.918	189.31
259.151	196.31
259.383	200.31
259.616	210.31
259.849	203.31
260.081	228.31
260.314	249.31
260.547	244.31
260.779	247.31
261.012	209.31
261.244	188.31
261.477	196.31
261.71	207.31
261.942	204.31
262.175	222.31
262.407	218.31
262.64	201.31
262.872	234.31
263.105	192.31
263.337	214.31
263.57	206.31
263.802	211.31
264.035	190.31
264.267	207.31
264.499	217.31
264.732	203.31
264.964	227.31
265.197	196.31
265.429	203.31
265.661	203.31
265.894	197.31
266.126	194.31
266.358	198.31
266.591	204.31
266.823	214.31
267.055	213.31
267.287	215.31
267.52	210.31
267.752	228.31
267.984	225.31
268.216	217.31
268.448	216.31
268.681	224.31
268.913	216.31
269.145	234.31
269.377	264.31
269.609	264.31
269.841	259.31
270.073	253.31
270.306	246.31
270.538	272.31
270.77	269.31
271.002	269.31
271.234	251.31
271.466	272.31
271.698	268.31
271.93	287.31
272.162	288.31
272.394	288.31
272.626	265.31
272.858	260.31
273.09	248.31
273.322	249.31
273.553	243.31
273.785	246.31
274.017	235.31
274.249	234.31
274.481	258.31
274.713	261.31
274.945	259.31
275.176	244.31
275.408	244.31
275.64	234.31
275.872	247.31
276.104	251.31
276.335	261.31
276.567	267.31
276.799	272.31
277.031	278.31
277.262	298.31
277.494	292.31
277.726	279.31
277.957	264.31
278.189	250.31
278.421	257.31
278.652	264.31
278.884	253.31
279.115	242.31
279.347	258.31
279.579	244.31
279.81	244.31
280.042	238.31
280.273	240.31
280.505	239.31
280.736	256.31
280.968	256.31
281.199	251.31
281.431	258.31
281.662	233.31
281.894	269.31
282.125	251.31
282.356	273.31
282.588	272.31
282.819	279.31
283.051	256.31
283.282	260.31
283.513	255.31
283.745	260.31
283.976	270.31
284.207	264.31
284.439	275.31
284.67	270.31
284.901	270.31
285.132	264.31
285.364	263.31
285.595	243.31
285.826	264.31
286.057	271.31
286.288	256.31
286.52	256.31
286.751	277.31
286.982	266.31
287.213	258.31
287.444	258.31
287.675	280.31
287.906	263.31
288.138	286.31
288.369	288.31
288.6	282.31
288.831	268.31
289.062	299.31
289.293	290.31
289.524	281.31
289.755	277.31
289.986	274.31
290.217	282.31
290.448	272.31
290.679	276.31
290.91	292.31
291.141	280.31
291.371	274.31
291.602	251.31
291.833	270.31
292.064	276.31
292.295	271.31
292.526	263.31
292.757	276.31
292.987	276.31
293.218	290.31
293.449	275.31
293.68	268.31
293.91	291.31
294.141	270.31
294.372	278.31
294.603	281.31
294.833	297.31
295.064	260.31
295.295	286.31
295.525	301.31
295.756	289.31
295.987	307.31
296.217	312.31
296.448	312.31
296.679	293.31
296.909	291.31
297.14	282.31
297.37	284.31
297.601	291.31
297.831	304.31
298.062	300.31
298.292	312.31
298.523	326.31
298.753	285.31
298.984	297.31
299.214	296.31
299.445	298.31
299.675	301.31
299.905	306.31
300.136	321.31
300.366	305.31
300.597	305.31
300.827	305.31
301.057	309.31
301.288	327.31
301.518	323.31
301.748	308.31
301.979	321.31
302.209	320.31
302.439	315.31
302.669	316.31
302.9	315.31
303.13	307.31
303.36	313.31
303.59	309.31
303.82	324.31
304.051	316.31
304.281	296.31
304.511	334.31
304.741	306.31
304.971	289.31
305.201	327.31
305.431	315.31
305.661	335.31
305.891	320.31
306.121	337.31
306.352	321.31
306.582	320.31
306.812	325.31
307.042	309.31
307.272	306.31
307.502	317.31
307.731	319.31
307.961	327.31
308.191	308.31
308.421	333.31
308.651	318.31
308.881	322.31
309.111	319.31
309.341	330.31
309.571	326.31
309.8	351.31
310.03	349.31
310.26	366.31
310.49	353.31
310.72	375.31
310.949	365.31
311.179	376.31
311.409	376.31
311.639	344.31
311.868	361.31
312.098	363.31
312.328	354.31
312.557	377.31
312.787	390.31
313.017	382.31
313.246	356.31
313.476	345.31
313.706	353.31
313.935	376.31
314.165	380.31
314.394	352.31
314.624	394.31
314.853	364.31
315.083	380.31
315.312	373.31
315.542	386.31
315.771	360.31
316.001	355.31
316.23	369.31
316.46	364.31
316.689	373.31
316.919	390.31
317.148	384.31
317.377	382.31
317.607	373.31
317.836	363.31
318.065	344.31
318.295	346.31
318.524	372.31
318.753	367.31
318.983	353.31
319.212	370.31
319.441	374.31
319.67	364.31
319.9	360.31
320.129	373.31
320.358	363.31
320.587	384.31
320.816	373.31
321.046	384.31
321.275	408.31
321.504	379.31
321.733	386.31
321.962	390.31
322.191	386.31
322.42	404.31
322.649	418.31
322.878	417.31
323.108	419.31
323.337	439.31
323.566	462.31
323.795	501.31
324.024	520.31
324.253	613.31
324.482	847.31
324.71	1342.31
324.939	1999.31
325.168	1759.31
325.397	860.31
325.626	602.31
325.855	503.31
326.084	464.31
326.313	464.31
326.542	457.31
326.77	526.31
326.999	593.31
327.228	790.31
327.457	1263.31
327.686	1515.31
327.914	996.31
328.143	650.31
328.372	564.31
328.6	538.31
328.829	526.31
329.058	530.31
329.287	543.31
329.515	499.31
329.744	482.31
329.972	472.31
330.201	479.31
330.43	522.31
330.658	544.31
330.887	563.31
331.115	552.31
331.344	480.31
331.572	465.31
331.801	472.31
332.03	475.31
332.258	454.31
332.486	438.31
332.715	445.31
332.943	416.31
333.172	441.31
333.4	456.31
333.629	461.31
333.857	484.31
334.085	470.31
334.314	489.31
334.542	532.31
334.771	547.31
334.999	484.31
335.227	465.31
335.455	446.31
335.684	452.31
335.912	475.31
336.14	462.31
336.369	453.31
336.597	445.31
336.825	455.31
337.053	438.31
337.281	452.31
337.51	436.31
337.738	424.31
337.966	422.31
338.194	434.31
338.422	440.31
338.65	432.31
338.878	409.31
339.106	406.31
339.334	433.31
339.562	412.31
339.79	413.31
340.018	420.31
340.246	430.31
340.474	427.31
340.702	418.31
340.93	432.31
341.158	419.31
341.386	406.31
341.614	441.31
341.842	408.31
342.07	404.31
342.298	414.31
342.526	425.31
342.754	390.31
342.981	399.31
343.209	419.31
343.437	414.31
343.665	430.31
343.893	429.31
344.12	437.31
344.348	435.31
344.576	450.31
344.804	433.31
345.031	427.31
345.259	444.31
345.487	443.31
345.714	425.31
345.942	432.31
346.17	418.31
346.397	399.31
346.625	405.31
346.853	418.31
347.08	398.31
347.308	420.31
347.535	422.31
347.763	410.31
347.99	400.31
348.218	438.31
348.445	418.31
348.673	428.31
348.9	419.31
349.128	404.31
349.355	416.31
349.583	397.31
349.81	412.31
350.037	379.31
350.265	400.31
350.492	408.31
350.72	405.31
350.947	397.31
351.174	437.31
351.402	429.31
351.629	418.31
351.856	410.31
352.083	423.31
352.311	443.31
352.538	432.31
352.765	420.31
352.992	436.31
353.22	402.31
353.447	419.31
353.674	404.31
353.901	407.31
354.128	388.31
354.355	379.31
354.583	405.31
354.81	374.31
355.037	380.31
355.264	387.31
355.491	384.31
355.718	375.31
355.945	377.31
356.172	381.31
356.399	382.31
356.626	397.31
356.853	379.31
357.08	404.31
357.307	398.31
357.534	393.31
357.761	407.31
357.988	412.31
358.215	394.31
358.441	392.31
358.668	377.31
358.895	392.31
359.122	385.31
359.349	389.31
359.576	430.31
359.802	420.31
360.029	452.31
360.256	445.31
360.483	453.31
360.709	421.31
360.936	414.31
361.163	418.31
361.39	421.31
361.616	414.31
361.843	427.31
362.07	437.31
362.296	421.31
362.523	413.31
362.749	420.31
362.976	407.31
363.203	397.31
363.429	397.31
363.656	399.31
363.882	418.31
364.109	394.31
364.335	396.31
364.562	405.31
364.788	389.31
365.015	386.31
365.241	397.31
365.468	395.31
365.694	405.31
365.92	402.31
366.147	393.31
366.373	389.31
366.599	398.31
366.826	420.31
367.052	391.31
367.278	402.31
367.505	398.31
367.731	391.31
367.957	413.31
368.184	408.31
368.41	395.31
368.636	404.31
368.862	444.31
369.089	409.31
369.315	396.31
369.541	410.31
369.767	405.31
369.993	409.31
370.219	420.31
370.445	378.31
370.672	398.31
370.898	392.31
371.124	405.31
371.35	399.31
371.576	416.31
371.802	410.31
372.028	426.31
372.254	427.31
372.48	393.31
372.706	416.31
372.932	410.31
373.158	415.31
373.384	416.31
373.61	399.31
373.835	397.31
374.061	392.31
374.287	418.31
374.513	433.31
374.739	418.31
374.965	423.31
375.191	435.31
375.416	434.31
375.642	403.31
375.868	419.31
376.094	412.31
376.319	417.31
376.545	410.31
376.771	426.31
376.997	411.31
377.222	423.31
377.448	408.31
377.674	391.31
377.899	393.31
378.125	407.31
378.35	408.31
378.576	401.31
378.802	423.31
379.027	420.31
379.253	396.31
379.478	397.31
379.704	410.31
379.929	419.31
380.155	410.31
380.38	398.31
380.606	409.31
380.831	404.31
381.057	420.31
381.282	381.31
381.507	407.31
381.733	426.31
381.958	416.31
382.184	425.31
382.409	408.31
382.634	411.31
382.86	425.31
383.085	418.31
383.31	429.31
383.535	434.31
383.761	458.31
383.986	427.31
384.211	420.31
384.436	432.31
384.662	461.31
384.887	435.31
385.112	426.31
385.337	453.31
385.562	446.31
385.787	448.31
386.013	472.31
386.238	458.31
386.463	469.31
386.688	458.31
386.913	473.31
387.138	453.31
387.363	453.31
387.588	440.31
387.813	462.31
388.038	468.31
388.263	464.31
388.488	472.31
388.713	448.31
388.938	475.31
389.163	458.31
389.387	465.31
389.612	461.31
389.837	462.31
390.062	461.31
390.287	456.31
390.512	464.31
390.736	460.31
390.961	466.31
391.186	448.31
391.411	469.31
391.636	464.31
391.86	478.31
392.085	507.31
392.31	481.31
392.534	485.31
392.759	461.31
392.984	450.31
393.208	483.31
393.433	467.31
393.658	482.31
393.882	472.31
394.107	469.31
394.331	485.31
394.556	459.31
394.78	496.31
395.005	496.31
395.229	477.31
395.454	481.31
395.678	487.31
395.903	503.31
396.127	511.31
396.352	533.31
396.576	515.31
396.801	470.31
397.025	486.31
397.249	504.31
397.474	514.31
397.698	501.31
397.922	505.31
398.147	534.31
398.371	531.31
398.595	537.31
398.82	516.31
399.044	542.31
399.268	576.31
399.492	614.31
399.717	660.31
399.941	664.31
400.165	678.31
400.389	693.31
400.613	618.31
400.837	581.31
401.062	587.31
401.286	537.31
401.51	545.31
401.734	550.31
401.958	554.31
402.182	544.31
402.406	572.31
402.63	556.31
402.854	582.31
403.078	552.31
403.302	571.31
403.526	562.31
403.75	564.31
403.974	560.31
404.198	582.31
404.422	580.31
404.645	615.31
404.869	619.31
405.093	604.31
405.317	653.31
405.541	695.31
405.765	628.31
405.988	604.31
406.212	613.31
406.436	660.31
406.66	646.31
406.883	626.31
407.107	652.31
407.331	684.31
407.555	741.31
407.778	745.31
408.002	698.31
408.226	635.31
408.449	646.31
408.673	637.31
408.896	626.31
409.12	677.31
409.344	660.31
409.567	601.31
409.791	578.31
410.014	589.31
410.238	571.31
410.461	584.31
410.685	580.31
410.908	580.31
411.132	620.31
411.355	665.31
411.578	648.31
411.802	591.31
412.025	595.31
412.249	595.31
412.472	625.31
412.695	642.31
412.919	627.31
413.142	601.31
413.365	556.31
413.589	580.31
413.812	561.31
414.035	553.31
414.258	562.31
414.482	572.31
414.705	556.31
414.928	567.31
415.151	562.31
415.374	552.31
415.597	538.31
415.821	558.31
416.044	560.31
416.267	540.31
416.49	540.31
416.713	513.31
416.936	554.31
417.159	540.31
417.382	566.31
417.605	570.31
417.828	574.31
418.051	572.31
418.274	538.31
418.497	543.31
418.72	537.31
418.943	521.31
419.166	571.31
419.389	612.31
419.611	601.31
419.834	567.31
420.057	588.31
420.28	591.31
420.503	569.31
420.726	554.31
420.948	584.31
421.171	595.31
421.394	654.31
421.617	577.31
421.839	551.31
422.062	577.31
422.285	584.31
422.507	629.31
422.73	736.31
422.953	675.31
423.175	608.31
423.398	578.31
423.621	577.31
423.843	609.31
424.066	606.31
424.288	600.31
424.511	616.31
424.733	649.31
424.956	733.31
425.178	713.31
425.401	713.31
425.623	712.31
425.846	600.31
426.068	604.31
426.291	597.31
426.513	583.31
426.735	589.31
426.958	622.31
427.18	709.31
427.402	828.31
427.625	937.31
427.847	790.31
428.069	678.31
428.292	644.31
428.514	573.31
428.736	557.31
428.958	586.31
429.181	547.31
429.403	554.31
429.625	548.31
429.847	600.31
430.069	660.31
430.292	636.31
430.514	555.31
430.736	562.31
430.958	555.31
431.18	522.31
431.402	525.31
431.624	524.31
431.846	548.31
432.068	517.31
432.29	527.31
432.512	562.31
432.734	552.31
432.956	548.31
433.178	536.31
433.4	532.31
433.622	538.31
433.844	550.31
434.066	531.31
434.287	547.31
434.509	543.31
434.731	548.31
434.953	548.31
435.175	577.31
435.397	611.31
435.618	617.31
435.84	659.31
436.062	715.31
436.284	760.31
436.505	655.31
436.727	614.31
436.949	586.31
437.17	562.31
437.392	574.31
437.614	565.31
437.835	590.31
438.057	672.31
438.278	779.31
438.5	785.31
438.721	852.31
438.943	830.31
439.165	661.31
439.386	621.31
439.608	582.31
439.829	580.31
440.05	613.31
440.272	694.31
440.493	621.31
440.715	585.31
440.936	570.31
441.158	558.31
441.379	548.31
441.6	576.31
441.822	613.31
442.043	631.31
442.264	676.31
442.486	765.31
442.707	682.31
442.928	641.31
443.149	642.31
443.371	652.31
443.592	668.31
443.813	756.31
444.034	858.31
444.255	690.31
444.476	643.31
444.698	630.31
444.919	617.31
445.14	683.31
445.361	657.31
445.582	657.31
445.803	677.31
446.024	773.31
446.245	784.31
446.466	744.31
446.687	640.31
446.908	610.31
447.129	562.31
447.35	555.31
447.571	555.31
447.792	537.31
448.013	539.31
448.234	547.31
448.455	605.31
448.675	714.31
448.896	862.31
449.117	716.31
449.338	680.31
449.559	782.31
449.779	894.31
450	714.31
450.221	610.31
450.442	550.31
450.662	525.31
450.883	547.31
451.104	549.31
451.324	572.31
451.545	538.31
451.766	514.31
451.986	486.31
452.207	491.31
452.428	458.31
452.648	498.31
452.869	501.31
453.089	501.31
453.31	541.31
453.53	529.31
453.751	505.31
453.971	484.31
454.192	496.31
454.412	492.31
454.633	478.31
454.853	501.31
455.073	473.31
455.294	515.31
455.514	581.31
455.734	565.31
455.955	505.31
456.175	483.31
456.395	458.31
456.616	463.31
456.836	467.31
457.056	485.31
457.276	456.31
457.497	474.31
457.717	460.31
457.937	491.31
458.157	481.31
458.377	487.31
458.598	486.31
458.818	562.31
459.038	622.31
459.258	654.31
459.478	584.31
459.698	557.31
459.918	533.31
460.138	533.31
460.358	532.31
460.578	569.31
460.798	571.31
461.018	582.31
461.238	576.31
461.458	562.31
461.678	548.31
461.898	557.31
462.118	568.31
462.338	582.31
462.558	598.31
462.777	596.31
462.997	584.31
463.217	632.31
463.437	652.31
463.657	594.31
463.876	591.31
464.096	632.31
464.316	582.31
464.536	632.31
464.755	596.31
464.975	594.31
465.195	622.31
465.414	693.31
465.634	619.31
465.854	573.31
466.073	587.31
466.293	546.31
466.512	546.31
466.732	548.31
466.951	534.31
467.171	536.31
467.391	502.31
467.61	511.31
467.829	529.31
468.049	519.31
468.268	533.31
468.488	517.31
468.707	524.31
468.927	508.31
469.146	503.31
469.365	497.31
469.585	504.31
469.804	505.31
470.023	541.31
470.243	513.31
470.462	525.31
470.681	538.31
470.901	540.31
471.12	532.31
471.339	520.31
471.558	494.31
471.777	528.31
471.997	507.31
472.216	533.31
472.435	577.31
472.654	525.31
472.873	538.31
473.092	520.31
473.311	506.31
473.53	526.31
473.749	481.31
473.968	536.31
474.187	638.31
474.406	664.31
474.625	580.31
474.844	526.31
475.063	520.31
475.282	527.31
475.501	529.31
475.72	538.31
475.939	530.31
476.158	535.31
476.377	532.31
476.596	520.31
476.814	529.31
477.033	554.31
477.252	576.31
477.471	540.31
477.69	564.31
477.908	581.31
478.127	572.31
478.346	571.31
478.564	590.31
478.783	585.31
479.002	599.31
479.22	598.31
479.439	619.31
479.658	619.31
479.876	631.31
480.095	626.31
480.313	680.31
480.532	672.31
480.751	646.31
480.969	636.31
481.188	680.31
481.406	714.31
481.624	644.31
481.843	617.31
482.061	614.31
482.28	635.31
482.498	598.31
482.717	608.31
482.935	601.31
483.153	595.31
483.372	588.31
483.59	613.31
483.808	600.31
484.027	596.31
484.245	606.31
484.463	620.31
484.681	628.31
484.9	653.31
485.118	611.31
485.336	612.31
485.554	635.31
485.772	626.31
485.99	632.31
486.209	645.31
486.427	635.31
486.645	648.31
486.863	667.31
487.081	680.31
487.299	674.31
487.517	652.31
487.735	644.31
487.953	655.31
488.171	651.31
488.389	661.31
488.607	654.31
488.825	621.31
489.043	648.31
489.261	677.31
489.479	666.31
489.696	664.31
489.914	678.31
490.132	674.31
490.35	689.31
490.568	670.31
490.786	688.31
491.003	692.31
491.221	716.31
491.439	718.31
491.657	736.31
491.874	732.31
492.092	740.31
492.31	768.31
492.527	754.31
492.745	748.31
492.963	717.31
493.18	770.31
493.398	752.31
493.615	741.31
493.833	736.31
494.05	755.31
494.268	741.31
494.485	776.31
494.703	752.31
494.92	765.31
495.138	757.31
495.355	744.31
495.573	767.31
495.79	745.31
496.008	777.31
496.225	755.31
496.442	736.31
496.66	754.31
496.877	764.31
497.094	797.31
497.312	807.31
497.529	782.31
497.746	796.31
497.963	841.31
498.181	854.31
498.398	870.31
498.615	910.31
498.832	905.31
499.049	922.31
499.267	968.31
499.484	988.31
499.701	1020.31
499.918	1076.31
500.135	1113.31
500.352	1186.31
500.569	1196.31
500.786	1210.31
501.003	1201.31
501.22	1157.31
501.437	1096.31
501.654	1069.31
501.871	1035.31
