Data from 1979.PennyLincolnUp.Lamp.En5.5.200Scan.071719.P1_HRD10591_16-19-08-863.txt Node
Date: Thu Jul 18 16:19:08 EDT 2019
User: cochatt
Spectrometer: HR+D1059
Trigger mode: 1
Integration Time (sec): 1.000000E-1
Scans to average: 1
Electric dark correction enabled: true
Nonlinearity correction enabled: false
Boxcar width: 0
XAxis mode: Wavelengths
Number of Pixels in Spectrum: 2048
>>>>>Begin Spectral Data<<<<<
223.165	-15.25
223.4	-15.25
223.635	-15.25
223.869	-23.25
224.104	-9.25
224.338	-16.25
224.573	-9.25
224.808	-19.25
225.042	-8.25
225.277	-1.25
225.511	-4.25
225.746	2.75
225.98	6.75
226.215	7.75
226.449	20.75
226.683	10.75
226.918	25.75
227.152	31.75
227.387	24.75
227.621	35.75
227.856	44.75
228.09	44.75
228.324	62.75
228.559	61.75
228.793	59.75
229.027	90.75
229.262	110.75
229.496	94.75
229.73	125.75
229.964	145.75
230.199	119.75
230.433	114.75
230.667	100.75
230.901	126.75
231.136	108.75
231.37	108.75
231.604	111.75
231.838	91.75
232.072	106.75
232.306	107.75
232.541	115.75
232.775	120.75
233.009	106.75
233.243	122.75
233.477	131.75
233.711	128.75
233.945	117.75
234.179	122.75
234.413	124.75
234.647	120.75
234.881	102.75
235.115	116.75
235.349	120.75
235.583	115.75
235.817	111.75
236.051	113.75
236.285	134.75
236.519	121.75
236.753	136.75
236.987	135.75
237.221	172.75
237.455	207.75
237.689	170.75
237.922	141.75
238.156	120.75
238.39	124.75
238.624	126.75
238.858	115.75
239.091	123.75
239.325	121.75
239.559	135.75
239.793	131.75
240.027	130.75
240.26	137.75
240.494	158.75
240.728	130.75
240.961	152.75
241.195	138.75
241.429	127.75
241.662	114.75
241.896	128.75
242.13	127.75
242.363	124.75
242.597	140.75
242.83	136.75
243.064	137.75
243.298	143.75
243.531	144.75
243.765	147.75
243.998	127.75
244.232	137.75
244.465	137.75
244.699	147.75
244.932	132.75
245.166	149.75
245.399	143.75
245.633	147.75
245.866	145.75
246.099	156.75
246.333	140.75
246.566	139.75
246.8	151.75
247.033	144.75
247.266	152.75
247.5	161.75
247.733	154.75
247.966	167.75
248.2	163.75
248.433	170.75
248.666	169.75
248.899	169.75
249.133	205.75
249.366	195.75
249.599	187.75
249.832	187.75
250.066	179.75
250.299	172.75
250.532	179.75
250.765	200.75
250.998	202.75
251.231	203.75
251.465	199.75
251.698	187.75
251.931	176.75
252.164	202.75
252.397	184.75
252.63	190.75
252.863	194.75
253.096	190.75
253.329	204.75
253.562	197.75
253.795	197.75
254.028	213.75
254.261	204.75
254.494	191.75
254.727	230.75
254.96	246.75
255.193	252.75
255.426	210.75
255.659	213.75
255.892	208.75
256.124	220.75
256.357	231.75
256.59	204.75
256.823	198.75
257.056	195.75
257.289	192.75
257.521	202.75
257.754	199.75
257.987	197.75
258.22	203.75
258.452	198.75
258.685	210.75
258.918	202.75
259.151	197.75
259.383	203.75
259.616	218.75
259.849	220.75
260.081	209.75
260.314	232.75
260.547	248.75
260.779	229.75
261.012	205.75
261.244	207.75
261.477	220.75
261.71	206.75
261.942	217.75
262.175	230.75
262.407	227.75
262.64	220.75
262.872	201.75
263.105	196.75
263.337	205.75
263.57	200.75
263.802	213.75
264.035	216.75
264.267	214.75
264.499	205.75
264.732	208.75
264.964	206.75
265.197	184.75
265.429	207.75
265.661	219.75
265.894	199.75
266.126	199.75
266.358	211.75
266.591	203.75
266.823	211.75
267.055	211.75
267.287	204.75
267.52	220.75
267.752	208.75
267.984	218.75
268.216	216.75
268.448	218.75
268.681	236.75
268.913	235.75
269.145	240.75
269.377	237.75
269.609	270.75
269.841	235.75
270.073	264.75
270.306	260.75
270.538	294.75
270.77	287.75
271.002	275.75
271.234	273.75
271.466	264.75
271.698	264.75
271.93	279.75
272.162	302.75
272.394	304.75
272.626	301.75
272.858	266.75
273.09	243.75
273.322	242.75
273.553	263.75
273.785	265.75
274.017	251.75
274.249	243.75
274.481	246.75
274.713	274.75
274.945	250.75
275.176	246.75
275.408	276.75
275.64	250.75
275.872	264.75
276.104	264.75
276.335	260.75
276.567	266.75
276.799	281.75
277.031	276.75
277.262	293.75
277.494	307.75
277.726	299.75
277.957	266.75
278.189	259.75
278.421	253.75
278.652	273.75
278.884	261.75
279.115	267.75
279.347	244.75
279.579	247.75
279.81	258.75
280.042	270.75
280.273	269.75
280.505	256.75
280.736	258.75
280.968	271.75
281.199	244.75
281.431	260.75
281.662	264.75
281.894	279.75
282.125	267.75
282.356	264.75
282.588	291.75
282.819	318.75
283.051	275.75
283.282	261.75
283.513	252.75
283.745	267.75
283.976	249.75
284.207	284.75
284.439	275.75
284.67	273.75
284.901	266.75
285.132	288.75
285.364	271.75
285.595	282.75
285.826	263.75
286.057	282.75
286.288	265.75
286.52	263.75
286.751	266.75
286.982	294.75
287.213	267.75
287.444	277.75
287.675	294.75
287.906	311.75
288.138	278.75
288.369	299.75
288.6	298.75
288.831	312.75
289.062	300.75
289.293	294.75
289.524	282.75
289.755	271.75
289.986	308.75
290.217	274.75
290.448	284.75
290.679	283.75
290.91	290.75
291.141	280.75
291.371	270.75
291.602	293.75
291.833	299.75
292.064	286.75
292.295	271.75
292.526	273.75
292.757	289.75
292.987	281.75
293.218	295.75
293.449	288.75
293.68	277.75
293.91	291.75
294.141	278.75
294.372	280.75
294.603	290.75
294.833	302.75
295.064	286.75
295.295	298.75
295.525	295.75
295.756	283.75
295.987	300.75
296.217	322.75
296.448	310.75
296.679	304.75
296.909	273.75
297.14	304.75
297.37	294.75
297.601	298.75
297.831	296.75
298.062	302.75
298.292	292.75
298.523	305.75
298.753	306.75
298.984	314.75
299.214	319.75
299.445	294.75
299.675	292.75
299.905	337.75
300.136	321.75
300.366	328.75
300.597	327.75
300.827	314.75
301.057	326.75
301.288	322.75
301.518	331.75
301.748	316.75
301.979	322.75
302.209	329.75
302.439	331.75
302.669	330.75
302.9	331.75
303.13	310.75
303.36	318.75
303.59	310.75
303.82	330.75
304.051	330.75
304.281	334.75
304.511	326.75
304.741	302.75
304.971	323.75
305.201	317.75
305.431	310.75
305.661	316.75
305.891	320.75
306.121	351.75
306.352	349.75
306.582	348.75
306.812	337.75
307.042	352.75
307.272	316.75
307.502	317.75
307.731	330.75
307.961	313.75
308.191	319.75
308.421	335.75
308.651	321.75
308.881	307.75
309.111	345.75
309.341	346.75
309.571	352.75
309.8	351.75
310.03	355.75
310.26	354.75
310.49	369.75
310.72	360.75
310.949	363.75
311.179	382.75
311.409	374.75
311.639	356.75
311.868	368.75
312.098	374.75
312.328	370.75
312.557	365.75
312.787	382.75
313.017	400.75
313.246	384.75
313.476	366.75
313.706	345.75
313.935	378.75
314.165	378.75
314.394	389.75
314.624	381.75
314.853	378.75
315.083	389.75
315.312	375.75
315.542	352.75
315.771	374.75
316.001	371.75
316.23	364.75
316.46	368.75
316.689	382.75
316.919	379.75
317.148	388.75
317.377	374.75
317.607	394.75
317.836	391.75
318.065	387.75
318.295	387.75
318.524	371.75
318.753	353.75
318.983	374.75
319.212	386.75
319.441	389.75
319.67	353.75
319.9	372.75
320.129	374.75
320.358	364.75
320.587	389.75
320.816	392.75
321.046	389.75
321.275	405.75
321.504	401.75
321.733	395.75
321.962	387.75
322.191	423.75
322.42	417.75
322.649	440.75
322.878	436.75
323.108	432.75
323.337	448.75
323.566	466.75
323.795	507.75
324.024	554.75
324.253	627.75
324.482	881.75
324.71	1373.75
324.939	2079.75
325.168	1776.75
325.397	889.75
325.626	613.75
325.855	502.75
326.084	487.75
326.313	474.75
326.542	496.75
326.77	514.75
326.999	611.75
327.228	834.75
327.457	1268.75
327.686	1594.75
327.914	1001.75
328.143	684.75
328.372	573.75
328.6	566.75
328.829	496.75
329.058	534.75
329.287	538.75
329.515	527.75
329.744	489.75
329.972	484.75
330.201	512.75
330.43	523.75
330.658	534.75
330.887	564.75
331.115	555.75
331.344	491.75
331.572	474.75
331.801	499.75
332.03	495.75
332.258	463.75
332.486	439.75
332.715	457.75
332.943	459.75
333.172	455.75
333.4	472.75
333.629	483.75
333.857	499.75
334.085	500.75
334.314	514.75
334.542	525.75
334.771	562.75
334.999	522.75
335.227	486.75
335.455	498.75
335.684	460.75
335.912	452.75
336.14	469.75
336.369	456.75
336.597	459.75
336.825	483.75
337.053	462.75
337.281	452.75
337.51	440.75
337.738	442.75
337.966	428.75
338.194	442.75
338.422	432.75
338.65	440.75
338.878	441.75
339.106	459.75
339.334	434.75
339.562	448.75
339.79	421.75
340.018	442.75
340.246	406.75
340.474	423.75
340.702	428.75
340.93	437.75
341.158	426.75
341.386	450.75
341.614	422.75
341.842	438.75
342.07	443.75
342.298	438.75
342.526	410.75
342.754	422.75
342.981	432.75
343.209	410.75
343.437	441.75
343.665	442.75
343.893	441.75
344.12	454.75
344.348	474.75
344.576	445.75
344.804	439.75
345.031	465.75
345.259	448.75
345.487	450.75
345.714	452.75
345.942	430.75
346.17	425.75
346.397	431.75
346.625	420.75
346.853	420.75
347.08	416.75
347.308	412.75
347.535	426.75
347.763	451.75
347.99	440.75
348.218	416.75
348.445	442.75
348.673	421.75
348.9	412.75
349.128	401.75
349.355	398.75
349.583	424.75
349.81	408.75
350.037	426.75
350.265	394.75
350.492	404.75
350.72	404.75
350.947	405.75
351.174	395.75
351.402	436.75
351.629	432.75
351.856	432.75
352.083	425.75
352.311	455.75
352.538	432.75
352.765	451.75
352.992	424.75
353.22	408.75
353.447	411.75
353.674	415.75
353.901	405.75
354.128	416.75
354.355	408.75
354.583	410.75
354.81	420.75
355.037	418.75
355.264	382.75
355.491	394.75
355.718	385.75
355.945	384.75
356.172	397.75
356.399	399.75
356.626	414.75
356.853	411.75
357.08	389.75
357.307	392.75
357.534	392.75
357.761	401.75
357.988	388.75
358.215	406.75
358.441	406.75
358.668	398.75
358.895	411.75
359.122	422.75
359.349	428.75
359.576	432.75
359.802	426.75
360.029	460.75
360.256	486.75
360.483	443.75
360.709	451.75
360.936	416.75
361.163	422.75
361.39	437.75
361.616	438.75
361.843	429.75
362.07	434.75
362.296	424.75
362.523	442.75
362.749	408.75
362.976	419.75
363.203	407.75
363.429	400.75
363.656	407.75
363.882	405.75
364.109	415.75
364.335	427.75
364.562	400.75
364.788	391.75
365.015	410.75
365.241	406.75
365.468	404.75
365.694	434.75
365.92	421.75
366.147	428.75
366.373	408.75
366.599	393.75
366.826	403.75
367.052	398.75
367.278	411.75
367.505	390.75
367.731	404.75
367.957	416.75
368.184	399.75
368.41	438.75
368.636	436.75
368.862	434.75
369.089	427.75
369.315	430.75
369.541	421.75
369.767	396.75
369.993	415.75
370.219	439.75
370.445	414.75
370.672	398.75
370.898	412.75
371.124	410.75
371.35	430.75
371.576	414.75
371.802	422.75
372.028	397.75
372.254	428.75
372.48	423.75
372.706	407.75
372.932	417.75
373.158	425.75
373.384	418.75
373.61	427.75
373.835	442.75
374.061	430.75
374.287	448.75
374.513	437.75
374.739	436.75
374.965	420.75
375.191	458.75
375.416	438.75
375.642	434.75
375.868	458.75
376.094	435.75
376.319	432.75
376.545	399.75
376.771	414.75
376.997	438.75
377.222	433.75
377.448	426.75
377.674	411.75
377.899	406.75
378.125	427.75
378.35	444.75
378.576	417.75
378.802	412.75
379.027	410.75
379.253	422.75
379.478	417.75
379.704	435.75
379.929	435.75
380.155	437.75
380.38	404.75
380.606	447.75
380.831	402.75
381.057	432.75
381.282	432.75
381.507	441.75
381.733	437.75
381.958	455.75
382.184	430.75
382.409	419.75
382.634	434.75
382.86	444.75
383.085	450.75
383.31	453.75
383.535	450.75
383.761	444.75
383.986	446.75
384.211	440.75
384.436	438.75
384.662	454.75
384.887	455.75
385.112	462.75
385.337	455.75
385.562	460.75
385.787	474.75
386.013	483.75
386.238	474.75
386.463	458.75
386.688	473.75
386.913	454.75
387.138	447.75
387.363	467.75
387.588	457.75
387.813	480.75
388.038	480.75
388.263	459.75
388.488	466.75
388.713	478.75
388.938	483.75
389.163	467.75
389.387	490.75
389.612	443.75
389.837	482.75
390.062	473.75
390.287	461.75
390.512	476.75
390.736	485.75
390.961	482.75
391.186	492.75
391.411	495.75
391.636	491.75
391.86	498.75
392.085	495.75
392.31	487.75
392.534	496.75
392.759	494.75
392.984	473.75
393.208	501.75
393.433	486.75
393.658	519.75
393.882	514.75
394.107	471.75
394.331	455.75
394.556	467.75
394.78	481.75
395.005	495.75
395.229	496.75
395.454	495.75
395.678	498.75
395.903	522.75
396.127	528.75
396.352	530.75
396.576	491.75
396.801	487.75
397.025	488.75
397.249	510.75
397.474	534.75
397.698	510.75
397.922	540.75
398.147	534.75
398.371	543.75
398.595	548.75
398.82	560.75
399.044	579.75
399.268	584.75
399.492	640.75
399.717	663.75
399.941	703.75
400.165	692.75
400.389	693.75
400.613	628.75
400.837	589.75
401.062	576.75
401.286	552.75
401.51	583.75
401.734	567.75
401.958	564.75
402.182	569.75
402.406	572.75
402.63	590.75
402.854	582.75
403.078	578.75
403.302	605.75
403.526	580.75
403.75	613.75
403.974	586.75
404.198	583.75
404.422	604.75
404.645	576.75
404.869	581.75
405.093	617.75
405.317	642.75
405.541	699.75
405.765	617.75
405.988	616.75
406.212	628.75
406.436	633.75
406.66	654.75
406.883	646.75
407.107	654.75
407.331	708.75
407.555	781.75
407.778	789.75
408.002	720.75
408.226	677.75
408.449	647.75
408.673	642.75
408.896	675.75
409.12	697.75
409.344	678.75
409.567	604.75
409.791	598.75
410.014	603.75
410.238	602.75
410.461	614.75
410.685	619.75
410.908	601.75
411.132	639.75
411.355	660.75
411.578	634.75
411.802	615.75
412.025	604.75
412.249	615.75
412.472	615.75
412.695	670.75
412.919	648.75
413.142	603.75
413.365	598.75
413.589	595.75
413.812	558.75
414.035	563.75
414.258	558.75
414.482	563.75
414.705	564.75
414.928	554.75
415.151	580.75
415.374	595.75
415.597	558.75
415.821	555.75
416.044	544.75
416.267	558.75
416.49	555.75
416.713	561.75
416.936	548.75
417.159	571.75
417.382	571.75
417.605	552.75
417.828	590.75
418.051	592.75
418.274	602.75
418.497	570.75
418.72	557.75
418.943	554.75
419.166	580.75
419.389	604.75
419.611	616.75
419.834	587.75
420.057	588.75
420.28	571.75
420.503	556.75
420.726	566.75
420.948	592.75
421.171	616.75
421.394	645.75
421.617	600.75
421.839	572.75
422.062	593.75
422.285	585.75
422.507	664.75
422.73	712.75
422.953	699.75
423.175	632.75
423.398	616.75
423.621	591.75
423.843	615.75
424.066	617.75
424.288	617.75
424.511	633.75
424.733	688.75
424.956	742.75
425.178	708.75
425.401	707.75
425.623	738.75
425.846	661.75
426.068	622.75
426.291	595.75
426.513	592.75
426.735	612.75
426.958	659.75
427.18	688.75
427.402	869.75
427.625	971.75
427.847	837.75
428.069	736.75
428.292	652.75
428.514	592.75
428.736	601.75
428.958	563.75
429.181	571.75
429.403	581.75
429.625	576.75
429.847	606.75
430.069	668.75
430.292	671.75
430.514	592.75
430.736	561.75
430.958	551.75
431.18	552.75
431.402	557.75
431.624	544.75
431.846	534.75
432.068	538.75
432.29	541.75
432.512	548.75
432.734	548.75
432.956	526.75
433.178	576.75
433.4	576.75
433.622	548.75
433.844	548.75
434.066	545.75
434.287	541.75
434.509	572.75
434.731	580.75
434.953	578.75
435.175	605.75
435.397	622.75
435.618	632.75
435.84	637.75
436.062	742.75
436.284	817.75
436.505	690.75
436.727	615.75
436.949	607.75
437.17	568.75
437.392	584.75
437.614	576.75
437.835	597.75
438.057	690.75
438.278	793.75
438.5	769.75
438.721	858.75
438.943	809.75
439.165	670.75
439.386	611.75
439.608	628.75
439.829	594.75
440.05	623.75
440.272	691.75
440.493	636.75
440.715	594.75
440.936	585.75
441.158	551.75
441.379	586.75
441.6	578.75
441.822	599.75
442.043	640.75
442.264	721.75
442.486	772.75
442.707	674.75
442.928	633.75
443.149	630.75
443.371	640.75
443.592	690.75
443.813	810.75
444.034	844.75
444.255	709.75
444.476	628.75
444.698	646.75
444.919	630.75
445.14	703.75
445.361	670.75
445.582	671.75
445.803	726.75
446.024	803.75
446.245	810.75
446.466	755.75
446.687	638.75
446.908	590.75
447.129	588.75
447.35	553.75
447.571	564.75
447.792	553.75
448.013	556.75
448.234	577.75
448.455	666.75
448.675	742.75
448.896	862.75
449.117	697.75
449.338	683.75
449.559	804.75
449.779	912.75
450	717.75
450.221	626.75
450.442	559.75
450.662	537.75
450.883	560.75
451.104	572.75
451.324	561.75
451.545	546.75
451.766	544.75
451.986	525.75
452.207	537.75
452.428	517.75
452.648	504.75
452.869	501.75
453.089	519.75
453.31	521.75
453.53	522.75
453.751	498.75
453.971	510.75
454.192	542.75
454.412	514.75
454.633	510.75
454.853	501.75
455.073	491.75
455.294	500.75
455.514	568.75
455.734	576.75
455.955	478.75
456.175	480.75
456.395	469.75
456.616	485.75
456.836	497.75
457.056	488.75
457.276	470.75
457.497	476.75
457.717	505.75
457.937	508.75
458.157	479.75
458.377	498.75
458.598	501.75
458.818	573.75
459.038	647.75
459.258	636.75
459.478	570.75
459.698	568.75
459.918	556.75
460.138	544.75
460.358	566.75
460.578	574.75
460.798	569.75
461.018	581.75
461.238	582.75
461.458	574.75
461.678	574.75
461.898	580.75
462.118	583.75
462.338	601.75
462.558	588.75
462.777	610.75
462.997	638.75
463.217	658.75
463.437	646.75
463.657	600.75
463.876	623.75
464.096	606.75
464.316	608.75
464.536	629.75
464.755	600.75
464.975	632.75
465.195	650.75
465.414	706.75
465.634	612.75
465.854	586.75
466.073	569.75
466.293	541.75
466.512	560.75
466.732	517.75
466.951	537.75
467.171	534.75
467.391	532.75
467.61	525.75
467.829	549.75
468.049	550.75
468.268	527.75
468.488	513.75
468.707	498.75
468.927	523.75
469.146	502.75
469.365	498.75
469.585	530.75
469.804	516.75
470.023	548.75
470.243	529.75
470.462	556.75
470.681	553.75
470.901	534.75
471.12	539.75
471.339	536.75
471.558	555.75
471.777	539.75
471.997	535.75
472.216	523.75
472.435	584.75
472.654	548.75
472.873	547.75
473.092	521.75
473.311	544.75
473.53	511.75
473.749	566.75
473.968	571.75
474.187	646.75
474.406	676.75
474.625	587.75
474.844	566.75
475.063	547.75
475.282	544.75
475.501	538.75
475.72	534.75
475.939	522.75
476.158	549.75
476.377	560.75
476.596	566.75
476.814	546.75
477.033	550.75
477.252	552.75
477.471	556.75
477.69	584.75
477.908	596.75
478.127	594.75
478.346	603.75
478.564	588.75
478.783	609.75
479.002	624.75
479.22	617.75
479.439	636.75
479.658	640.75
479.876	662.75
480.095	664.75
480.313	709.75
480.532	684.75
480.751	648.75
480.969	667.75
481.188	704.75
481.406	756.75
481.624	668.75
481.843	643.75
482.061	612.75
482.28	643.75
482.498	619.75
482.717	604.75
482.935	613.75
483.153	612.75
483.372	622.75
483.59	632.75
483.808	624.75
484.027	627.75
484.245	634.75
484.463	614.75
484.681	650.75
484.9	628.75
485.118	644.75
485.336	656.75
485.554	660.75
485.772	664.75
485.99	653.75
486.209	650.75
486.427	662.75
486.645	659.75
486.863	652.75
487.081	657.75
487.299	669.75
487.517	666.75
487.735	677.75
487.953	662.75
488.171	659.75
488.389	632.75
488.607	660.75
488.825	670.75
489.043	671.75
489.261	683.75
489.479	680.75
489.696	691.75
489.914	670.75
490.132	664.75
490.35	708.75
490.568	704.75
490.786	707.75
491.003	714.75
491.221	706.75
491.439	742.75
491.657	730.75
491.874	742.75
492.092	752.75
492.31	772.75
492.527	743.75
492.745	776.75
492.963	746.75
493.18	770.75
493.398	794.75
493.615	768.75
493.833	770.75
494.05	779.75
494.268	766.75
494.485	778.75
494.703	796.75
494.92	759.75
495.138	785.75
495.355	770.75
495.573	780.75
495.79	776.75
496.008	799.75
496.225	813.75
496.442	814.75
496.66	786.75
496.877	769.75
497.094	793.75
497.312	820.75
497.529	830.75
497.746	820.75
497.963	875.75
498.181	902.75
498.398	868.75
498.615	871.75
498.832	939.75
499.049	936.75
499.267	994.75
499.484	1022.75
499.701	1041.75
499.918	1108.75
500.135	1154.75
500.352	1238.75
500.569	1243.75
500.786	1226.75
501.003	1223.75
501.22	1188.75
501.437	1112.75
501.654	1085.75
501.871	1058.75
