Data from 1979.PennyLincolnUp.Lamp.En5.5.200Scan.071719.P1_HRD10591_16-20-28-863.txt Node
Date: Thu Jul 18 16:20:28 EDT 2019
User: cochatt
Spectrometer: HR+D1059
Trigger mode: 1
Integration Time (sec): 1.000000E-1
Scans to average: 1
Electric dark correction enabled: true
Nonlinearity correction enabled: false
Boxcar width: 0
XAxis mode: Wavelengths
Number of Pixels in Spectrum: 2048
>>>>>Begin Spectral Data<<<<<
223.165	-8.19
223.4	-8.19
223.635	-8.19
223.869	-32.19
224.104	-18.19
224.338	-26.19
224.573	-11.19
224.808	-10.19
225.042	-1.19
225.277	-9.19
225.511	4.81
225.746	-3.19
225.98	12.81
226.215	5.81
226.449	17.81
226.683	22.81
226.918	27.81
227.152	27.81
227.387	42.81
227.621	53.81
227.856	47.81
228.09	56.81
228.324	55.81
228.559	55.81
228.793	73.81
229.027	88.81
229.262	118.81
229.496	116.81
229.73	135.81
229.964	152.81
230.199	112.81
230.433	116.81
230.667	107.81
230.901	113.81
231.136	102.81
231.37	113.81
231.604	102.81
231.838	124.81
232.072	123.81
232.306	118.81
232.541	116.81
232.775	119.81
233.009	120.81
233.243	116.81
233.477	107.81
233.711	113.81
233.945	119.81
234.179	125.81
234.413	122.81
234.647	128.81
234.881	119.81
235.115	120.81
235.349	126.81
235.583	122.81
235.817	124.81
236.051	121.81
236.285	123.81
236.519	121.81
236.753	141.81
236.987	129.81
237.221	166.81
237.455	247.81
237.689	181.81
237.922	141.81
238.156	134.81
238.39	125.81
238.624	122.81
238.858	126.81
239.091	116.81
239.325	127.81
239.559	139.81
239.793	125.81
240.027	149.81
240.26	134.81
240.494	151.81
240.728	138.81
240.961	145.81
241.195	144.81
241.429	137.81
241.662	131.81
241.896	123.81
242.13	129.81
242.363	141.81
242.597	127.81
242.83	143.81
243.064	139.81
243.298	132.81
243.531	131.81
243.765	157.81
243.998	138.81
244.232	145.81
244.465	141.81
244.699	145.81
244.932	160.81
245.166	129.81
245.399	142.81
245.633	149.81
245.866	155.81
246.099	145.81
246.333	150.81
246.566	164.81
246.8	153.81
247.033	139.81
247.266	152.81
247.5	156.81
247.733	166.81
247.966	158.81
248.2	165.81
248.433	171.81
248.666	175.81
248.899	182.81
249.133	202.81
249.366	190.81
249.599	197.81
249.832	177.81
250.066	179.81
250.299	170.81
250.532	187.81
250.765	213.81
250.998	200.81
251.231	213.81
251.465	208.81
251.698	193.81
251.931	201.81
252.164	189.81
252.397	203.81
252.63	204.81
252.863	201.81
253.096	214.81
253.329	208.81
253.562	223.81
253.795	208.81
254.028	220.81
254.261	198.81
254.494	208.81
254.727	248.81
254.96	253.81
255.193	251.81
255.426	222.81
255.659	250.81
255.892	210.81
256.124	217.81
256.357	207.81
256.59	210.81
256.823	228.81
257.056	217.81
257.289	209.81
257.521	197.81
257.754	205.81
257.987	204.81
258.22	209.81
258.452	207.81
258.685	193.81
258.918	199.81
259.151	190.81
259.383	214.81
259.616	204.81
259.849	219.81
260.081	227.81
260.314	263.81
260.547	252.81
260.779	237.81
261.012	251.81
261.244	207.81
261.477	221.81
261.71	225.81
261.942	226.81
262.175	225.81
262.407	233.81
262.64	216.81
262.872	224.81
263.105	222.81
263.337	218.81
263.57	212.81
263.802	203.81
264.035	216.81
264.267	197.81
264.499	224.81
264.732	223.81
264.964	214.81
265.197	204.81
265.429	217.81
265.661	208.81
265.894	221.81
266.126	210.81
266.358	224.81
266.591	217.81
266.823	227.81
267.055	217.81
267.287	227.81
267.52	222.81
267.752	226.81
267.984	219.81
268.216	256.81
268.448	236.81
268.681	242.81
268.913	229.81
269.145	232.81
269.377	268.81
269.609	267.81
269.841	258.81
270.073	270.81
270.306	289.81
270.538	297.81
270.77	307.81
271.002	289.81
271.234	266.81
271.466	274.81
271.698	295.81
271.93	296.81
272.162	297.81
272.394	274.81
272.626	263.81
272.858	271.81
273.09	266.81
273.322	257.81
273.553	244.81
273.785	239.81
274.017	252.81
274.249	250.81
274.481	263.81
274.713	268.81
274.945	259.81
275.176	287.81
275.408	287.81
275.64	264.81
275.872	270.81
276.104	268.81
276.335	256.81
276.567	278.81
276.799	290.81
277.031	295.81
277.262	299.81
277.494	310.81
277.726	293.81
277.957	272.81
278.189	278.81
278.421	269.81
278.652	278.81
278.884	290.81
279.115	284.81
279.347	270.81
279.579	254.81
279.81	273.81
280.042	268.81
280.273	261.81
280.505	275.81
280.736	257.81
280.968	259.81
281.199	259.81
281.431	292.81
281.662	264.81
281.894	268.81
282.125	266.81
282.356	296.81
282.588	296.81
282.819	309.81
283.051	273.81
283.282	256.81
283.513	262.81
283.745	291.81
283.976	277.81
284.207	259.81
284.439	279.81
284.67	275.81
284.901	283.81
285.132	278.81
285.364	279.81
285.595	274.81
285.826	273.81
286.057	280.81
286.288	279.81
286.52	300.81
286.751	283.81
286.982	282.81
287.213	287.81
287.444	289.81
287.675	299.81
287.906	286.81
288.138	311.81
288.369	295.81
288.6	297.81
288.831	302.81
289.062	285.81
289.293	299.81
289.524	285.81
289.755	271.81
289.986	294.81
290.217	297.81
290.448	301.81
290.679	295.81
290.91	291.81
291.141	268.81
291.371	284.81
291.602	287.81
291.833	273.81
292.064	288.81
292.295	310.81
292.526	291.81
292.757	297.81
292.987	299.81
293.218	288.81
293.449	283.81
293.68	302.81
293.91	302.81
294.141	303.81
294.372	311.81
294.603	298.81
294.833	288.81
295.064	297.81
295.295	293.81
295.525	304.81
295.756	296.81
295.987	327.81
296.217	325.81
296.448	345.81
296.679	295.81
296.909	297.81
297.14	301.81
297.37	284.81
297.601	303.81
297.831	303.81
298.062	296.81
298.292	301.81
298.523	323.81
298.753	307.81
298.984	303.81
299.214	313.81
299.445	331.81
299.675	304.81
299.905	316.81
300.136	320.81
300.366	322.81
300.597	320.81
300.827	335.81
301.057	329.81
301.288	336.81
301.518	348.81
301.748	329.81
301.979	304.81
302.209	335.81
302.439	330.81
302.669	335.81
302.9	339.81
303.13	326.81
303.36	324.81
303.59	342.81
303.82	348.81
304.051	357.81
304.281	330.81
304.511	317.81
304.741	319.81
304.971	334.81
305.201	345.81
305.431	335.81
305.661	323.81
305.891	324.81
306.121	326.81
306.352	358.81
306.582	343.81
306.812	325.81
307.042	333.81
307.272	338.81
307.502	347.81
307.731	346.81
307.961	343.81
308.191	357.81
308.421	353.81
308.651	341.81
308.881	356.81
309.111	337.81
309.341	334.81
309.571	346.81
309.8	355.81
310.03	376.81
310.26	373.81
310.49	371.81
310.72	365.81
310.949	380.81
311.179	399.81
311.409	378.81
311.639	384.81
311.868	377.81
312.098	368.81
312.328	377.81
312.557	401.81
312.787	407.81
313.017	412.81
313.246	381.81
313.476	371.81
313.706	379.81
313.935	397.81
314.165	400.81
314.394	397.81
314.624	386.81
314.853	383.81
315.083	393.81
315.312	381.81
315.542	367.81
315.771	394.81
316.001	361.81
316.23	372.81
316.46	373.81
316.689	397.81
316.919	400.81
317.148	387.81
317.377	394.81
317.607	380.81
317.836	398.81
318.065	391.81
318.295	379.81
318.524	377.81
318.753	372.81
318.983	384.81
319.212	360.81
319.441	380.81
319.67	415.81
319.9	385.81
320.129	386.81
320.358	389.81
320.587	378.81
320.816	396.81
321.046	396.81
321.275	414.81
321.504	407.81
321.733	397.81
321.962	415.81
322.191	413.81
322.42	402.81
322.649	449.81
322.878	447.81
323.108	463.81
323.337	478.81
323.566	483.81
323.795	515.81
324.024	544.81
324.253	656.81
324.482	933.81
324.71	1455.81
324.939	2192.81
325.168	1848.81
325.397	929.81
325.626	657.81
325.855	555.81
326.084	507.81
326.313	496.81
326.542	491.81
326.77	563.81
326.999	639.81
327.228	862.81
327.457	1338.81
327.686	1655.81
327.914	1077.81
328.143	695.81
328.372	619.81
328.6	580.81
328.829	557.81
329.058	548.81
329.287	574.81
329.515	521.81
329.744	503.81
329.972	491.81
330.201	526.81
330.43	548.81
330.658	584.81
330.887	608.81
331.115	598.81
331.344	524.81
331.572	488.81
331.801	491.81
332.03	491.81
332.258	490.81
332.486	445.81
332.715	454.81
332.943	471.81
333.172	464.81
333.4	475.81
333.629	469.81
333.857	501.81
334.085	506.81
334.314	520.81
334.542	573.81
334.771	565.81
334.999	511.81
335.227	507.81
335.455	499.81
335.684	494.81
335.912	473.81
336.14	464.81
336.369	458.81
336.597	459.81
336.825	469.81
337.053	472.81
337.281	454.81
337.51	446.81
337.738	457.81
337.966	455.81
338.194	478.81
338.422	459.81
338.65	445.81
338.878	445.81
339.106	450.81
339.334	472.81
339.562	465.81
339.79	459.81
340.018	430.81
340.246	451.81
340.474	447.81
340.702	440.81
340.93	438.81
341.158	426.81
341.386	430.81
341.614	469.81
341.842	450.81
342.07	428.81
342.298	436.81
342.526	414.81
342.754	397.81
342.981	423.81
343.209	431.81
343.437	448.81
343.665	446.81
343.893	467.81
344.12	462.81
344.348	448.81
344.576	454.81
344.804	461.81
345.031	458.81
345.259	461.81
345.487	455.81
345.714	435.81
345.942	425.81
346.17	441.81
346.397	445.81
346.625	432.81
346.853	428.81
347.08	419.81
347.308	420.81
347.535	419.81
347.763	447.81
347.99	460.81
348.218	416.81
348.445	431.81
348.673	437.81
348.9	439.81
349.128	436.81
349.355	413.81
349.583	397.81
349.81	407.81
350.037	419.81
350.265	421.81
350.492	418.81
350.72	408.81
350.947	408.81
351.174	428.81
351.402	452.81
351.629	438.81
351.856	426.81
352.083	451.81
352.311	435.81
352.538	438.81
352.765	433.81
352.992	439.81
353.22	417.81
353.447	455.81
353.674	429.81
353.901	419.81
354.128	417.81
354.355	419.81
354.583	407.81
354.81	408.81
355.037	417.81
355.264	401.81
355.491	405.81
355.718	407.81
355.945	391.81
356.172	416.81
356.399	391.81
356.626	387.81
356.853	397.81
357.08	399.81
357.307	417.81
357.534	412.81
357.761	409.81
357.988	404.81
358.215	408.81
358.441	417.81
358.668	422.81
358.895	428.81
359.122	400.81
359.349	412.81
359.576	430.81
359.802	442.81
360.029	470.81
360.256	484.81
360.483	481.81
360.709	446.81
360.936	420.81
361.163	424.81
361.39	422.81
361.616	407.81
361.843	427.81
362.07	441.81
362.296	431.81
362.523	442.81
362.749	461.81
362.976	443.81
363.203	408.81
363.429	411.81
363.656	409.81
363.882	424.81
364.109	420.81
364.335	424.81
364.562	419.81
364.788	425.81
365.015	441.81
365.241	424.81
365.468	418.81
365.694	421.81
365.92	411.81
366.147	415.81
366.373	413.81
366.599	419.81
366.826	415.81
367.052	421.81
367.278	413.81
367.505	402.81
367.731	418.81
367.957	409.81
368.184	430.81
368.41	428.81
368.636	428.81
368.862	428.81
369.089	437.81
369.315	418.81
369.541	418.81
369.767	428.81
369.993	415.81
370.219	442.81
370.445	408.81
370.672	429.81
370.898	425.81
371.124	422.81
371.35	415.81
371.576	417.81
371.802	422.81
372.028	441.81
372.254	425.81
372.48	417.81
372.706	417.81
372.932	420.81
373.158	453.81
373.384	446.81
373.61	436.81
373.835	466.81
374.061	421.81
374.287	446.81
374.513	454.81
374.739	434.81
374.965	448.81
375.191	423.81
375.416	413.81
375.642	421.81
375.868	445.81
376.094	447.81
376.319	431.81
376.545	428.81
376.771	426.81
376.997	443.81
377.222	414.81
377.448	428.81
377.674	432.81
377.899	447.81
378.125	427.81
378.35	410.81
378.576	420.81
378.802	422.81
379.027	419.81
379.253	438.81
379.478	432.81
379.704	406.81
379.929	436.81
380.155	451.81
380.38	425.81
380.606	420.81
380.831	421.81
381.057	441.81
381.282	422.81
381.507	414.81
381.733	438.81
381.958	432.81
382.184	431.81
382.409	425.81
382.634	412.81
382.86	440.81
383.085	421.81
383.31	452.81
383.535	436.81
383.761	468.81
383.986	449.81
384.211	445.81
384.436	468.81
384.662	466.81
384.887	446.81
385.112	465.81
385.337	456.81
385.562	463.81
385.787	483.81
386.013	480.81
386.238	485.81
386.463	466.81
386.688	493.81
386.913	489.81
387.138	489.81
387.363	488.81
387.588	470.81
387.813	471.81
388.038	464.81
388.263	470.81
388.488	475.81
388.713	494.81
388.938	489.81
389.163	481.81
389.387	481.81
389.612	484.81
389.837	462.81
390.062	466.81
390.287	475.81
390.512	480.81
390.736	460.81
390.961	463.81
391.186	479.81
391.411	491.81
391.636	494.81
391.86	486.81
392.085	503.81
392.31	507.81
392.534	518.81
392.759	493.81
392.984	474.81
393.208	504.81
393.433	494.81
393.658	483.81
393.882	478.81
394.107	471.81
394.331	466.81
394.556	469.81
394.78	478.81
395.005	509.81
395.229	477.81
395.454	504.81
395.678	513.81
395.903	525.81
396.127	537.81
396.352	566.81
396.576	529.81
396.801	497.81
397.025	497.81
397.249	508.81
397.474	523.81
397.698	526.81
397.922	545.81
398.147	535.81
398.371	544.81
398.595	560.81
398.82	569.81
399.044	555.81
399.268	572.81
399.492	631.81
399.717	656.81
399.941	676.81
400.165	719.81
400.389	707.81
400.613	636.81
400.837	601.81
401.062	563.81
401.286	581.81
401.51	592.81
401.734	575.81
401.958	583.81
402.182	569.81
402.406	580.81
402.63	608.81
402.854	601.81
403.078	597.81
403.302	618.81
403.526	592.81
403.75	603.81
403.974	591.81
404.198	604.81
404.422	592.81
404.645	611.81
404.869	614.81
405.093	647.81
405.317	674.81
405.541	705.81
405.765	649.81
405.988	615.81
406.212	647.81
406.436	641.81
406.66	658.81
406.883	649.81
407.107	654.81
407.331	723.81
407.555	791.81
407.778	788.81
408.002	713.81
408.226	695.81
408.449	643.81
408.673	635.81
408.896	663.81
409.12	723.81
409.344	704.81
409.567	641.81
409.791	586.81
410.014	611.81
410.238	591.81
410.461	613.81
410.685	590.81
410.908	583.81
411.132	643.81
411.355	689.81
411.578	645.81
411.802	620.81
412.025	604.81
412.249	606.81
412.472	621.81
412.695	669.81
412.919	622.81
413.142	601.81
413.365	588.81
413.589	583.81
413.812	570.81
414.035	581.81
414.258	581.81
414.482	566.81
414.705	581.81
414.928	582.81
415.151	578.81
415.374	589.81
415.597	568.81
415.821	546.81
416.044	579.81
416.267	584.81
416.49	566.81
416.713	568.81
416.936	570.81
417.159	582.81
417.382	559.81
417.605	551.81
417.828	583.81
418.051	575.81
418.274	596.81
418.497	575.81
418.72	577.81
418.943	571.81
419.166	593.81
419.389	613.81
419.611	619.81
419.834	606.81
420.057	601.81
420.28	597.81
420.503	575.81
420.726	575.81
420.948	592.81
421.171	641.81
421.394	660.81
421.617	612.81
421.839	598.81
422.062	591.81
422.285	581.81
422.507	665.81
422.73	727.81
422.953	705.81
423.175	651.81
423.398	608.81
423.621	614.81
423.843	628.81
424.066	668.81
424.288	620.81
424.511	634.81
424.733	675.81
424.956	766.81
425.178	724.81
425.401	762.81
425.623	763.81
425.846	668.81
426.068	616.81
426.291	629.81
426.513	621.81
426.735	612.81
426.958	678.81
427.18	739.81
427.402	870.81
427.625	965.81
427.847	853.81
428.069	739.81
428.292	644.81
428.514	609.81
428.736	586.81
428.958	565.81
429.181	579.81
429.403	585.81
429.625	597.81
429.847	630.81
430.069	699.81
430.292	658.81
430.514	600.81
430.736	583.81
430.958	547.81
431.18	557.81
431.402	551.81
431.624	561.81
431.846	524.81
432.068	533.81
432.29	576.81
432.512	558.81
432.734	543.81
432.956	572.81
433.178	569.81
433.4	553.81
433.622	571.81
433.844	553.81
434.066	569.81
434.287	556.81
434.509	569.81
434.731	567.81
434.953	556.81
435.175	609.81
435.397	615.81
435.618	613.81
435.84	645.81
436.062	756.81
436.284	828.81
436.505	702.81
436.727	640.81
436.949	569.81
437.17	568.81
437.392	581.81
437.614	591.81
437.835	599.81
438.057	725.81
438.278	807.81
438.5	801.81
438.721	881.81
438.943	837.81
439.165	683.81
439.386	617.81
439.608	625.81
439.829	637.81
440.05	638.81
440.272	705.81
440.493	660.81
440.715	605.81
440.936	605.81
441.158	584.81
441.379	601.81
441.6	593.81
441.822	606.81
442.043	657.81
442.264	729.81
442.486	787.81
442.707	669.81
442.928	643.81
443.149	661.81
443.371	670.81
443.592	697.81
443.813	769.81
444.034	876.81
444.255	741.81
444.476	662.81
444.698	655.81
444.919	631.81
445.14	716.81
445.361	686.81
445.582	667.81
445.803	724.81
446.024	857.81
446.245	843.81
446.466	767.81
446.687	649.81
446.908	620.81
447.129	592.81
447.35	600.81
447.571	568.81
447.792	564.81
448.013	569.81
448.234	567.81
448.455	649.81
448.675	741.81
448.896	831.81
449.117	699.81
449.338	693.81
449.559	804.81
449.779	942.81
450	743.81
450.221	631.81
450.442	569.81
450.662	562.81
450.883	535.81
451.104	600.81
451.324	550.81
451.545	542.81
451.766	548.81
451.986	510.81
452.207	495.81
452.428	500.81
452.648	544.81
452.869	512.81
453.089	521.81
453.31	533.81
453.53	544.81
453.751	518.81
453.971	523.81
454.192	521.81
454.412	505.81
454.633	509.81
454.853	497.81
455.073	529.81
455.294	537.81
455.514	590.81
455.734	595.81
455.955	501.81
456.175	494.81
456.395	479.81
456.616	484.81
456.836	504.81
457.056	481.81
457.276	476.81
457.497	501.81
457.717	461.81
457.937	495.81
458.157	505.81
458.377	503.81
458.598	535.81
458.818	570.81
459.038	664.81
459.258	681.81
459.478	588.81
459.698	555.81
459.918	558.81
460.138	567.81
460.358	577.81
460.578	584.81
460.798	588.81
461.018	585.81
461.238	616.81
461.458	585.81
461.678	574.81
461.898	609.81
462.118	590.81
462.338	609.81
462.558	601.81
462.777	593.81
462.997	644.81
463.217	653.81
463.437	644.81
463.657	634.81
463.876	628.81
464.096	636.81
464.316	624.81
464.536	632.81
464.755	627.81
464.975	618.81
465.195	641.81
465.414	721.81
465.634	633.81
465.854	601.81
466.073	576.81
466.293	535.81
466.512	551.81
466.732	543.81
466.951	546.81
467.171	521.81
467.391	535.81
467.61	569.81
467.829	558.81
468.049	551.81
468.268	540.81
468.488	550.81
468.707	533.81
468.927	539.81
469.146	526.81
469.365	521.81
469.585	495.81
469.804	543.81
470.023	551.81
470.243	548.81
470.462	548.81
470.681	580.81
470.901	563.81
471.12	527.81
471.339	538.81
471.558	542.81
471.777	540.81
471.997	536.81
472.216	557.81
472.435	555.81
472.654	575.81
472.873	549.81
473.092	542.81
473.311	525.81
473.53	535.81
473.749	546.81
473.968	565.81
474.187	647.81
474.406	691.81
474.625	591.81
474.844	559.81
475.063	548.81
475.282	552.81
475.501	538.81
475.72	521.81
475.939	556.81
476.158	520.81
476.377	567.81
476.596	547.81
476.814	563.81
477.033	551.81
477.252	588.81
477.471	569.81
477.69	578.81
477.908	597.81
478.127	601.81
478.346	589.81
478.564	576.81
478.783	572.81
479.002	599.81
479.22	653.81
479.439	651.81
479.658	664.81
479.876	657.81
480.095	655.81
480.313	666.81
480.532	677.81
480.751	684.81
480.969	661.81
481.188	722.81
481.406	778.81
481.624	684.81
481.843	644.81
482.061	648.81
482.28	620.81
482.498	639.81
482.717	633.81
482.935	648.81
483.153	624.81
483.372	616.81
483.59	624.81
483.808	631.81
484.027	645.81
484.245	629.81
484.463	629.81
484.681	652.81
484.9	664.81
485.118	669.81
485.336	653.81
485.554	654.81
485.772	676.81
485.99	651.81
486.209	655.81
486.427	653.81
486.645	665.81
486.863	672.81
487.081	659.81
487.299	664.81
487.517	685.81
487.735	667.81
487.953	664.81
488.171	684.81
488.389	695.81
488.607	667.81
488.825	696.81
489.043	665.81
489.261	682.81
489.479	701.81
489.696	689.81
489.914	691.81
490.132	691.81
490.35	684.81
490.568	711.81
490.786	725.81
491.003	705.81
491.221	748.81
491.439	725.81
491.657	742.81
491.874	758.81
492.092	745.81
492.31	750.81
492.527	775.81
492.745	772.81
492.963	756.81
493.18	783.81
493.398	799.81
493.615	811.81
493.833	796.81
494.05	785.81
494.268	782.81
494.485	775.81
494.703	780.81
494.92	783.81
495.138	823.81
495.355	778.81
495.573	802.81
495.79	791.81
496.008	799.81
496.225	787.81
496.442	805.81
496.66	791.81
496.877	787.81
497.094	788.81
497.312	809.81
497.529	843.81
497.746	849.81
497.963	868.81
498.181	875.81
498.398	890.81
498.615	891.81
498.832	939.81
499.049	934.81
499.267	966.81
499.484	1006.81
499.701	1049.81
499.918	1091.81
500.135	1180.81
500.352	1228.81
500.569	1226.81
500.786	1225.81
501.003	1191.81
501.22	1178.81
501.437	1133.81
501.654	1089.81
501.871	1059.81
