Data from 1979.PennyLincolnUp.Lamp.En5.5.200Scan.071719.P1_HRD10591_16-18-07-863.txt Node
Date: Thu Jul 18 16:18:07 EDT 2019
User: cochatt
Spectrometer: HR+D1059
Trigger mode: 1
Integration Time (sec): 1.000000E-1
Scans to average: 1
Electric dark correction enabled: true
Nonlinearity correction enabled: false
Boxcar width: 0
XAxis mode: Wavelengths
Number of Pixels in Spectrum: 2048
>>>>>Begin Spectral Data<<<<<
223.165	-12.19
223.4	-12.19
223.635	-12.19
223.869	-19.19
224.104	-24.19
224.338	-19.19
224.573	-7.19
224.808	-20.19
225.042	-16.19
225.277	-11.19
225.511	7.81
225.746	5.81
225.98	13.81
226.215	18.81
226.449	1.81
226.683	23.81
226.918	25.81
227.152	31.81
227.387	35.81
227.621	46.81
227.856	44.81
228.09	51.81
228.324	45.81
228.559	55.81
228.793	60.81
229.027	97.81
229.262	102.81
229.496	101.81
229.73	112.81
229.964	144.81
230.199	118.81
230.433	110.81
230.667	106.81
230.901	99.81
231.136	117.81
231.37	110.81
231.604	123.81
231.838	112.81
232.072	108.81
232.306	109.81
232.541	108.81
232.775	104.81
233.009	109.81
233.243	119.81
233.477	112.81
233.711	111.81
233.945	104.81
234.179	115.81
234.413	110.81
234.647	118.81
234.881	103.81
235.115	108.81
235.349	115.81
235.583	113.81
235.817	116.81
236.051	123.81
236.285	117.81
236.519	117.81
236.753	122.81
236.987	127.81
237.221	160.81
237.455	185.81
237.689	152.81
237.922	135.81
238.156	109.81
238.39	120.81
238.624	103.81
238.858	108.81
239.091	122.81
239.325	116.81
239.559	136.81
239.793	111.81
240.027	110.81
240.26	142.81
240.494	144.81
240.728	151.81
240.961	153.81
241.195	129.81
241.429	142.81
241.662	107.81
241.896	129.81
242.13	135.81
242.363	135.81
242.597	123.81
242.83	137.81
243.064	137.81
243.298	139.81
243.531	127.81
243.765	145.81
243.998	140.81
244.232	133.81
244.465	134.81
244.699	147.81
244.932	134.81
245.166	137.81
245.399	136.81
245.633	137.81
245.866	137.81
246.099	138.81
246.333	140.81
246.566	136.81
246.8	133.81
247.033	133.81
247.266	146.81
247.5	151.81
247.733	161.81
247.966	163.81
248.2	164.81
248.433	171.81
248.666	143.81
248.899	174.81
249.133	170.81
249.366	190.81
249.599	179.81
249.832	166.81
250.066	160.81
250.299	175.81
250.532	172.81
250.765	163.81
250.998	204.81
251.231	191.81
251.465	188.81
251.698	186.81
251.931	191.81
252.164	183.81
252.397	159.81
252.63	179.81
252.863	170.81
253.096	181.81
253.329	184.81
253.562	202.81
253.795	189.81
254.028	203.81
254.261	207.81
254.494	203.81
254.727	199.81
254.96	243.81
255.193	237.81
255.426	235.81
255.659	219.81
255.892	203.81
256.124	194.81
256.357	202.81
256.59	187.81
256.823	212.81
257.056	216.81
257.289	196.81
257.521	205.81
257.754	203.81
257.987	192.81
258.22	208.81
258.452	176.81
258.685	199.81
258.918	191.81
259.151	192.81
259.383	201.81
259.616	201.81
259.849	207.81
260.081	208.81
260.314	205.81
260.547	212.81
260.779	221.81
261.012	208.81
261.244	199.81
261.477	215.81
261.71	214.81
261.942	207.81
262.175	208.81
262.407	216.81
262.64	207.81
262.872	199.81
263.105	192.81
263.337	196.81
263.57	213.81
263.802	194.81
264.035	191.81
264.267	204.81
264.499	205.81
264.732	196.81
264.964	202.81
265.197	205.81
265.429	199.81
265.661	199.81
265.894	204.81
266.126	206.81
266.358	198.81
266.591	190.81
266.823	197.81
267.055	211.81
267.287	229.81
267.52	223.81
267.752	205.81
267.984	221.81
268.216	215.81
268.448	210.81
268.681	227.81
268.913	222.81
269.145	235.81
269.377	233.81
269.609	227.81
269.841	236.81
270.073	253.81
270.306	256.81
270.538	272.81
270.77	248.81
271.002	259.81
271.234	257.81
271.466	261.81
271.698	268.81
271.93	263.81
272.162	266.81
272.394	259.81
272.626	264.81
272.858	245.81
273.09	269.81
273.322	233.81
273.553	241.81
273.785	244.81
274.017	235.81
274.249	252.81
274.481	256.81
274.713	241.81
274.945	243.81
275.176	251.81
275.408	231.81
275.64	246.81
275.872	238.81
276.104	241.81
276.335	227.81
276.567	249.81
276.799	261.81
277.031	259.81
277.262	251.81
277.494	275.81
277.726	271.81
277.957	265.81
278.189	240.81
278.421	234.81
278.652	232.81
278.884	244.81
279.115	237.81
279.347	240.81
279.579	244.81
279.81	242.81
280.042	244.81
280.273	263.81
280.505	242.81
280.736	244.81
280.968	269.81
281.199	261.81
281.431	264.81
281.662	251.81
281.894	247.81
282.125	245.81
282.356	260.81
282.588	279.81
282.819	283.81
283.051	243.81
283.282	258.81
283.513	240.81
283.745	268.81
283.976	238.81
284.207	270.81
284.439	251.81
284.67	264.81
284.901	254.81
285.132	257.81
285.364	273.81
285.595	259.81
285.826	253.81
286.057	261.81
286.288	295.81
286.52	261.81
286.751	272.81
286.982	275.81
287.213	261.81
287.444	270.81
287.675	270.81
287.906	271.81
288.138	290.81
288.369	277.81
288.6	291.81
288.831	272.81
289.062	285.81
289.293	271.81
289.524	270.81
289.755	271.81
289.986	282.81
290.217	278.81
290.448	270.81
290.679	285.81
290.91	294.81
291.141	280.81
291.371	295.81
291.602	284.81
291.833	268.81
292.064	275.81
292.295	277.81
292.526	271.81
292.757	260.81
292.987	271.81
293.218	271.81
293.449	259.81
293.68	285.81
293.91	265.81
294.141	268.81
294.372	279.81
294.603	239.81
294.833	268.81
295.064	276.81
295.295	281.81
295.525	289.81
295.756	283.81
295.987	280.81
296.217	303.81
296.448	311.81
296.679	280.81
296.909	298.81
297.14	278.81
297.37	279.81
297.601	286.81
297.831	299.81
298.062	291.81
298.292	293.81
298.523	308.81
298.753	297.81
298.984	293.81
299.214	303.81
299.445	286.81
299.675	281.81
299.905	307.81
300.136	302.81
300.366	301.81
300.597	305.81
300.827	313.81
301.057	314.81
301.288	315.81
301.518	302.81
301.748	310.81
301.979	315.81
302.209	313.81
302.439	311.81
302.669	301.81
302.9	307.81
303.13	324.81
303.36	301.81
303.59	292.81
303.82	321.81
304.051	312.81
304.281	302.81
304.511	317.81
304.741	323.81
304.971	307.81
305.201	313.81
305.431	296.81
305.661	316.81
305.891	297.81
306.121	307.81
306.352	315.81
306.582	324.81
306.812	309.81
307.042	317.81
307.272	316.81
307.502	311.81
307.731	312.81
307.961	316.81
308.191	328.81
308.421	318.81
308.651	318.81
308.881	320.81
309.111	334.81
309.341	330.81
309.571	339.81
309.8	343.81
310.03	350.81
310.26	352.81
310.49	369.81
310.72	338.81
310.949	378.81
311.179	374.81
311.409	353.81
311.639	351.81
311.868	359.81
312.098	359.81
312.328	342.81
312.557	372.81
312.787	365.81
313.017	377.81
313.246	339.81
313.476	341.81
313.706	350.81
313.935	338.81
314.165	369.81
314.394	361.81
314.624	385.81
314.853	353.81
315.083	352.81
315.312	354.81
315.542	364.81
315.771	349.81
316.001	329.81
316.23	352.81
316.46	357.81
316.689	343.81
316.919	339.81
317.148	383.81
317.377	379.81
317.607	352.81
317.836	363.81
318.065	346.81
318.295	350.81
318.524	356.81
318.753	352.81
318.983	334.81
319.212	353.81
319.441	379.81
319.67	369.81
319.9	353.81
320.129	352.81
320.358	356.81
320.587	359.81
320.816	364.81
321.046	393.81
321.275	381.81
321.504	365.81
321.733	367.81
321.962	379.81
322.191	375.81
322.42	401.81
322.649	387.81
322.878	391.81
323.108	421.81
323.337	430.81
323.566	438.81
323.795	467.81
324.024	493.81
324.253	560.81
324.482	803.81
324.71	1250.81
324.939	1839.81
325.168	1613.81
325.397	794.81
325.626	567.81
325.855	481.81
326.084	455.81
326.313	462.81
326.542	452.81
326.77	483.81
326.999	570.81
327.228	732.81
327.457	1116.81
327.686	1390.81
327.914	910.81
328.143	602.81
328.372	553.81
328.6	503.81
328.829	462.81
329.058	490.81
329.287	504.81
329.515	476.81
329.744	480.81
329.972	452.81
330.201	462.81
330.43	488.81
330.658	509.81
330.887	537.81
331.115	535.81
331.344	446.81
331.572	441.81
331.801	447.81
332.03	449.81
332.258	438.81
332.486	428.81
332.715	435.81
332.943	437.81
333.172	445.81
333.4	449.81
333.629	461.81
333.857	451.81
334.085	462.81
334.314	473.81
334.542	511.81
334.771	491.81
334.999	496.81
335.227	486.81
335.455	457.81
335.684	448.81
335.912	443.81
336.14	441.81
336.369	436.81
336.597	441.81
336.825	428.81
337.053	429.81
337.281	427.81
337.51	427.81
337.738	451.81
337.966	427.81
338.194	436.81
338.422	419.81
338.65	416.81
338.878	417.81
339.106	401.81
339.334	398.81
339.562	400.81
339.79	400.81
340.018	423.81
340.246	394.81
340.474	407.81
340.702	427.81
340.93	399.81
341.158	401.81
341.386	407.81
341.614	414.81
341.842	421.81
342.07	409.81
342.298	396.81
342.526	407.81
342.754	399.81
342.981	426.81
343.209	398.81
343.437	405.81
343.665	437.81
343.893	437.81
344.12	434.81
344.348	426.81
344.576	417.81
344.804	434.81
345.031	408.81
345.259	438.81
345.487	438.81
345.714	426.81
345.942	395.81
346.17	405.81
346.397	422.81
346.625	421.81
346.853	402.81
347.08	384.81
347.308	401.81
347.535	413.81
347.763	416.81
347.99	403.81
348.218	407.81
348.445	408.81
348.673	418.81
348.9	402.81
349.128	400.81
349.355	395.81
349.583	376.81
349.81	398.81
350.037	384.81
350.265	388.81
350.492	399.81
350.72	386.81
350.947	380.81
351.174	394.81
351.402	397.81
351.629	390.81
351.856	403.81
352.083	417.81
352.311	422.81
352.538	407.81
352.765	401.81
352.992	407.81
353.22	415.81
353.447	408.81
353.674	376.81
353.901	408.81
354.128	386.81
354.355	387.81
354.583	392.81
354.81	389.81
355.037	378.81
355.264	378.81
355.491	359.81
355.718	377.81
355.945	361.81
356.172	391.81
356.399	407.81
356.626	389.81
356.853	367.81
357.08	376.81
357.307	381.81
357.534	379.81
357.761	377.81
357.988	381.81
358.215	401.81
358.441	371.81
358.668	385.81
358.895	383.81
359.122	389.81
359.349	376.81
359.576	372.81
359.802	388.81
360.029	422.81
360.256	450.81
360.483	434.81
360.709	418.81
360.936	423.81
361.163	401.81
361.39	421.81
361.616	410.81
361.843	384.81
362.07	392.81
362.296	404.81
362.523	390.81
362.749	399.81
362.976	392.81
363.203	400.81
363.429	382.81
363.656	392.81
363.882	384.81
364.109	383.81
364.335	379.81
364.562	397.81
364.788	405.81
365.015	395.81
365.241	406.81
365.468	389.81
365.694	389.81
365.92	383.81
366.147	391.81
366.373	409.81
366.599	413.81
366.826	391.81
367.052	393.81
367.278	400.81
367.505	393.81
367.731	397.81
367.957	389.81
368.184	396.81
368.41	388.81
368.636	423.81
368.862	451.81
369.089	420.81
369.315	379.81
369.541	380.81
369.767	398.81
369.993	408.81
370.219	395.81
370.445	399.81
370.672	389.81
370.898	397.81
371.124	385.81
371.35	379.81
371.576	393.81
371.802	380.81
372.028	409.81
372.254	401.81
372.48	413.81
372.706	400.81
372.932	398.81
373.158	400.81
373.384	400.81
373.61	410.81
373.835	404.81
374.061	409.81
374.287	420.81
374.513	407.81
374.739	415.81
374.965	419.81
375.191	425.81
375.416	405.81
375.642	422.81
375.868	407.81
376.094	407.81
376.319	417.81
376.545	408.81
376.771	413.81
376.997	390.81
377.222	387.81
377.448	388.81
377.674	397.81
377.899	401.81
378.125	392.81
378.35	388.81
378.576	406.81
378.802	413.81
379.027	407.81
379.253	379.81
379.478	409.81
379.704	414.81
379.929	383.81
380.155	407.81
380.38	419.81
380.606	411.81
380.831	408.81
381.057	415.81
381.282	399.81
381.507	407.81
381.733	407.81
381.958	393.81
382.184	419.81
382.409	414.81
382.634	412.81
382.86	396.81
383.085	414.81
383.31	425.81
383.535	424.81
383.761	416.81
383.986	428.81
384.211	405.81
384.436	446.81
384.662	440.81
384.887	414.81
385.112	446.81
385.337	467.81
385.562	451.81
385.787	463.81
386.013	458.81
386.238	454.81
386.463	460.81
386.688	454.81
386.913	453.81
387.138	445.81
387.363	452.81
387.588	442.81
387.813	446.81
388.038	453.81
388.263	447.81
388.488	432.81
388.713	459.81
388.938	453.81
389.163	451.81
389.387	463.81
389.612	451.81
389.837	431.81
390.062	445.81
390.287	451.81
390.512	451.81
390.736	443.81
390.961	486.81
391.186	473.81
391.411	468.81
391.636	455.81
391.86	481.81
392.085	468.81
392.31	468.81
392.534	465.81
392.759	479.81
392.984	463.81
393.208	460.81
393.433	483.81
393.658	471.81
393.882	472.81
394.107	479.81
394.331	486.81
394.556	455.81
394.78	434.81
395.005	440.81
395.229	474.81
395.454	472.81
395.678	475.81
395.903	469.81
396.127	504.81
396.352	488.81
396.576	490.81
396.801	472.81
397.025	487.81
397.249	489.81
397.474	503.81
397.698	465.81
397.922	506.81
398.147	513.81
398.371	509.81
398.595	505.81
398.82	504.81
399.044	539.81
399.268	556.81
399.492	589.81
399.717	632.81
399.941	651.81
400.165	649.81
400.389	624.81
400.613	625.81
400.837	578.81
401.062	551.81
401.286	556.81
401.51	526.81
401.734	514.81
401.958	529.81
402.182	553.81
402.406	537.81
402.63	570.81
402.854	565.81
403.078	577.81
403.302	545.81
403.526	590.81
403.75	574.81
403.974	550.81
404.198	565.81
404.422	579.81
404.645	562.81
404.869	569.81
405.093	583.81
405.317	630.81
405.541	668.81
405.765	611.81
405.988	600.81
406.212	577.81
406.436	616.81
406.66	613.81
406.883	594.81
407.107	631.81
407.331	664.81
407.555	721.81
407.778	725.81
408.002	669.81
408.226	608.81
408.449	622.81
408.673	616.81
408.896	637.81
409.12	665.81
409.344	640.81
409.567	580.81
409.791	575.81
410.014	564.81
410.238	558.81
410.461	548.81
410.685	556.81
410.908	591.81
411.132	623.81
411.355	631.81
411.578	595.81
411.802	576.81
412.025	578.81
412.249	575.81
412.472	576.81
412.695	632.81
412.919	616.81
413.142	579.81
413.365	567.81
413.589	527.81
413.812	527.81
414.035	542.81
414.258	533.81
414.482	530.81
414.705	538.81
414.928	547.81
415.151	530.81
415.374	532.81
415.597	517.81
415.821	550.81
416.044	545.81
416.267	550.81
416.49	544.81
416.713	533.81
416.936	509.81
417.159	531.81
417.382	542.81
417.605	543.81
417.828	535.81
418.051	552.81
418.274	539.81
418.497	552.81
418.72	550.81
418.943	520.81
419.166	544.81
419.389	589.81
419.611	582.81
419.834	563.81
420.057	549.81
420.28	583.81
420.503	536.81
420.726	529.81
420.948	575.81
421.171	581.81
421.394	633.81
421.617	584.81
421.839	551.81
422.062	544.81
422.285	545.81
422.507	630.81
422.73	679.81
422.953	669.81
423.175	578.81
423.398	577.81
423.621	580.81
423.843	605.81
424.066	593.81
424.288	599.81
424.511	591.81
424.733	621.81
424.956	709.81
425.178	662.81
425.401	665.81
425.623	696.81
425.846	612.81
426.068	579.81
426.291	571.81
426.513	572.81
426.735	563.81
426.958	592.81
427.18	677.81
427.402	801.81
427.625	900.81
427.847	746.81
428.069	677.81
428.292	627.81
428.514	575.81
428.736	533.81
428.958	526.81
429.181	529.81
429.403	528.81
429.625	527.81
429.847	558.81
430.069	621.81
430.292	621.81
430.514	543.81
430.736	529.81
430.958	527.81
431.18	518.81
431.402	519.81
431.624	509.81
431.846	525.81
432.068	517.81
432.29	517.81
432.512	518.81
432.734	537.81
432.956	539.81
433.178	543.81
433.4	545.81
433.622	533.81
433.844	536.81
434.066	533.81
434.287	516.81
434.509	510.81
434.731	528.81
434.953	544.81
435.175	561.81
435.397	597.81
435.618	583.81
435.84	617.81
436.062	680.81
436.284	756.81
436.505	645.81
436.727	577.81
436.949	553.81
437.17	537.81
437.392	527.81
437.614	553.81
437.835	575.81
438.057	645.81
438.278	706.81
438.5	718.81
438.721	768.81
438.943	751.81
439.165	607.81
439.386	563.81
439.608	579.81
439.829	567.81
440.05	590.81
440.272	615.81
440.493	620.81
440.715	577.81
440.936	527.81
441.158	563.81
441.379	546.81
441.6	558.81
441.822	575.81
442.043	629.81
442.264	673.81
442.486	716.81
442.707	613.81
442.928	598.81
443.149	591.81
443.371	603.81
443.592	648.81
443.813	734.81
444.034	795.81
444.255	679.81
444.476	638.81
444.698	601.81
444.919	579.81
445.14	746.81
445.361	657.81
445.582	627.81
445.803	676.81
446.024	761.81
446.245	752.81
446.466	688.81
446.687	603.81
446.908	571.81
447.129	535.81
447.35	534.81
447.571	537.81
447.792	518.81
448.013	534.81
448.234	528.81
448.455	584.81
448.675	670.81
448.896	791.81
449.117	661.81
449.338	637.81
449.559	742.81
449.779	831.81
450	657.81
450.221	571.81
450.442	540.81
450.662	502.81
450.883	514.81
451.104	536.81
451.324	520.81
451.545	489.81
451.766	465.81
451.986	485.81
452.207	475.81
452.428	476.81
452.648	452.81
452.869	477.81
453.089	491.81
453.31	513.81
453.53	464.81
453.751	474.81
453.971	494.81
454.192	485.81
454.412	471.81
454.633	461.81
454.853	469.81
455.073	472.81
455.294	513.81
455.514	535.81
455.734	543.81
455.955	481.81
456.175	467.81
456.395	443.81
456.616	445.81
456.836	484.81
457.056	453.81
457.276	455.81
457.497	465.81
457.717	461.81
457.937	453.81
458.157	470.81
458.377	479.81
458.598	515.81
458.818	527.81
459.038	592.81
459.258	616.81
459.478	537.81
459.698	537.81
459.918	519.81
460.138	516.81
460.358	532.81
460.578	522.81
460.798	535.81
461.018	551.81
461.238	558.81
461.458	533.81
461.678	545.81
461.898	540.81
462.118	541.81
462.338	560.81
462.558	584.81
462.777	565.81
462.997	601.81
463.217	622.81
463.437	614.81
463.657	605.81
463.876	593.81
464.096	598.81
464.316	575.81
464.536	575.81
464.755	596.81
464.975	563.81
465.195	622.81
465.414	682.81
465.634	587.81
465.854	578.81
466.073	529.81
466.293	522.81
466.512	525.81
466.732	499.81
466.951	492.81
467.171	535.81
467.391	511.81
467.61	503.81
467.829	509.81
468.049	520.81
468.268	520.81
468.488	497.81
468.707	472.81
468.927	477.81
469.146	482.81
469.365	506.81
469.585	496.81
469.804	509.81
470.023	519.81
470.243	513.81
470.462	503.81
470.681	503.81
470.901	515.81
471.12	526.81
471.339	535.81
471.558	516.81
471.777	504.81
471.997	506.81
472.216	518.81
472.435	528.81
472.654	497.81
472.873	518.81
473.092	492.81
473.311	506.81
473.53	491.81
473.749	489.81
473.968	515.81
474.187	631.81
474.406	618.81
474.625	529.81
474.844	508.81
475.063	500.81
475.282	521.81
475.501	508.81
475.72	521.81
475.939	511.81
476.158	512.81
476.377	523.81
476.596	517.81
476.814	528.81
477.033	553.81
477.252	552.81
477.471	522.81
477.69	537.81
477.908	558.81
478.127	553.81
478.346	536.81
478.564	565.81
478.783	577.81
479.002	596.81
479.22	597.81
479.439	603.81
479.658	606.81
479.876	583.81
480.095	612.81
480.313	633.81
480.532	638.81
480.751	651.81
480.969	638.81
481.188	651.81
481.406	707.81
481.624	627.81
481.843	620.81
482.061	586.81
482.28	604.81
482.498	572.81
482.717	575.81
482.935	593.81
483.153	594.81
483.372	589.81
483.59	583.81
483.808	592.81
484.027	588.81
484.245	585.81
484.463	584.81
484.681	619.81
484.9	579.81
485.118	623.81
485.336	610.81
485.554	635.81
485.772	625.81
485.99	627.81
486.209	614.81
486.427	605.81
486.645	624.81
486.863	622.81
487.081	641.81
487.299	639.81
487.517	619.81
487.735	616.81
487.953	606.81
488.171	625.81
488.389	636.81
488.607	613.81
488.825	627.81
489.043	614.81
489.261	624.81
489.479	651.81
489.696	643.81
489.914	639.81
490.132	645.81
490.35	674.81
490.568	644.81
490.786	649.81
491.003	684.81
491.221	661.81
491.439	665.81
491.657	685.81
491.874	693.81
492.092	702.81
492.31	704.81
492.527	674.81
492.745	722.81
492.963	681.81
493.18	701.81
493.398	714.81
493.615	726.81
493.833	722.81
494.05	720.81
494.268	694.81
494.485	707.81
494.703	709.81
494.92	706.81
495.138	713.81
495.355	695.81
495.573	716.81
495.79	725.81
496.008	728.81
496.225	721.81
496.442	723.81
496.66	755.81
496.877	729.81
497.094	748.81
497.312	780.81
497.529	768.81
497.746	794.81
497.963	800.81
498.181	810.81
498.398	837.81
498.615	828.81
498.832	871.81
499.049	898.81
499.267	925.81
499.484	943.81
499.701	998.81
499.918	1037.81
500.135	1091.81
500.352	1133.81
500.569	1166.81
500.786	1153.81
501.003	1163.81
501.22	1102.81
501.437	1066.81
501.654	1032.81
501.871	1021.81
