Data from 1979.PennyLincolnUp.Lamp.En5.5.200Scan.071719.P1_HRD10591_16-18-58-863.txt Node
Date: Thu Jul 18 16:18:58 EDT 2019
User: cochatt
Spectrometer: HR+D1059
Trigger mode: 1
Integration Time (sec): 1.000000E-1
Scans to average: 1
Electric dark correction enabled: true
Nonlinearity correction enabled: false
Boxcar width: 0
XAxis mode: Wavelengths
Number of Pixels in Spectrum: 2048
>>>>>Begin Spectral Data<<<<<
223.165	-14.81
223.4	-14.81
223.635	-14.81
223.869	-22.81
224.104	-23.81
224.338	-8.81
224.573	-11.81
224.808	-11.81
225.042	-2.81
225.277	-12.81
225.511	-0.81
225.746	8.19
225.98	-3.81
226.215	24.19
226.449	12.19
226.683	24.19
226.918	15.19
227.152	30.19
227.387	29.19
227.621	43.19
227.856	43.19
228.09	29.19
228.324	49.19
228.559	41.19
228.793	76.19
229.027	74.19
229.262	104.19
229.496	103.19
229.73	133.19
229.964	137.19
230.199	119.19
230.433	109.19
230.667	107.19
230.901	109.19
231.136	95.19
231.37	125.19
231.604	110.19
231.838	115.19
232.072	100.19
232.306	109.19
232.541	106.19
232.775	113.19
233.009	116.19
233.243	102.19
233.477	119.19
233.711	112.19
233.945	109.19
234.179	112.19
234.413	115.19
234.647	119.19
234.881	120.19
235.115	117.19
235.349	108.19
235.583	112.19
235.817	122.19
236.051	125.19
236.285	123.19
236.519	113.19
236.753	125.19
236.987	148.19
237.221	160.19
237.455	203.19
237.689	166.19
237.922	124.19
238.156	139.19
238.39	112.19
238.624	112.19
238.858	110.19
239.091	123.19
239.325	120.19
239.559	116.19
239.793	123.19
240.027	127.19
240.26	126.19
240.494	146.19
240.728	126.19
240.961	143.19
241.195	126.19
241.429	138.19
241.662	129.19
241.896	132.19
242.13	121.19
242.363	120.19
242.597	121.19
242.83	142.19
243.064	124.19
243.298	141.19
243.531	140.19
243.765	129.19
243.998	138.19
244.232	146.19
244.465	129.19
244.699	138.19
244.932	131.19
245.166	139.19
245.399	150.19
245.633	146.19
245.866	156.19
246.099	130.19
246.333	154.19
246.566	159.19
246.8	148.19
247.033	130.19
247.266	140.19
247.5	155.19
247.733	147.19
247.966	161.19
248.2	157.19
248.433	157.19
248.666	163.19
248.899	171.19
249.133	171.19
249.366	177.19
249.599	188.19
249.832	177.19
250.066	189.19
250.299	167.19
250.532	176.19
250.765	171.19
250.998	205.19
251.231	202.19
251.465	196.19
251.698	186.19
251.931	191.19
252.164	172.19
252.397	184.19
252.63	174.19
252.863	178.19
253.096	191.19
253.329	211.19
253.562	188.19
253.795	194.19
254.028	194.19
254.261	188.19
254.494	195.19
254.727	212.19
254.96	236.19
255.193	221.19
255.426	219.19
255.659	206.19
255.892	186.19
256.124	212.19
256.357	211.19
256.59	201.19
256.823	186.19
257.056	190.19
257.289	193.19
257.521	194.19
257.754	199.19
257.987	200.19
258.22	198.19
258.452	191.19
258.685	196.19
258.918	181.19
259.151	206.19
259.383	214.19
259.616	210.19
259.849	221.19
260.081	220.19
260.314	223.19
260.547	215.19
260.779	229.19
261.012	212.19
261.244	195.19
261.477	204.19
261.71	205.19
261.942	206.19
262.175	198.19
262.407	220.19
262.64	206.19
262.872	186.19
263.105	201.19
263.337	201.19
263.57	185.19
263.802	213.19
264.035	193.19
264.267	204.19
264.499	195.19
264.732	192.19
264.964	208.19
265.197	204.19
265.429	198.19
265.661	211.19
265.894	202.19
266.126	184.19
266.358	191.19
266.591	189.19
266.823	211.19
267.055	217.19
267.287	218.19
267.52	219.19
267.752	197.19
267.984	210.19
268.216	205.19
268.448	221.19
268.681	220.19
268.913	213.19
269.145	242.19
269.377	242.19
269.609	233.19
269.841	234.19
270.073	242.19
270.306	256.19
270.538	260.19
270.77	272.19
271.002	260.19
271.234	259.19
271.466	256.19
271.698	269.19
271.93	273.19
272.162	280.19
272.394	282.19
272.626	271.19
272.858	264.19
273.09	240.19
273.322	246.19
273.553	254.19
273.785	249.19
274.017	233.19
274.249	237.19
274.481	258.19
274.713	252.19
274.945	244.19
275.176	251.19
275.408	226.19
275.64	243.19
275.872	243.19
276.104	248.19
276.335	236.19
276.567	241.19
276.799	257.19
277.031	280.19
277.262	282.19
277.494	273.19
277.726	280.19
277.957	242.19
278.189	272.19
278.421	251.19
278.652	235.19
278.884	242.19
279.115	256.19
279.347	263.19
279.579	255.19
279.81	253.19
280.042	242.19
280.273	250.19
280.505	259.19
280.736	254.19
280.968	249.19
281.199	249.19
281.431	247.19
281.662	281.19
281.894	248.19
282.125	252.19
282.356	269.19
282.588	286.19
282.819	280.19
283.051	254.19
283.282	243.19
283.513	258.19
283.745	274.19
283.976	257.19
284.207	269.19
284.439	259.19
284.67	259.19
284.901	277.19
285.132	269.19
285.364	265.19
285.595	268.19
285.826	258.19
286.057	268.19
286.288	276.19
286.52	278.19
286.751	253.19
286.982	269.19
287.213	279.19
287.444	266.19
287.675	260.19
287.906	289.19
288.138	267.19
288.369	279.19
288.6	298.19
288.831	265.19
289.062	283.19
289.293	280.19
289.524	278.19
289.755	280.19
289.986	283.19
290.217	264.19
290.448	281.19
290.679	267.19
290.91	258.19
291.141	280.19
291.371	296.19
291.602	266.19
291.833	286.19
292.064	284.19
292.295	283.19
292.526	281.19
292.757	262.19
292.987	261.19
293.218	261.19
293.449	275.19
293.68	284.19
293.91	277.19
294.141	270.19
294.372	265.19
294.603	291.19
294.833	285.19
295.064	277.19
295.295	278.19
295.525	286.19
295.756	283.19
295.987	292.19
296.217	285.19
296.448	315.19
296.679	307.19
296.909	288.19
297.14	284.19
297.37	296.19
297.601	289.19
297.831	305.19
298.062	286.19
298.292	283.19
298.523	298.19
298.753	289.19
298.984	289.19
299.214	294.19
299.445	299.19
299.675	302.19
299.905	299.19
300.136	299.19
300.366	288.19
300.597	309.19
300.827	324.19
301.057	310.19
301.288	298.19
301.518	308.19
301.748	319.19
301.979	304.19
302.209	315.19
302.439	312.19
302.669	314.19
302.9	300.19
303.13	300.19
303.36	313.19
303.59	304.19
303.82	331.19
304.051	322.19
304.281	306.19
304.511	304.19
304.741	310.19
304.971	309.19
305.201	338.19
305.431	312.19
305.661	315.19
305.891	315.19
306.121	291.19
306.352	324.19
306.582	322.19
306.812	320.19
307.042	312.19
307.272	316.19
307.502	325.19
307.731	345.19
307.961	324.19
308.191	315.19
308.421	313.19
308.651	322.19
308.881	302.19
309.111	315.19
309.341	322.19
309.571	340.19
309.8	336.19
310.03	353.19
310.26	355.19
310.49	326.19
310.72	343.19
310.949	382.19
311.179	386.19
311.409	349.19
311.639	363.19
311.868	360.19
312.098	345.19
312.328	373.19
312.557	374.19
312.787	362.19
313.017	368.19
313.246	367.19
313.476	364.19
313.706	361.19
313.935	349.19
314.165	370.19
314.394	384.19
314.624	367.19
314.853	379.19
315.083	363.19
315.312	370.19
315.542	354.19
315.771	356.19
316.001	349.19
316.23	356.19
316.46	356.19
316.689	345.19
316.919	363.19
317.148	371.19
317.377	360.19
317.607	364.19
317.836	356.19
318.065	365.19
318.295	360.19
318.524	349.19
318.753	361.19
318.983	360.19
319.212	369.19
319.441	363.19
319.67	372.19
319.9	372.19
320.129	360.19
320.358	380.19
320.587	357.19
320.816	359.19
321.046	386.19
321.275	382.19
321.504	342.19
321.733	363.19
321.962	394.19
322.191	386.19
322.42	387.19
322.649	424.19
322.878	419.19
323.108	423.19
323.337	438.19
323.566	462.19
323.795	469.19
324.024	513.19
324.253	610.19
324.482	837.19
324.71	1323.19
324.939	1933.19
325.168	1679.19
325.397	841.19
325.626	579.19
325.855	503.19
326.084	485.19
326.313	458.19
326.542	466.19
326.77	503.19
326.999	574.19
327.228	774.19
327.457	1197.19
327.686	1500.19
327.914	978.19
328.143	651.19
328.372	555.19
328.6	550.19
328.829	502.19
329.058	530.19
329.287	532.19
329.515	488.19
329.744	476.19
329.972	461.19
330.201	471.19
330.43	523.19
330.658	548.19
330.887	556.19
331.115	521.19
331.344	490.19
331.572	446.19
331.801	462.19
332.03	480.19
332.258	463.19
332.486	449.19
332.715	429.19
332.943	419.19
333.172	441.19
333.4	458.19
333.629	467.19
333.857	474.19
334.085	492.19
334.314	476.19
334.542	513.19
334.771	541.19
334.999	477.19
335.227	445.19
335.455	437.19
335.684	448.19
335.912	445.19
336.14	435.19
336.369	439.19
336.597	456.19
336.825	432.19
337.053	439.19
337.281	427.19
337.51	416.19
337.738	445.19
337.966	423.19
338.194	419.19
338.422	428.19
338.65	432.19
338.878	424.19
339.106	412.19
339.334	430.19
339.562	426.19
339.79	431.19
340.018	428.19
340.246	434.19
340.474	427.19
340.702	400.19
340.93	416.19
341.158	414.19
341.386	422.19
341.614	419.19
341.842	413.19
342.07	414.19
342.298	392.19
342.526	421.19
342.754	408.19
342.981	396.19
343.209	407.19
343.437	428.19
343.665	394.19
343.893	417.19
344.12	443.19
344.348	436.19
344.576	421.19
344.804	425.19
345.031	436.19
345.259	452.19
345.487	431.19
345.714	428.19
345.942	406.19
346.17	408.19
346.397	426.19
346.625	422.19
346.853	418.19
347.08	396.19
347.308	400.19
347.535	408.19
347.763	412.19
347.99	404.19
348.218	407.19
348.445	416.19
348.673	412.19
348.9	416.19
349.128	411.19
349.355	398.19
349.583	402.19
349.81	401.19
350.037	383.19
350.265	400.19
350.492	392.19
350.72	402.19
350.947	413.19
351.174	406.19
351.402	415.19
351.629	383.19
351.856	401.19
352.083	409.19
352.311	430.19
352.538	421.19
352.765	409.19
352.992	424.19
353.22	414.19
353.447	391.19
353.674	393.19
353.901	384.19
354.128	386.19
354.355	410.19
354.583	382.19
354.81	389.19
355.037	388.19
355.264	377.19
355.491	374.19
355.718	377.19
355.945	381.19
356.172	392.19
356.399	372.19
356.626	395.19
356.853	378.19
357.08	377.19
357.307	401.19
357.534	379.19
357.761	386.19
357.988	381.19
358.215	373.19
358.441	385.19
358.668	391.19
358.895	386.19
359.122	387.19
359.349	402.19
359.576	394.19
359.802	416.19
360.029	440.19
360.256	464.19
360.483	445.19
360.709	424.19
360.936	406.19
361.163	411.19
361.39	409.19
361.616	398.19
361.843	397.19
362.07	409.19
362.296	404.19
362.523	388.19
362.749	403.19
362.976	388.19
363.203	390.19
363.429	394.19
363.656	412.19
363.882	381.19
364.109	397.19
364.335	394.19
364.562	394.19
364.788	401.19
365.015	400.19
365.241	402.19
365.468	390.19
365.694	410.19
365.92	406.19
366.147	383.19
366.373	403.19
366.599	402.19
366.826	386.19
367.052	399.19
367.278	392.19
367.505	401.19
367.731	408.19
367.957	406.19
368.184	380.19
368.41	392.19
368.636	411.19
368.862	419.19
369.089	395.19
369.315	399.19
369.541	411.19
369.767	394.19
369.993	399.19
370.219	402.19
370.445	407.19
370.672	388.19
370.898	397.19
371.124	398.19
371.35	425.19
371.576	410.19
371.802	417.19
372.028	408.19
372.254	394.19
372.48	391.19
372.706	391.19
372.932	423.19
373.158	420.19
373.384	416.19
373.61	412.19
373.835	410.19
374.061	421.19
374.287	406.19
374.513	412.19
374.739	406.19
374.965	423.19
375.191	429.19
375.416	414.19
375.642	424.19
375.868	409.19
376.094	426.19
376.319	399.19
376.545	414.19
376.771	406.19
376.997	416.19
377.222	404.19
377.448	404.19
377.674	397.19
377.899	418.19
378.125	418.19
378.35	416.19
378.576	394.19
378.802	378.19
379.027	398.19
379.253	405.19
379.478	414.19
379.704	422.19
379.929	401.19
380.155	399.19
380.38	403.19
380.606	405.19
380.831	417.19
381.057	406.19
381.282	407.19
381.507	389.19
381.733	418.19
381.958	422.19
382.184	417.19
382.409	424.19
382.634	410.19
382.86	419.19
383.085	424.19
383.31	445.19
383.535	413.19
383.761	422.19
383.986	432.19
384.211	440.19
384.436	436.19
384.662	418.19
384.887	446.19
385.112	445.19
385.337	437.19
385.562	448.19
385.787	450.19
386.013	450.19
386.238	476.19
386.463	455.19
386.688	466.19
386.913	445.19
387.138	448.19
387.363	446.19
387.588	440.19
387.813	461.19
388.038	458.19
388.263	468.19
388.488	447.19
388.713	477.19
388.938	474.19
389.163	477.19
389.387	458.19
389.612	453.19
389.837	458.19
390.062	453.19
390.287	468.19
390.512	440.19
390.736	447.19
390.961	466.19
391.186	449.19
391.411	470.19
391.636	474.19
391.86	469.19
392.085	475.19
392.31	459.19
392.534	487.19
392.759	472.19
392.984	481.19
393.208	461.19
393.433	478.19
393.658	474.19
393.882	466.19
394.107	450.19
394.331	450.19
394.556	469.19
394.78	461.19
395.005	494.19
395.229	477.19
395.454	492.19
395.678	492.19
395.903	491.19
396.127	506.19
396.352	491.19
396.576	477.19
396.801	495.19
397.025	490.19
397.249	496.19
397.474	501.19
397.698	493.19
397.922	525.19
398.147	532.19
398.371	524.19
398.595	523.19
398.82	553.19
399.044	512.19
399.268	554.19
399.492	598.19
399.717	636.19
399.941	665.19
400.165	676.19
400.389	688.19
400.613	626.19
400.837	575.19
401.062	562.19
401.286	549.19
401.51	552.19
401.734	555.19
401.958	571.19
402.182	549.19
402.406	535.19
402.63	531.19
402.854	546.19
403.078	564.19
403.302	572.19
403.526	568.19
403.75	566.19
403.974	583.19
404.198	586.19
404.422	574.19
404.645	564.19
404.869	591.19
405.093	608.19
405.317	616.19
405.541	682.19
405.765	632.19
405.988	596.19
406.212	603.19
406.436	614.19
406.66	633.19
406.883	617.19
407.107	642.19
407.331	675.19
407.555	731.19
407.778	733.19
408.002	679.19
408.226	636.19
408.449	635.19
408.673	637.19
408.896	651.19
409.12	684.19
409.344	639.19
409.567	581.19
409.791	595.19
410.014	585.19
410.238	574.19
410.461	583.19
410.685	592.19
410.908	600.19
411.132	616.19
411.355	651.19
411.578	588.19
411.802	584.19
412.025	601.19
412.249	588.19
412.472	581.19
412.695	636.19
412.919	616.19
413.142	584.19
413.365	558.19
413.589	561.19
413.812	532.19
414.035	532.19
414.258	547.19
414.482	546.19
414.705	558.19
414.928	547.19
415.151	547.19
415.374	521.19
415.597	551.19
415.821	548.19
416.044	537.19
416.267	536.19
416.49	524.19
416.713	537.19
416.936	540.19
417.159	522.19
417.382	523.19
417.605	538.19
417.828	539.19
418.051	543.19
418.274	556.19
418.497	553.19
418.72	534.19
418.943	532.19
419.166	557.19
419.389	609.19
419.611	584.19
419.834	569.19
420.057	567.19
420.28	565.19
420.503	554.19
420.726	562.19
420.948	577.19
421.171	599.19
421.394	613.19
421.617	585.19
421.839	528.19
422.062	526.19
422.285	569.19
422.507	595.19
422.73	688.19
422.953	666.19
423.175	605.19
423.398	555.19
423.621	574.19
423.843	590.19
424.066	604.19
424.288	588.19
424.511	597.19
424.733	619.19
424.956	717.19
425.178	701.19
425.401	697.19
425.623	738.19
425.846	638.19
426.068	598.19
426.291	581.19
426.513	575.19
426.735	573.19
426.958	632.19
427.18	694.19
427.402	809.19
427.625	897.19
427.847	779.19
428.069	682.19
428.292	630.19
428.514	592.19
428.736	582.19
428.958	561.19
429.181	530.19
429.403	534.19
429.625	561.19
429.847	577.19
430.069	639.19
430.292	632.19
430.514	564.19
430.736	551.19
430.958	548.19
431.18	509.19
431.402	513.19
431.624	547.19
431.846	534.19
432.068	497.19
432.29	516.19
432.512	530.19
432.734	545.19
432.956	536.19
433.178	542.19
433.4	537.19
433.622	542.19
433.844	535.19
434.066	542.19
434.287	547.19
434.509	529.19
434.731	549.19
434.953	540.19
435.175	562.19
435.397	590.19
435.618	566.19
435.84	628.19
436.062	727.19
436.284	775.19
436.505	641.19
436.727	616.19
436.949	582.19
437.17	546.19
437.392	534.19
437.614	551.19
437.835	593.19
438.057	656.19
438.278	761.19
438.5	747.19
438.721	841.19
438.943	771.19
439.165	646.19
439.386	582.19
439.608	574.19
439.829	587.19
440.05	601.19
440.272	660.19
440.493	625.19
440.715	590.19
440.936	573.19
441.158	566.19
441.379	546.19
441.6	555.19
441.822	582.19
442.043	610.19
442.264	699.19
442.486	738.19
442.707	662.19
442.928	621.19
443.149	584.19
443.371	615.19
443.592	660.19
443.813	745.19
444.034	806.19
444.255	696.19
444.476	650.19
444.698	617.19
444.919	628.19
445.14	700.19
445.361	646.19
445.582	664.19
445.803	682.19
446.024	786.19
446.245	786.19
446.466	713.19
446.687	610.19
446.908	612.19
447.129	545.19
447.35	540.19
447.571	526.19
447.792	536.19
448.013	555.19
448.234	542.19
448.455	609.19
448.675	708.19
448.896	800.19
449.117	696.19
449.338	642.19
449.559	749.19
449.779	852.19
450	696.19
450.221	600.19
450.442	550.19
450.662	520.19
450.883	548.19
451.104	527.19
451.324	532.19
451.545	516.19
451.766	500.19
451.986	492.19
452.207	480.19
452.428	508.19
452.648	468.19
452.869	481.19
453.089	485.19
453.31	497.19
453.53	500.19
453.751	504.19
453.971	476.19
454.192	488.19
454.412	478.19
454.633	497.19
454.853	489.19
455.073	464.19
455.294	512.19
455.514	580.19
455.734	553.19
455.955	487.19
456.175	487.19
456.395	454.19
456.616	434.19
456.836	474.19
457.056	463.19
457.276	476.19
457.497	465.19
457.717	469.19
457.937	477.19
458.157	482.19
458.377	494.19
458.598	510.19
458.818	555.19
459.038	605.19
459.258	659.19
459.478	555.19
459.698	532.19
459.918	556.19
460.138	534.19
460.358	526.19
460.578	554.19
460.798	541.19
461.018	562.19
461.238	538.19
461.458	544.19
461.678	574.19
461.898	552.19
462.118	536.19
462.338	556.19
462.558	582.19
462.777	590.19
462.997	607.19
463.217	607.19
463.437	618.19
463.657	579.19
463.876	590.19
464.096	595.19
464.316	595.19
464.536	598.19
464.755	609.19
464.975	586.19
465.195	620.19
465.414	687.19
465.634	587.19
465.854	571.19
466.073	554.19
466.293	516.19
466.512	522.19
466.732	517.19
466.951	505.19
467.171	514.19
467.391	520.19
467.61	510.19
467.829	499.19
468.049	514.19
468.268	512.19
468.488	483.19
468.707	504.19
468.927	493.19
469.146	479.19
469.365	501.19
469.585	485.19
469.804	495.19
470.023	534.19
470.243	509.19
470.462	524.19
470.681	550.19
470.901	528.19
471.12	524.19
471.339	517.19
471.558	498.19
471.777	520.19
471.997	518.19
472.216	532.19
472.435	562.19
472.654	527.19
472.873	500.19
473.092	496.19
473.311	518.19
473.53	527.19
473.749	531.19
473.968	546.19
474.187	628.19
474.406	663.19
474.625	552.19
474.844	520.19
475.063	534.19
475.282	530.19
475.501	527.19
475.72	527.19
475.939	489.19
476.158	510.19
476.377	523.19
476.596	531.19
476.814	555.19
477.033	561.19
477.252	537.19
477.471	527.19
477.69	542.19
477.908	568.19
478.127	566.19
478.346	548.19
478.564	561.19
478.783	580.19
479.002	579.19
479.22	590.19
479.439	623.19
479.658	620.19
479.876	615.19
480.095	638.19
480.313	654.19
480.532	654.19
480.751	651.19
480.969	659.19
481.188	701.19
481.406	686.19
481.624	650.19
481.843	622.19
482.061	618.19
482.28	625.19
482.498	616.19
482.717	598.19
482.935	593.19
483.153	631.19
483.372	588.19
483.59	584.19
483.808	596.19
484.027	608.19
484.245	609.19
484.463	596.19
484.681	601.19
484.9	616.19
485.118	629.19
485.336	598.19
485.554	622.19
485.772	616.19
485.99	611.19
486.209	624.19
486.427	603.19
486.645	642.19
486.863	654.19
487.081	644.19
487.299	604.19
487.517	622.19
487.735	632.19
487.953	643.19
488.171	640.19
488.389	645.19
488.607	641.19
488.825	641.19
489.043	645.19
489.261	648.19
489.479	658.19
489.696	660.19
489.914	642.19
490.132	663.19
490.35	666.19
490.568	649.19
490.786	661.19
491.003	680.19
491.221	698.19
491.439	726.19
491.657	710.19
491.874	710.19
492.092	715.19
492.31	708.19
492.527	746.19
492.745	701.19
492.963	724.19
493.18	742.19
493.398	739.19
493.615	732.19
493.833	718.19
494.05	729.19
494.268	741.19
494.485	752.19
494.703	764.19
494.92	756.19
495.138	723.19
495.355	726.19
495.573	753.19
495.79	736.19
496.008	766.19
496.225	746.19
496.442	726.19
496.66	748.19
496.877	742.19
497.094	772.19
497.312	795.19
497.529	806.19
497.746	786.19
497.963	801.19
498.181	830.19
498.398	826.19
498.615	871.19
498.832	894.19
499.049	886.19
499.267	934.19
499.484	982.19
499.701	1027.19
499.918	1068.19
500.135	1120.19
500.352	1165.19
500.569	1211.19
500.786	1213.19
501.003	1159.19
501.22	1133.19
501.437	1072.19
501.654	1048.19
501.871	1009.19
