Data from 1979.PennyLincolnUp.Lamp.En5.5.200Scan.071719.P1_HRD10591_16-18-52-863.txt Node
Date: Thu Jul 18 16:18:52 EDT 2019
User: cochatt
Spectrometer: HR+D1059
Trigger mode: 1
Integration Time (sec): 1.000000E-1
Scans to average: 1
Electric dark correction enabled: true
Nonlinearity correction enabled: false
Boxcar width: 0
XAxis mode: Wavelengths
Number of Pixels in Spectrum: 2048
>>>>>Begin Spectral Data<<<<<
223.165	-22.75
223.4	-22.75
223.635	-22.75
223.869	-16.75
224.104	-21.75
224.338	-21.75
224.573	-25.75
224.808	-18.75
225.042	-1.75
225.277	-2.75
225.511	0.25
225.746	-0.75
225.98	-2.75
226.215	10.25
226.449	24.25
226.683	38.25
226.918	19.25
227.152	43.25
227.387	36.25
227.621	33.25
227.856	36.25
228.09	42.25
228.324	48.25
228.559	54.25
228.793	64.25
229.027	92.25
229.262	101.25
229.496	91.25
229.73	125.25
229.964	143.25
230.199	113.25
230.433	121.25
230.667	107.25
230.901	113.25
231.136	108.25
231.37	112.25
231.604	110.25
231.838	124.25
232.072	115.25
232.306	112.25
232.541	112.25
232.775	117.25
233.009	115.25
233.243	114.25
233.477	120.25
233.711	113.25
233.945	116.25
234.179	125.25
234.413	120.25
234.647	105.25
234.881	112.25
235.115	122.25
235.349	104.25
235.583	136.25
235.817	122.25
236.051	120.25
236.285	117.25
236.519	121.25
236.753	117.25
236.987	137.25
237.221	170.25
237.455	212.25
237.689	176.25
237.922	129.25
238.156	117.25
238.39	136.25
238.624	124.25
238.858	123.25
239.091	140.25
239.325	124.25
239.559	109.25
239.793	126.25
240.027	138.25
240.26	142.25
240.494	137.25
240.728	150.25
240.961	140.25
241.195	126.25
241.429	136.25
241.662	124.25
241.896	121.25
242.13	129.25
242.363	133.25
242.597	148.25
242.83	123.25
243.064	130.25
243.298	115.25
243.531	134.25
243.765	125.25
243.998	143.25
244.232	130.25
244.465	142.25
244.699	141.25
244.932	141.25
245.166	145.25
245.399	152.25
245.633	136.25
245.866	145.25
246.099	140.25
246.333	144.25
246.566	139.25
246.8	138.25
247.033	134.25
247.266	162.25
247.5	158.25
247.733	169.25
247.966	152.25
248.2	166.25
248.433	161.25
248.666	157.25
248.899	168.25
249.133	185.25
249.366	202.25
249.599	171.25
249.832	181.25
250.066	168.25
250.299	195.25
250.532	189.25
250.765	189.25
250.998	203.25
251.231	224.25
251.465	184.25
251.698	192.25
251.931	172.25
252.164	182.25
252.397	183.25
252.63	179.25
252.863	180.25
253.096	190.25
253.329	198.25
253.562	192.25
253.795	199.25
254.028	207.25
254.261	210.25
254.494	216.25
254.727	217.25
254.96	255.25
255.193	240.25
255.426	211.25
255.659	198.25
255.892	225.25
256.124	207.25
256.357	195.25
256.59	217.25
256.823	204.25
257.056	202.25
257.289	205.25
257.521	187.25
257.754	202.25
257.987	182.25
258.22	212.25
258.452	202.25
258.685	208.25
258.918	194.25
259.151	196.25
259.383	220.25
259.616	198.25
259.849	203.25
260.081	208.25
260.314	221.25
260.547	231.25
260.779	214.25
261.012	219.25
261.244	218.25
261.477	225.25
261.71	209.25
261.942	224.25
262.175	204.25
262.407	209.25
262.64	202.25
262.872	221.25
263.105	213.25
263.337	186.25
263.57	203.25
263.802	212.25
264.035	204.25
264.267	192.25
264.499	198.25
264.732	205.25
264.964	194.25
265.197	207.25
265.429	211.25
265.661	193.25
265.894	225.25
266.126	205.25
266.358	204.25
266.591	216.25
266.823	225.25
267.055	212.25
267.287	223.25
267.52	204.25
267.752	198.25
267.984	216.25
268.216	213.25
268.448	221.25
268.681	230.25
268.913	221.25
269.145	235.25
269.377	261.25
269.609	256.25
269.841	233.25
270.073	244.25
270.306	257.25
270.538	281.25
270.77	281.25
271.002	276.25
271.234	258.25
271.466	257.25
271.698	275.25
271.93	284.25
272.162	286.25
272.394	274.25
272.626	268.25
272.858	262.25
273.09	263.25
273.322	240.25
273.553	229.25
273.785	237.25
274.017	242.25
274.249	238.25
274.481	266.25
274.713	237.25
274.945	248.25
275.176	256.25
275.408	251.25
275.64	242.25
275.872	260.25
276.104	254.25
276.335	237.25
276.567	262.25
276.799	240.25
277.031	270.25
277.262	290.25
277.494	280.25
277.726	263.25
277.957	259.25
278.189	273.25
278.421	258.25
278.652	230.25
278.884	246.25
279.115	242.25
279.347	262.25
279.579	273.25
279.81	250.25
280.042	266.25
280.273	237.25
280.505	243.25
280.736	240.25
280.968	248.25
281.199	242.25
281.431	243.25
281.662	257.25
281.894	276.25
282.125	239.25
282.356	266.25
282.588	284.25
282.819	279.25
283.051	261.25
283.282	254.25
283.513	275.25
283.745	275.25
283.976	267.25
284.207	274.25
284.439	243.25
284.67	269.25
284.901	276.25
285.132	268.25
285.364	261.25
285.595	250.25
285.826	281.25
286.057	260.25
286.288	266.25
286.52	283.25
286.751	261.25
286.982	256.25
287.213	289.25
287.444	287.25
287.675	273.25
287.906	284.25
288.138	285.25
288.369	269.25
288.6	276.25
288.831	283.25
289.062	295.25
289.293	276.25
289.524	276.25
289.755	276.25
289.986	279.25
290.217	289.25
290.448	272.25
290.679	291.25
290.91	284.25
291.141	285.25
291.371	258.25
291.602	270.25
291.833	267.25
292.064	286.25
292.295	276.25
292.526	252.25
292.757	268.25
292.987	294.25
293.218	286.25
293.449	283.25
293.68	288.25
293.91	293.25
294.141	275.25
294.372	282.25
294.603	284.25
294.833	277.25
295.064	301.25
295.295	294.25
295.525	284.25
295.756	282.25
295.987	297.25
296.217	287.25
296.448	330.25
296.679	291.25
296.909	282.25
297.14	280.25
297.37	285.25
297.601	298.25
297.831	292.25
298.062	308.25
298.292	307.25
298.523	317.25
298.753	294.25
298.984	289.25
299.214	294.25
299.445	310.25
299.675	310.25
299.905	305.25
300.136	305.25
300.366	295.25
300.597	331.25
300.827	326.25
301.057	333.25
301.288	308.25
301.518	299.25
301.748	313.25
301.979	316.25
302.209	316.25
302.439	316.25
302.669	332.25
302.9	338.25
303.13	319.25
303.36	299.25
303.59	310.25
303.82	319.25
304.051	335.25
304.281	321.25
304.511	313.25
304.741	319.25
304.971	313.25
305.201	321.25
305.431	319.25
305.661	299.25
305.891	328.25
306.121	306.25
306.352	324.25
306.582	329.25
306.812	312.25
307.042	330.25
307.272	313.25
307.502	321.25
307.731	320.25
307.961	318.25
308.191	332.25
308.421	321.25
308.651	317.25
308.881	340.25
309.111	334.25
309.341	316.25
309.571	337.25
309.8	348.25
310.03	352.25
310.26	370.25
310.49	353.25
310.72	355.25
310.949	380.25
311.179	378.25
311.409	354.25
311.639	349.25
311.868	374.25
312.098	373.25
312.328	369.25
312.557	369.25
312.787	397.25
313.017	404.25
313.246	390.25
313.476	371.25
313.706	364.25
313.935	345.25
314.165	384.25
314.394	402.25
314.624	360.25
314.853	360.25
315.083	374.25
315.312	357.25
315.542	359.25
315.771	362.25
316.001	336.25
316.23	357.25
316.46	358.25
316.689	370.25
316.919	358.25
317.148	370.25
317.377	389.25
317.607	377.25
317.836	349.25
318.065	372.25
318.295	375.25
318.524	351.25
318.753	372.25
318.983	376.25
319.212	375.25
319.441	389.25
319.67	398.25
319.9	397.25
320.129	379.25
320.358	378.25
320.587	378.25
320.816	404.25
321.046	395.25
321.275	378.25
321.504	373.25
321.733	383.25
321.962	383.25
322.191	408.25
322.42	405.25
322.649	422.25
322.878	414.25
323.108	428.25
323.337	452.25
323.566	464.25
323.795	471.25
324.024	529.25
324.253	629.25
324.482	882.25
324.71	1384.25
324.939	2042.25
325.168	1740.25
325.397	895.25
325.626	619.25
325.855	504.25
326.084	476.25
326.313	472.25
326.542	471.25
326.77	512.25
326.999	612.25
327.228	805.25
327.457	1253.25
327.686	1528.25
327.914	993.25
328.143	676.25
328.372	566.25
328.6	533.25
328.829	508.25
329.058	533.25
329.287	532.25
329.515	512.25
329.744	465.25
329.972	477.25
330.201	489.25
330.43	537.25
330.658	547.25
330.887	566.25
331.115	548.25
331.344	490.25
331.572	468.25
331.801	455.25
332.03	483.25
332.258	454.25
332.486	441.25
332.715	444.25
332.943	456.25
333.172	438.25
333.4	461.25
333.629	468.25
333.857	484.25
334.085	488.25
334.314	511.25
334.542	532.25
334.771	538.25
334.999	488.25
335.227	475.25
335.455	467.25
335.684	447.25
335.912	443.25
336.14	444.25
336.369	448.25
336.597	454.25
336.825	452.25
337.053	448.25
337.281	432.25
337.51	421.25
337.738	447.25
337.966	440.25
338.194	440.25
338.422	441.25
338.65	436.25
338.878	423.25
339.106	422.25
339.334	419.25
339.562	415.25
339.79	413.25
340.018	423.25
340.246	423.25
340.474	453.25
340.702	444.25
340.93	407.25
341.158	436.25
341.386	428.25
341.614	417.25
341.842	423.25
342.07	430.25
342.298	423.25
342.526	429.25
342.754	416.25
342.981	404.25
343.209	406.25
343.437	421.25
343.665	406.25
343.893	425.25
344.12	454.25
344.348	429.25
344.576	446.25
344.804	434.25
345.031	435.25
345.259	447.25
345.487	435.25
345.714	427.25
345.942	421.25
346.17	414.25
346.397	427.25
346.625	409.25
346.853	418.25
347.08	412.25
347.308	448.25
347.535	414.25
347.763	422.25
347.99	420.25
348.218	412.25
348.445	429.25
348.673	414.25
348.9	390.25
349.128	404.25
349.355	412.25
349.583	401.25
349.81	397.25
350.037	380.25
350.265	392.25
350.492	398.25
350.72	393.25
350.947	423.25
351.174	408.25
351.402	420.25
351.629	425.25
351.856	412.25
352.083	405.25
352.311	416.25
352.538	433.25
352.765	416.25
352.992	413.25
353.22	406.25
353.447	421.25
353.674	410.25
353.901	400.25
354.128	365.25
354.355	410.25
354.583	393.25
354.81	370.25
355.037	384.25
355.264	381.25
355.491	400.25
355.718	388.25
355.945	358.25
356.172	386.25
356.399	399.25
356.626	401.25
356.853	393.25
357.08	385.25
357.307	388.25
357.534	395.25
357.761	387.25
357.988	393.25
358.215	391.25
358.441	391.25
358.668	379.25
358.895	390.25
359.122	395.25
359.349	420.25
359.576	405.25
359.802	410.25
360.029	453.25
360.256	448.25
360.483	439.25
360.709	407.25
360.936	405.25
361.163	404.25
361.39	441.25
361.616	416.25
361.843	412.25
362.07	387.25
362.296	419.25
362.523	411.25
362.749	414.25
362.976	435.25
363.203	412.25
363.429	385.25
363.656	395.25
363.882	405.25
364.109	396.25
364.335	400.25
364.562	396.25
364.788	398.25
365.015	406.25
365.241	383.25
365.468	405.25
365.694	418.25
365.92	395.25
366.147	402.25
366.373	420.25
366.599	402.25
366.826	389.25
367.052	403.25
367.278	395.25
367.505	397.25
367.731	403.25
367.957	392.25
368.184	432.25
368.41	405.25
368.636	413.25
368.862	421.25
369.089	409.25
369.315	410.25
369.541	391.25
369.767	378.25
369.993	391.25
370.219	401.25
370.445	416.25
370.672	413.25
370.898	405.25
371.124	416.25
371.35	409.25
371.576	428.25
371.802	414.25
372.028	401.25
372.254	390.25
372.48	413.25
372.706	402.25
372.932	398.25
373.158	399.25
373.384	424.25
373.61	405.25
373.835	406.25
374.061	417.25
374.287	429.25
374.513	429.25
374.739	405.25
374.965	429.25
375.191	435.25
375.416	414.25
375.642	430.25
375.868	402.25
376.094	406.25
376.319	408.25
376.545	416.25
376.771	406.25
376.997	390.25
377.222	409.25
377.448	406.25
377.674	445.25
377.899	410.25
378.125	397.25
378.35	414.25
378.576	402.25
378.802	422.25
379.027	422.25
379.253	405.25
379.478	410.25
379.704	417.25
379.929	403.25
380.155	427.25
380.38	414.25
380.606	423.25
380.831	394.25
381.057	410.25
381.282	407.25
381.507	436.25
381.733	438.25
381.958	424.25
382.184	402.25
382.409	441.25
382.634	419.25
382.86	415.25
383.085	438.25
383.31	432.25
383.535	438.25
383.761	422.25
383.986	450.25
384.211	468.25
384.436	440.25
384.662	433.25
384.887	451.25
385.112	433.25
385.337	447.25
385.562	440.25
385.787	434.25
386.013	470.25
386.238	455.25
386.463	458.25
386.688	451.25
386.913	445.25
387.138	461.25
387.363	461.25
387.588	459.25
387.813	439.25
388.038	443.25
388.263	451.25
388.488	473.25
388.713	454.25
388.938	452.25
389.163	458.25
389.387	490.25
389.612	458.25
389.837	470.25
390.062	473.25
390.287	445.25
390.512	437.25
390.736	450.25
390.961	467.25
391.186	434.25
391.411	478.25
391.636	480.25
391.86	466.25
392.085	489.25
392.31	493.25
392.534	472.25
392.759	469.25
392.984	478.25
393.208	457.25
393.433	459.25
393.658	451.25
393.882	483.25
394.107	499.25
394.331	465.25
394.556	491.25
394.78	480.25
395.005	484.25
395.229	475.25
395.454	454.25
395.678	482.25
395.903	501.25
396.127	498.25
396.352	521.25
396.576	507.25
396.801	498.25
397.025	495.25
397.249	486.25
397.474	503.25
397.698	518.25
397.922	510.25
398.147	518.25
398.371	509.25
398.595	526.25
398.82	542.25
399.044	559.25
399.268	534.25
399.492	650.25
399.717	643.25
399.941	642.25
400.165	661.25
400.389	667.25
400.613	605.25
400.837	560.25
401.062	580.25
401.286	539.25
401.51	550.25
401.734	545.25
401.958	567.25
402.182	567.25
402.406	571.25
402.63	576.25
402.854	561.25
403.078	555.25
403.302	549.25
403.526	557.25
403.75	563.25
403.974	570.25
404.198	564.25
404.422	597.25
404.645	594.25
404.869	572.25
405.093	611.25
405.317	638.25
405.541	692.25
405.765	632.25
405.988	599.25
406.212	618.25
406.436	625.25
406.66	629.25
406.883	620.25
407.107	653.25
407.331	677.25
407.555	749.25
407.778	724.25
408.002	698.25
408.226	651.25
408.449	667.25
408.673	625.25
408.896	642.25
409.12	694.25
409.344	660.25
409.567	593.25
409.791	590.25
410.014	580.25
410.238	592.25
410.461	593.25
410.685	571.25
410.908	601.25
411.132	610.25
411.355	681.25
411.578	632.25
411.802	602.25
412.025	582.25
412.249	589.25
412.472	596.25
412.695	619.25
412.919	615.25
413.142	597.25
413.365	563.25
413.589	556.25
413.812	547.25
414.035	571.25
414.258	568.25
414.482	534.25
414.705	537.25
414.928	547.25
415.151	545.25
415.374	532.25
415.597	550.25
415.821	562.25
416.044	544.25
416.267	544.25
416.49	516.25
416.713	547.25
416.936	552.25
417.159	538.25
417.382	554.25
417.605	549.25
417.828	518.25
418.051	568.25
418.274	580.25
418.497	521.25
418.72	552.25
418.943	518.25
419.166	571.25
419.389	570.25
419.611	577.25
419.834	579.25
420.057	594.25
420.28	573.25
420.503	542.25
420.726	576.25
420.948	573.25
421.171	605.25
421.394	637.25
421.617	594.25
421.839	578.25
422.062	564.25
422.285	578.25
422.507	626.25
422.73	696.25
422.953	656.25
423.175	609.25
423.398	576.25
423.621	600.25
423.843	588.25
424.066	604.25
424.288	582.25
424.511	624.25
424.733	648.25
424.956	740.25
425.178	691.25
425.401	717.25
425.623	715.25
425.846	632.25
426.068	606.25
426.291	584.25
426.513	600.25
426.735	594.25
426.958	638.25
427.18	699.25
427.402	842.25
427.625	920.25
427.847	796.25
428.069	717.25
428.292	640.25
428.514	587.25
428.736	555.25
428.958	540.25
429.181	550.25
429.403	557.25
429.625	569.25
429.847	574.25
430.069	633.25
430.292	651.25
430.514	598.25
430.736	542.25
430.958	531.25
431.18	513.25
431.402	535.25
431.624	517.25
431.846	512.25
432.068	521.25
432.29	528.25
432.512	510.25
432.734	542.25
432.956	536.25
433.178	552.25
433.4	533.25
433.622	542.25
433.844	529.25
434.066	532.25
434.287	518.25
434.509	534.25
434.731	529.25
434.953	546.25
435.175	573.25
435.397	590.25
435.618	582.25
435.84	606.25
436.062	719.25
436.284	787.25
436.505	665.25
436.727	608.25
436.949	570.25
437.17	565.25
437.392	550.25
437.614	554.25
437.835	596.25
438.057	654.25
438.278	778.25
438.5	767.25
438.721	850.25
438.943	788.25
439.165	646.25
439.386	598.25
439.608	586.25
439.829	593.25
440.05	590.25
440.272	674.25
440.493	624.25
440.715	591.25
440.936	562.25
441.158	532.25
441.379	563.25
441.6	587.25
441.822	593.25
442.043	642.25
442.264	721.25
442.486	776.25
442.707	642.25
442.928	602.25
443.149	636.25
443.371	645.25
443.592	651.25
443.813	735.25
444.034	832.25
444.255	675.25
444.476	649.25
444.698	616.25
444.919	600.25
445.14	701.25
445.361	636.25
445.582	655.25
445.803	697.25
446.024	793.25
446.245	781.25
446.466	700.25
446.687	626.25
446.908	576.25
447.129	552.25
447.35	548.25
447.571	560.25
447.792	522.25
448.013	537.25
448.234	572.25
448.455	606.25
448.675	710.25
448.896	816.25
449.117	690.25
449.338	652.25
449.559	776.25
449.779	876.25
450	683.25
450.221	576.25
450.442	538.25
450.662	537.25
450.883	540.25
451.104	568.25
451.324	544.25
451.545	532.25
451.766	504.25
451.986	498.25
452.207	485.25
452.428	484.25
452.648	496.25
452.869	473.25
453.089	522.25
453.31	532.25
453.53	514.25
453.751	498.25
453.971	486.25
454.192	519.25
454.412	514.25
454.633	483.25
454.853	472.25
455.073	496.25
455.294	494.25
455.514	559.25
455.734	548.25
455.955	496.25
456.175	476.25
456.395	476.25
456.616	469.25
456.836	460.25
457.056	491.25
457.276	443.25
457.497	478.25
457.717	476.25
457.937	464.25
458.157	485.25
458.377	497.25
458.598	521.25
458.818	565.25
459.038	617.25
459.258	636.25
459.478	557.25
459.698	556.25
459.918	529.25
460.138	549.25
460.358	549.25
460.578	567.25
460.798	568.25
461.018	560.25
461.238	565.25
461.458	529.25
461.678	558.25
461.898	556.25
462.118	587.25
462.338	581.25
462.558	577.25
462.777	579.25
462.997	633.25
463.217	624.25
463.437	634.25
463.657	597.25
463.876	631.25
464.096	621.25
464.316	594.25
464.536	593.25
464.755	611.25
464.975	597.25
465.195	629.25
465.414	655.25
465.634	620.25
465.854	572.25
466.073	555.25
466.293	522.25
466.512	536.25
466.732	504.25
466.951	518.25
467.171	513.25
467.391	510.25
467.61	544.25
467.829	514.25
468.049	523.25
468.268	538.25
468.488	505.25
468.707	492.25
468.927	524.25
469.146	488.25
469.365	493.25
469.585	507.25
469.804	506.25
470.023	521.25
470.243	526.25
470.462	535.25
470.681	536.25
470.901	526.25
471.12	539.25
471.339	525.25
471.558	509.25
471.777	525.25
471.997	512.25
472.216	528.25
472.435	558.25
472.654	550.25
472.873	503.25
473.092	493.25
473.311	507.25
473.53	520.25
473.749	531.25
473.968	537.25
474.187	650.25
474.406	653.25
474.625	567.25
474.844	542.25
475.063	515.25
475.282	501.25
475.501	512.25
475.72	527.25
475.939	531.25
476.158	522.25
476.377	548.25
476.596	511.25
476.814	534.25
477.033	524.25
477.252	560.25
477.471	526.25
477.69	568.25
477.908	546.25
478.127	578.25
478.346	564.25
478.564	577.25
478.783	570.25
479.002	599.25
479.22	601.25
479.439	602.25
479.658	635.25
479.876	602.25
480.095	613.25
480.313	655.25
480.532	660.25
480.751	656.25
480.969	639.25
481.188	708.25
481.406	733.25
481.624	635.25
481.843	638.25
482.061	612.25
482.28	600.25
482.498	626.25
482.717	622.25
482.935	601.25
483.153	614.25
483.372	586.25
483.59	605.25
483.808	581.25
484.027	612.25
484.245	590.25
484.463	637.25
484.681	629.25
484.9	635.25
485.118	636.25
485.336	641.25
485.554	622.25
485.772	642.25
485.99	644.25
486.209	637.25
486.427	622.25
486.645	642.25
486.863	663.25
487.081	630.25
487.299	645.25
487.517	644.25
487.735	631.25
487.953	632.25
488.171	654.25
488.389	655.25
488.607	664.25
488.825	636.25
489.043	642.25
489.261	651.25
489.479	653.25
489.696	654.25
489.914	657.25
490.132	673.25
490.35	663.25
490.568	696.25
490.786	663.25
491.003	679.25
491.221	680.25
491.439	728.25
491.657	707.25
491.874	736.25
492.092	726.25
492.31	723.25
492.527	729.25
492.745	741.25
492.963	721.25
493.18	739.25
493.398	743.25
493.615	738.25
493.833	756.25
494.05	761.25
494.268	749.25
494.485	707.25
494.703	743.25
494.92	739.25
495.138	736.25
495.355	752.25
495.573	758.25
495.79	768.25
496.008	755.25
496.225	782.25
496.442	749.25
496.66	737.25
496.877	764.25
497.094	753.25
497.312	784.25
497.529	809.25
497.746	811.25
497.963	821.25
498.181	854.25
498.398	863.25
498.615	860.25
498.832	913.25
499.049	946.25
499.267	961.25
499.484	996.25
499.701	1019.25
499.918	1057.25
500.135	1113.25
500.352	1194.25
500.569	1209.25
500.786	1211.25
501.003	1180.25
501.22	1127.25
501.437	1090.25
501.654	1032.25
501.871	1030.25
