Data from 1979.PennyLincolnUp.Lamp.En5.5.200Scan.071719.P1_HRD10591_16-17-31-864.txt Node
Date: Thu Jul 18 16:17:31 EDT 2019
User: cochatt
Spectrometer: HR+D1059
Trigger mode: 1
Integration Time (sec): 1.000000E-1
Scans to average: 1
Electric dark correction enabled: true
Nonlinearity correction enabled: false
Boxcar width: 0
XAxis mode: Wavelengths
Number of Pixels in Spectrum: 2048
>>>>>Begin Spectral Data<<<<<
223.165	-17.25
223.4	-17.25
223.635	-17.25
223.869	-20.25
224.104	-23.25
224.338	-30.25
224.573	-19.25
224.808	-8.25
225.042	-5.25
225.277	0.75
225.511	-7.25
225.746	0.75
225.98	0.75
226.215	10.75
226.449	31.75
226.683	20.75
226.918	32.75
227.152	32.75
227.387	27.75
227.621	37.75
227.856	27.75
228.09	46.75
228.324	56.75
228.559	52.75
228.793	58.75
229.027	80.75
229.262	90.75
229.496	90.75
229.73	101.75
229.964	133.75
230.199	111.75
230.433	81.75
230.667	97.75
230.901	103.75
231.136	86.75
231.37	102.75
231.604	97.75
231.838	108.75
232.072	106.75
232.306	108.75
232.541	118.75
232.775	120.75
233.009	108.75
233.243	115.75
233.477	99.75
233.711	111.75
233.945	110.75
234.179	109.75
234.413	98.75
234.647	112.75
234.881	103.75
235.115	104.75
235.349	118.75
235.583	108.75
235.817	118.75
236.051	114.75
236.285	106.75
236.519	111.75
236.753	115.75
236.987	128.75
237.221	137.75
237.455	178.75
237.689	156.75
237.922	107.75
238.156	114.75
238.39	115.75
238.624	113.75
238.858	120.75
239.091	124.75
239.325	91.75
239.559	109.75
239.793	122.75
240.027	119.75
240.26	128.75
240.494	138.75
240.728	123.75
240.961	127.75
241.195	135.75
241.429	116.75
241.662	115.75
241.896	127.75
242.13	114.75
242.363	112.75
242.597	114.75
242.83	116.75
243.064	123.75
243.298	123.75
243.531	118.75
243.765	142.75
243.998	141.75
244.232	124.75
244.465	147.75
244.699	121.75
244.932	135.75
245.166	140.75
245.399	142.75
245.633	122.75
245.866	127.75
246.099	122.75
246.333	133.75
246.566	129.75
246.8	138.75
247.033	142.75
247.266	135.75
247.5	144.75
247.733	157.75
247.966	151.75
248.2	154.75
248.433	160.75
248.666	153.75
248.899	161.75
249.133	162.75
249.366	161.75
249.599	154.75
249.832	155.75
250.066	160.75
250.299	144.75
250.532	175.75
250.765	180.75
250.998	172.75
251.231	183.75
251.465	177.75
251.698	170.75
251.931	151.75
252.164	167.75
252.397	171.75
252.63	186.75
252.863	162.75
253.096	170.75
253.329	184.75
253.562	196.75
253.795	188.75
254.028	185.75
254.261	184.75
254.494	175.75
254.727	199.75
254.96	199.75
255.193	187.75
255.426	181.75
255.659	178.75
255.892	185.75
256.124	187.75
256.357	197.75
256.59	169.75
256.823	175.75
257.056	180.75
257.289	188.75
257.521	163.75
257.754	153.75
257.987	158.75
258.22	183.75
258.452	180.75
258.685	167.75
258.918	186.75
259.151	180.75
259.383	192.75
259.616	179.75
259.849	179.75
260.081	187.75
260.314	205.75
260.547	195.75
260.779	179.75
261.012	182.75
261.244	190.75
261.477	199.75
261.71	183.75
261.942	180.75
262.175	195.75
262.407	171.75
262.64	167.75
262.872	177.75
263.105	188.75
263.337	193.75
263.57	196.75
263.802	201.75
264.035	171.75
264.267	186.75
264.499	186.75
264.732	187.75
264.964	184.75
265.197	168.75
265.429	179.75
265.661	185.75
265.894	177.75
266.126	175.75
266.358	185.75
266.591	181.75
266.823	181.75
267.055	203.75
267.287	199.75
267.52	188.75
267.752	193.75
267.984	202.75
268.216	188.75
268.448	194.75
268.681	201.75
268.913	204.75
269.145	199.75
269.377	212.75
269.609	220.75
269.841	217.75
270.073	210.75
270.306	238.75
270.538	244.75
270.77	257.75
271.002	231.75
271.234	226.75
271.466	230.75
271.698	230.75
271.93	238.75
272.162	250.75
272.394	227.75
272.626	234.75
272.858	228.75
273.09	239.75
273.322	211.75
273.553	223.75
273.785	208.75
274.017	203.75
274.249	222.75
274.481	231.75
274.713	221.75
274.945	232.75
275.176	230.75
275.408	225.75
275.64	230.75
275.872	218.75
276.104	217.75
276.335	214.75
276.567	217.75
276.799	228.75
277.031	231.75
277.262	256.75
277.494	252.75
277.726	258.75
277.957	243.75
278.189	220.75
278.421	219.75
278.652	228.75
278.884	214.75
279.115	211.75
279.347	236.75
279.579	229.75
279.81	224.75
280.042	230.75
280.273	228.75
280.505	216.75
280.736	225.75
280.968	244.75
281.199	251.75
281.431	229.75
281.662	220.75
281.894	241.75
282.125	223.75
282.356	219.75
282.588	244.75
282.819	247.75
283.051	242.75
283.282	239.75
283.513	238.75
283.745	243.75
283.976	235.75
284.207	244.75
284.439	273.75
284.67	241.75
284.901	256.75
285.132	241.75
285.364	228.75
285.595	243.75
285.826	240.75
286.057	254.75
286.288	241.75
286.52	244.75
286.751	259.75
286.982	253.75
287.213	246.75
287.444	241.75
287.675	245.75
287.906	253.75
288.138	247.75
288.369	261.75
288.6	260.75
288.831	251.75
289.062	255.75
289.293	258.75
289.524	252.75
289.755	255.75
289.986	264.75
290.217	247.75
290.448	241.75
290.679	235.75
290.91	262.75
291.141	247.75
291.371	253.75
291.602	247.75
291.833	260.75
292.064	250.75
292.295	257.75
292.526	264.75
292.757	243.75
292.987	247.75
293.218	244.75
293.449	259.75
293.68	246.75
293.91	250.75
294.141	254.75
294.372	233.75
294.603	267.75
294.833	270.75
295.064	269.75
295.295	265.75
295.525	267.75
295.756	271.75
295.987	264.75
296.217	277.75
296.448	283.75
296.679	259.75
296.909	267.75
297.14	282.75
297.37	255.75
297.601	275.75
297.831	272.75
298.062	262.75
298.292	278.75
298.523	288.75
298.753	282.75
298.984	257.75
299.214	257.75
299.445	286.75
299.675	281.75
299.905	284.75
300.136	264.75
300.366	264.75
300.597	268.75
300.827	278.75
301.057	274.75
301.288	293.75
301.518	275.75
301.748	279.75
301.979	293.75
302.209	299.75
302.439	292.75
302.669	285.75
302.9	294.75
303.13	294.75
303.36	298.75
303.59	280.75
303.82	284.75
304.051	308.75
304.281	285.75
304.511	296.75
304.741	305.75
304.971	284.75
305.201	284.75
305.431	279.75
305.661	286.75
305.891	279.75
306.121	288.75
306.352	297.75
306.582	293.75
306.812	296.75
307.042	286.75
307.272	275.75
307.502	284.75
307.731	292.75
307.961	295.75
308.191	298.75
308.421	292.75
308.651	283.75
308.881	292.75
309.111	284.75
309.341	310.75
309.571	313.75
309.8	291.75
310.03	299.75
310.26	318.75
310.49	314.75
310.72	323.75
310.949	319.75
311.179	303.75
311.409	295.75
311.639	316.75
311.868	319.75
312.098	323.75
312.328	334.75
312.557	319.75
312.787	316.75
313.017	323.75
313.246	315.75
313.476	328.75
313.706	313.75
313.935	333.75
314.165	321.75
314.394	324.75
314.624	319.75
314.853	323.75
315.083	324.75
315.312	312.75
315.542	334.75
315.771	326.75
316.001	301.75
316.23	308.75
316.46	332.75
316.689	321.75
316.919	319.75
317.148	311.75
317.377	335.75
317.607	327.75
317.836	321.75
318.065	333.75
318.295	335.75
318.524	321.75
318.753	316.75
318.983	330.75
319.212	332.75
319.441	323.75
319.67	322.75
319.9	321.75
320.129	317.75
320.358	336.75
320.587	320.75
320.816	329.75
321.046	344.75
321.275	347.75
321.504	331.75
321.733	318.75
321.962	327.75
322.191	344.75
322.42	344.75
322.649	340.75
322.878	360.75
323.108	362.75
323.337	372.75
323.566	379.75
323.795	385.75
324.024	393.75
324.253	467.75
324.482	620.75
324.71	911.75
324.939	1351.75
325.168	1165.75
325.397	579.75
325.626	411.75
325.855	397.75
326.084	387.75
326.313	375.75
326.542	377.75
326.77	404.75
326.999	450.75
327.228	571.75
327.457	843.75
327.686	1035.75
327.914	669.75
328.143	467.75
328.372	425.75
328.6	415.75
328.829	417.75
329.058	405.75
329.287	427.75
329.515	380.75
329.744	387.75
329.972	375.75
330.201	379.75
330.43	411.75
330.658	411.75
330.887	435.75
331.115	434.75
331.344	406.75
331.572	372.75
331.801	414.75
332.03	397.75
332.258	371.75
332.486	380.75
332.715	390.75
332.943	392.75
333.172	398.75
333.4	396.75
333.629	404.75
333.857	416.75
334.085	410.75
334.314	403.75
334.542	420.75
334.771	445.75
334.999	424.75
335.227	413.75
335.455	402.75
335.684	414.75
335.912	407.75
336.14	391.75
336.369	397.75
336.597	389.75
336.825	393.75
337.053	385.75
337.281	361.75
337.51	367.75
337.738	379.75
337.966	369.75
338.194	395.75
338.422	388.75
338.65	387.75
338.878	393.75
339.106	371.75
339.334	380.75
339.562	388.75
339.79	391.75
340.018	356.75
340.246	377.75
340.474	380.75
340.702	390.75
340.93	378.75
341.158	378.75
341.386	375.75
341.614	397.75
341.842	393.75
342.07	374.75
342.298	381.75
342.526	371.75
342.754	364.75
342.981	369.75
343.209	381.75
343.437	378.75
343.665	397.75
343.893	396.75
344.12	377.75
344.348	387.75
344.576	405.75
344.804	367.75
345.031	388.75
345.259	398.75
345.487	394.75
345.714	385.75
345.942	368.75
346.17	340.75
346.397	356.75
346.625	364.75
346.853	363.75
347.08	358.75
347.308	362.75
347.535	367.75
347.763	375.75
347.99	339.75
348.218	371.75
348.445	364.75
348.673	361.75
348.9	373.75
349.128	355.75
349.355	375.75
349.583	355.75
349.81	356.75
350.037	360.75
350.265	368.75
350.492	344.75
350.72	332.75
350.947	349.75
351.174	361.75
351.402	365.75
351.629	375.75
351.856	355.75
352.083	369.75
352.311	365.75
352.538	372.75
352.765	361.75
352.992	348.75
353.22	364.75
353.447	365.75
353.674	354.75
353.901	353.75
354.128	373.75
354.355	352.75
354.583	346.75
354.81	351.75
355.037	341.75
355.264	363.75
355.491	368.75
355.718	337.75
355.945	357.75
356.172	356.75
356.399	362.75
356.626	358.75
356.853	342.75
357.08	339.75
357.307	360.75
357.534	373.75
357.761	335.75
357.988	364.75
358.215	370.75
358.441	351.75
358.668	357.75
358.895	352.75
359.122	372.75
359.349	356.75
359.576	361.75
359.802	388.75
360.029	381.75
360.256	398.75
360.483	372.75
360.709	368.75
360.936	367.75
361.163	349.75
361.39	365.75
361.616	353.75
361.843	352.75
362.07	375.75
362.296	349.75
362.523	358.75
362.749	361.75
362.976	371.75
363.203	353.75
363.429	375.75
363.656	361.75
363.882	355.75
364.109	370.75
364.335	353.75
364.562	355.75
364.788	351.75
365.015	343.75
365.241	362.75
365.468	388.75
365.694	369.75
365.92	371.75
366.147	355.75
366.373	359.75
366.599	363.75
366.826	346.75
367.052	381.75
367.278	345.75
367.505	354.75
367.731	376.75
367.957	361.75
368.184	365.75
368.41	367.75
368.636	387.75
368.862	386.75
369.089	372.75
369.315	373.75
369.541	374.75
369.767	390.75
369.993	351.75
370.219	369.75
370.445	377.75
370.672	385.75
370.898	378.75
371.124	371.75
371.35	361.75
371.576	385.75
371.802	375.75
372.028	361.75
372.254	377.75
372.48	381.75
372.706	387.75
372.932	373.75
373.158	378.75
373.384	391.75
373.61	391.75
373.835	384.75
374.061	365.75
374.287	387.75
374.513	397.75
374.739	390.75
374.965	393.75
375.191	398.75
375.416	402.75
375.642	396.75
375.868	395.75
376.094	392.75
376.319	399.75
376.545	380.75
376.771	385.75
376.997	383.75
377.222	375.75
377.448	387.75
377.674	379.75
377.899	384.75
378.125	361.75
378.35	368.75
378.576	373.75
378.802	377.75
379.027	369.75
379.253	355.75
379.478	381.75
379.704	383.75
379.929	369.75
380.155	371.75
380.38	371.75
380.606	371.75
380.831	352.75
381.057	378.75
381.282	394.75
381.507	378.75
381.733	371.75
381.958	379.75
382.184	394.75
382.409	408.75
382.634	407.75
382.86	393.75
383.085	372.75
383.31	399.75
383.535	401.75
383.761	428.75
383.986	404.75
384.211	402.75
384.436	385.75
384.662	421.75
384.887	428.75
385.112	401.75
385.337	428.75
385.562	425.75
385.787	421.75
386.013	411.75
386.238	414.75
386.463	440.75
386.688	426.75
386.913	423.75
387.138	436.75
387.363	411.75
387.588	444.75
387.813	423.75
388.038	438.75
388.263	437.75
388.488	424.75
388.713	430.75
388.938	421.75
389.163	422.75
389.387	421.75
389.612	423.75
389.837	416.75
390.062	416.75
390.287	418.75
390.512	451.75
390.736	427.75
390.961	424.75
391.186	424.75
391.411	448.75
391.636	451.75
391.86	445.75
392.085	444.75
392.31	468.75
392.534	461.75
392.759	445.75
392.984	444.75
393.208	444.75
393.433	489.75
393.658	502.75
393.882	428.75
394.107	411.75
394.331	429.75
394.556	450.75
394.78	458.75
395.005	419.75
395.229	448.75
395.454	463.75
395.678	438.75
395.903	474.75
396.127	469.75
396.352	485.75
396.576	462.75
396.801	449.75
397.025	496.75
397.249	479.75
397.474	460.75
397.698	488.75
397.922	489.75
398.147	484.75
398.371	480.75
398.595	477.75
398.82	497.75
399.044	527.75
399.268	537.75
399.492	565.75
399.717	597.75
399.941	631.75
400.165	629.75
400.389	639.75
400.613	570.75
400.837	521.75
401.062	529.75
401.286	516.75
401.51	501.75
401.734	519.75
401.958	487.75
402.182	502.75
402.406	521.75
402.63	523.75
402.854	526.75
403.078	515.75
403.302	509.75
403.526	521.75
403.75	515.75
403.974	546.75
404.198	508.75
404.422	523.75
404.645	522.75
404.869	518.75
405.093	570.75
405.317	553.75
405.541	612.75
405.765	543.75
405.988	530.75
406.212	539.75
406.436	547.75
406.66	593.75
406.883	560.75
407.107	587.75
407.331	636.75
407.555	680.75
407.778	651.75
408.002	629.75
408.226	604.75
408.449	572.75
408.673	561.75
408.896	575.75
409.12	602.75
409.344	595.75
409.567	547.75
409.791	553.75
410.014	544.75
410.238	545.75
410.461	552.75
410.685	535.75
410.908	554.75
411.132	539.75
411.355	582.75
411.578	568.75
411.802	530.75
412.025	541.75
412.249	535.75
412.472	563.75
412.695	578.75
412.919	550.75
413.142	540.75
413.365	505.75
413.589	528.75
413.812	502.75
414.035	507.75
414.258	507.75
414.482	518.75
414.705	515.75
414.928	523.75
415.151	531.75
415.374	496.75
415.597	514.75
415.821	482.75
416.044	521.75
416.267	521.75
416.49	495.75
416.713	488.75
416.936	500.75
417.159	515.75
417.382	523.75
417.605	504.75
417.828	530.75
418.051	507.75
418.274	488.75
418.497	492.75
418.72	503.75
418.943	483.75
419.166	511.75
419.389	541.75
419.611	541.75
419.834	547.75
420.057	532.75
420.28	517.75
420.503	530.75
420.726	499.75
420.948	531.75
421.171	539.75
421.394	556.75
421.617	507.75
421.839	519.75
422.062	516.75
422.285	522.75
422.507	556.75
422.73	635.75
422.953	614.75
423.175	564.75
423.398	541.75
423.621	529.75
423.843	544.75
424.066	538.75
424.288	520.75
424.511	557.75
424.733	578.75
424.956	636.75
425.178	622.75
425.401	625.75
425.623	632.75
425.846	563.75
426.068	537.75
426.291	537.75
426.513	530.75
426.735	530.75
426.958	545.75
427.18	644.75
427.402	729.75
427.625	781.75
427.847	653.75
428.069	600.75
428.292	550.75
428.514	529.75
428.736	505.75
428.958	492.75
429.181	481.75
429.403	487.75
429.625	483.75
429.847	511.75
430.069	573.75
430.292	571.75
430.514	507.75
430.736	492.75
430.958	490.75
431.18	484.75
431.402	493.75
431.624	470.75
431.846	469.75
432.068	480.75
432.29	488.75
432.512	472.75
432.734	483.75
432.956	488.75
433.178	499.75
433.4	501.75
433.622	459.75
433.844	496.75
434.066	495.75
434.287	509.75
434.509	492.75
434.731	508.75
434.953	510.75
435.175	531.75
435.397	520.75
435.618	516.75
435.84	557.75
436.062	599.75
436.284	662.75
436.505	585.75
436.727	542.75
436.949	519.75
437.17	498.75
437.392	497.75
437.614	494.75
437.835	513.75
438.057	587.75
438.278	643.75
438.5	627.75
438.721	703.75
438.943	703.75
439.165	607.75
439.386	521.75
439.608	525.75
439.829	537.75
440.05	520.75
440.272	582.75
440.493	532.75
440.715	503.75
440.936	515.75
441.158	514.75
441.379	512.75
441.6	524.75
441.822	525.75
442.043	552.75
442.264	623.75
442.486	645.75
442.707	571.75
442.928	548.75
443.149	520.75
443.371	561.75
443.592	594.75
443.813	664.75
444.034	700.75
444.255	596.75
444.476	544.75
444.698	564.75
444.919	563.75
445.14	609.75
445.361	569.75
445.582	559.75
445.803	611.75
446.024	670.75
446.245	656.75
446.466	627.75
446.687	567.75
446.908	524.75
447.129	517.75
447.35	490.75
447.571	516.75
447.792	485.75
448.013	504.75
448.234	505.75
448.455	537.75
448.675	617.75
448.896	699.75
449.117	574.75
449.338	563.75
449.559	671.75
449.779	726.75
450	587.75
450.221	535.75
450.442	492.75
450.662	465.75
450.883	474.75
451.104	475.75
451.324	466.75
451.545	450.75
451.766	457.75
451.986	435.75
452.207	435.75
452.428	440.75
452.648	436.75
452.869	436.75
453.089	451.75
453.31	441.75
453.53	452.75
453.751	443.75
453.971	452.75
454.192	444.75
454.412	438.75
454.633	427.75
454.853	424.75
455.073	440.75
455.294	438.75
455.514	492.75
455.734	474.75
455.955	438.75
456.175	444.75
456.395	443.75
456.616	424.75
456.836	458.75
457.056	424.75
457.276	425.75
457.497	452.75
457.717	439.75
457.937	428.75
458.157	439.75
458.377	461.75
458.598	470.75
458.818	496.75
459.038	540.75
459.258	575.75
459.478	509.75
459.698	483.75
459.918	491.75
460.138	505.75
460.358	513.75
460.578	520.75
460.798	510.75
461.018	530.75
461.238	516.75
461.458	499.75
461.678	507.75
461.898	514.75
462.118	514.75
462.338	537.75
462.558	551.75
462.777	552.75
462.997	579.75
463.217	597.75
463.437	569.75
463.657	577.75
463.876	579.75
464.096	574.75
464.316	571.75
464.536	586.75
464.755	552.75
464.975	541.75
465.195	549.75
465.414	584.75
465.634	531.75
465.854	484.75
466.073	497.75
466.293	479.75
466.512	453.75
466.732	475.75
466.951	474.75
467.171	472.75
467.391	468.75
467.61	482.75
467.829	481.75
468.049	492.75
468.268	471.75
468.488	464.75
468.707	459.75
468.927	454.75
469.146	466.75
469.365	462.75
469.585	475.75
469.804	470.75
470.023	474.75
470.243	497.75
470.462	466.75
470.681	478.75
470.901	467.75
471.12	461.75
471.339	484.75
471.558	473.75
471.777	467.75
471.997	484.75
472.216	481.75
472.435	502.75
472.654	498.75
472.873	469.75
473.092	475.75
473.311	464.75
473.53	452.75
473.749	454.75
473.968	506.75
474.187	551.75
474.406	569.75
474.625	505.75
474.844	474.75
475.063	482.75
475.282	482.75
475.501	488.75
475.72	468.75
475.939	491.75
476.158	507.75
476.377	475.75
476.596	479.75
476.814	500.75
477.033	509.75
477.252	503.75
477.471	521.75
477.69	535.75
477.908	540.75
478.127	543.75
478.346	541.75
478.564	543.75
478.783	543.75
479.002	554.75
479.22	527.75
479.439	569.75
479.658	545.75
479.876	555.75
480.095	557.75
480.313	620.75
480.532	582.75
480.751	577.75
480.969	576.75
481.188	606.75
481.406	610.75
481.624	589.75
481.843	571.75
482.061	572.75
482.28	556.75
482.498	556.75
482.717	555.75
482.935	550.75
483.153	567.75
483.372	569.75
483.59	562.75
483.808	543.75
484.027	578.75
484.245	564.75
484.463	577.75
484.681	585.75
484.9	572.75
485.118	578.75
485.336	588.75
485.554	594.75
485.772	556.75
485.99	592.75
486.209	586.75
486.427	595.75
486.645	575.75
486.863	611.75
487.081	616.75
487.299	595.75
487.517	620.75
487.735	588.75
487.953	613.75
488.171	576.75
488.389	609.75
488.607	603.75
488.825	595.75
489.043	583.75
489.261	603.75
489.479	601.75
489.696	608.75
489.914	588.75
490.132	609.75
490.35	614.75
490.568	632.75
490.786	606.75
491.003	639.75
491.221	644.75
491.439	636.75
491.657	632.75
491.874	650.75
492.092	666.75
492.31	665.75
492.527	654.75
492.745	653.75
492.963	673.75
493.18	660.75
493.398	663.75
493.615	680.75
493.833	673.75
494.05	675.75
494.268	673.75
494.485	663.75
494.703	656.75
494.92	684.75
495.138	666.75
495.355	675.75
495.573	688.75
495.79	698.75
496.008	693.75
496.225	706.75
496.442	688.75
496.66	696.75
496.877	664.75
497.094	716.75
497.312	708.75
497.529	718.75
497.746	723.75
497.963	726.75
498.181	763.75
498.398	790.75
498.615	806.75
498.832	822.75
499.049	848.75
499.267	901.75
499.484	928.75
499.701	955.75
499.918	1012.75
500.135	1057.75
500.352	1138.75
500.569	1125.75
500.786	1149.75
501.003	1129.75
501.22	1079.75
501.437	1032.75
501.654	968.75
501.871	945.75
502.088	870.75
