Data from 1979.PennyLincolnUp.Lamp.En5.5.200Scan.071719.P1_HRD10591_16-18-11-863.txt Node
Date: Thu Jul 18 16:18:11 EDT 2019
User: cochatt
Spectrometer: HR+D1059
Trigger mode: 1
Integration Time (sec): 1.000000E-1
Scans to average: 1
Electric dark correction enabled: true
Nonlinearity correction enabled: false
Boxcar width: 0
XAxis mode: Wavelengths
Number of Pixels in Spectrum: 2048
>>>>>Begin Spectral Data<<<<<
223.165	-25.56
223.4	-25.56
223.635	-25.56
223.869	-22.56
224.104	-5.56
224.338	-9.56
224.573	-14.56
224.808	-5.56
225.042	-12.56
225.277	-2.56
225.511	0.44
225.746	-2.56
225.98	21.44
226.215	9.44
226.449	2.44
226.683	4.44
226.918	26.44
227.152	36.44
227.387	42.44
227.621	39.44
227.856	42.44
228.09	45.44
228.324	44.44
228.559	60.44
228.793	66.44
229.027	78.44
229.262	92.44
229.496	91.44
229.73	139.44
229.964	126.44
230.199	117.44
230.433	106.44
230.667	107.44
230.901	114.44
231.136	112.44
231.37	103.44
231.604	97.44
231.838	101.44
232.072	105.44
232.306	108.44
232.541	114.44
232.775	87.44
233.009	112.44
233.243	99.44
233.477	107.44
233.711	103.44
233.945	119.44
234.179	119.44
234.413	101.44
234.647	104.44
234.881	110.44
235.115	107.44
235.349	113.44
235.583	117.44
235.817	118.44
236.051	125.44
236.285	117.44
236.519	129.44
236.753	109.44
236.987	132.44
237.221	163.44
237.455	190.44
237.689	164.44
237.922	128.44
238.156	122.44
238.39	117.44
238.624	121.44
238.858	103.44
239.091	117.44
239.325	126.44
239.559	117.44
239.793	111.44
240.027	128.44
240.26	136.44
240.494	137.44
240.728	139.44
240.961	137.44
241.195	130.44
241.429	122.44
241.662	109.44
241.896	134.44
242.13	123.44
242.363	128.44
242.597	118.44
242.83	137.44
243.064	128.44
243.298	136.44
243.531	121.44
243.765	135.44
243.998	126.44
244.232	123.44
244.465	125.44
244.699	123.44
244.932	132.44
245.166	134.44
245.399	124.44
245.633	129.44
245.866	130.44
246.099	130.44
246.333	150.44
246.566	137.44
246.8	136.44
247.033	150.44
247.266	148.44
247.5	142.44
247.733	157.44
247.966	158.44
248.2	171.44
248.433	147.44
248.666	144.44
248.899	163.44
249.133	168.44
249.366	200.44
249.599	177.44
249.832	154.44
250.066	162.44
250.299	153.44
250.532	159.44
250.765	178.44
250.998	188.44
251.231	199.44
251.465	180.44
251.698	177.44
251.931	180.44
252.164	164.44
252.397	176.44
252.63	180.44
252.863	182.44
253.096	198.44
253.329	205.44
253.562	200.44
253.795	193.44
254.028	180.44
254.261	197.44
254.494	189.44
254.727	211.44
254.96	246.44
255.193	221.44
255.426	203.44
255.659	218.44
255.892	204.44
256.124	209.44
256.357	204.44
256.59	191.44
256.823	186.44
257.056	186.44
257.289	180.44
257.521	205.44
257.754	191.44
257.987	196.44
258.22	191.44
258.452	189.44
258.685	192.44
258.918	185.44
259.151	176.44
259.383	184.44
259.616	201.44
259.849	200.44
260.081	185.44
260.314	209.44
260.547	211.44
260.779	190.44
261.012	205.44
261.244	208.44
261.477	203.44
261.71	192.44
261.942	191.44
262.175	225.44
262.407	196.44
262.64	200.44
262.872	189.44
263.105	188.44
263.337	202.44
263.57	196.44
263.802	184.44
264.035	196.44
264.267	180.44
264.499	200.44
264.732	202.44
264.964	188.44
265.197	187.44
265.429	196.44
265.661	198.44
265.894	197.44
266.126	203.44
266.358	203.44
266.591	198.44
266.823	197.44
267.055	205.44
267.287	203.44
267.52	205.44
267.752	192.44
267.984	195.44
268.216	192.44
268.448	197.44
268.681	203.44
268.913	204.44
269.145	228.44
269.377	244.44
269.609	236.44
269.841	236.44
270.073	232.44
270.306	235.44
270.538	246.44
270.77	255.44
271.002	237.44
271.234	264.44
271.466	242.44
271.698	260.44
271.93	258.44
272.162	263.44
272.394	273.44
272.626	265.44
272.858	249.44
273.09	230.44
273.322	232.44
273.553	226.44
273.785	233.44
274.017	235.44
274.249	228.44
274.481	241.44
274.713	236.44
274.945	242.44
275.176	231.44
275.408	240.44
275.64	248.44
275.872	238.44
276.104	229.44
276.335	233.44
276.567	230.44
276.799	234.44
277.031	262.44
277.262	259.44
277.494	267.44
277.726	269.44
277.957	243.44
278.189	263.44
278.421	247.44
278.652	262.44
278.884	253.44
279.115	230.44
279.347	225.44
279.579	254.44
279.81	245.44
280.042	255.44
280.273	234.44
280.505	224.44
280.736	252.44
280.968	238.44
281.199	244.44
281.431	237.44
281.662	233.44
281.894	254.44
282.125	244.44
282.356	238.44
282.588	284.44
282.819	265.44
283.051	276.44
283.282	257.44
283.513	256.44
283.745	243.44
283.976	268.44
284.207	256.44
284.439	266.44
284.67	245.44
284.901	259.44
285.132	259.44
285.364	259.44
285.595	251.44
285.826	263.44
286.057	274.44
286.288	245.44
286.52	265.44
286.751	255.44
286.982	245.44
287.213	248.44
287.444	266.44
287.675	254.44
287.906	266.44
288.138	282.44
288.369	279.44
288.6	274.44
288.831	272.44
289.062	248.44
289.293	260.44
289.524	268.44
289.755	259.44
289.986	262.44
290.217	250.44
290.448	250.44
290.679	259.44
290.91	267.44
291.141	256.44
291.371	260.44
291.602	270.44
291.833	255.44
292.064	268.44
292.295	257.44
292.526	274.44
292.757	249.44
292.987	275.44
293.218	280.44
293.449	279.44
293.68	270.44
293.91	282.44
294.141	269.44
294.372	280.44
294.603	254.44
294.833	278.44
295.064	262.44
295.295	261.44
295.525	270.44
295.756	260.44
295.987	281.44
296.217	302.44
296.448	308.44
296.679	290.44
296.909	290.44
297.14	276.44
297.37	269.44
297.601	290.44
297.831	268.44
298.062	308.44
298.292	269.44
298.523	274.44
298.753	275.44
298.984	290.44
299.214	285.44
299.445	281.44
299.675	273.44
299.905	268.44
300.136	287.44
300.366	288.44
300.597	304.44
300.827	289.44
301.057	306.44
301.288	307.44
301.518	322.44
301.748	308.44
301.979	314.44
302.209	285.44
302.439	280.44
302.669	305.44
302.9	303.44
303.13	318.44
303.36	289.44
303.59	305.44
303.82	309.44
304.051	314.44
304.281	328.44
304.511	297.44
304.741	294.44
304.971	293.44
305.201	309.44
305.431	317.44
305.661	313.44
305.891	297.44
306.121	309.44
306.352	316.44
306.582	308.44
306.812	316.44
307.042	294.44
307.272	314.44
307.502	320.44
307.731	306.44
307.961	316.44
308.191	325.44
308.421	313.44
308.651	310.44
308.881	304.44
309.111	323.44
309.341	305.44
309.571	324.44
309.8	326.44
310.03	321.44
310.26	332.44
310.49	324.44
310.72	353.44
310.949	360.44
311.179	349.44
311.409	340.44
311.639	342.44
311.868	351.44
312.098	342.44
312.328	348.44
312.557	363.44
312.787	364.44
313.017	377.44
313.246	356.44
313.476	348.44
313.706	360.44
313.935	370.44
314.165	341.44
314.394	346.44
314.624	357.44
314.853	353.44
315.083	331.44
315.312	353.44
315.542	329.44
315.771	335.44
316.001	343.44
316.23	349.44
316.46	349.44
316.689	363.44
316.919	336.44
317.148	349.44
317.377	360.44
317.607	352.44
317.836	345.44
318.065	348.44
318.295	344.44
318.524	370.44
318.753	340.44
318.983	348.44
319.212	363.44
319.441	344.44
319.67	363.44
319.9	365.44
320.129	361.44
320.358	353.44
320.587	346.44
320.816	343.44
321.046	362.44
321.275	356.44
321.504	367.44
321.733	373.44
321.962	382.44
322.191	365.44
322.42	384.44
322.649	396.44
322.878	409.44
323.108	410.44
323.337	441.44
323.566	427.44
323.795	457.44
324.024	462.44
324.253	565.44
324.482	777.44
324.71	1213.44
324.939	1814.44
325.168	1555.44
325.397	808.44
325.626	546.44
325.855	489.44
326.084	451.44
326.313	436.44
326.542	455.44
326.77	476.44
326.999	570.44
327.228	729.44
327.457	1108.44
327.686	1404.44
327.914	910.44
328.143	617.44
328.372	529.44
328.6	496.44
328.829	486.44
329.058	506.44
329.287	504.44
329.515	463.44
329.744	457.44
329.972	443.44
330.201	475.44
330.43	481.44
330.658	501.44
330.887	538.44
331.115	494.44
331.344	461.44
331.572	431.44
331.801	456.44
332.03	434.44
332.258	433.44
332.486	418.44
332.715	432.44
332.943	426.44
333.172	429.44
333.4	435.44
333.629	461.44
333.857	446.44
334.085	461.44
334.314	465.44
334.542	473.44
334.771	484.44
334.999	475.44
335.227	437.44
335.455	433.44
335.684	423.44
335.912	429.44
336.14	432.44
336.369	432.44
336.597	415.44
336.825	404.44
337.053	429.44
337.281	425.44
337.51	408.44
337.738	426.44
337.966	414.44
338.194	419.44
338.422	434.44
338.65	414.44
338.878	418.44
339.106	413.44
339.334	406.44
339.562	416.44
339.79	407.44
340.018	398.44
340.246	390.44
340.474	396.44
340.702	413.44
340.93	403.44
341.158	397.44
341.386	398.44
341.614	405.44
341.842	388.44
342.07	406.44
342.298	385.44
342.526	420.44
342.754	402.44
342.981	384.44
343.209	395.44
343.437	363.44
343.665	384.44
343.893	425.44
344.12	438.44
344.348	435.44
344.576	425.44
344.804	420.44
345.031	429.44
345.259	414.44
345.487	410.44
345.714	405.44
345.942	391.44
346.17	402.44
346.397	386.44
346.625	396.44
346.853	389.44
347.08	387.44
347.308	392.44
347.535	406.44
347.763	414.44
347.99	410.44
348.218	394.44
348.445	389.44
348.673	392.44
348.9	376.44
349.128	381.44
349.355	369.44
349.583	399.44
349.81	386.44
350.037	384.44
350.265	384.44
350.492	393.44
350.72	377.44
350.947	375.44
351.174	405.44
351.402	429.44
351.629	405.44
351.856	404.44
352.083	406.44
352.311	411.44
352.538	392.44
352.765	414.44
352.992	404.44
353.22	402.44
353.447	393.44
353.674	386.44
353.901	387.44
354.128	375.44
354.355	373.44
354.583	378.44
354.81	384.44
355.037	382.44
355.264	381.44
355.491	355.44
355.718	363.44
355.945	380.44
356.172	372.44
356.399	376.44
356.626	360.44
356.853	364.44
357.08	384.44
357.307	384.44
357.534	390.44
357.761	376.44
357.988	382.44
358.215	379.44
358.441	374.44
358.668	373.44
358.895	371.44
359.122	375.44
359.349	383.44
359.576	394.44
359.802	408.44
360.029	444.44
360.256	450.44
360.483	418.44
360.709	396.44
360.936	401.44
361.163	384.44
361.39	397.44
361.616	401.44
361.843	387.44
362.07	394.44
362.296	412.44
362.523	390.44
362.749	400.44
362.976	388.44
363.203	391.44
363.429	389.44
363.656	397.44
363.882	381.44
364.109	376.44
364.335	379.44
364.562	387.44
364.788	394.44
365.015	382.44
365.241	376.44
365.468	394.44
365.694	385.44
365.92	397.44
366.147	388.44
366.373	391.44
366.599	388.44
366.826	364.44
367.052	382.44
367.278	386.44
367.505	385.44
367.731	382.44
367.957	380.44
368.184	404.44
368.41	395.44
368.636	392.44
368.862	401.44
369.089	395.44
369.315	376.44
369.541	383.44
369.767	384.44
369.993	407.44
370.219	388.44
370.445	406.44
370.672	378.44
370.898	384.44
371.124	378.44
371.35	389.44
371.576	369.44
371.802	401.44
372.028	380.44
372.254	382.44
372.48	404.44
372.706	394.44
372.932	390.44
373.158	411.44
373.384	396.44
373.61	410.44
373.835	393.44
374.061	403.44
374.287	411.44
374.513	384.44
374.739	401.44
374.965	416.44
375.191	402.44
375.416	380.44
375.642	401.44
375.868	413.44
376.094	387.44
376.319	397.44
376.545	396.44
376.771	408.44
376.997	398.44
377.222	398.44
377.448	391.44
377.674	392.44
377.899	379.44
378.125	377.44
378.35	387.44
378.576	406.44
378.802	381.44
379.027	379.44
379.253	379.44
379.478	388.44
379.704	395.44
379.929	398.44
380.155	382.44
380.38	420.44
380.606	381.44
380.831	416.44
381.057	403.44
381.282	393.44
381.507	394.44
381.733	419.44
381.958	387.44
382.184	398.44
382.409	411.44
382.634	402.44
382.86	398.44
383.085	416.44
383.31	418.44
383.535	406.44
383.761	406.44
383.986	410.44
384.211	444.44
384.436	413.44
384.662	434.44
384.887	437.44
385.112	424.44
385.337	440.44
385.562	436.44
385.787	425.44
386.013	446.44
386.238	442.44
386.463	455.44
386.688	425.44
386.913	457.44
387.138	443.44
387.363	432.44
387.588	459.44
387.813	454.44
388.038	425.44
388.263	430.44
388.488	429.44
388.713	423.44
388.938	432.44
389.163	437.44
389.387	457.44
389.612	452.44
389.837	442.44
390.062	440.44
390.287	429.44
390.512	445.44
390.736	443.44
390.961	469.44
391.186	455.44
391.411	464.44
391.636	483.44
391.86	464.44
392.085	457.44
392.31	478.44
392.534	476.44
392.759	457.44
392.984	458.44
393.208	474.44
393.433	470.44
393.658	464.44
393.882	455.44
394.107	452.44
394.331	460.44
394.556	452.44
394.78	454.44
395.005	448.44
395.229	451.44
395.454	472.44
395.678	495.44
395.903	505.44
396.127	476.44
396.352	476.44
396.576	474.44
396.801	472.44
397.025	501.44
397.249	495.44
397.474	467.44
397.698	493.44
397.922	478.44
398.147	492.44
398.371	496.44
398.595	505.44
398.82	521.44
399.044	533.44
399.268	547.44
399.492	596.44
399.717	604.44
399.941	613.44
400.165	656.44
400.389	643.44
400.613	560.44
400.837	560.44
401.062	537.44
401.286	540.44
401.51	528.44
401.734	521.44
401.958	538.44
402.182	538.44
402.406	522.44
402.63	533.44
402.854	517.44
403.078	541.44
403.302	548.44
403.526	558.44
403.75	556.44
403.974	537.44
404.198	564.44
404.422	544.44
404.645	566.44
404.869	574.44
405.093	575.44
405.317	617.44
405.541	644.44
405.765	592.44
405.988	572.44
406.212	592.44
406.436	582.44
406.66	594.44
406.883	572.44
407.107	589.44
407.331	630.44
407.555	696.44
407.778	709.44
408.002	646.44
408.226	591.44
408.449	616.44
408.673	594.44
408.896	620.44
409.12	638.44
409.344	622.44
409.567	590.44
409.791	553.44
410.014	561.44
410.238	572.44
410.461	558.44
410.685	573.44
410.908	577.44
411.132	586.44
411.355	607.44
411.578	592.44
411.802	536.44
412.025	547.44
412.249	570.44
412.472	566.44
412.695	572.44
412.919	588.44
413.142	554.44
413.365	539.44
413.589	556.44
413.812	527.44
414.035	542.44
414.258	545.44
414.482	532.44
414.705	524.44
414.928	539.44
415.151	526.44
415.374	538.44
415.597	537.44
415.821	537.44
416.044	530.44
416.267	515.44
416.49	507.44
416.713	534.44
416.936	522.44
417.159	505.44
417.382	527.44
417.605	518.44
417.828	555.44
418.051	542.44
418.274	537.44
418.497	534.44
418.72	552.44
418.943	531.44
419.166	545.44
419.389	566.44
419.611	587.44
419.834	568.44
420.057	545.44
420.28	542.44
420.503	526.44
420.726	520.44
420.948	537.44
421.171	581.44
421.394	577.44
421.617	539.44
421.839	526.44
422.062	549.44
422.285	542.44
422.507	589.44
422.73	664.44
422.953	613.44
423.175	591.44
423.398	568.44
423.621	562.44
423.843	582.44
424.066	572.44
424.288	566.44
424.511	601.44
424.733	648.44
424.956	736.44
425.178	699.44
425.401	660.44
425.623	689.44
425.846	602.44
426.068	568.44
426.291	554.44
426.513	556.44
426.735	557.44
426.958	595.44
427.18	700.44
427.402	789.44
427.625	886.44
427.847	753.44
428.069	654.44
428.292	601.44
428.514	544.44
428.736	529.44
428.958	553.44
429.181	529.44
429.403	516.44
429.625	536.44
429.847	553.44
430.069	594.44
430.292	632.44
430.514	538.44
430.736	525.44
430.958	518.44
431.18	492.44
431.402	514.44
431.624	491.44
431.846	514.44
432.068	498.44
432.29	516.44
432.512	516.44
432.734	530.44
432.956	490.44
433.178	521.44
433.4	530.44
433.622	507.44
433.844	530.44
434.066	488.44
434.287	518.44
434.509	515.44
434.731	516.44
434.953	514.44
435.175	544.44
435.397	571.44
435.618	566.44
435.84	611.44
436.062	680.44
436.284	730.44
436.505	602.44
436.727	561.44
436.949	566.44
437.17	534.44
437.392	536.44
437.614	525.44
437.835	567.44
438.057	648.44
438.278	747.44
438.5	731.44
438.721	800.44
438.943	776.44
439.165	610.44
439.386	586.44
439.608	576.44
439.829	569.44
440.05	570.44
440.272	611.44
440.493	610.44
440.715	527.44
440.936	542.44
441.158	537.44
441.379	545.44
441.6	565.44
441.822	572.44
442.043	576.44
442.264	668.44
442.486	710.44
442.707	611.44
442.928	594.44
443.149	594.44
443.371	626.44
443.592	626.44
443.813	743.44
444.034	758.44
444.255	649.44
444.476	597.44
444.698	576.44
444.919	562.44
445.14	724.44
445.361	665.44
445.582	644.44
445.803	658.44
446.024	742.44
446.245	744.44
446.466	679.44
446.687	606.44
446.908	562.44
447.129	524.44
447.35	523.44
447.571	497.44
447.792	508.44
448.013	519.44
448.234	497.44
448.455	554.44
448.675	667.44
448.896	770.44
449.117	670.44
449.338	629.44
449.559	728.44
449.779	824.44
450	651.44
450.221	562.44
450.442	525.44
450.662	502.44
450.883	520.44
451.104	523.44
451.324	496.44
451.545	494.44
451.766	498.44
451.986	466.44
452.207	469.44
452.428	456.44
452.648	469.44
452.869	465.44
453.089	484.44
453.31	482.44
453.53	465.44
453.751	460.44
453.971	467.44
454.192	486.44
454.412	468.44
454.633	475.44
454.853	473.44
455.073	465.44
455.294	471.44
455.514	550.44
455.734	522.44
455.955	475.44
456.175	460.44
456.395	442.44
456.616	432.44
456.836	454.44
457.056	434.44
457.276	446.44
457.497	460.44
457.717	432.44
457.937	464.44
458.157	469.44
458.377	474.44
458.598	462.44
458.818	519.44
459.038	605.44
459.258	604.44
459.478	541.44
459.698	506.44
459.918	507.44
460.138	523.44
460.358	539.44
460.578	520.44
460.798	547.44
461.018	544.44
461.238	538.44
461.458	539.44
461.678	534.44
461.898	544.44
462.118	549.44
462.338	558.44
462.558	557.44
462.777	574.44
462.997	570.44
463.217	591.44
463.437	609.44
463.657	586.44
463.876	568.44
464.096	577.44
464.316	590.44
464.536	578.44
464.755	552.44
464.975	579.44
465.195	612.44
465.414	630.44
465.634	561.44
465.854	564.44
466.073	521.44
466.293	493.44
466.512	481.44
466.732	496.44
466.951	494.44
467.171	496.44
467.391	510.44
467.61	496.44
467.829	532.44
468.049	505.44
468.268	506.44
468.488	490.44
468.707	496.44
468.927	468.44
469.146	467.44
469.365	487.44
469.585	480.44
469.804	502.44
470.023	514.44
470.243	506.44
470.462	484.44
470.681	512.44
470.901	510.44
471.12	493.44
471.339	489.44
471.558	477.44
471.777	499.44
471.997	490.44
472.216	509.44
472.435	524.44
472.654	502.44
472.873	486.44
473.092	487.44
473.311	491.44
473.53	488.44
473.749	502.44
473.968	517.44
474.187	599.44
474.406	651.44
474.625	540.44
474.844	510.44
475.063	480.44
475.282	504.44
475.501	535.44
475.72	513.44
475.939	510.44
476.158	504.44
476.377	475.44
476.596	487.44
476.814	532.44
477.033	536.44
477.252	540.44
477.471	553.44
477.69	547.44
477.908	528.44
478.127	568.44
478.346	540.44
478.564	561.44
478.783	576.44
479.002	580.44
479.22	568.44
479.439	578.44
479.658	593.44
479.876	596.44
480.095	589.44
480.313	640.44
480.532	610.44
480.751	608.44
480.969	622.44
481.188	646.44
481.406	693.44
481.624	617.44
481.843	570.44
482.061	580.44
482.28	608.44
482.498	578.44
482.717	576.44
482.935	578.44
483.153	585.44
483.372	572.44
483.59	577.44
483.808	558.44
484.027	581.44
484.245	586.44
484.463	600.44
484.681	616.44
484.9	613.44
485.118	588.44
485.336	588.44
485.554	597.44
485.772	596.44
485.99	599.44
486.209	619.44
486.427	595.44
486.645	601.44
486.863	620.44
487.081	625.44
487.299	601.44
487.517	601.44
487.735	592.44
487.953	619.44
488.171	605.44
488.389	608.44
488.607	640.44
488.825	615.44
489.043	608.44
489.261	614.44
489.479	612.44
489.696	603.44
489.914	614.44
490.132	648.44
490.35	640.44
490.568	652.44
490.786	634.44
491.003	644.44
491.221	661.44
491.439	669.44
491.657	674.44
491.874	678.44
492.092	704.44
492.31	701.44
492.527	692.44
492.745	701.44
492.963	696.44
493.18	696.44
493.398	708.44
493.615	713.44
493.833	696.44
494.05	720.44
494.268	713.44
494.485	716.44
494.703	728.44
494.92	721.44
495.138	715.44
495.355	701.44
495.573	704.44
495.79	682.44
496.008	741.44
496.225	720.44
496.442	727.44
496.66	738.44
496.877	731.44
497.094	764.44
497.312	742.44
497.529	752.44
497.746	777.44
497.963	791.44
498.181	828.44
498.398	781.44
498.615	854.44
498.832	886.44
499.049	905.44
499.267	896.44
499.484	926.44
499.701	977.44
499.918	1020.44
500.135	1068.44
500.352	1119.44
500.569	1166.44
500.786	1183.44
501.003	1138.44
501.22	1076.44
501.437	1048.44
501.654	1027.44
501.871	1011.44
