Data from 1979.PennyLincolnUp.Lamp.En5.5.200Scan.071719.P1_HRD10591_16-19-31-863.txt Node
Date: Thu Jul 18 16:19:31 EDT 2019
User: cochatt
Spectrometer: HR+D1059
Trigger mode: 1
Integration Time (sec): 1.000000E-1
Scans to average: 1
Electric dark correction enabled: true
Nonlinearity correction enabled: false
Boxcar width: 0
XAxis mode: Wavelengths
Number of Pixels in Spectrum: 2048
>>>>>Begin Spectral Data<<<<<
223.165	-15.88
223.4	-15.88
223.635	-15.88
223.869	-16.88
224.104	-23.88
224.338	-13.88
224.573	-9.88
224.808	-6.88
225.042	-3.88
225.277	-3.88
225.511	-6.88
225.746	-5.88
225.98	21.12
226.215	10.12
226.449	12.12
226.683	32.12
226.918	12.12
227.152	20.12
227.387	31.12
227.621	42.12
227.856	41.12
228.09	44.12
228.324	64.12
228.559	43.12
228.793	78.12
229.027	98.12
229.262	101.12
229.496	124.12
229.73	124.12
229.964	141.12
230.199	121.12
230.433	105.12
230.667	115.12
230.901	120.12
231.136	120.12
231.37	113.12
231.604	107.12
231.838	124.12
232.072	124.12
232.306	109.12
232.541	110.12
232.775	115.12
233.009	116.12
233.243	114.12
233.477	109.12
233.711	116.12
233.945	106.12
234.179	122.12
234.413	121.12
234.647	98.12
234.881	118.12
235.115	113.12
235.349	126.12
235.583	117.12
235.817	134.12
236.051	123.12
236.285	134.12
236.519	120.12
236.753	126.12
236.987	148.12
237.221	171.12
237.455	229.12
237.689	172.12
237.922	162.12
238.156	137.12
238.39	126.12
238.624	119.12
238.858	135.12
239.091	135.12
239.325	112.12
239.559	126.12
239.793	128.12
240.027	122.12
240.26	148.12
240.494	161.12
240.728	152.12
240.961	138.12
241.195	148.12
241.429	130.12
241.662	131.12
241.896	140.12
242.13	140.12
242.363	138.12
242.597	144.12
242.83	128.12
243.064	146.12
243.298	133.12
243.531	138.12
243.765	139.12
243.998	146.12
244.232	128.12
244.465	125.12
244.699	154.12
244.932	157.12
245.166	134.12
245.399	159.12
245.633	146.12
245.866	147.12
246.099	156.12
246.333	143.12
246.566	156.12
246.8	152.12
247.033	145.12
247.266	157.12
247.5	154.12
247.733	177.12
247.966	174.12
248.2	170.12
248.433	182.12
248.666	151.12
248.899	177.12
249.133	181.12
249.366	195.12
249.599	198.12
249.832	188.12
250.066	180.12
250.299	185.12
250.532	193.12
250.765	188.12
250.998	206.12
251.231	210.12
251.465	218.12
251.698	193.12
251.931	193.12
252.164	193.12
252.397	184.12
252.63	200.12
252.863	184.12
253.096	199.12
253.329	222.12
253.562	226.12
253.795	206.12
254.028	209.12
254.261	200.12
254.494	218.12
254.727	233.12
254.96	247.12
255.193	237.12
255.426	212.12
255.659	219.12
255.892	222.12
256.124	216.12
256.357	234.12
256.59	207.12
256.823	198.12
257.056	208.12
257.289	201.12
257.521	228.12
257.754	201.12
257.987	207.12
258.22	227.12
258.452	197.12
258.685	188.12
258.918	206.12
259.151	217.12
259.383	196.12
259.616	208.12
259.849	216.12
260.081	225.12
260.314	232.12
260.547	234.12
260.779	240.12
261.012	214.12
261.244	218.12
261.477	209.12
261.71	204.12
261.942	214.12
262.175	222.12
262.407	230.12
262.64	214.12
262.872	216.12
263.105	197.12
263.337	203.12
263.57	204.12
263.802	190.12
264.035	191.12
264.267	201.12
264.499	217.12
264.732	209.12
264.964	211.12
265.197	225.12
265.429	224.12
265.661	226.12
265.894	228.12
266.126	202.12
266.358	237.12
266.591	198.12
266.823	212.12
267.055	222.12
267.287	232.12
267.52	235.12
267.752	220.12
267.984	221.12
268.216	230.12
268.448	228.12
268.681	222.12
268.913	230.12
269.145	265.12
269.377	257.12
269.609	251.12
269.841	250.12
270.073	264.12
270.306	264.12
270.538	299.12
270.77	305.12
271.002	284.12
271.234	269.12
271.466	289.12
271.698	298.12
271.93	285.12
272.162	292.12
272.394	291.12
272.626	287.12
272.858	290.12
273.09	257.12
273.322	260.12
273.553	261.12
273.785	263.12
274.017	241.12
274.249	260.12
274.481	266.12
274.713	267.12
274.945	270.12
275.176	254.12
275.408	248.12
275.64	261.12
275.872	250.12
276.104	249.12
276.335	269.12
276.567	248.12
276.799	264.12
277.031	289.12
277.262	296.12
277.494	298.12
277.726	295.12
277.957	277.12
278.189	274.12
278.421	270.12
278.652	264.12
278.884	273.12
279.115	260.12
279.347	278.12
279.579	270.12
279.81	273.12
280.042	273.12
280.273	266.12
280.505	267.12
280.736	263.12
280.968	261.12
281.199	265.12
281.431	279.12
281.662	274.12
281.894	263.12
282.125	280.12
282.356	309.12
282.588	287.12
282.819	300.12
283.051	284.12
283.282	276.12
283.513	290.12
283.745	279.12
283.976	276.12
284.207	269.12
284.439	276.12
284.67	269.12
284.901	274.12
285.132	293.12
285.364	272.12
285.595	260.12
285.826	253.12
286.057	267.12
286.288	268.12
286.52	280.12
286.751	282.12
286.982	271.12
287.213	288.12
287.444	280.12
287.675	286.12
287.906	296.12
288.138	308.12
288.369	282.12
288.6	285.12
288.831	295.12
289.062	274.12
289.293	284.12
289.524	294.12
289.755	291.12
289.986	273.12
290.217	288.12
290.448	278.12
290.679	286.12
290.91	297.12
291.141	291.12
291.371	290.12
291.602	296.12
291.833	288.12
292.064	294.12
292.295	287.12
292.526	299.12
292.757	309.12
292.987	272.12
293.218	280.12
293.449	276.12
293.68	276.12
293.91	304.12
294.141	283.12
294.372	264.12
294.603	296.12
294.833	279.12
295.064	295.12
295.295	284.12
295.525	287.12
295.756	306.12
295.987	312.12
296.217	335.12
296.448	329.12
296.679	306.12
296.909	299.12
297.14	323.12
297.37	309.12
297.601	310.12
297.831	308.12
298.062	314.12
298.292	308.12
298.523	300.12
298.753	310.12
298.984	285.12
299.214	306.12
299.445	308.12
299.675	312.12
299.905	315.12
300.136	311.12
300.366	311.12
300.597	311.12
300.827	332.12
301.057	342.12
301.288	334.12
301.518	316.12
301.748	326.12
301.979	343.12
302.209	330.12
302.439	354.12
302.669	340.12
302.9	309.12
303.13	349.12
303.36	334.12
303.59	335.12
303.82	339.12
304.051	340.12
304.281	348.12
304.511	339.12
304.741	324.12
304.971	337.12
305.201	348.12
305.431	320.12
305.661	319.12
305.891	338.12
306.121	312.12
306.352	334.12
306.582	325.12
306.812	358.12
307.042	345.12
307.272	342.12
307.502	340.12
307.731	319.12
307.961	323.12
308.191	324.12
308.421	342.12
308.651	347.12
308.881	358.12
309.111	353.12
309.341	352.12
309.571	360.12
309.8	356.12
310.03	355.12
310.26	376.12
310.49	384.12
310.72	360.12
310.949	378.12
311.179	407.12
311.409	367.12
311.639	371.12
311.868	369.12
312.098	385.12
312.328	377.12
312.557	390.12
312.787	385.12
313.017	407.12
313.246	388.12
313.476	377.12
313.706	376.12
313.935	378.12
314.165	384.12
314.394	397.12
314.624	409.12
314.853	378.12
315.083	388.12
315.312	382.12
315.542	377.12
315.771	386.12
316.001	361.12
316.23	363.12
316.46	375.12
316.689	376.12
316.919	383.12
317.148	379.12
317.377	376.12
317.607	382.12
317.836	385.12
318.065	393.12
318.295	374.12
318.524	385.12
318.753	374.12
318.983	382.12
319.212	396.12
319.441	390.12
319.67	381.12
319.9	396.12
320.129	393.12
320.358	399.12
320.587	372.12
320.816	379.12
321.046	373.12
321.275	389.12
321.504	409.12
321.733	408.12
321.962	396.12
322.191	416.12
322.42	438.12
322.649	424.12
322.878	425.12
323.108	439.12
323.337	474.12
323.566	488.12
323.795	512.12
324.024	534.12
324.253	651.12
324.482	916.12
324.71	1420.12
324.939	2169.12
325.168	1853.12
325.397	906.12
325.626	615.12
325.855	547.12
326.084	509.12
326.313	516.12
326.542	500.12
326.77	543.12
326.999	628.12
327.228	838.12
327.457	1321.12
327.686	1641.12
327.914	1047.12
328.143	667.12
328.372	593.12
328.6	556.12
328.829	537.12
329.058	565.12
329.287	583.12
329.515	540.12
329.744	500.12
329.972	482.12
330.201	519.12
330.43	548.12
330.658	576.12
330.887	590.12
331.115	583.12
331.344	540.12
331.572	496.12
331.801	492.12
332.03	492.12
332.258	485.12
332.486	478.12
332.715	469.12
332.943	486.12
333.172	478.12
333.4	484.12
333.629	482.12
333.857	483.12
334.085	479.12
334.314	492.12
334.542	525.12
334.771	560.12
334.999	524.12
335.227	494.12
335.455	481.12
335.684	471.12
335.912	454.12
336.14	455.12
336.369	460.12
336.597	460.12
336.825	478.12
337.053	460.12
337.281	436.12
337.51	427.12
337.738	452.12
337.966	441.12
338.194	461.12
338.422	438.12
338.65	467.12
338.878	441.12
339.106	454.12
339.334	434.12
339.562	429.12
339.79	427.12
340.018	443.12
340.246	443.12
340.474	453.12
340.702	452.12
340.93	441.12
341.158	429.12
341.386	442.12
341.614	434.12
341.842	426.12
342.07	428.12
342.298	428.12
342.526	441.12
342.754	440.12
342.981	422.12
343.209	435.12
343.437	457.12
343.665	450.12
343.893	451.12
344.12	479.12
344.348	466.12
344.576	475.12
344.804	470.12
345.031	474.12
345.259	461.12
345.487	442.12
345.714	442.12
345.942	453.12
346.17	436.12
346.397	446.12
346.625	451.12
346.853	426.12
347.08	424.12
347.308	441.12
347.535	428.12
347.763	440.12
347.99	445.12
348.218	446.12
348.445	446.12
348.673	432.12
348.9	438.12
349.128	442.12
349.355	418.12
349.583	423.12
349.81	419.12
350.037	420.12
350.265	408.12
350.492	414.12
350.72	429.12
350.947	420.12
351.174	413.12
351.402	442.12
351.629	421.12
351.856	425.12
352.083	460.12
352.311	432.12
352.538	449.12
352.765	452.12
352.992	446.12
353.22	414.12
353.447	442.12
353.674	425.12
353.901	413.12
354.128	417.12
354.355	422.12
354.583	399.12
354.81	406.12
355.037	416.12
355.264	394.12
355.491	412.12
355.718	405.12
355.945	414.12
356.172	398.12
356.399	424.12
356.626	412.12
356.853	401.12
357.08	417.12
357.307	410.12
357.534	405.12
357.761	398.12
357.988	404.12
358.215	406.12
358.441	425.12
358.668	399.12
358.895	416.12
359.122	424.12
359.349	422.12
359.576	432.12
359.802	437.12
360.029	460.12
360.256	475.12
360.483	467.12
360.709	423.12
360.936	411.12
361.163	444.12
361.39	436.12
361.616	451.12
361.843	432.12
362.07	440.12
362.296	446.12
362.523	442.12
362.749	429.12
362.976	430.12
363.203	409.12
363.429	421.12
363.656	425.12
363.882	440.12
364.109	419.12
364.335	416.12
364.562	427.12
364.788	408.12
365.015	416.12
365.241	410.12
365.468	401.12
365.694	430.12
365.92	440.12
366.147	410.12
366.373	418.12
366.599	413.12
366.826	417.12
367.052	417.12
367.278	432.12
367.505	425.12
367.731	428.12
367.957	425.12
368.184	422.12
368.41	415.12
368.636	422.12
368.862	410.12
369.089	423.12
369.315	436.12
369.541	428.12
369.767	449.12
369.993	429.12
370.219	421.12
370.445	411.12
370.672	413.12
370.898	430.12
371.124	406.12
371.35	438.12
371.576	421.12
371.802	427.12
372.028	413.12
372.254	435.12
372.48	425.12
372.706	428.12
372.932	426.12
373.158	426.12
373.384	432.12
373.61	432.12
373.835	444.12
374.061	414.12
374.287	427.12
374.513	445.12
374.739	441.12
374.965	438.12
375.191	450.12
375.416	431.12
375.642	427.12
375.868	446.12
376.094	442.12
376.319	435.12
376.545	421.12
376.771	449.12
376.997	416.12
377.222	424.12
377.448	428.12
377.674	426.12
377.899	425.12
378.125	415.12
378.35	423.12
378.576	444.12
378.802	427.12
379.027	424.12
379.253	429.12
379.478	432.12
379.704	418.12
379.929	418.12
380.155	423.12
380.38	410.12
380.606	427.12
380.831	423.12
381.057	436.12
381.282	418.12
381.507	417.12
381.733	436.12
381.958	442.12
382.184	424.12
382.409	450.12
382.634	458.12
382.86	448.12
383.085	452.12
383.31	460.12
383.535	440.12
383.761	451.12
383.986	444.12
384.211	437.12
384.436	459.12
384.662	474.12
384.887	468.12
385.112	460.12
385.337	479.12
385.562	457.12
385.787	462.12
386.013	483.12
386.238	477.12
386.463	501.12
386.688	467.12
386.913	487.12
387.138	484.12
387.363	467.12
387.588	469.12
387.813	469.12
388.038	476.12
388.263	480.12
388.488	464.12
388.713	484.12
388.938	500.12
389.163	500.12
389.387	486.12
389.612	475.12
389.837	464.12
390.062	464.12
390.287	469.12
390.512	479.12
390.736	485.12
390.961	477.12
391.186	469.12
391.411	502.12
391.636	505.12
391.86	508.12
392.085	497.12
392.31	524.12
392.534	513.12
392.759	493.12
392.984	476.12
393.208	510.12
393.433	476.12
393.658	496.12
393.882	482.12
394.107	482.12
394.331	485.12
394.556	497.12
394.78	485.12
395.005	498.12
395.229	514.12
395.454	512.12
395.678	515.12
395.903	532.12
396.127	536.12
396.352	533.12
396.576	514.12
396.801	530.12
397.025	540.12
397.249	524.12
397.474	528.12
397.698	527.12
397.922	546.12
398.147	563.12
398.371	558.12
398.595	560.12
398.82	553.12
399.044	562.12
399.268	594.12
399.492	631.12
399.717	682.12
399.941	700.12
400.165	694.12
400.389	727.12
400.613	645.12
400.837	609.12
401.062	595.12
401.286	575.12
401.51	570.12
401.734	560.12
401.958	558.12
402.182	573.12
402.406	595.12
402.63	578.12
402.854	591.12
403.078	585.12
403.302	594.12
403.526	627.12
403.75	618.12
403.974	610.12
404.198	608.12
404.422	610.12
404.645	590.12
404.869	632.12
405.093	662.12
405.317	671.12
405.541	713.12
405.765	667.12
405.988	623.12
406.212	637.12
406.436	668.12
406.66	683.12
406.883	652.12
407.107	677.12
407.331	727.12
407.555	783.12
407.778	766.12
408.002	723.12
408.226	667.12
408.449	647.12
408.673	656.12
408.896	681.12
409.12	720.12
409.344	704.12
409.567	634.12
409.791	601.12
410.014	609.12
410.238	632.12
410.461	621.12
410.685	612.12
410.908	618.12
411.132	640.12
411.355	687.12
411.578	650.12
411.802	597.12
412.025	604.12
412.249	599.12
412.472	629.12
412.695	668.12
412.919	636.12
413.142	615.12
413.365	598.12
413.589	585.12
413.812	585.12
414.035	601.12
414.258	575.12
414.482	572.12
414.705	572.12
414.928	576.12
415.151	556.12
415.374	558.12
415.597	555.12
415.821	570.12
416.044	564.12
416.267	574.12
416.49	556.12
416.713	557.12
416.936	584.12
417.159	554.12
417.382	569.12
417.605	558.12
417.828	591.12
418.051	612.12
418.274	578.12
418.497	570.12
418.72	570.12
418.943	571.12
419.166	586.12
419.389	617.12
419.611	620.12
419.834	606.12
420.057	610.12
420.28	620.12
420.503	593.12
420.726	595.12
420.948	582.12
421.171	659.12
421.394	679.12
421.617	617.12
421.839	587.12
422.062	600.12
422.285	598.12
422.507	646.12
422.73	754.12
422.953	697.12
423.175	628.12
423.398	599.12
423.621	600.12
423.843	608.12
424.066	631.12
424.288	638.12
424.511	655.12
424.733	702.12
424.956	770.12
425.178	760.12
425.401	740.12
425.623	772.12
425.846	653.12
426.068	630.12
426.291	615.12
426.513	610.12
426.735	626.12
426.958	647.12
427.18	753.12
427.402	869.12
427.625	960.12
427.847	865.12
428.069	736.12
428.292	682.12
428.514	618.12
428.736	598.12
428.958	585.12
429.181	579.12
429.403	560.12
429.625	582.12
429.847	624.12
430.069	663.12
430.292	669.12
430.514	601.12
430.736	570.12
430.958	577.12
431.18	562.12
431.402	560.12
431.624	552.12
431.846	547.12
432.068	534.12
432.29	566.12
432.512	546.12
432.734	551.12
432.956	570.12
433.178	589.12
433.4	583.12
433.622	558.12
433.844	548.12
434.066	543.12
434.287	565.12
434.509	576.12
434.731	580.12
434.953	598.12
435.175	599.12
435.397	610.12
435.618	612.12
435.84	654.12
436.062	754.12
436.284	829.12
436.505	702.12
436.727	632.12
436.949	605.12
437.17	566.12
437.392	586.12
437.614	565.12
437.835	606.12
438.057	700.12
438.278	814.12
438.5	810.12
438.721	900.12
438.943	839.12
439.165	698.12
439.386	615.12
439.608	636.12
439.829	608.12
440.05	648.12
440.272	664.12
440.493	644.12
440.715	605.12
440.936	577.12
441.158	588.12
441.379	603.12
441.6	625.12
441.822	631.12
442.043	662.12
442.264	743.12
442.486	802.12
442.707	680.12
442.928	648.12
443.149	673.12
443.371	670.12
443.592	697.12
443.813	800.12
444.034	864.12
444.255	716.12
444.476	669.12
444.698	671.12
444.919	666.12
445.14	747.12
445.361	696.12
445.582	674.12
445.803	752.12
446.024	857.12
446.245	839.12
446.466	756.12
446.687	651.12
446.908	628.12
447.129	580.12
447.35	559.12
447.571	548.12
447.792	569.12
448.013	568.12
448.234	592.12
448.455	633.12
448.675	730.12
448.896	864.12
449.117	720.12
449.338	680.12
449.559	816.12
449.779	900.12
450	733.12
450.221	613.12
450.442	571.12
450.662	546.12
450.883	562.12
451.104	576.12
451.324	559.12
451.545	557.12
451.766	522.12
451.986	542.12
452.207	524.12
452.428	518.12
452.648	518.12
452.869	516.12
453.089	522.12
453.31	541.12
453.53	532.12
453.751	517.12
453.971	520.12
454.192	536.12
454.412	525.12
454.633	508.12
454.853	506.12
455.073	506.12
455.294	535.12
455.514	581.12
455.734	568.12
455.955	494.12
456.175	501.12
456.395	496.12
456.616	476.12
456.836	484.12
457.056	499.12
457.276	476.12
457.497	498.12
457.717	489.12
457.937	466.12
458.157	509.12
458.377	510.12
458.598	524.12
458.818	573.12
459.038	659.12
459.258	664.12
459.478	577.12
459.698	564.12
459.918	547.12
460.138	548.12
460.358	572.12
460.578	577.12
460.798	571.12
461.018	608.12
461.238	572.12
461.458	573.12
461.678	569.12
461.898	578.12
462.118	560.12
462.338	598.12
462.558	598.12
462.777	606.12
462.997	640.12
463.217	672.12
463.437	665.12
463.657	646.12
463.876	629.12
464.096	643.12
464.316	615.12
464.536	632.12
464.755	628.12
464.975	661.12
465.195	656.12
465.414	731.12
465.634	642.12
465.854	588.12
466.073	552.12
466.293	560.12
466.512	541.12
466.732	536.12
466.951	547.12
467.171	527.12
467.391	556.12
467.61	538.12
467.829	547.12
468.049	544.12
468.268	552.12
468.488	527.12
468.707	505.12
468.927	508.12
469.146	495.12
469.365	534.12
469.585	529.12
469.804	535.12
470.023	546.12
470.243	535.12
470.462	554.12
470.681	566.12
470.901	579.12
471.12	556.12
471.339	562.12
471.558	543.12
471.777	537.12
471.997	542.12
472.216	546.12
472.435	589.12
472.654	562.12
472.873	553.12
473.092	536.12
473.311	527.12
473.53	524.12
473.749	541.12
473.968	572.12
474.187	678.12
474.406	714.12
474.625	576.12
474.844	539.12
475.063	531.12
475.282	525.12
475.501	543.12
475.72	539.12
475.939	540.12
476.158	573.12
476.377	574.12
476.596	577.12
476.814	573.12
477.033	589.12
477.252	596.12
477.471	581.12
477.69	596.12
477.908	586.12
478.127	601.12
478.346	597.12
478.564	594.12
478.783	620.12
479.002	606.12
479.22	641.12
479.439	634.12
479.658	652.12
479.876	656.12
480.095	656.12
480.313	693.12
480.532	705.12
480.751	668.12
480.969	676.12
481.188	723.12
481.406	770.12
481.624	674.12
481.843	662.12
482.061	649.12
482.28	659.12
482.498	642.12
482.717	632.12
482.935	633.12
483.153	640.12
483.372	628.12
483.59	629.12
483.808	633.12
484.027	652.12
484.245	631.12
484.463	626.12
484.681	628.12
484.9	624.12
485.118	642.12
485.336	649.12
485.554	648.12
485.772	653.12
485.99	667.12
486.209	658.12
486.427	674.12
486.645	650.12
486.863	694.12
487.081	690.12
487.299	674.12
487.517	688.12
487.735	670.12
487.953	668.12
488.171	683.12
488.389	658.12
488.607	670.12
488.825	688.12
489.043	694.12
489.261	655.12
489.479	675.12
489.696	690.12
489.914	698.12
490.132	697.12
490.35	708.12
490.568	707.12
490.786	714.12
491.003	736.12
491.221	725.12
491.439	749.12
491.657	741.12
491.874	731.12
492.092	745.12
492.31	753.12
492.527	788.12
492.745	791.12
492.963	745.12
493.18	770.12
493.398	804.12
493.615	812.12
493.833	762.12
494.05	780.12
494.268	753.12
494.485	805.12
494.703	770.12
494.92	772.12
495.138	800.12
495.355	799.12
495.573	811.12
495.79	808.12
496.008	814.12
496.225	805.12
496.442	818.12
496.66	816.12
496.877	795.12
497.094	820.12
497.312	815.12
497.529	838.12
497.746	860.12
497.963	871.12
498.181	893.12
498.398	869.12
498.615	950.12
498.832	944.12
499.049	996.12
499.267	980.12
499.484	1048.12
499.701	1086.12
499.918	1120.12
500.135	1208.12
500.352	1276.12
500.569	1286.12
500.786	1286.12
501.003	1265.12
501.22	1241.12
501.437	1140.12
501.654	1101.12
501.871	1069.12
