Data from 1979.PennyLincolnUp.Lamp.En5.5.200Scan.071719.P1_HRD10591_16-18-24-863.txt Node
Date: Thu Jul 18 16:18:24 EDT 2019
User: cochatt
Spectrometer: HR+D1059
Trigger mode: 1
Integration Time (sec): 1.000000E-1
Scans to average: 1
Electric dark correction enabled: true
Nonlinearity correction enabled: false
Boxcar width: 0
XAxis mode: Wavelengths
Number of Pixels in Spectrum: 2048
>>>>>Begin Spectral Data<<<<<
223.165	-12.38
223.4	-12.38
223.635	-12.38
223.869	-36.38
224.104	-11.38
224.338	-3.38
224.573	-20.38
224.808	-7.38
225.042	-12.38
225.277	1.62
225.511	-3.38
225.746	6.62
225.98	14.62
226.215	14.62
226.449	5.62
226.683	15.62
226.918	14.62
227.152	33.62
227.387	24.62
227.621	32.62
227.856	43.62
228.09	36.62
228.324	43.62
228.559	58.62
228.793	69.62
229.027	90.62
229.262	102.62
229.496	111.62
229.73	112.62
229.964	123.62
230.199	117.62
230.433	105.62
230.667	115.62
230.901	108.62
231.136	103.62
231.37	116.62
231.604	116.62
231.838	103.62
232.072	99.62
232.306	103.62
232.541	104.62
232.775	114.62
233.009	110.62
233.243	95.62
233.477	92.62
233.711	108.62
233.945	111.62
234.179	115.62
234.413	108.62
234.647	131.62
234.881	118.62
235.115	113.62
235.349	110.62
235.583	99.62
235.817	105.62
236.051	111.62
236.285	118.62
236.519	143.62
236.753	123.62
236.987	137.62
237.221	154.62
237.455	212.62
237.689	176.62
237.922	136.62
238.156	116.62
238.39	124.62
238.624	118.62
238.858	113.62
239.091	131.62
239.325	132.62
239.559	126.62
239.793	117.62
240.027	122.62
240.26	130.62
240.494	138.62
240.728	146.62
240.961	125.62
241.195	134.62
241.429	131.62
241.662	126.62
241.896	129.62
242.13	122.62
242.363	123.62
242.597	130.62
242.83	142.62
243.064	141.62
243.298	129.62
243.531	141.62
243.765	145.62
243.998	132.62
244.232	122.62
244.465	135.62
244.699	128.62
244.932	120.62
245.166	144.62
245.399	150.62
245.633	140.62
245.866	149.62
246.099	141.62
246.333	142.62
246.566	128.62
246.8	142.62
247.033	136.62
247.266	151.62
247.5	145.62
247.733	146.62
247.966	162.62
248.2	150.62
248.433	156.62
248.666	166.62
248.899	150.62
249.133	180.62
249.366	197.62
249.599	200.62
249.832	172.62
250.066	176.62
250.299	185.62
250.532	175.62
250.765	193.62
250.998	188.62
251.231	199.62
251.465	193.62
251.698	165.62
251.931	165.62
252.164	188.62
252.397	170.62
252.63	182.62
252.863	179.62
253.096	200.62
253.329	212.62
253.562	202.62
253.795	187.62
254.028	201.62
254.261	201.62
254.494	194.62
254.727	210.62
254.96	240.62
255.193	229.62
255.426	211.62
255.659	191.62
255.892	217.62
256.124	205.62
256.357	207.62
256.59	201.62
256.823	200.62
257.056	187.62
257.289	200.62
257.521	194.62
257.754	189.62
257.987	194.62
258.22	185.62
258.452	183.62
258.685	192.62
258.918	184.62
259.151	199.62
259.383	205.62
259.616	214.62
259.849	212.62
260.081	230.62
260.314	235.62
260.547	229.62
260.779	214.62
261.012	195.62
261.244	207.62
261.477	193.62
261.71	206.62
261.942	215.62
262.175	207.62
262.407	223.62
262.64	200.62
262.872	189.62
263.105	194.62
263.337	196.62
263.57	202.62
263.802	189.62
264.035	186.62
264.267	213.62
264.499	196.62
264.732	205.62
264.964	199.62
265.197	190.62
265.429	200.62
265.661	196.62
265.894	196.62
266.126	201.62
266.358	194.62
266.591	202.62
266.823	219.62
267.055	204.62
267.287	216.62
267.52	206.62
267.752	201.62
267.984	211.62
268.216	202.62
268.448	205.62
268.681	219.62
268.913	224.62
269.145	239.62
269.377	259.62
269.609	242.62
269.841	231.62
270.073	237.62
270.306	267.62
270.538	280.62
270.77	250.62
271.002	254.62
271.234	251.62
271.466	257.62
271.698	277.62
271.93	276.62
272.162	276.62
272.394	274.62
272.626	266.62
272.858	257.62
273.09	263.62
273.322	248.62
273.553	232.62
273.785	252.62
274.017	245.62
274.249	244.62
274.481	247.62
274.713	229.62
274.945	255.62
275.176	244.62
275.408	267.62
275.64	242.62
275.872	248.62
276.104	255.62
276.335	273.62
276.567	246.62
276.799	266.62
277.031	282.62
277.262	277.62
277.494	285.62
277.726	259.62
277.957	275.62
278.189	247.62
278.421	244.62
278.652	259.62
278.884	268.62
279.115	244.62
279.347	261.62
279.579	251.62
279.81	258.62
280.042	239.62
280.273	255.62
280.505	247.62
280.736	245.62
280.968	255.62
281.199	247.62
281.431	248.62
281.662	252.62
281.894	260.62
282.125	262.62
282.356	266.62
282.588	293.62
282.819	285.62
283.051	274.62
283.282	257.62
283.513	253.62
283.745	261.62
283.976	262.62
284.207	263.62
284.439	271.62
284.67	259.62
284.901	274.62
285.132	268.62
285.364	289.62
285.595	270.62
285.826	243.62
286.057	252.62
286.288	244.62
286.52	252.62
286.751	271.62
286.982	267.62
287.213	263.62
287.444	266.62
287.675	249.62
287.906	269.62
288.138	282.62
288.369	276.62
288.6	262.62
288.831	274.62
289.062	273.62
289.293	271.62
289.524	250.62
289.755	276.62
289.986	279.62
290.217	270.62
290.448	261.62
290.679	274.62
290.91	276.62
291.141	289.62
291.371	285.62
291.602	298.62
291.833	285.62
292.064	267.62
292.295	275.62
292.526	266.62
292.757	285.62
292.987	281.62
293.218	275.62
293.449	265.62
293.68	277.62
293.91	280.62
294.141	284.62
294.372	270.62
294.603	287.62
294.833	294.62
295.064	278.62
295.295	283.62
295.525	281.62
295.756	289.62
295.987	304.62
296.217	304.62
296.448	308.62
296.679	298.62
296.909	278.62
297.14	282.62
297.37	304.62
297.601	296.62
297.831	289.62
298.062	300.62
298.292	299.62
298.523	314.62
298.753	290.62
298.984	298.62
299.214	310.62
299.445	291.62
299.675	306.62
299.905	317.62
300.136	297.62
300.366	308.62
300.597	298.62
300.827	303.62
301.057	313.62
301.288	335.62
301.518	317.62
301.748	312.62
301.979	315.62
302.209	327.62
302.439	323.62
302.669	327.62
302.9	307.62
303.13	311.62
303.36	331.62
303.59	299.62
303.82	316.62
304.051	326.62
304.281	319.62
304.511	319.62
304.741	310.62
304.971	317.62
305.201	301.62
305.431	313.62
305.661	324.62
305.891	320.62
306.121	313.62
306.352	320.62
306.582	317.62
306.812	301.62
307.042	309.62
307.272	330.62
307.502	319.62
307.731	315.62
307.961	324.62
308.191	317.62
308.421	340.62
308.651	323.62
308.881	323.62
309.111	322.62
309.341	305.62
309.571	335.62
309.8	339.62
310.03	348.62
310.26	359.62
310.49	332.62
310.72	354.62
310.949	370.62
311.179	374.62
311.409	363.62
311.639	377.62
311.868	350.62
312.098	327.62
312.328	355.62
312.557	365.62
312.787	345.62
313.017	375.62
313.246	369.62
313.476	354.62
313.706	375.62
313.935	356.62
314.165	358.62
314.394	357.62
314.624	373.62
314.853	371.62
315.083	375.62
315.312	364.62
315.542	356.62
315.771	353.62
316.001	368.62
316.23	330.62
316.46	344.62
316.689	345.62
316.919	361.62
317.148	376.62
317.377	358.62
317.607	379.62
317.836	365.62
318.065	372.62
318.295	369.62
318.524	346.62
318.753	363.62
318.983	378.62
319.212	355.62
319.441	349.62
319.67	376.62
319.9	367.62
320.129	365.62
320.358	357.62
320.587	355.62
320.816	360.62
321.046	388.62
321.275	362.62
321.504	369.62
321.733	377.62
321.962	380.62
322.191	385.62
322.42	421.62
322.649	401.62
322.878	416.62
323.108	432.62
323.337	428.62
323.566	449.62
323.795	462.62
324.024	511.62
324.253	584.62
324.482	836.62
324.71	1280.62
324.939	1939.62
325.168	1671.62
325.397	831.62
325.626	595.62
325.855	505.62
326.084	470.62
326.313	463.62
326.542	475.62
326.77	495.62
326.999	566.62
327.228	773.62
327.457	1157.62
327.686	1455.62
327.914	934.62
328.143	637.62
328.372	548.62
328.6	515.62
328.829	515.62
329.058	523.62
329.287	520.62
329.515	500.62
329.744	449.62
329.972	446.62
330.201	470.62
330.43	515.62
330.658	525.62
330.887	523.62
331.115	510.62
331.344	468.62
331.572	466.62
331.801	457.62
332.03	444.62
332.258	431.62
332.486	436.62
332.715	429.62
332.943	433.62
333.172	465.62
333.4	474.62
333.629	448.62
333.857	462.62
334.085	467.62
334.314	476.62
334.542	511.62
334.771	507.62
334.999	468.62
335.227	451.62
335.455	437.62
335.684	446.62
335.912	443.62
336.14	455.62
336.369	442.62
336.597	451.62
336.825	422.62
337.053	435.62
337.281	438.62
337.51	428.62
337.738	429.62
337.966	429.62
338.194	432.62
338.422	418.62
338.65	423.62
338.878	420.62
339.106	412.62
339.334	414.62
339.562	437.62
339.79	406.62
340.018	434.62
340.246	441.62
340.474	415.62
340.702	409.62
340.93	423.62
341.158	427.62
341.386	419.62
341.614	397.62
341.842	418.62
342.07	425.62
342.298	433.62
342.526	419.62
342.754	422.62
342.981	396.62
343.209	405.62
343.437	411.62
343.665	419.62
343.893	427.62
344.12	427.62
344.348	439.62
344.576	424.62
344.804	429.62
345.031	436.62
345.259	431.62
345.487	432.62
345.714	427.62
345.942	415.62
346.17	418.62
346.397	399.62
346.625	409.62
346.853	403.62
347.08	386.62
347.308	398.62
347.535	419.62
347.763	414.62
347.99	422.62
348.218	398.62
348.445	402.62
348.673	414.62
348.9	420.62
349.128	409.62
349.355	391.62
349.583	380.62
349.81	385.62
350.037	392.62
350.265	387.62
350.492	409.62
350.72	391.62
350.947	403.62
351.174	401.62
351.402	420.62
351.629	406.62
351.856	418.62
352.083	402.62
352.311	413.62
352.538	417.62
352.765	427.62
352.992	410.62
353.22	393.62
353.447	409.62
353.674	394.62
353.901	376.62
354.128	381.62
354.355	383.62
354.583	375.62
354.81	383.62
355.037	382.62
355.264	397.62
355.491	377.62
355.718	385.62
355.945	371.62
356.172	378.62
356.399	388.62
356.626	383.62
356.853	370.62
357.08	383.62
357.307	372.62
357.534	411.62
357.761	392.62
357.988	403.62
358.215	393.62
358.441	395.62
358.668	367.62
358.895	400.62
359.122	405.62
359.349	376.62
359.576	403.62
359.802	426.62
360.029	443.62
360.256	455.62
360.483	443.62
360.709	423.62
360.936	416.62
361.163	401.62
361.39	392.62
361.616	439.62
361.843	419.62
362.07	420.62
362.296	401.62
362.523	393.62
362.749	402.62
362.976	407.62
363.203	389.62
363.429	403.62
363.656	404.62
363.882	378.62
364.109	394.62
364.335	381.62
364.562	381.62
364.788	393.62
365.015	395.62
365.241	393.62
365.468	401.62
365.694	394.62
365.92	415.62
366.147	395.62
366.373	405.62
366.599	392.62
366.826	408.62
367.052	393.62
367.278	380.62
367.505	405.62
367.731	395.62
367.957	411.62
368.184	416.62
368.41	399.62
368.636	404.62
368.862	404.62
369.089	404.62
369.315	397.62
369.541	396.62
369.767	395.62
369.993	386.62
370.219	390.62
370.445	404.62
370.672	388.62
370.898	389.62
371.124	398.62
371.35	398.62
371.576	418.62
371.802	423.62
372.028	416.62
372.254	395.62
372.48	391.62
372.706	396.62
372.932	425.62
373.158	411.62
373.384	427.62
373.61	423.62
373.835	425.62
374.061	406.62
374.287	419.62
374.513	406.62
374.739	409.62
374.965	411.62
375.191	409.62
375.416	399.62
375.642	420.62
375.868	416.62
376.094	415.62
376.319	416.62
376.545	420.62
376.771	401.62
376.997	404.62
377.222	400.62
377.448	387.62
377.674	390.62
377.899	393.62
378.125	405.62
378.35	394.62
378.576	396.62
378.802	409.62
379.027	415.62
379.253	408.62
379.478	386.62
379.704	405.62
379.929	395.62
380.155	409.62
380.38	395.62
380.606	384.62
380.831	400.62
381.057	405.62
381.282	409.62
381.507	413.62
381.733	421.62
381.958	442.62
382.184	414.62
382.409	435.62
382.634	433.62
382.86	447.62
383.085	416.62
383.31	435.62
383.535	429.62
383.761	413.62
383.986	442.62
384.211	435.62
384.436	447.62
384.662	440.62
384.887	457.62
385.112	457.62
385.337	458.62
385.562	449.62
385.787	439.62
386.013	456.62
386.238	469.62
386.463	465.62
386.688	473.62
386.913	444.62
387.138	436.62
387.363	434.62
387.588	450.62
387.813	459.62
388.038	450.62
388.263	456.62
388.488	447.62
388.713	439.62
388.938	449.62
389.163	449.62
389.387	451.62
389.612	448.62
389.837	445.62
390.062	457.62
390.287	434.62
390.512	472.62
390.736	443.62
390.961	453.62
391.186	457.62
391.411	469.62
391.636	474.62
391.86	480.62
392.085	468.62
392.31	469.62
392.534	468.62
392.759	489.62
392.984	465.62
393.208	466.62
393.433	482.62
393.658	477.62
393.882	492.62
394.107	453.62
394.331	466.62
394.556	463.62
394.78	452.62
395.005	460.62
395.229	464.62
395.454	484.62
395.678	481.62
395.903	486.62
396.127	499.62
396.352	499.62
396.576	473.62
396.801	483.62
397.025	482.62
397.249	497.62
397.474	513.62
397.698	498.62
397.922	517.62
398.147	526.62
398.371	522.62
398.595	504.62
398.82	515.62
399.044	541.62
399.268	556.62
399.492	600.62
399.717	668.62
399.941	655.62
400.165	653.62
400.389	641.62
400.613	625.62
400.837	564.62
401.062	552.62
401.286	551.62
401.51	547.62
401.734	538.62
401.958	552.62
402.182	533.62
402.406	556.62
402.63	553.62
402.854	553.62
403.078	571.62
403.302	574.62
403.526	560.62
403.75	562.62
403.974	551.62
404.198	570.62
404.422	577.62
404.645	564.62
404.869	577.62
405.093	602.62
405.317	647.62
405.541	660.62
405.765	633.62
405.988	605.62
406.212	587.62
406.436	602.62
406.66	632.62
406.883	614.62
407.107	632.62
407.331	671.62
407.555	729.62
407.778	727.62
408.002	667.62
408.226	645.62
408.449	624.62
408.673	639.62
408.896	632.62
409.12	686.62
409.344	637.62
409.567	601.62
409.791	599.62
410.014	597.62
410.238	549.62
410.461	583.62
410.685	572.62
410.908	584.62
411.132	611.62
411.355	638.62
411.578	624.62
411.802	585.62
412.025	595.62
412.249	575.62
412.472	592.62
412.695	609.62
412.919	618.62
413.142	591.62
413.365	585.62
413.589	557.62
413.812	557.62
414.035	548.62
414.258	538.62
414.482	527.62
414.705	538.62
414.928	550.62
415.151	567.62
415.374	541.62
415.597	535.62
415.821	560.62
416.044	550.62
416.267	517.62
416.49	528.62
416.713	522.62
416.936	546.62
417.159	527.62
417.382	554.62
417.605	525.62
417.828	569.62
418.051	529.62
418.274	549.62
418.497	514.62
418.72	524.62
418.943	534.62
419.166	581.62
419.389	585.62
419.611	607.62
419.834	575.62
420.057	566.62
420.28	546.62
420.503	550.62
420.726	553.62
420.948	557.62
421.171	607.62
421.394	641.62
421.617	564.62
421.839	563.62
422.062	546.62
422.285	572.62
422.507	601.62
422.73	689.62
422.953	664.62
423.175	599.62
423.398	571.62
423.621	575.62
423.843	602.62
424.066	593.62
424.288	594.62
424.511	601.62
424.733	651.62
424.956	731.62
425.178	678.62
425.401	687.62
425.623	706.62
425.846	608.62
426.068	596.62
426.291	568.62
426.513	596.62
426.735	587.62
426.958	617.62
427.18	726.62
427.402	830.62
427.625	907.62
427.847	787.62
428.069	703.62
428.292	627.62
428.514	589.62
428.736	533.62
428.958	537.62
429.181	534.62
429.403	514.62
429.625	535.62
429.847	593.62
430.069	643.62
430.292	647.62
430.514	552.62
430.736	551.62
430.958	535.62
431.18	530.62
431.402	516.62
431.624	503.62
431.846	491.62
432.068	514.62
432.29	528.62
432.512	539.62
432.734	522.62
432.956	541.62
433.178	531.62
433.4	546.62
433.622	538.62
433.844	512.62
434.066	521.62
434.287	529.62
434.509	539.62
434.731	529.62
434.953	561.62
435.175	573.62
435.397	601.62
435.618	600.62
435.84	626.62
436.062	705.62
436.284	752.62
436.505	652.62
436.727	592.62
436.949	584.62
437.17	561.62
437.392	534.62
437.614	564.62
437.835	582.62
438.057	636.62
438.278	731.62
438.5	739.62
438.721	841.62
438.943	795.62
439.165	626.62
439.386	604.62
439.608	600.62
439.829	545.62
440.05	606.62
440.272	646.62
440.493	633.62
440.715	588.62
440.936	543.62
441.158	553.62
441.379	550.62
441.6	580.62
441.822	579.62
442.043	628.62
442.264	689.62
442.486	714.62
442.707	628.62
442.928	608.62
443.149	593.62
443.371	608.62
443.592	648.62
443.813	725.62
444.034	792.62
444.255	690.62
444.476	602.62
444.698	629.62
444.919	600.62
445.14	703.62
445.361	651.62
445.582	624.62
445.803	684.62
446.024	784.62
446.245	790.62
446.466	707.62
446.687	623.62
446.908	577.62
447.129	554.62
447.35	545.62
447.571	525.62
447.792	514.62
448.013	528.62
448.234	547.62
448.455	600.62
448.675	694.62
448.896	803.62
449.117	709.62
449.338	606.62
449.559	753.62
449.779	841.62
450	659.62
450.221	576.62
450.442	543.62
450.662	533.62
450.883	521.62
451.104	534.62
451.324	492.62
451.545	505.62
451.766	512.62
451.986	480.62
452.207	495.62
452.428	489.62
452.648	485.62
452.869	498.62
453.089	499.62
453.31	517.62
453.53	492.62
453.751	460.62
453.971	479.62
454.192	494.62
454.412	500.62
454.633	483.62
454.853	471.62
455.073	468.62
455.294	502.62
455.514	564.62
455.734	542.62
455.955	488.62
456.175	482.62
456.395	471.62
456.616	456.62
456.836	472.62
457.056	468.62
457.276	451.62
457.497	467.62
457.717	464.62
457.937	482.62
458.157	491.62
458.377	469.62
458.598	507.62
458.818	526.62
459.038	599.62
459.258	615.62
459.478	561.62
459.698	518.62
459.918	531.62
460.138	541.62
460.358	538.62
460.578	523.62
460.798	548.62
461.018	563.62
461.238	541.62
461.458	545.62
461.678	531.62
461.898	572.62
462.118	561.62
462.338	587.62
462.558	579.62
462.777	572.62
462.997	604.62
463.217	646.62
463.437	615.62
463.657	601.62
463.876	602.62
464.096	601.62
464.316	597.62
464.536	605.62
464.755	591.62
464.975	576.62
465.195	615.62
465.414	676.62
465.634	595.62
465.854	571.62
466.073	552.62
466.293	529.62
466.512	531.62
466.732	529.62
466.951	515.62
467.171	518.62
467.391	508.62
467.61	530.62
467.829	503.62
468.049	513.62
468.268	515.62
468.488	503.62
468.707	514.62
468.927	503.62
469.146	483.62
469.365	522.62
469.585	501.62
469.804	525.62
470.023	517.62
470.243	520.62
470.462	510.62
470.681	521.62
470.901	539.62
471.12	509.62
471.339	521.62
471.558	522.62
471.777	521.62
471.997	486.62
472.216	507.62
472.435	524.62
472.654	518.62
472.873	527.62
473.092	511.62
473.311	512.62
473.53	504.62
473.749	516.62
473.968	554.62
474.187	623.62
474.406	646.62
474.625	543.62
474.844	515.62
475.063	529.62
475.282	523.62
475.501	497.62
475.72	531.62
475.939	509.62
476.158	517.62
476.377	526.62
476.596	528.62
476.814	545.62
477.033	544.62
477.252	521.62
477.471	531.62
477.69	539.62
477.908	545.62
478.127	551.62
478.346	555.62
478.564	579.62
478.783	561.62
479.002	584.62
479.22	597.62
479.439	607.62
479.658	616.62
479.876	593.62
480.095	612.62
480.313	661.62
480.532	636.62
480.751	631.62
480.969	638.62
481.188	684.62
481.406	697.62
481.624	645.62
481.843	625.62
482.061	594.62
482.28	600.62
482.498	607.62
482.717	593.62
482.935	580.62
483.153	596.62
483.372	603.62
483.59	604.62
483.808	601.62
484.027	591.62
484.245	601.62
484.463	616.62
484.681	603.62
484.9	624.62
485.118	615.62
485.336	616.62
485.554	629.62
485.772	608.62
485.99	637.62
486.209	617.62
486.427	617.62
486.645	639.62
486.863	651.62
487.081	667.62
487.299	642.62
487.517	622.62
487.735	635.62
487.953	657.62
488.171	643.62
488.389	669.62
488.607	655.62
488.825	630.62
489.043	654.62
489.261	632.62
489.479	642.62
489.696	643.62
489.914	665.62
490.132	683.62
490.35	654.62
490.568	653.62
490.786	667.62
491.003	679.62
491.221	689.62
491.439	691.62
491.657	715.62
491.874	732.62
492.092	739.62
492.31	732.62
492.527	721.62
492.745	698.62
492.963	710.62
493.18	727.62
493.398	725.62
493.615	745.62
493.833	724.62
494.05	722.62
494.268	728.62
494.485	726.62
494.703	730.62
494.92	726.62
495.138	723.62
495.355	735.62
495.573	752.62
495.79	765.62
496.008	759.62
496.225	748.62
496.442	741.62
496.66	769.62
496.877	777.62
497.094	772.62
497.312	780.62
497.529	760.62
497.746	803.62
497.963	795.62
498.181	821.62
498.398	833.62
498.615	896.62
498.832	882.62
499.049	927.62
499.267	958.62
499.484	970.62
499.701	1015.62
499.918	1069.62
500.135	1131.62
500.352	1174.62
500.569	1207.62
500.786	1191.62
501.003	1173.62
501.22	1105.62
501.437	1066.62
501.654	1034.62
501.871	1000.62
