Data from 1979.PennyLincolnUp.Lamp.En5.5.200Scan.071719.P1_HRD10591_16-18-36-863.txt Node
Date: Thu Jul 18 16:18:36 EDT 2019
User: cochatt
Spectrometer: HR+D1059
Trigger mode: 1
Integration Time (sec): 1.000000E-1
Scans to average: 1
Electric dark correction enabled: true
Nonlinearity correction enabled: false
Boxcar width: 0
XAxis mode: Wavelengths
Number of Pixels in Spectrum: 2048
>>>>>Begin Spectral Data<<<<<
223.165	-9.88
223.4	-9.88
223.635	-9.88
223.869	-11.88
224.104	-25.88
224.338	-17.88
224.573	-9.88
224.808	-15.88
225.042	-1.88
225.277	-15.88
225.511	7.12
225.746	5.12
225.98	23.12
226.215	15.12
226.449	6.12
226.683	16.12
226.918	20.12
227.152	16.12
227.387	24.12
227.621	39.12
227.856	35.12
228.09	42.12
228.324	39.12
228.559	62.12
228.793	77.12
229.027	84.12
229.262	91.12
229.496	101.12
229.73	136.12
229.964	134.12
230.199	119.12
230.433	109.12
230.667	102.12
230.901	88.12
231.136	97.12
231.37	99.12
231.604	126.12
231.838	110.12
232.072	105.12
232.306	113.12
232.541	96.12
232.775	118.12
233.009	120.12
233.243	86.12
233.477	116.12
233.711	105.12
233.945	112.12
234.179	103.12
234.413	106.12
234.647	106.12
234.881	117.12
235.115	102.12
235.349	120.12
235.583	116.12
235.817	125.12
236.051	116.12
236.285	107.12
236.519	121.12
236.753	116.12
236.987	136.12
237.221	168.12
237.455	204.12
237.689	174.12
237.922	147.12
238.156	126.12
238.39	102.12
238.624	120.12
238.858	106.12
239.091	127.12
239.325	106.12
239.559	121.12
239.793	134.12
240.027	123.12
240.26	136.12
240.494	135.12
240.728	152.12
240.961	133.12
241.195	115.12
241.429	128.12
241.662	126.12
241.896	120.12
242.13	132.12
242.363	134.12
242.597	126.12
242.83	141.12
243.064	137.12
243.298	151.12
243.531	123.12
243.765	138.12
243.998	141.12
244.232	125.12
244.465	137.12
244.699	144.12
244.932	144.12
245.166	139.12
245.399	132.12
245.633	140.12
245.866	143.12
246.099	134.12
246.333	140.12
246.566	127.12
246.8	131.12
247.033	141.12
247.266	143.12
247.5	156.12
247.733	166.12
247.966	159.12
248.2	140.12
248.433	168.12
248.666	157.12
248.899	169.12
249.133	195.12
249.366	185.12
249.599	171.12
249.832	143.12
250.066	174.12
250.299	173.12
250.532	181.12
250.765	166.12
250.998	179.12
251.231	190.12
251.465	203.12
251.698	172.12
251.931	180.12
252.164	162.12
252.397	182.12
252.63	186.12
252.863	181.12
253.096	203.12
253.329	187.12
253.562	191.12
253.795	200.12
254.028	191.12
254.261	179.12
254.494	199.12
254.727	210.12
254.96	229.12
255.193	227.12
255.426	211.12
255.659	211.12
255.892	225.12
256.124	216.12
256.357	195.12
256.59	197.12
256.823	196.12
257.056	185.12
257.289	195.12
257.521	193.12
257.754	178.12
257.987	190.12
258.22	201.12
258.452	196.12
258.685	173.12
258.918	192.12
259.151	194.12
259.383	188.12
259.616	206.12
259.849	192.12
260.081	210.12
260.314	231.12
260.547	230.12
260.779	223.12
261.012	204.12
261.244	211.12
261.477	227.12
261.71	209.12
261.942	196.12
262.175	225.12
262.407	200.12
262.64	220.12
262.872	194.12
263.105	195.12
263.337	213.12
263.57	207.12
263.802	205.12
264.035	201.12
264.267	187.12
264.499	206.12
264.732	184.12
264.964	186.12
265.197	192.12
265.429	192.12
265.661	197.12
265.894	219.12
266.126	199.12
266.358	202.12
266.591	187.12
266.823	216.12
267.055	191.12
267.287	213.12
267.52	207.12
267.752	202.12
267.984	205.12
268.216	214.12
268.448	202.12
268.681	208.12
268.913	218.12
269.145	244.12
269.377	242.12
269.609	243.12
269.841	228.12
270.073	236.12
270.306	246.12
270.538	264.12
270.77	273.12
271.002	262.12
271.234	227.12
271.466	254.12
271.698	281.12
271.93	273.12
272.162	274.12
272.394	265.12
272.626	270.12
272.858	265.12
273.09	278.12
273.322	222.12
273.553	225.12
273.785	244.12
274.017	237.12
274.249	246.12
274.481	237.12
274.713	253.12
274.945	246.12
275.176	244.12
275.408	255.12
275.64	247.12
275.872	228.12
276.104	244.12
276.335	237.12
276.567	233.12
276.799	255.12
277.031	276.12
277.262	283.12
277.494	283.12
277.726	281.12
277.957	262.12
278.189	284.12
278.421	263.12
278.652	263.12
278.884	246.12
279.115	251.12
279.347	242.12
279.579	235.12
279.81	236.12
280.042	241.12
280.273	248.12
280.505	256.12
280.736	243.12
280.968	245.12
281.199	233.12
281.431	234.12
281.662	258.12
281.894	270.12
282.125	249.12
282.356	281.12
282.588	282.12
282.819	280.12
283.051	269.12
283.282	244.12
283.513	261.12
283.745	254.12
283.976	257.12
284.207	260.12
284.439	260.12
284.67	284.12
284.901	260.12
285.132	247.12
285.364	252.12
285.595	256.12
285.826	265.12
286.057	264.12
286.288	253.12
286.52	262.12
286.751	256.12
286.982	264.12
287.213	240.12
287.444	246.12
287.675	255.12
287.906	268.12
288.138	276.12
288.369	267.12
288.6	274.12
288.831	266.12
289.062	279.12
289.293	290.12
289.524	269.12
289.755	267.12
289.986	288.12
290.217	267.12
290.448	249.12
290.679	265.12
290.91	264.12
291.141	262.12
291.371	259.12
291.602	290.12
291.833	264.12
292.064	279.12
292.295	265.12
292.526	280.12
292.757	273.12
292.987	260.12
293.218	277.12
293.449	277.12
293.68	280.12
293.91	276.12
294.141	276.12
294.372	265.12
294.603	262.12
294.833	276.12
295.064	283.12
295.295	289.12
295.525	281.12
295.756	274.12
295.987	277.12
296.217	279.12
296.448	303.12
296.679	293.12
296.909	296.12
297.14	297.12
297.37	275.12
297.601	292.12
297.831	274.12
298.062	288.12
298.292	308.12
298.523	297.12
298.753	292.12
298.984	288.12
299.214	283.12
299.445	286.12
299.675	303.12
299.905	284.12
300.136	282.12
300.366	288.12
300.597	299.12
300.827	313.12
301.057	299.12
301.288	309.12
301.518	324.12
301.748	297.12
301.979	331.12
302.209	296.12
302.439	307.12
302.669	302.12
302.9	314.12
303.13	314.12
303.36	309.12
303.59	308.12
303.82	305.12
304.051	290.12
304.281	298.12
304.511	307.12
304.741	310.12
304.971	314.12
305.201	313.12
305.431	305.12
305.661	314.12
305.891	300.12
306.121	325.12
306.352	318.12
306.582	312.12
306.812	322.12
307.042	309.12
307.272	334.12
307.502	314.12
307.731	314.12
307.961	309.12
308.191	318.12
308.421	329.12
308.651	319.12
308.881	314.12
309.111	345.12
309.341	321.12
309.571	332.12
309.8	345.12
310.03	343.12
310.26	348.12
310.49	340.12
310.72	341.12
310.949	368.12
311.179	370.12
311.409	357.12
311.639	348.12
311.868	338.12
312.098	343.12
312.328	359.12
312.557	371.12
312.787	376.12
313.017	373.12
313.246	365.12
313.476	351.12
313.706	356.12
313.935	352.12
314.165	356.12
314.394	374.12
314.624	396.12
314.853	363.12
315.083	382.12
315.312	360.12
315.542	346.12
315.771	362.12
316.001	356.12
316.23	362.12
316.46	344.12
316.689	348.12
316.919	353.12
317.148	353.12
317.377	358.12
317.607	346.12
317.836	359.12
318.065	357.12
318.295	352.12
318.524	358.12
318.753	354.12
318.983	341.12
319.212	349.12
319.441	364.12
319.67	364.12
319.9	358.12
320.129	373.12
320.358	358.12
320.587	346.12
320.816	373.12
321.046	374.12
321.275	381.12
321.504	374.12
321.733	359.12
321.962	371.12
322.191	384.12
322.42	396.12
322.649	399.12
322.878	389.12
323.108	410.12
323.337	421.12
323.566	451.12
323.795	474.12
324.024	512.12
324.253	590.12
324.482	853.12
324.71	1294.12
324.939	1888.12
325.168	1644.12
325.397	840.12
325.626	570.12
325.855	508.12
326.084	468.12
326.313	455.12
326.542	457.12
326.77	487.12
326.999	592.12
327.228	760.12
327.457	1174.12
327.686	1463.12
327.914	952.12
328.143	631.12
328.372	563.12
328.6	516.12
328.829	477.12
329.058	498.12
329.287	520.12
329.515	480.12
329.744	469.12
329.972	484.12
330.201	468.12
330.43	496.12
330.658	552.12
330.887	535.12
331.115	549.12
331.344	481.12
331.572	448.12
331.801	429.12
332.03	474.12
332.258	440.12
332.486	457.12
332.715	425.12
332.943	427.12
333.172	425.12
333.4	422.12
333.629	453.12
333.857	472.12
334.085	481.12
334.314	478.12
334.542	514.12
334.771	519.12
334.999	488.12
335.227	486.12
335.455	441.12
335.684	445.12
335.912	421.12
336.14	426.12
336.369	432.12
336.597	442.12
336.825	436.12
337.053	432.12
337.281	422.12
337.51	403.12
337.738	442.12
337.966	417.12
338.194	426.12
338.422	420.12
338.65	419.12
338.878	408.12
339.106	424.12
339.334	422.12
339.562	401.12
339.79	411.12
340.018	412.12
340.246	407.12
340.474	410.12
340.702	395.12
340.93	407.12
341.158	396.12
341.386	391.12
341.614	415.12
341.842	404.12
342.07	414.12
342.298	401.12
342.526	393.12
342.754	418.12
342.981	406.12
343.209	421.12
343.437	411.12
343.665	402.12
343.893	425.12
344.12	443.12
344.348	428.12
344.576	417.12
344.804	406.12
345.031	420.12
345.259	427.12
345.487	426.12
345.714	426.12
345.942	404.12
346.17	414.12
346.397	390.12
346.625	399.12
346.853	406.12
347.08	392.12
347.308	394.12
347.535	412.12
347.763	399.12
347.99	398.12
348.218	399.12
348.445	413.12
348.673	430.12
348.9	398.12
349.128	409.12
349.355	398.12
349.583	388.12
349.81	390.12
350.037	398.12
350.265	393.12
350.492	390.12
350.72	388.12
350.947	396.12
351.174	398.12
351.402	421.12
351.629	391.12
351.856	405.12
352.083	384.12
352.311	414.12
352.538	438.12
352.765	428.12
352.992	405.12
353.22	413.12
353.447	407.12
353.674	384.12
353.901	371.12
354.128	384.12
354.355	380.12
354.583	373.12
354.81	380.12
355.037	391.12
355.264	404.12
355.491	390.12
355.718	368.12
355.945	373.12
356.172	376.12
356.399	366.12
356.626	378.12
356.853	360.12
357.08	381.12
357.307	380.12
357.534	381.12
357.761	390.12
357.988	379.12
358.215	376.12
358.441	375.12
358.668	387.12
358.895	392.12
359.122	379.12
359.349	397.12
359.576	392.12
359.802	405.12
360.029	438.12
360.256	429.12
360.483	440.12
360.709	421.12
360.936	411.12
361.163	391.12
361.39	384.12
361.616	415.12
361.843	394.12
362.07	404.12
362.296	425.12
362.523	411.12
362.749	412.12
362.976	399.12
363.203	394.12
363.429	407.12
363.656	409.12
363.882	390.12
364.109	414.12
364.335	404.12
364.562	390.12
364.788	404.12
365.015	380.12
365.241	396.12
365.468	381.12
365.694	384.12
365.92	407.12
366.147	400.12
366.373	389.12
366.599	393.12
366.826	385.12
367.052	397.12
367.278	389.12
367.505	372.12
367.731	403.12
367.957	387.12
368.184	405.12
368.41	381.12
368.636	416.12
368.862	409.12
369.089	407.12
369.315	398.12
369.541	396.12
369.767	408.12
369.993	392.12
370.219	406.12
370.445	398.12
370.672	388.12
370.898	424.12
371.124	392.12
371.35	396.12
371.576	387.12
371.802	380.12
372.028	386.12
372.254	373.12
372.48	380.12
372.706	403.12
372.932	396.12
373.158	389.12
373.384	401.12
373.61	416.12
373.835	417.12
374.061	401.12
374.287	435.12
374.513	422.12
374.739	426.12
374.965	432.12
375.191	417.12
375.416	404.12
375.642	401.12
375.868	427.12
376.094	406.12
376.319	397.12
376.545	408.12
376.771	384.12
376.997	394.12
377.222	395.12
377.448	401.12
377.674	398.12
377.899	396.12
378.125	383.12
378.35	389.12
378.576	381.12
378.802	398.12
379.027	393.12
379.253	386.12
379.478	402.12
379.704	389.12
379.929	399.12
380.155	396.12
380.38	402.12
380.606	420.12
380.831	403.12
381.057	384.12
381.282	406.12
381.507	417.12
381.733	405.12
381.958	394.12
382.184	410.12
382.409	406.12
382.634	398.12
382.86	420.12
383.085	397.12
383.31	432.12
383.535	422.12
383.761	402.12
383.986	423.12
384.211	424.12
384.436	445.12
384.662	440.12
384.887	432.12
385.112	444.12
385.337	432.12
385.562	432.12
385.787	440.12
386.013	446.12
386.238	447.12
386.463	445.12
386.688	454.12
386.913	463.12
387.138	434.12
387.363	460.12
387.588	460.12
387.813	432.12
388.038	444.12
388.263	444.12
388.488	456.12
388.713	448.12
388.938	435.12
389.163	450.12
389.387	447.12
389.612	436.12
389.837	438.12
390.062	447.12
390.287	450.12
390.512	446.12
390.736	448.12
390.961	460.12
391.186	441.12
391.411	462.12
391.636	450.12
391.86	477.12
392.085	448.12
392.31	456.12
392.534	465.12
392.759	456.12
392.984	464.12
393.208	477.12
393.433	477.12
393.658	457.12
393.882	477.12
394.107	459.12
394.331	461.12
394.556	456.12
394.78	452.12
395.005	470.12
395.229	470.12
395.454	475.12
395.678	484.12
395.903	483.12
396.127	497.12
396.352	497.12
396.576	484.12
396.801	490.12
397.025	497.12
397.249	487.12
397.474	499.12
397.698	500.12
397.922	531.12
398.147	507.12
398.371	509.12
398.595	544.12
398.82	515.12
399.044	530.12
399.268	560.12
399.492	605.12
399.717	617.12
399.941	677.12
400.165	645.12
400.389	645.12
400.613	602.12
400.837	572.12
401.062	563.12
401.286	532.12
401.51	516.12
401.734	545.12
401.958	535.12
402.182	538.12
402.406	547.12
402.63	549.12
402.854	535.12
403.078	543.12
403.302	571.12
403.526	543.12
403.75	556.12
403.974	552.12
404.198	544.12
404.422	561.12
404.645	585.12
404.869	586.12
405.093	593.12
405.317	635.12
405.541	658.12
405.765	616.12
405.988	560.12
406.212	565.12
406.436	602.12
406.66	612.12
406.883	581.12
407.107	601.12
407.331	644.12
407.555	720.12
407.778	724.12
408.002	660.12
408.226	654.12
408.449	622.12
408.673	631.12
408.896	622.12
409.12	666.12
409.344	647.12
409.567	561.12
409.791	585.12
410.014	580.12
410.238	567.12
410.461	569.12
410.685	579.12
410.908	561.12
411.132	602.12
411.355	628.12
411.578	620.12
411.802	576.12
412.025	588.12
412.249	538.12
412.472	586.12
412.695	624.12
412.919	617.12
413.142	578.12
413.365	544.12
413.589	556.12
413.812	535.12
414.035	538.12
414.258	533.12
414.482	516.12
414.705	543.12
414.928	548.12
415.151	531.12
415.374	532.12
415.597	511.12
415.821	527.12
416.044	524.12
416.267	523.12
416.49	521.12
416.713	531.12
416.936	530.12
417.159	525.12
417.382	533.12
417.605	498.12
417.828	528.12
418.051	561.12
418.274	536.12
418.497	546.12
418.72	541.12
418.943	544.12
419.166	532.12
419.389	587.12
419.611	588.12
419.834	567.12
420.057	557.12
420.28	537.12
420.503	544.12
420.726	546.12
420.948	548.12
421.171	587.12
421.394	629.12
421.617	564.12
421.839	544.12
422.062	543.12
422.285	546.12
422.507	625.12
422.73	680.12
422.953	652.12
423.175	569.12
423.398	591.12
423.621	555.12
423.843	565.12
424.066	578.12
424.288	572.12
424.511	599.12
424.733	638.12
424.956	709.12
425.178	693.12
425.401	674.12
425.623	694.12
425.846	590.12
426.068	568.12
426.291	571.12
426.513	556.12
426.735	571.12
426.958	605.12
427.18	669.12
427.402	803.12
427.625	890.12
427.847	781.12
428.069	682.12
428.292	611.12
428.514	583.12
428.736	547.12
428.958	521.12
429.181	531.12
429.403	559.12
429.625	554.12
429.847	553.12
430.069	608.12
430.292	620.12
430.514	551.12
430.736	540.12
430.958	514.12
431.18	515.12
431.402	525.12
431.624	501.12
431.846	505.12
432.068	504.12
432.29	531.12
432.512	506.12
432.734	523.12
432.956	520.12
433.178	540.12
433.4	532.12
433.622	513.12
433.844	514.12
434.066	510.12
434.287	522.12
434.509	525.12
434.731	520.12
434.953	560.12
435.175	575.12
435.397	585.12
435.618	584.12
435.84	603.12
436.062	670.12
436.284	757.12
436.505	624.12
436.727	580.12
436.949	557.12
437.17	551.12
437.392	545.12
437.614	535.12
437.835	575.12
438.057	626.12
438.278	725.12
438.5	716.12
438.721	808.12
438.943	780.12
439.165	628.12
439.386	557.12
439.608	586.12
439.829	570.12
440.05	610.12
440.272	631.12
440.493	594.12
440.715	562.12
440.936	540.12
441.158	531.12
441.379	534.12
441.6	569.12
441.822	568.12
442.043	620.12
442.264	677.12
442.486	745.12
442.707	632.12
442.928	596.12
443.149	592.12
443.371	618.12
443.592	658.12
443.813	738.12
444.034	778.12
444.255	674.12
444.476	605.12
444.698	613.12
444.919	624.12
445.14	709.12
445.361	649.12
445.582	628.12
445.803	677.12
446.024	772.12
446.245	761.12
446.466	709.12
446.687	612.12
446.908	550.12
447.129	556.12
447.35	549.12
447.571	514.12
447.792	519.12
448.013	544.12
448.234	543.12
448.455	572.12
448.675	686.12
448.896	777.12
449.117	666.12
449.338	610.12
449.559	731.12
449.779	824.12
450	651.12
450.221	568.12
450.442	561.12
450.662	522.12
450.883	526.12
451.104	566.12
451.324	530.12
451.545	524.12
451.766	494.12
451.986	493.12
452.207	484.12
452.428	480.12
452.648	481.12
452.869	458.12
453.089	460.12
453.31	471.12
453.53	474.12
453.751	475.12
453.971	473.12
454.192	476.12
454.412	496.12
454.633	470.12
454.853	463.12
455.073	476.12
455.294	484.12
455.514	538.12
455.734	538.12
455.955	469.12
456.175	437.12
456.395	467.12
456.616	463.12
456.836	461.12
457.056	454.12
457.276	474.12
457.497	463.12
457.717	454.12
457.937	458.12
458.157	452.12
458.377	467.12
458.598	503.12
458.818	555.12
459.038	628.12
459.258	613.12
459.478	560.12
459.698	550.12
459.918	525.12
460.138	506.12
460.358	525.12
460.578	532.12
460.798	530.12
461.018	545.12
461.238	555.12
461.458	553.12
461.678	549.12
461.898	565.12
462.118	552.12
462.338	556.12
462.558	565.12
462.777	574.12
462.997	604.12
463.217	602.12
463.437	628.12
463.657	600.12
463.876	586.12
464.096	572.12
464.316	556.12
464.536	583.12
464.755	590.12
464.975	606.12
465.195	584.12
465.414	672.12
465.634	581.12
465.854	549.12
466.073	539.12
466.293	505.12
466.512	529.12
466.732	516.12
466.951	484.12
467.171	475.12
467.391	500.12
467.61	519.12
467.829	515.12
468.049	519.12
468.268	485.12
468.488	500.12
468.707	498.12
468.927	489.12
469.146	490.12
469.365	489.12
469.585	470.12
469.804	494.12
470.023	524.12
470.243	520.12
470.462	510.12
470.681	540.12
470.901	519.12
471.12	508.12
471.339	497.12
471.558	509.12
471.777	496.12
471.997	481.12
472.216	499.12
472.435	514.12
472.654	532.12
472.873	505.12
473.092	503.12
473.311	510.12
473.53	493.12
473.749	506.12
473.968	522.12
474.187	603.12
474.406	619.12
474.625	545.12
474.844	532.12
475.063	522.12
475.282	520.12
475.501	503.12
475.72	509.12
475.939	502.12
476.158	504.12
476.377	524.12
476.596	534.12
476.814	555.12
477.033	532.12
477.252	539.12
477.471	511.12
477.69	520.12
477.908	577.12
478.127	544.12
478.346	554.12
478.564	544.12
478.783	570.12
479.002	588.12
479.22	606.12
479.439	592.12
479.658	601.12
479.876	601.12
480.095	618.12
480.313	649.12
480.532	643.12
480.751	646.12
480.969	646.12
481.188	697.12
481.406	690.12
481.624	637.12
481.843	639.12
482.061	588.12
482.28	596.12
482.498	597.12
482.717	588.12
482.935	593.12
483.153	590.12
483.372	587.12
483.59	578.12
483.808	568.12
484.027	600.12
484.245	593.12
484.463	589.12
484.681	617.12
484.9	619.12
485.118	611.12
485.336	621.12
485.554	603.12
485.772	601.12
485.99	603.12
486.209	630.12
486.427	619.12
486.645	634.12
486.863	648.12
487.081	635.12
487.299	627.12
487.517	625.12
487.735	629.12
487.953	597.12
488.171	594.12
488.389	624.12
488.607	640.12
488.825	632.12
489.043	620.12
489.261	650.12
489.479	629.12
489.696	640.12
489.914	658.12
490.132	635.12
490.35	644.12
490.568	658.12
490.786	654.12
491.003	676.12
491.221	682.12
491.439	677.12
491.657	701.12
491.874	694.12
492.092	696.12
492.31	702.12
492.527	703.12
492.745	702.12
492.963	711.12
493.18	715.12
493.398	720.12
493.615	715.12
493.833	739.12
494.05	733.12
494.268	754.12
494.485	729.12
494.703	717.12
494.92	724.12
495.138	731.12
495.355	749.12
495.573	738.12
495.79	754.12
496.008	753.12
496.225	739.12
496.442	733.12
496.66	742.12
496.877	755.12
497.094	732.12
497.312	741.12
497.529	786.12
497.746	776.12
497.963	793.12
498.181	807.12
498.398	847.12
498.615	861.12
498.832	901.12
499.049	897.12
499.267	930.12
499.484	949.12
499.701	1018.12
499.918	1048.12
500.135	1084.12
500.352	1169.12
500.569	1168.12
500.786	1189.12
501.003	1162.12
501.22	1099.12
501.437	1068.12
501.654	1033.12
501.871	984.12
