Data from 1979.PennyLincolnUp.Lamp.En5.5.200Scan.071719.P1_HRD10591_16-18-51-864.txt Node
Date: Thu Jul 18 16:18:51 EDT 2019
User: cochatt
Spectrometer: HR+D1059
Trigger mode: 1
Integration Time (sec): 1.000000E-1
Scans to average: 1
Electric dark correction enabled: true
Nonlinearity correction enabled: false
Boxcar width: 0
XAxis mode: Wavelengths
Number of Pixels in Spectrum: 2048
>>>>>Begin Spectral Data<<<<<
223.165	-20.75
223.4	-20.75
223.635	-20.75
223.869	-23.75
224.104	-28.75
224.338	-10.75
224.573	-10.75
224.808	-9.75
225.042	-16.75
225.277	-9.75
225.511	1.25
225.746	10.25
225.98	10.25
226.215	21.25
226.449	13.25
226.683	18.25
226.918	28.25
227.152	28.25
227.387	42.25
227.621	26.25
227.856	39.25
228.09	46.25
228.324	49.25
228.559	49.25
228.793	70.25
229.027	92.25
229.262	89.25
229.496	106.25
229.73	118.25
229.964	137.25
230.199	120.25
230.433	104.25
230.667	105.25
230.901	101.25
231.136	102.25
231.37	116.25
231.604	109.25
231.838	110.25
232.072	112.25
232.306	115.25
232.541	106.25
232.775	111.25
233.009	122.25
233.243	97.25
233.477	110.25
233.711	111.25
233.945	111.25
234.179	113.25
234.413	101.25
234.647	103.25
234.881	113.25
235.115	123.25
235.349	125.25
235.583	122.25
235.817	123.25
236.051	113.25
236.285	108.25
236.519	124.25
236.753	127.25
236.987	145.25
237.221	165.25
237.455	216.25
237.689	177.25
237.922	147.25
238.156	125.25
238.39	127.25
238.624	131.25
238.858	126.25
239.091	104.25
239.325	117.25
239.559	123.25
239.793	113.25
240.027	132.25
240.26	126.25
240.494	153.25
240.728	130.25
240.961	141.25
241.195	123.25
241.429	138.25
241.662	123.25
241.896	127.25
242.13	130.25
242.363	135.25
242.597	128.25
242.83	123.25
243.064	119.25
243.298	121.25
243.531	131.25
243.765	135.25
243.998	140.25
244.232	146.25
244.465	155.25
244.699	135.25
244.932	141.25
245.166	146.25
245.399	135.25
245.633	128.25
245.866	134.25
246.099	143.25
246.333	154.25
246.566	145.25
246.8	140.25
247.033	135.25
247.266	144.25
247.5	154.25
247.733	149.25
247.966	147.25
248.2	155.25
248.433	166.25
248.666	149.25
248.899	155.25
249.133	174.25
249.366	172.25
249.599	173.25
249.832	169.25
250.066	157.25
250.299	165.25
250.532	179.25
250.765	181.25
250.998	190.25
251.231	205.25
251.465	173.25
251.698	187.25
251.931	177.25
252.164	162.25
252.397	190.25
252.63	189.25
252.863	203.25
253.096	196.25
253.329	217.25
253.562	202.25
253.795	195.25
254.028	193.25
254.261	181.25
254.494	192.25
254.727	215.25
254.96	235.25
255.193	238.25
255.426	206.25
255.659	203.25
255.892	212.25
256.124	188.25
256.357	218.25
256.59	206.25
256.823	199.25
257.056	196.25
257.289	189.25
257.521	190.25
257.754	220.25
257.987	203.25
258.22	190.25
258.452	189.25
258.685	190.25
258.918	191.25
259.151	183.25
259.383	188.25
259.616	195.25
259.849	197.25
260.081	206.25
260.314	202.25
260.547	247.25
260.779	201.25
261.012	216.25
261.244	202.25
261.477	189.25
261.71	199.25
261.942	214.25
262.175	211.25
262.407	212.25
262.64	178.25
262.872	191.25
263.105	193.25
263.337	195.25
263.57	190.25
263.802	206.25
264.035	196.25
264.267	190.25
264.499	200.25
264.732	191.25
264.964	204.25
265.197	188.25
265.429	207.25
265.661	201.25
265.894	201.25
266.126	196.25
266.358	220.25
266.591	218.25
266.823	200.25
267.055	203.25
267.287	215.25
267.52	188.25
267.752	193.25
267.984	201.25
268.216	204.25
268.448	220.25
268.681	210.25
268.913	229.25
269.145	222.25
269.377	237.25
269.609	230.25
269.841	222.25
270.073	241.25
270.306	233.25
270.538	267.25
270.77	263.25
271.002	243.25
271.234	244.25
271.466	257.25
271.698	278.25
271.93	278.25
272.162	289.25
272.394	261.25
272.626	255.25
272.858	262.25
273.09	253.25
273.322	248.25
273.553	234.25
273.785	238.25
274.017	240.25
274.249	241.25
274.481	246.25
274.713	246.25
274.945	250.25
275.176	225.25
275.408	241.25
275.64	241.25
275.872	231.25
276.104	248.25
276.335	251.25
276.567	263.25
276.799	273.25
277.031	277.25
277.262	285.25
277.494	276.25
277.726	250.25
277.957	242.25
278.189	265.25
278.421	226.25
278.652	240.25
278.884	241.25
279.115	230.25
279.347	248.25
279.579	243.25
279.81	253.25
280.042	247.25
280.273	249.25
280.505	243.25
280.736	238.25
280.968	231.25
281.199	239.25
281.431	225.25
281.662	246.25
281.894	244.25
282.125	239.25
282.356	268.25
282.588	282.25
282.819	270.25
283.051	270.25
283.282	246.25
283.513	267.25
283.745	271.25
283.976	261.25
284.207	275.25
284.439	274.25
284.67	258.25
284.901	267.25
285.132	246.25
285.364	255.25
285.595	274.25
285.826	245.25
286.057	259.25
286.288	242.25
286.52	257.25
286.751	259.25
286.982	250.25
287.213	259.25
287.444	254.25
287.675	260.25
287.906	269.25
288.138	271.25
288.369	284.25
288.6	293.25
288.831	287.25
289.062	264.25
289.293	268.25
289.524	281.25
289.755	271.25
289.986	283.25
290.217	257.25
290.448	256.25
290.679	286.25
290.91	256.25
291.141	270.25
291.371	281.25
291.602	264.25
291.833	265.25
292.064	258.25
292.295	262.25
292.526	257.25
292.757	267.25
292.987	270.25
293.218	259.25
293.449	273.25
293.68	264.25
293.91	259.25
294.141	277.25
294.372	269.25
294.603	281.25
294.833	273.25
295.064	277.25
295.295	282.25
295.525	264.25
295.756	284.25
295.987	290.25
296.217	302.25
296.448	309.25
296.679	293.25
296.909	275.25
297.14	275.25
297.37	302.25
297.601	289.25
297.831	275.25
298.062	275.25
298.292	287.25
298.523	294.25
298.753	298.25
298.984	295.25
299.214	294.25
299.445	278.25
299.675	295.25
299.905	286.25
300.136	290.25
300.366	292.25
300.597	305.25
300.827	286.25
301.057	300.25
301.288	299.25
301.518	315.25
301.748	317.25
301.979	293.25
302.209	325.25
302.439	297.25
302.669	294.25
302.9	329.25
303.13	313.25
303.36	300.25
303.59	315.25
303.82	315.25
304.051	327.25
304.281	305.25
304.511	307.25
304.741	311.25
304.971	293.25
305.201	306.25
305.431	313.25
305.661	308.25
305.891	294.25
306.121	315.25
306.352	315.25
306.582	313.25
306.812	310.25
307.042	307.25
307.272	315.25
307.502	311.25
307.731	309.25
307.961	317.25
308.191	321.25
308.421	307.25
308.651	320.25
308.881	330.25
309.111	318.25
309.341	326.25
309.571	310.25
309.8	327.25
310.03	338.25
310.26	337.25
310.49	334.25
310.72	343.25
310.949	366.25
311.179	379.25
311.409	344.25
311.639	334.25
311.868	350.25
312.098	359.25
312.328	343.25
312.557	353.25
312.787	375.25
313.017	371.25
313.246	351.25
313.476	344.25
313.706	349.25
313.935	366.25
314.165	355.25
314.394	376.25
314.624	377.25
314.853	372.25
315.083	344.25
315.312	365.25
315.542	343.25
315.771	342.25
316.001	345.25
316.23	356.25
316.46	354.25
316.689	359.25
316.919	359.25
317.148	352.25
317.377	370.25
317.607	355.25
317.836	346.25
318.065	351.25
318.295	375.25
318.524	359.25
318.753	345.25
318.983	348.25
319.212	340.25
319.441	359.25
319.67	372.25
319.9	341.25
320.129	335.25
320.358	366.25
320.587	364.25
320.816	369.25
321.046	359.25
321.275	365.25
321.504	373.25
321.733	366.25
321.962	377.25
322.191	382.25
322.42	394.25
322.649	421.25
322.878	413.25
323.108	396.25
323.337	427.25
323.566	433.25
323.795	436.25
324.024	491.25
324.253	598.25
324.482	819.25
324.71	1286.25
324.939	1925.25
325.168	1657.25
325.397	847.25
325.626	584.25
325.855	501.25
326.084	463.25
326.313	443.25
326.542	456.25
326.77	494.25
326.999	568.25
327.228	779.25
327.457	1194.25
327.686	1481.25
327.914	939.25
328.143	629.25
328.372	558.25
328.6	523.25
328.829	497.25
329.058	495.25
329.287	502.25
329.515	485.25
329.744	471.25
329.972	443.25
330.201	451.25
330.43	478.25
330.658	541.25
330.887	561.25
331.115	521.25
331.344	468.25
331.572	455.25
331.801	460.25
332.03	434.25
332.258	426.25
332.486	430.25
332.715	411.25
332.943	419.25
333.172	430.25
333.4	445.25
333.629	470.25
333.857	441.25
334.085	457.25
334.314	477.25
334.542	497.25
334.771	500.25
334.999	491.25
335.227	453.25
335.455	448.25
335.684	441.25
335.912	414.25
336.14	434.25
336.369	413.25
336.597	433.25
336.825	405.25
337.053	416.25
337.281	425.25
337.51	413.25
337.738	419.25
337.966	410.25
338.194	408.25
338.422	400.25
338.65	408.25
338.878	413.25
339.106	391.25
339.334	416.25
339.562	387.25
339.79	389.25
340.018	381.25
340.246	392.25
340.474	408.25
340.702	417.25
340.93	397.25
341.158	383.25
341.386	416.25
341.614	415.25
341.842	412.25
342.07	421.25
342.298	417.25
342.526	403.25
342.754	407.25
342.981	372.25
343.209	380.25
343.437	387.25
343.665	421.25
343.893	420.25
344.12	451.25
344.348	403.25
344.576	436.25
344.804	441.25
345.031	420.25
345.259	428.25
345.487	412.25
345.714	406.25
345.942	415.25
346.17	381.25
346.397	392.25
346.625	407.25
346.853	396.25
347.08	391.25
347.308	397.25
347.535	384.25
347.763	406.25
347.99	398.25
348.218	396.25
348.445	392.25
348.673	392.25
348.9	389.25
349.128	408.25
349.355	383.25
349.583	384.25
349.81	379.25
350.037	380.25
350.265	367.25
350.492	378.25
350.72	371.25
350.947	383.25
351.174	382.25
351.402	412.25
351.629	394.25
351.856	409.25
352.083	391.25
352.311	407.25
352.538	420.25
352.765	399.25
352.992	380.25
353.22	390.25
353.447	391.25
353.674	392.25
353.901	385.25
354.128	378.25
354.355	376.25
354.583	389.25
354.81	375.25
355.037	362.25
355.264	371.25
355.491	378.25
355.718	358.25
355.945	367.25
356.172	367.25
356.399	373.25
356.626	377.25
356.853	367.25
357.08	361.25
357.307	379.25
357.534	364.25
357.761	357.25
357.988	389.25
358.215	385.25
358.441	369.25
358.668	389.25
358.895	395.25
359.122	364.25
359.349	383.25
359.576	394.25
359.802	384.25
360.029	435.25
360.256	430.25
360.483	432.25
360.709	385.25
360.936	390.25
361.163	407.25
361.39	398.25
361.616	382.25
361.843	406.25
362.07	391.25
362.296	411.25
362.523	399.25
362.749	379.25
362.976	392.25
363.203	397.25
363.429	387.25
363.656	409.25
363.882	389.25
364.109	399.25
364.335	383.25
364.562	396.25
364.788	368.25
365.015	382.25
365.241	383.25
365.468	377.25
365.694	373.25
365.92	385.25
366.147	394.25
366.373	399.25
366.599	382.25
366.826	376.25
367.052	393.25
367.278	385.25
367.505	379.25
367.731	392.25
367.957	392.25
368.184	373.25
368.41	391.25
368.636	419.25
368.862	419.25
369.089	387.25
369.315	391.25
369.541	395.25
369.767	401.25
369.993	397.25
370.219	403.25
370.445	395.25
370.672	383.25
370.898	385.25
371.124	391.25
371.35	389.25
371.576	397.25
371.802	392.25
372.028	397.25
372.254	404.25
372.48	389.25
372.706	394.25
372.932	402.25
373.158	395.25
373.384	390.25
373.61	407.25
373.835	399.25
374.061	382.25
374.287	399.25
374.513	400.25
374.739	425.25
374.965	407.25
375.191	406.25
375.416	417.25
375.642	385.25
375.868	393.25
376.094	405.25
376.319	392.25
376.545	375.25
376.771	407.25
376.997	386.25
377.222	414.25
377.448	393.25
377.674	401.25
377.899	387.25
378.125	397.25
378.35	383.25
378.576	389.25
378.802	389.25
379.027	373.25
379.253	399.25
379.478	406.25
379.704	399.25
379.929	389.25
380.155	383.25
380.38	396.25
380.606	391.25
380.831	405.25
381.057	412.25
381.282	388.25
381.507	397.25
381.733	381.25
381.958	391.25
382.184	401.25
382.409	411.25
382.634	404.25
382.86	406.25
383.085	411.25
383.31	413.25
383.535	414.25
383.761	413.25
383.986	414.25
384.211	435.25
384.436	418.25
384.662	409.25
384.887	407.25
385.112	421.25
385.337	424.25
385.562	456.25
385.787	434.25
386.013	472.25
386.238	448.25
386.463	442.25
386.688	445.25
386.913	428.25
387.138	453.25
387.363	445.25
387.588	431.25
387.813	445.25
388.038	425.25
388.263	426.25
388.488	454.25
388.713	449.25
388.938	449.25
389.163	449.25
389.387	426.25
389.612	439.25
389.837	459.25
390.062	437.25
390.287	449.25
390.512	436.25
390.736	424.25
390.961	430.25
391.186	447.25
391.411	441.25
391.636	450.25
391.86	453.25
392.085	466.25
392.31	478.25
392.534	456.25
392.759	451.25
392.984	428.25
393.208	453.25
393.433	472.25
393.658	468.25
393.882	459.25
394.107	441.25
394.331	470.25
394.556	457.25
394.78	453.25
395.005	441.25
395.229	448.25
395.454	458.25
395.678	451.25
395.903	471.25
396.127	517.25
396.352	492.25
396.576	454.25
396.801	469.25
397.025	446.25
397.249	474.25
397.474	466.25
397.698	470.25
397.922	491.25
398.147	498.25
398.371	515.25
398.595	510.25
398.82	503.25
399.044	503.25
399.268	544.25
399.492	570.25
399.717	606.25
399.941	634.25
400.165	635.25
400.389	679.25
400.613	579.25
400.837	566.25
401.062	544.25
401.286	544.25
401.51	517.25
401.734	529.25
401.958	514.25
402.182	521.25
402.406	533.25
402.63	528.25
402.854	547.25
403.078	532.25
403.302	554.25
403.526	547.25
403.75	521.25
403.974	539.25
404.198	549.25
404.422	553.25
404.645	566.25
404.869	571.25
405.093	594.25
405.317	625.25
405.541	651.25
405.765	589.25
405.988	580.25
406.212	584.25
406.436	598.25
406.66	619.25
406.883	597.25
407.107	598.25
407.331	647.25
407.555	699.25
407.778	705.25
408.002	645.25
408.226	628.25
408.449	588.25
408.673	603.25
408.896	613.25
409.12	657.25
409.344	611.25
409.567	577.25
409.791	554.25
410.014	537.25
410.238	557.25
410.461	540.25
410.685	568.25
410.908	577.25
411.132	582.25
411.355	624.25
411.578	587.25
411.802	540.25
412.025	546.25
412.249	557.25
412.472	576.25
412.695	589.25
412.919	594.25
413.142	537.25
413.365	551.25
413.589	538.25
413.812	531.25
414.035	534.25
414.258	525.25
414.482	516.25
414.705	520.25
414.928	508.25
415.151	532.25
415.374	519.25
415.597	533.25
415.821	511.25
416.044	533.25
416.267	535.25
416.49	494.25
416.713	510.25
416.936	511.25
417.159	520.25
417.382	506.25
417.605	542.25
417.828	535.25
418.051	499.25
418.274	540.25
418.497	505.25
418.72	521.25
418.943	505.25
419.166	550.25
419.389	558.25
419.611	552.25
419.834	553.25
420.057	545.25
420.28	547.25
420.503	555.25
420.726	526.25
420.948	550.25
421.171	590.25
421.394	591.25
421.617	570.25
421.839	523.25
422.062	530.25
422.285	539.25
422.507	587.25
422.73	679.25
422.953	661.25
423.175	574.25
423.398	585.25
423.621	550.25
423.843	569.25
424.066	576.25
424.288	567.25
424.511	563.25
424.733	623.25
424.956	705.25
425.178	674.25
425.401	688.25
425.623	709.25
425.846	588.25
426.068	565.25
426.291	548.25
426.513	558.25
426.735	590.25
426.958	627.25
427.18	657.25
427.402	803.25
427.625	866.25
427.847	784.25
428.069	671.25
428.292	605.25
428.514	563.25
428.736	555.25
428.958	514.25
429.181	534.25
429.403	493.25
429.625	529.25
429.847	571.25
430.069	620.25
430.292	595.25
430.514	537.25
430.736	533.25
430.958	507.25
431.18	503.25
431.402	496.25
431.624	505.25
431.846	486.25
432.068	507.25
432.29	517.25
432.512	517.25
432.734	505.25
432.956	509.25
433.178	514.25
433.4	507.25
433.622	513.25
433.844	487.25
434.066	511.25
434.287	503.25
434.509	503.25
434.731	507.25
434.953	516.25
435.175	538.25
435.397	573.25
435.618	552.25
435.84	599.25
436.062	674.25
436.284	729.25
436.505	631.25
436.727	591.25
436.949	527.25
437.17	542.25
437.392	533.25
437.614	542.25
437.835	575.25
438.057	638.25
438.278	734.25
438.5	732.25
438.721	801.25
438.943	775.25
439.165	620.25
439.386	558.25
439.608	565.25
439.829	561.25
440.05	585.25
440.272	651.25
440.493	612.25
440.715	573.25
440.936	560.25
441.158	551.25
441.379	551.25
441.6	551.25
441.822	573.25
442.043	579.25
442.264	656.25
442.486	716.25
442.707	627.25
442.928	586.25
443.149	591.25
443.371	604.25
443.592	643.25
443.813	707.25
444.034	769.25
444.255	638.25
444.476	584.25
444.698	549.25
444.919	590.25
445.14	680.25
445.361	639.25
445.582	623.25
445.803	667.25
446.024	735.25
446.245	766.25
446.466	673.25
446.687	598.25
446.908	576.25
447.129	549.25
447.35	545.25
447.571	528.25
447.792	518.25
448.013	523.25
448.234	539.25
448.455	552.25
448.675	669.25
448.896	783.25
449.117	686.25
449.338	638.25
449.559	720.25
449.779	838.25
450	671.25
450.221	548.25
450.442	534.25
450.662	500.25
450.883	534.25
451.104	533.25
451.324	539.25
451.545	478.25
451.766	500.25
451.986	457.25
452.207	492.25
452.428	472.25
452.648	452.25
452.869	466.25
453.089	477.25
453.31	494.25
453.53	460.25
453.751	463.25
453.971	454.25
454.192	498.25
454.412	473.25
454.633	476.25
454.853	450.25
455.073	455.25
455.294	476.25
455.514	534.25
455.734	541.25
455.955	464.25
456.175	428.25
456.395	447.25
456.616	439.25
456.836	462.25
457.056	441.25
457.276	431.25
457.497	454.25
457.717	458.25
457.937	444.25
458.157	461.25
458.377	462.25
458.598	481.25
458.818	531.25
459.038	605.25
459.258	615.25
459.478	537.25
459.698	520.25
459.918	518.25
460.138	498.25
460.358	528.25
460.578	524.25
460.798	550.25
461.018	538.25
461.238	542.25
461.458	522.25
461.678	504.25
461.898	523.25
462.118	531.25
462.338	537.25
462.558	560.25
462.777	551.25
462.997	574.25
463.217	583.25
463.437	580.25
463.657	565.25
463.876	580.25
464.096	548.25
464.316	561.25
464.536	573.25
464.755	572.25
464.975	571.25
465.195	618.25
465.414	668.25
465.634	595.25
465.854	558.25
466.073	516.25
466.293	522.25
466.512	518.25
466.732	480.25
466.951	510.25
467.171	504.25
467.391	513.25
467.61	504.25
467.829	514.25
468.049	488.25
468.268	496.25
468.488	480.25
468.707	466.25
468.927	494.25
469.146	474.25
469.365	478.25
469.585	480.25
469.804	490.25
470.023	501.25
470.243	499.25
470.462	506.25
470.681	524.25
470.901	519.25
471.12	511.25
471.339	499.25
471.558	499.25
471.777	516.25
471.997	500.25
472.216	481.25
472.435	514.25
472.654	502.25
472.873	495.25
473.092	492.25
473.311	467.25
473.53	487.25
473.749	517.25
473.968	545.25
474.187	619.25
474.406	624.25
474.625	535.25
474.844	491.25
475.063	507.25
475.282	488.25
475.501	501.25
475.72	507.25
475.939	508.25
476.158	501.25
476.377	510.25
476.596	499.25
476.814	511.25
477.033	511.25
477.252	517.25
477.471	548.25
477.69	519.25
477.908	558.25
478.127	542.25
478.346	549.25
478.564	567.25
478.783	569.25
479.002	578.25
479.22	579.25
479.439	590.25
479.658	606.25
479.876	614.25
480.095	597.25
480.313	620.25
480.532	627.25
480.751	609.25
480.969	630.25
481.188	637.25
481.406	677.25
481.624	630.25
481.843	611.25
482.061	582.25
482.28	574.25
482.498	556.25
482.717	580.25
482.935	574.25
483.153	604.25
483.372	567.25
483.59	571.25
483.808	568.25
484.027	570.25
484.245	568.25
484.463	551.25
484.681	586.25
484.9	583.25
485.118	597.25
485.336	581.25
485.554	600.25
485.772	611.25
485.99	599.25
486.209	590.25
486.427	613.25
486.645	617.25
486.863	636.25
487.081	643.25
487.299	630.25
487.517	611.25
487.735	634.25
487.953	610.25
488.171	617.25
488.389	628.25
488.607	645.25
488.825	618.25
489.043	620.25
489.261	599.25
489.479	625.25
489.696	618.25
489.914	645.25
490.132	661.25
490.35	614.25
490.568	637.25
490.786	664.25
491.003	674.25
491.221	672.25
491.439	689.25
491.657	663.25
491.874	675.25
492.092	673.25
492.31	705.25
492.527	686.25
492.745	710.25
492.963	696.25
493.18	725.25
493.398	720.25
493.615	703.25
493.833	715.25
494.05	693.25
494.268	751.25
494.485	734.25
494.703	714.25
494.92	734.25
495.138	716.25
495.355	711.25
495.573	724.25
495.79	728.25
496.008	727.25
496.225	710.25
496.442	719.25
496.66	738.25
496.877	741.25
497.094	734.25
497.312	754.25
497.529	777.25
497.746	767.25
497.963	766.25
498.181	806.25
498.398	840.25
498.615	835.25
498.832	835.25
499.049	867.25
499.267	904.25
499.484	937.25
499.701	974.25
499.918	1018.25
500.135	1061.25
500.352	1101.25
500.569	1158.25
500.786	1146.25
501.003	1111.25
501.22	1060.25
501.437	1017.25
501.654	983.25
501.871	982.25
