Data from 1979.PennyLincolnUp.Lamp.En5.5.200Scan.071719.P1_HRD10591_16-19-44-863.txt Node
Date: Thu Jul 18 16:19:44 EDT 2019
User: cochatt
Spectrometer: HR+D1059
Trigger mode: 1
Integration Time (sec): 1.000000E-1
Scans to average: 1
Electric dark correction enabled: true
Nonlinearity correction enabled: false
Boxcar width: 0
XAxis mode: Wavelengths
Number of Pixels in Spectrum: 2048
>>>>>Begin Spectral Data<<<<<
223.165	-18.56
223.4	-18.56
223.635	-18.56
223.869	-16.56
224.104	-21.56
224.338	-7.56
224.573	-9.56
224.808	-4.56
225.042	-2.56
225.277	-13.56
225.511	-13.56
225.746	1.44
225.98	3.44
226.215	18.44
226.449	16.44
226.683	22.44
226.918	22.44
227.152	23.44
227.387	28.44
227.621	54.44
227.856	44.44
228.09	44.44
228.324	49.44
228.559	48.44
228.793	73.44
229.027	107.44
229.262	102.44
229.496	103.44
229.73	125.44
229.964	141.44
230.199	125.44
230.433	113.44
230.667	107.44
230.901	124.44
231.136	115.44
231.37	112.44
231.604	111.44
231.838	117.44
232.072	93.44
232.306	111.44
232.541	109.44
232.775	101.44
233.009	115.44
233.243	109.44
233.477	99.44
233.711	123.44
233.945	103.44
234.179	106.44
234.413	100.44
234.647	111.44
234.881	108.44
235.115	108.44
235.349	123.44
235.583	124.44
235.817	117.44
236.051	126.44
236.285	115.44
236.519	119.44
236.753	133.44
236.987	136.44
237.221	159.44
237.455	201.44
237.689	179.44
237.922	133.44
238.156	126.44
238.39	132.44
238.624	116.44
238.858	141.44
239.091	123.44
239.325	118.44
239.559	131.44
239.793	131.44
240.027	133.44
240.26	139.44
240.494	154.44
240.728	142.44
240.961	147.44
241.195	157.44
241.429	131.44
241.662	135.44
241.896	139.44
242.13	133.44
242.363	122.44
242.597	132.44
242.83	135.44
243.064	131.44
243.298	138.44
243.531	130.44
243.765	136.44
243.998	142.44
244.232	130.44
244.465	148.44
244.699	145.44
244.932	147.44
245.166	147.44
245.399	145.44
245.633	154.44
245.866	158.44
246.099	162.44
246.333	137.44
246.566	151.44
246.8	155.44
247.033	149.44
247.266	170.44
247.5	165.44
247.733	155.44
247.966	151.44
248.2	170.44
248.433	166.44
248.666	168.44
248.899	175.44
249.133	171.44
249.366	199.44
249.599	175.44
249.832	178.44
250.066	171.44
250.299	181.44
250.532	178.44
250.765	175.44
250.998	221.44
251.231	220.44
251.465	195.44
251.698	195.44
251.931	196.44
252.164	165.44
252.397	193.44
252.63	193.44
252.863	190.44
253.096	192.44
253.329	192.44
253.562	210.44
253.795	203.44
254.028	224.44
254.261	207.44
254.494	204.44
254.727	227.44
254.96	250.44
255.193	249.44
255.426	229.44
255.659	213.44
255.892	223.44
256.124	211.44
256.357	229.44
256.59	220.44
256.823	203.44
257.056	215.44
257.289	188.44
257.521	200.44
257.754	212.44
257.987	198.44
258.22	202.44
258.452	202.44
258.685	200.44
258.918	181.44
259.151	203.44
259.383	202.44
259.616	201.44
259.849	203.44
260.081	220.44
260.314	251.44
260.547	245.44
260.779	227.44
261.012	221.44
261.244	224.44
261.477	214.44
261.71	203.44
261.942	240.44
262.175	225.44
262.407	211.44
262.64	188.44
262.872	203.44
263.105	198.44
263.337	204.44
263.57	198.44
263.802	208.44
264.035	186.44
264.267	195.44
264.499	203.44
264.732	202.44
264.964	221.44
265.197	211.44
265.429	213.44
265.661	190.44
265.894	210.44
266.126	212.44
266.358	206.44
266.591	201.44
266.823	216.44
267.055	209.44
267.287	219.44
267.52	212.44
267.752	224.44
267.984	227.44
268.216	229.44
268.448	226.44
268.681	213.44
268.913	242.44
269.145	259.44
269.377	244.44
269.609	247.44
269.841	244.44
270.073	242.44
270.306	258.44
270.538	282.44
270.77	283.44
271.002	269.44
271.234	275.44
271.466	287.44
271.698	275.44
271.93	305.44
272.162	303.44
272.394	302.44
272.626	271.44
272.858	246.44
273.09	267.44
273.322	245.44
273.553	246.44
273.785	244.44
274.017	236.44
274.249	243.44
274.481	253.44
274.713	237.44
274.945	231.44
275.176	244.44
275.408	262.44
275.64	245.44
275.872	243.44
276.104	255.44
276.335	259.44
276.567	250.44
276.799	275.44
277.031	278.44
277.262	300.44
277.494	301.44
277.726	271.44
277.957	291.44
278.189	270.44
278.421	268.44
278.652	267.44
278.884	263.44
279.115	248.44
279.347	271.44
279.579	255.44
279.81	253.44
280.042	262.44
280.273	266.44
280.505	256.44
280.736	266.44
280.968	263.44
281.199	264.44
281.431	263.44
281.662	253.44
281.894	274.44
282.125	259.44
282.356	289.44
282.588	294.44
282.819	296.44
283.051	256.44
283.282	272.44
283.513	274.44
283.745	295.44
283.976	279.44
284.207	282.44
284.439	290.44
284.67	261.44
284.901	259.44
285.132	275.44
285.364	272.44
285.595	276.44
285.826	271.44
286.057	269.44
286.288	263.44
286.52	276.44
286.751	266.44
286.982	269.44
287.213	267.44
287.444	283.44
287.675	273.44
287.906	298.44
288.138	297.44
288.369	304.44
288.6	293.44
288.831	300.44
289.062	293.44
289.293	288.44
289.524	271.44
289.755	282.44
289.986	276.44
290.217	282.44
290.448	293.44
290.679	293.44
290.91	289.44
291.141	288.44
291.371	293.44
291.602	288.44
291.833	284.44
292.064	294.44
292.295	288.44
292.526	296.44
292.757	285.44
292.987	269.44
293.218	276.44
293.449	296.44
293.68	287.44
293.91	301.44
294.141	269.44
294.372	292.44
294.603	293.44
294.833	280.44
295.064	280.44
295.295	292.44
295.525	283.44
295.756	283.44
295.987	294.44
296.217	327.44
296.448	334.44
296.679	307.44
296.909	284.44
297.14	285.44
297.37	280.44
297.601	293.44
297.831	309.44
298.062	285.44
298.292	306.44
298.523	305.44
298.753	312.44
298.984	305.44
299.214	316.44
299.445	308.44
299.675	302.44
299.905	319.44
300.136	303.44
300.366	308.44
300.597	317.44
300.827	308.44
301.057	316.44
301.288	311.44
301.518	319.44
301.748	326.44
301.979	319.44
302.209	318.44
302.439	323.44
302.669	335.44
302.9	319.44
303.13	332.44
303.36	333.44
303.59	330.44
303.82	321.44
304.051	327.44
304.281	332.44
304.511	332.44
304.741	325.44
304.971	316.44
305.201	316.44
305.431	333.44
305.661	322.44
305.891	330.44
306.121	330.44
306.352	337.44
306.582	329.44
306.812	325.44
307.042	333.44
307.272	346.44
307.502	335.44
307.731	336.44
307.961	346.44
308.191	327.44
308.421	321.44
308.651	337.44
308.881	335.44
309.111	335.44
309.341	331.44
309.571	370.44
309.8	337.44
310.03	356.44
310.26	373.44
310.49	359.44
310.72	356.44
310.949	374.44
311.179	399.44
311.409	362.44
311.639	362.44
311.868	373.44
312.098	370.44
312.328	372.44
312.557	390.44
312.787	392.44
313.017	394.44
313.246	362.44
313.476	387.44
313.706	381.44
313.935	384.44
314.165	393.44
314.394	398.44
314.624	373.44
314.853	385.44
315.083	379.44
315.312	360.44
315.542	374.44
315.771	349.44
316.001	358.44
316.23	359.44
316.46	353.44
316.689	372.44
316.919	379.44
317.148	362.44
317.377	383.44
317.607	385.44
317.836	362.44
318.065	375.44
318.295	383.44
318.524	377.44
318.753	360.44
318.983	359.44
319.212	384.44
319.441	385.44
319.67	386.44
319.9	377.44
320.129	367.44
320.358	387.44
320.587	373.44
320.816	381.44
321.046	386.44
321.275	374.44
321.504	396.44
321.733	395.44
321.962	414.44
322.191	416.44
322.42	418.44
322.649	446.44
322.878	425.44
323.108	435.44
323.337	473.44
323.566	475.44
323.795	510.44
324.024	547.44
324.253	654.44
324.482	896.44
324.71	1397.44
324.939	2074.44
325.168	1760.44
325.397	891.44
325.626	629.44
325.855	518.44
326.084	485.44
326.313	469.44
326.542	472.44
326.77	527.44
326.999	624.44
327.228	832.44
327.457	1236.44
327.686	1569.44
327.914	1019.44
328.143	675.44
328.372	597.44
328.6	547.44
328.829	541.44
329.058	523.44
329.287	535.44
329.515	537.44
329.744	476.44
329.972	493.44
330.201	499.44
330.43	539.44
330.658	544.44
330.887	564.44
331.115	579.44
331.344	509.44
331.572	479.44
331.801	496.44
332.03	500.44
332.258	501.44
332.486	448.44
332.715	471.44
332.943	451.44
333.172	455.44
333.4	462.44
333.629	480.44
333.857	491.44
334.085	489.44
334.314	503.44
334.542	553.44
334.771	562.44
334.999	507.44
335.227	492.44
335.455	446.44
335.684	465.44
335.912	458.44
336.14	456.44
336.369	470.44
336.597	454.44
336.825	461.44
337.053	461.44
337.281	458.44
337.51	421.44
337.738	443.44
337.966	437.44
338.194	437.44
338.422	456.44
338.65	445.44
338.878	432.44
339.106	444.44
339.334	431.44
339.562	431.44
339.79	428.44
340.018	453.44
340.246	419.44
340.474	447.44
340.702	442.44
340.93	447.44
341.158	425.44
341.386	451.44
341.614	428.44
341.842	431.44
342.07	411.44
342.298	432.44
342.526	427.44
342.754	427.44
342.981	431.44
343.209	424.44
343.437	423.44
343.665	417.44
343.893	434.44
344.12	471.44
344.348	471.44
344.576	436.44
344.804	452.44
345.031	434.44
345.259	445.44
345.487	453.44
345.714	440.44
345.942	431.44
346.17	400.44
346.397	430.44
346.625	426.44
346.853	424.44
347.08	426.44
347.308	431.44
347.535	433.44
347.763	445.44
347.99	431.44
348.218	436.44
348.445	437.44
348.673	418.44
348.9	421.44
349.128	409.44
349.355	404.44
349.583	409.44
349.81	389.44
350.037	387.44
350.265	400.44
350.492	401.44
350.72	400.44
350.947	416.44
351.174	416.44
351.402	435.44
351.629	427.44
351.856	417.44
352.083	446.44
352.311	425.44
352.538	450.44
352.765	449.44
352.992	419.44
353.22	427.44
353.447	424.44
353.674	411.44
353.901	423.44
354.128	395.44
354.355	398.44
354.583	419.44
354.81	389.44
355.037	414.44
355.264	382.44
355.491	368.44
355.718	387.44
355.945	401.44
356.172	381.44
356.399	398.44
356.626	387.44
356.853	400.44
357.08	418.44
357.307	408.44
357.534	377.44
357.761	391.44
357.988	402.44
358.215	402.44
358.441	392.44
358.668	413.44
358.895	401.44
359.122	405.44
359.349	417.44
359.576	436.44
359.802	426.44
360.029	449.44
360.256	472.44
360.483	428.44
360.709	416.44
360.936	419.44
361.163	434.44
361.39	412.44
361.616	425.44
361.843	422.44
362.07	426.44
362.296	443.44
362.523	432.44
362.749	420.44
362.976	419.44
363.203	416.44
363.429	410.44
363.656	422.44
363.882	405.44
364.109	419.44
364.335	405.44
364.562	417.44
364.788	415.44
365.015	416.44
365.241	414.44
365.468	417.44
365.694	417.44
365.92	438.44
366.147	416.44
366.373	419.44
366.599	403.44
366.826	393.44
367.052	422.44
367.278	411.44
367.505	410.44
367.731	413.44
367.957	412.44
368.184	392.44
368.41	419.44
368.636	415.44
368.862	441.44
369.089	422.44
369.315	408.44
369.541	435.44
369.767	417.44
369.993	437.44
370.219	411.44
370.445	412.44
370.672	436.44
370.898	422.44
371.124	411.44
371.35	409.44
371.576	409.44
371.802	415.44
372.028	412.44
372.254	435.44
372.48	410.44
372.706	401.44
372.932	426.44
373.158	440.44
373.384	425.44
373.61	427.44
373.835	448.44
374.061	427.44
374.287	425.44
374.513	421.44
374.739	441.44
374.965	428.44
375.191	438.44
375.416	431.44
375.642	423.44
375.868	431.44
376.094	419.44
376.319	421.44
376.545	407.44
376.771	420.44
376.997	401.44
377.222	417.44
377.448	429.44
377.674	427.44
377.899	419.44
378.125	401.44
378.35	409.44
378.576	429.44
378.802	414.44
379.027	428.44
379.253	435.44
379.478	421.44
379.704	434.44
379.929	415.44
380.155	422.44
380.38	423.44
380.606	444.44
380.831	415.44
381.057	443.44
381.282	420.44
381.507	431.44
381.733	423.44
381.958	424.44
382.184	424.44
382.409	427.44
382.634	445.44
382.86	427.44
383.085	431.44
383.31	443.44
383.535	455.44
383.761	464.44
383.986	455.44
384.211	444.44
384.436	448.44
384.662	466.44
384.887	455.44
385.112	471.44
385.337	451.44
385.562	431.44
385.787	448.44
386.013	481.44
386.238	453.44
386.463	477.44
386.688	474.44
386.913	464.44
387.138	463.44
387.363	474.44
387.588	438.44
387.813	459.44
388.038	470.44
388.263	462.44
388.488	478.44
388.713	480.44
388.938	473.44
389.163	471.44
389.387	467.44
389.612	462.44
389.837	487.44
390.062	464.44
390.287	473.44
390.512	468.44
390.736	455.44
390.961	467.44
391.186	452.44
391.411	482.44
391.636	475.44
391.86	481.44
392.085	514.44
392.31	473.44
392.534	515.44
392.759	481.44
392.984	471.44
393.208	470.44
393.433	471.44
393.658	473.44
393.882	501.44
394.107	469.44
394.331	490.44
394.556	477.44
394.78	478.44
395.005	487.44
395.229	485.44
395.454	499.44
395.678	513.44
395.903	506.44
396.127	531.44
396.352	519.44
396.576	504.44
396.801	493.44
397.025	496.44
397.249	517.44
397.474	531.44
397.698	537.44
397.922	530.44
398.147	532.44
398.371	573.44
398.595	541.44
398.82	565.44
399.044	570.44
399.268	577.44
399.492	649.44
399.717	667.44
399.941	672.44
400.165	699.44
400.389	682.44
400.613	629.44
400.837	587.44
401.062	623.44
401.286	571.44
401.51	547.44
401.734	536.44
401.958	565.44
402.182	541.44
402.406	599.44
402.63	578.44
402.854	584.44
403.078	571.44
403.302	569.44
403.526	584.44
403.75	590.44
403.974	595.44
404.198	582.44
404.422	596.44
404.645	579.44
404.869	585.44
405.093	624.44
405.317	659.44
405.541	696.44
405.765	633.44
405.988	601.44
406.212	616.44
406.436	641.44
406.66	656.44
406.883	614.44
407.107	682.44
407.331	700.44
407.555	771.44
407.778	790.44
408.002	713.44
408.226	662.44
408.449	630.44
408.673	653.44
408.896	665.44
409.12	718.44
409.344	682.44
409.567	619.44
409.791	596.44
410.014	604.44
410.238	586.44
410.461	599.44
410.685	588.44
410.908	628.44
411.132	641.44
411.355	675.44
411.578	680.44
411.802	596.44
412.025	597.44
412.249	609.44
412.472	651.44
412.695	660.44
412.919	653.44
413.142	580.44
413.365	560.44
413.589	592.44
413.812	585.44
414.035	570.44
414.258	578.44
414.482	577.44
414.705	585.44
414.928	559.44
415.151	563.44
415.374	557.44
415.597	543.44
415.821	552.44
416.044	548.44
416.267	559.44
416.49	540.44
416.713	566.44
416.936	505.44
417.159	544.44
417.382	553.44
417.605	553.44
417.828	586.44
418.051	597.44
418.274	577.44
418.497	560.44
418.72	560.44
418.943	546.44
419.166	579.44
419.389	597.44
419.611	607.44
419.834	597.44
420.057	581.44
420.28	593.44
420.503	578.44
420.726	573.44
420.948	568.44
421.171	624.44
421.394	649.44
421.617	612.44
421.839	586.44
422.062	565.44
422.285	597.44
422.507	635.44
422.73	715.44
422.953	677.44
423.175	653.44
423.398	609.44
423.621	593.44
423.843	631.44
424.066	598.44
424.288	609.44
424.511	626.44
424.733	680.44
424.956	743.44
425.178	722.44
425.401	735.44
425.623	762.44
425.846	646.44
426.068	603.44
426.291	623.44
426.513	610.44
426.735	613.44
426.958	660.44
427.18	727.44
427.402	870.44
427.625	943.44
427.847	836.44
428.069	717.44
428.292	665.44
428.514	585.44
428.736	584.44
428.958	584.44
429.181	575.44
429.403	533.44
429.625	578.44
429.847	619.44
430.069	675.44
430.292	645.44
430.514	573.44
430.736	591.44
430.958	568.44
431.18	541.44
431.402	525.44
431.624	531.44
431.846	509.44
432.068	544.44
432.29	538.44
432.512	550.44
432.734	531.44
432.956	543.44
433.178	564.44
433.4	563.44
433.622	555.44
433.844	538.44
434.066	531.44
434.287	537.44
434.509	561.44
434.731	572.44
434.953	582.44
435.175	569.44
435.397	607.44
435.618	606.44
435.84	657.44
436.062	755.44
436.284	796.44
436.505	693.44
436.727	628.44
436.949	603.44
437.17	568.44
437.392	564.44
437.614	565.44
437.835	609.44
438.057	706.44
438.278	792.44
438.5	787.44
438.721	889.44
438.943	811.44
439.165	687.44
439.386	619.44
439.608	603.44
439.829	613.44
440.05	644.44
440.272	678.44
440.493	657.44
440.715	605.44
440.936	595.44
441.158	571.44
441.379	554.44
441.6	591.44
441.822	616.44
442.043	664.44
442.264	693.44
442.486	763.44
442.707	667.44
442.928	617.44
443.149	624.44
443.371	667.44
443.592	691.44
443.813	791.44
444.034	858.44
444.255	690.44
444.476	647.44
444.698	637.44
444.919	636.44
445.14	726.44
445.361	687.44
445.582	647.44
445.803	693.44
446.024	806.44
446.245	814.44
446.466	759.44
446.687	638.44
446.908	604.44
447.129	575.44
447.35	565.44
447.571	587.44
447.792	555.44
448.013	559.44
448.234	583.44
448.455	602.44
448.675	736.44
448.896	823.44
449.117	717.44
449.338	661.44
449.559	802.44
449.779	904.44
450	727.44
450.221	607.44
450.442	566.44
450.662	541.44
450.883	549.44
451.104	561.44
451.324	561.44
451.545	534.44
451.766	529.44
451.986	518.44
452.207	510.44
452.428	502.44
452.648	525.44
452.869	500.44
453.089	484.44
453.31	528.44
453.53	505.44
453.751	511.44
453.971	530.44
454.192	516.44
454.412	487.44
454.633	480.44
454.853	485.44
455.073	513.44
455.294	528.44
455.514	564.44
455.734	551.44
455.955	497.44
456.175	474.44
456.395	467.44
456.616	490.44
456.836	501.44
457.056	488.44
457.276	465.44
457.497	486.44
457.717	484.44
457.937	501.44
458.157	515.44
458.377	483.44
458.598	528.44
458.818	563.44
459.038	644.44
459.258	675.44
459.478	579.44
459.698	539.44
459.918	549.44
460.138	537.44
460.358	562.44
460.578	557.44
460.798	578.44
461.018	570.44
461.238	579.44
461.458	559.44
461.678	541.44
461.898	575.44
462.118	575.44
462.338	594.44
462.558	615.44
462.777	597.44
462.997	600.44
463.217	656.44
463.437	641.44
463.657	611.44
463.876	603.44
464.096	588.44
464.316	604.44
464.536	625.44
464.755	631.44
464.975	619.44
465.195	655.44
465.414	706.44
465.634	645.44
465.854	572.44
466.073	565.44
466.293	533.44
466.512	546.44
466.732	511.44
466.951	539.44
467.171	520.44
467.391	527.44
467.61	536.44
467.829	552.44
468.049	555.44
468.268	529.44
468.488	513.44
468.707	521.44
468.927	533.44
469.146	514.44
469.365	508.44
469.585	510.44
469.804	503.44
470.023	551.44
470.243	549.44
470.462	564.44
470.681	550.44
470.901	563.44
471.12	555.44
471.339	537.44
471.558	540.44
471.777	538.44
471.997	509.44
472.216	525.44
472.435	580.44
472.654	552.44
472.873	512.44
473.092	524.44
473.311	499.44
473.53	517.44
473.749	544.44
473.968	575.44
474.187	678.44
474.406	661.44
474.625	584.44
474.844	543.44
475.063	531.44
475.282	524.44
475.501	547.44
475.72	535.44
475.939	540.44
476.158	557.44
476.377	547.44
476.596	551.44
476.814	560.44
477.033	563.44
477.252	561.44
477.471	565.44
477.69	557.44
477.908	561.44
478.127	584.44
478.346	574.44
478.564	589.44
478.783	621.44
479.002	616.44
479.22	629.44
479.439	657.44
479.658	628.44
479.876	624.44
480.095	648.44
480.313	668.44
480.532	644.44
480.751	657.44
480.969	667.44
481.188	716.44
481.406	739.44
481.624	657.44
481.843	649.44
482.061	631.44
482.28	613.44
482.498	608.44
482.717	614.44
482.935	656.44
483.153	627.44
483.372	627.44
483.59	624.44
483.808	627.44
484.027	607.44
484.245	611.44
484.463	636.44
484.681	629.44
484.9	641.44
485.118	639.44
485.336	629.44
485.554	625.44
485.772	630.44
485.99	639.44
486.209	638.44
486.427	657.44
486.645	675.44
486.863	675.44
487.081	677.44
487.299	641.44
487.517	662.44
487.735	662.44
487.953	657.44
488.171	688.44
488.389	659.44
488.607	668.44
488.825	684.44
489.043	675.44
489.261	677.44
489.479	681.44
489.696	664.44
489.914	647.44
490.132	668.44
490.35	690.44
490.568	697.44
490.786	689.44
491.003	680.44
491.221	742.44
491.439	730.44
491.657	760.44
491.874	738.44
492.092	746.44
492.31	745.44
492.527	753.44
492.745	769.44
492.963	752.44
493.18	749.44
493.398	763.44
493.615	764.44
493.833	770.44
494.05	772.44
494.268	762.44
494.485	767.44
494.703	755.44
494.92	755.44
495.138	780.44
495.355	769.44
495.573	803.44
495.79	779.44
496.008	779.44
496.225	782.44
496.442	799.44
496.66	787.44
496.877	827.44
497.094	817.44
497.312	805.44
497.529	835.44
497.746	824.44
497.963	833.44
498.181	856.44
498.398	859.44
498.615	883.44
498.832	933.44
499.049	921.44
499.267	967.44
499.484	1007.44
499.701	1064.44
499.918	1112.44
500.135	1165.44
500.352	1201.44
500.569	1257.44
500.786	1252.44
501.003	1201.44
501.22	1151.44
501.437	1093.44
501.654	1077.44
501.871	1063.44
