Data from 1979.PennyLincolnUp.Lamp.En5.5.200Scan.071719.P1_HRD10591_16-18-06-864.txt Node
Date: Thu Jul 18 16:18:06 EDT 2019
User: cochatt
Spectrometer: HR+D1059
Trigger mode: 1
Integration Time (sec): 1.000000E-1
Scans to average: 1
Electric dark correction enabled: true
Nonlinearity correction enabled: false
Boxcar width: 0
XAxis mode: Wavelengths
Number of Pixels in Spectrum: 2048
>>>>>Begin Spectral Data<<<<<
223.165	-19.88
223.4	-19.88
223.635	-19.88
223.869	-9.88
224.104	-15.88
224.338	-22.88
224.573	-15.88
224.808	-10.88
225.042	-10.88
225.277	-0.88
225.511	-11.88
225.746	4.12
225.98	12.12
226.215	11.12
226.449	13.12
226.683	20.12
226.918	30.12
227.152	28.12
227.387	33.12
227.621	26.12
227.856	37.12
228.09	46.12
228.324	56.12
228.559	57.12
228.793	62.12
229.027	94.12
229.262	86.12
229.496	85.12
229.73	95.12
229.964	119.12
230.199	113.12
230.433	94.12
230.667	106.12
230.901	92.12
231.136	105.12
231.37	107.12
231.604	107.12
231.838	108.12
232.072	100.12
232.306	112.12
232.541	108.12
232.775	116.12
233.009	96.12
233.243	84.12
233.477	103.12
233.711	109.12
233.945	102.12
234.179	113.12
234.413	114.12
234.647	112.12
234.881	104.12
235.115	103.12
235.349	115.12
235.583	109.12
235.817	110.12
236.051	98.12
236.285	106.12
236.519	121.12
236.753	115.12
236.987	127.12
237.221	145.12
237.455	180.12
237.689	160.12
237.922	117.12
238.156	110.12
238.39	121.12
238.624	107.12
238.858	103.12
239.091	108.12
239.325	131.12
239.559	128.12
239.793	133.12
240.027	118.12
240.26	135.12
240.494	127.12
240.728	118.12
240.961	126.12
241.195	126.12
241.429	118.12
241.662	126.12
241.896	123.12
242.13	116.12
242.363	122.12
242.597	130.12
242.83	121.12
243.064	119.12
243.298	125.12
243.531	121.12
243.765	127.12
243.998	123.12
244.232	132.12
244.465	124.12
244.699	127.12
244.932	126.12
245.166	126.12
245.399	120.12
245.633	125.12
245.866	121.12
246.099	142.12
246.333	125.12
246.566	135.12
246.8	130.12
247.033	133.12
247.266	139.12
247.5	146.12
247.733	133.12
247.966	144.12
248.2	150.12
248.433	156.12
248.666	149.12
248.899	159.12
249.133	160.12
249.366	179.12
249.599	173.12
249.832	162.12
250.066	140.12
250.299	152.12
250.532	165.12
250.765	170.12
250.998	157.12
251.231	181.12
251.465	163.12
251.698	177.12
251.931	157.12
252.164	142.12
252.397	157.12
252.63	150.12
252.863	161.12
253.096	179.12
253.329	182.12
253.562	185.12
253.795	197.12
254.028	163.12
254.261	186.12
254.494	180.12
254.727	177.12
254.96	227.12
255.193	199.12
255.426	180.12
255.659	197.12
255.892	190.12
256.124	176.12
256.357	177.12
256.59	174.12
256.823	172.12
257.056	183.12
257.289	176.12
257.521	176.12
257.754	173.12
257.987	162.12
258.22	164.12
258.452	179.12
258.685	161.12
258.918	173.12
259.151	180.12
259.383	184.12
259.616	171.12
259.849	178.12
260.081	189.12
260.314	215.12
260.547	203.12
260.779	202.12
261.012	192.12
261.244	190.12
261.477	182.12
261.71	171.12
261.942	196.12
262.175	187.12
262.407	197.12
262.64	192.12
262.872	172.12
263.105	188.12
263.337	188.12
263.57	188.12
263.802	172.12
264.035	169.12
264.267	176.12
264.499	177.12
264.732	182.12
264.964	169.12
265.197	191.12
265.429	182.12
265.661	192.12
265.894	184.12
266.126	185.12
266.358	170.12
266.591	195.12
266.823	191.12
267.055	193.12
267.287	205.12
267.52	195.12
267.752	188.12
267.984	195.12
268.216	194.12
268.448	181.12
268.681	212.12
268.913	194.12
269.145	220.12
269.377	218.12
269.609	214.12
269.841	216.12
270.073	217.12
270.306	259.12
270.538	239.12
270.77	221.12
271.002	234.12
271.234	224.12
271.466	218.12
271.698	267.12
271.93	245.12
272.162	228.12
272.394	235.12
272.626	225.12
272.858	239.12
273.09	215.12
273.322	221.12
273.553	213.12
273.785	213.12
274.017	213.12
274.249	222.12
274.481	220.12
274.713	235.12
274.945	206.12
275.176	214.12
275.408	212.12
275.64	221.12
275.872	213.12
276.104	220.12
276.335	219.12
276.567	231.12
276.799	230.12
277.031	237.12
277.262	246.12
277.494	250.12
277.726	239.12
277.957	232.12
278.189	213.12
278.421	233.12
278.652	219.12
278.884	220.12
279.115	229.12
279.347	212.12
279.579	232.12
279.81	216.12
280.042	213.12
280.273	223.12
280.505	223.12
280.736	226.12
280.968	220.12
281.199	209.12
281.431	224.12
281.662	225.12
281.894	222.12
282.125	223.12
282.356	231.12
282.588	250.12
282.819	243.12
283.051	241.12
283.282	221.12
283.513	224.12
283.745	242.12
283.976	242.12
284.207	236.12
284.439	244.12
284.67	241.12
284.901	236.12
285.132	232.12
285.364	230.12
285.595	228.12
285.826	217.12
286.057	244.12
286.288	224.12
286.52	248.12
286.751	235.12
286.982	243.12
287.213	233.12
287.444	244.12
287.675	254.12
287.906	230.12
288.138	237.12
288.369	236.12
288.6	251.12
288.831	234.12
289.062	247.12
289.293	242.12
289.524	243.12
289.755	239.12
289.986	243.12
290.217	236.12
290.448	250.12
290.679	248.12
290.91	250.12
291.141	231.12
291.371	242.12
291.602	244.12
291.833	247.12
292.064	247.12
292.295	236.12
292.526	252.12
292.757	247.12
292.987	234.12
293.218	237.12
293.449	240.12
293.68	233.12
293.91	250.12
294.141	235.12
294.372	244.12
294.603	241.12
294.833	245.12
295.064	249.12
295.295	242.12
295.525	252.12
295.756	251.12
295.987	241.12
296.217	271.12
296.448	284.12
296.679	268.12
296.909	231.12
297.14	265.12
297.37	265.12
297.601	263.12
297.831	256.12
298.062	248.12
298.292	245.12
298.523	282.12
298.753	252.12
298.984	257.12
299.214	268.12
299.445	261.12
299.675	274.12
299.905	261.12
300.136	264.12
300.366	276.12
300.597	247.12
300.827	272.12
301.057	270.12
301.288	266.12
301.518	264.12
301.748	268.12
301.979	260.12
302.209	260.12
302.439	283.12
302.669	292.12
302.9	280.12
303.13	258.12
303.36	269.12
303.59	276.12
303.82	285.12
304.051	260.12
304.281	269.12
304.511	264.12
304.741	272.12
304.971	271.12
305.201	246.12
305.431	260.12
305.661	292.12
305.891	274.12
306.121	285.12
306.352	286.12
306.582	289.12
306.812	258.12
307.042	286.12
307.272	278.12
307.502	301.12
307.731	297.12
307.961	284.12
308.191	273.12
308.421	279.12
308.651	284.12
308.881	289.12
309.111	281.12
309.341	285.12
309.571	284.12
309.8	300.12
310.03	304.12
310.26	324.12
310.49	300.12
310.72	308.12
310.949	323.12
311.179	336.12
311.409	312.12
311.639	306.12
311.868	301.12
312.098	309.12
312.328	307.12
312.557	315.12
312.787	322.12
313.017	312.12
313.246	322.12
313.476	311.12
313.706	309.12
313.935	298.12
314.165	314.12
314.394	328.12
314.624	326.12
314.853	309.12
315.083	322.12
315.312	315.12
315.542	313.12
315.771	331.12
316.001	316.12
316.23	309.12
316.46	293.12
316.689	320.12
316.919	313.12
317.148	315.12
317.377	337.12
317.607	309.12
317.836	314.12
318.065	332.12
318.295	324.12
318.524	320.12
318.753	295.12
318.983	321.12
319.212	306.12
319.441	318.12
319.67	337.12
319.9	325.12
320.129	312.12
320.358	331.12
320.587	313.12
320.816	311.12
321.046	297.12
321.275	321.12
321.504	324.12
321.733	353.12
321.962	338.12
322.191	354.12
322.42	339.12
322.649	356.12
322.878	355.12
323.108	372.12
323.337	384.12
323.566	401.12
323.795	398.12
324.024	445.12
324.253	542.12
324.482	730.12
324.71	1099.12
324.939	1636.12
325.168	1450.12
325.397	706.12
325.626	489.12
325.855	429.12
326.084	390.12
326.313	380.12
326.542	401.12
326.77	426.12
326.999	490.12
327.228	654.12
327.457	1023.12
327.686	1270.12
327.914	825.12
328.143	537.12
328.372	465.12
328.6	461.12
328.829	445.12
329.058	439.12
329.287	464.12
329.515	440.12
329.744	412.12
329.972	391.12
330.201	418.12
330.43	447.12
330.658	424.12
330.887	455.12
331.115	483.12
331.344	405.12
331.572	388.12
331.801	410.12
332.03	394.12
332.258	402.12
332.486	360.12
332.715	378.12
332.943	373.12
333.172	382.12
333.4	392.12
333.629	383.12
333.857	391.12
334.085	437.12
334.314	428.12
334.542	432.12
334.771	421.12
334.999	408.12
335.227	401.12
335.455	392.12
335.684	372.12
335.912	376.12
336.14	379.12
336.369	392.12
336.597	382.12
336.825	373.12
337.053	364.12
337.281	374.12
337.51	361.12
337.738	374.12
337.966	369.12
338.194	374.12
338.422	386.12
338.65	341.12
338.878	361.12
339.106	358.12
339.334	358.12
339.562	361.12
339.79	365.12
340.018	372.12
340.246	355.12
340.474	376.12
340.702	384.12
340.93	373.12
341.158	356.12
341.386	368.12
341.614	357.12
341.842	362.12
342.07	355.12
342.298	368.12
342.526	351.12
342.754	334.12
342.981	348.12
343.209	357.12
343.437	360.12
343.665	365.12
343.893	375.12
344.12	374.12
344.348	372.12
344.576	357.12
344.804	370.12
345.031	378.12
345.259	374.12
345.487	360.12
345.714	376.12
345.942	346.12
346.17	363.12
346.397	357.12
346.625	374.12
346.853	359.12
347.08	364.12
347.308	373.12
347.535	362.12
347.763	376.12
347.99	358.12
348.218	354.12
348.445	356.12
348.673	363.12
348.9	350.12
349.128	380.12
349.355	360.12
349.583	347.12
349.81	348.12
350.037	353.12
350.265	329.12
350.492	351.12
350.72	330.12
350.947	338.12
351.174	352.12
351.402	357.12
351.629	348.12
351.856	358.12
352.083	367.12
352.311	362.12
352.538	370.12
352.765	386.12
352.992	344.12
353.22	357.12
353.447	348.12
353.674	361.12
353.901	345.12
354.128	344.12
354.355	323.12
354.583	335.12
354.81	331.12
355.037	349.12
355.264	332.12
355.491	323.12
355.718	340.12
355.945	346.12
356.172	338.12
356.399	325.12
356.626	324.12
356.853	341.12
357.08	324.12
357.307	333.12
357.534	328.12
357.761	328.12
357.988	337.12
358.215	345.12
358.441	351.12
358.668	349.12
358.895	345.12
359.122	362.12
359.349	360.12
359.576	345.12
359.802	386.12
360.029	411.12
360.256	390.12
360.483	376.12
360.709	363.12
360.936	360.12
361.163	363.12
361.39	338.12
361.616	363.12
361.843	346.12
362.07	363.12
362.296	349.12
362.523	352.12
362.749	352.12
362.976	348.12
363.203	351.12
363.429	347.12
363.656	345.12
363.882	333.12
364.109	345.12
364.335	340.12
364.562	330.12
364.788	344.12
365.015	354.12
365.241	345.12
365.468	347.12
365.694	353.12
365.92	354.12
366.147	335.12
366.373	354.12
366.599	332.12
366.826	326.12
367.052	338.12
367.278	339.12
367.505	346.12
367.731	355.12
367.957	364.12
368.184	339.12
368.41	355.12
368.636	368.12
368.862	358.12
369.089	355.12
369.315	360.12
369.541	354.12
369.767	359.12
369.993	350.12
370.219	363.12
370.445	350.12
370.672	345.12
370.898	351.12
371.124	370.12
371.35	352.12
371.576	342.12
371.802	349.12
372.028	334.12
372.254	354.12
372.48	361.12
372.706	360.12
372.932	353.12
373.158	338.12
373.384	342.12
373.61	377.12
373.835	391.12
374.061	372.12
374.287	357.12
374.513	366.12
374.739	357.12
374.965	368.12
375.191	378.12
375.416	359.12
375.642	357.12
375.868	369.12
376.094	342.12
376.319	356.12
376.545	363.12
376.771	345.12
376.997	340.12
377.222	350.12
377.448	366.12
377.674	358.12
377.899	346.12
378.125	350.12
378.35	348.12
378.576	342.12
378.802	351.12
379.027	347.12
379.253	373.12
379.478	345.12
379.704	336.12
379.929	358.12
380.155	358.12
380.38	342.12
380.606	341.12
380.831	355.12
381.057	355.12
381.282	351.12
381.507	360.12
381.733	356.12
381.958	370.12
382.184	342.12
382.409	374.12
382.634	378.12
382.86	368.12
383.085	370.12
383.31	380.12
383.535	362.12
383.761	384.12
383.986	370.12
384.211	363.12
384.436	390.12
384.662	400.12
384.887	394.12
385.112	385.12
385.337	399.12
385.562	395.12
385.787	374.12
386.013	392.12
386.238	400.12
386.463	395.12
386.688	408.12
386.913	380.12
387.138	390.12
387.363	399.12
387.588	377.12
387.813	412.12
388.038	402.12
388.263	404.12
388.488	391.12
388.713	408.12
388.938	393.12
389.163	395.12
389.387	400.12
389.612	386.12
389.837	405.12
390.062	385.12
390.287	407.12
390.512	384.12
390.736	389.12
390.961	420.12
391.186	392.12
391.411	431.12
391.636	396.12
391.86	392.12
392.085	422.12
392.31	413.12
392.534	434.12
392.759	419.12
392.984	422.12
393.208	418.12
393.433	418.12
393.658	427.12
393.882	402.12
394.107	390.12
394.331	423.12
394.556	408.12
394.78	404.12
395.005	396.12
395.229	412.12
395.454	409.12
395.678	450.12
395.903	408.12
396.127	425.12
396.352	447.12
396.576	431.12
396.801	423.12
397.025	418.12
397.249	434.12
397.474	434.12
397.698	429.12
397.922	455.12
398.147	457.12
398.371	448.12
398.595	451.12
398.82	461.12
399.044	471.12
399.268	508.12
399.492	530.12
399.717	558.12
399.941	567.12
400.165	562.12
400.389	552.12
400.613	537.12
400.837	515.12
401.062	469.12
401.286	477.12
401.51	466.12
401.734	477.12
401.958	480.12
402.182	465.12
402.406	478.12
402.63	507.12
402.854	475.12
403.078	481.12
403.302	506.12
403.526	486.12
403.75	486.12
403.974	483.12
404.198	509.12
404.422	484.12
404.645	498.12
404.869	462.12
405.093	509.12
405.317	553.12
405.541	586.12
405.765	527.12
405.988	494.12
406.212	528.12
406.436	508.12
406.66	542.12
406.883	526.12
407.107	552.12
407.331	577.12
407.555	638.12
407.778	649.12
408.002	574.12
408.226	548.12
408.449	538.12
408.673	554.12
408.896	574.12
409.12	580.12
409.344	584.12
409.567	534.12
409.791	513.12
410.014	509.12
410.238	485.12
410.461	505.12
410.685	505.12
410.908	527.12
411.132	527.12
411.355	542.12
411.578	544.12
411.802	475.12
412.025	473.12
412.249	499.12
412.472	521.12
412.695	564.12
412.919	541.12
413.142	508.12
413.365	498.12
413.589	459.12
413.812	475.12
414.035	475.12
414.258	479.12
414.482	485.12
414.705	473.12
414.928	466.12
415.151	473.12
415.374	468.12
415.597	466.12
415.821	449.12
416.044	459.12
416.267	475.12
416.49	458.12
416.713	478.12
416.936	473.12
417.159	469.12
417.382	452.12
417.605	462.12
417.828	483.12
418.051	486.12
418.274	486.12
418.497	444.12
418.72	450.12
418.943	464.12
419.166	486.12
419.389	501.12
419.611	492.12
419.834	484.12
420.057	477.12
420.28	500.12
420.503	493.12
420.726	478.12
420.948	482.12
421.171	523.12
421.394	564.12
421.617	491.12
421.839	471.12
422.062	462.12
422.285	503.12
422.507	549.12
422.73	589.12
422.953	590.12
423.175	538.12
423.398	482.12
423.621	486.12
423.843	511.12
424.066	508.12
424.288	516.12
424.511	517.12
424.733	542.12
424.956	621.12
425.178	599.12
425.401	606.12
425.623	622.12
425.846	551.12
426.068	515.12
426.291	512.12
426.513	475.12
426.735	490.12
426.958	546.12
427.18	611.12
427.402	682.12
427.625	792.12
427.847	667.12
428.069	579.12
428.292	533.12
428.514	484.12
428.736	487.12
428.958	468.12
429.181	461.12
429.403	466.12
429.625	466.12
429.847	514.12
430.069	548.12
430.292	549.12
430.514	489.12
430.736	490.12
430.958	489.12
431.18	468.12
431.402	442.12
431.624	451.12
431.846	450.12
432.068	462.12
432.29	457.12
432.512	449.12
432.734	450.12
432.956	433.12
433.178	458.12
433.4	484.12
433.622	471.12
433.844	452.12
434.066	453.12
434.287	463.12
434.509	440.12
434.731	456.12
434.953	491.12
435.175	494.12
435.397	495.12
435.618	505.12
435.84	541.12
436.062	588.12
436.284	658.12
436.505	557.12
436.727	510.12
436.949	477.12
437.17	465.12
437.392	461.12
437.614	482.12
437.835	484.12
438.057	590.12
438.278	657.12
438.5	650.12
438.721	714.12
438.943	701.12
439.165	553.12
439.386	522.12
439.608	523.12
439.829	509.12
440.05	534.12
440.272	580.12
440.493	534.12
440.715	490.12
440.936	509.12
441.158	477.12
441.379	486.12
441.6	504.12
441.822	526.12
442.043	547.12
442.264	625.12
442.486	639.12
442.707	554.12
442.928	550.12
443.149	530.12
443.371	509.12
443.592	573.12
443.813	605.12
444.034	697.12
444.255	577.12
444.476	524.12
444.698	524.12
444.919	541.12
445.14	666.12
445.361	602.12
445.582	560.12
445.803	583.12
446.024	676.12
446.245	646.12
446.466	589.12
446.687	550.12
446.908	504.12
447.129	486.12
447.35	474.12
447.571	467.12
447.792	469.12
448.013	478.12
448.234	490.12
448.455	515.12
448.675	600.12
448.896	713.12
449.117	598.12
449.338	566.12
449.559	666.12
449.779	726.12
450	597.12
450.221	496.12
450.442	452.12
450.662	462.12
450.883	449.12
451.104	478.12
451.324	457.12
451.545	459.12
451.766	426.12
451.986	435.12
452.207	433.12
452.428	440.12
452.648	412.12
452.869	411.12
453.089	424.12
453.31	457.12
453.53	429.12
453.751	409.12
453.971	422.12
454.192	434.12
454.412	411.12
454.633	426.12
454.853	404.12
455.073	429.12
455.294	441.12
455.514	497.12
455.734	475.12
455.955	426.12
456.175	400.12
456.395	392.12
456.616	399.12
456.836	416.12
457.056	408.12
457.276	390.12
457.497	413.12
457.717	416.12
457.937	402.12
458.157	390.12
458.377	413.12
458.598	448.12
458.818	500.12
459.038	538.12
459.258	576.12
459.478	489.12
459.698	466.12
459.918	461.12
460.138	464.12
460.358	467.12
460.578	436.12
460.798	467.12
461.018	488.12
461.238	471.12
461.458	465.12
461.678	463.12
461.898	487.12
462.118	499.12
462.338	480.12
462.558	500.12
462.777	493.12
462.997	522.12
463.217	553.12
463.437	524.12
463.657	506.12
463.876	524.12
464.096	508.12
464.316	502.12
464.536	556.12
464.755	501.12
464.975	508.12
465.195	536.12
465.414	574.12
465.634	532.12
465.854	473.12
466.073	452.12
466.293	442.12
466.512	433.12
466.732	447.12
466.951	442.12
467.171	462.12
467.391	460.12
467.61	434.12
467.829	444.12
468.049	457.12
468.268	472.12
468.488	454.12
468.707	429.12
468.927	455.12
469.146	419.12
469.365	431.12
469.585	438.12
469.804	426.12
470.023	456.12
470.243	461.12
470.462	436.12
470.681	483.12
470.901	467.12
471.12	461.12
471.339	441.12
471.558	441.12
471.777	445.12
471.997	443.12
472.216	443.12
472.435	474.12
472.654	470.12
472.873	461.12
473.092	456.12
473.311	438.12
473.53	427.12
473.749	432.12
473.968	458.12
474.187	541.12
474.406	582.12
474.625	472.12
474.844	452.12
475.063	449.12
475.282	446.12
475.501	455.12
475.72	453.12
475.939	462.12
476.158	461.12
476.377	434.12
476.596	468.12
476.814	480.12
477.033	466.12
477.252	478.12
477.471	459.12
477.69	479.12
477.908	493.12
478.127	494.12
478.346	486.12
478.564	508.12
478.783	500.12
479.002	519.12
479.22	516.12
479.439	542.12
479.658	553.12
479.876	534.12
480.095	554.12
480.313	561.12
480.532	568.12
480.751	553.12
480.969	549.12
481.188	580.12
481.406	601.12
481.624	577.12
481.843	512.12
482.061	530.12
482.28	497.12
482.498	521.12
482.717	539.12
482.935	490.12
483.153	523.12
483.372	526.12
483.59	498.12
483.808	528.12
484.027	532.12
484.245	522.12
484.463	502.12
484.681	506.12
484.9	530.12
485.118	530.12
485.336	533.12
485.554	540.12
485.772	548.12
485.99	549.12
486.209	531.12
486.427	530.12
486.645	553.12
486.863	566.12
487.081	562.12
487.299	545.12
487.517	550.12
487.735	549.12
487.953	561.12
488.171	577.12
488.389	574.12
488.607	570.12
488.825	581.12
489.043	545.12
489.261	577.12
489.479	581.12
489.696	554.12
489.914	565.12
490.132	567.12
490.35	575.12
490.568	587.12
490.786	585.12
491.003	605.12
491.221	593.12
491.439	624.12
491.657	601.12
491.874	631.12
492.092	626.12
492.31	631.12
492.527	616.12
492.745	642.12
492.963	628.12
493.18	660.12
493.398	648.12
493.615	646.12
493.833	648.12
494.05	645.12
494.268	656.12
494.485	627.12
494.703	632.12
494.92	646.12
495.138	660.12
495.355	648.12
495.573	642.12
495.79	673.12
496.008	665.12
496.225	647.12
496.442	665.12
496.66	651.12
496.877	658.12
497.094	654.12
497.312	649.12
497.529	680.12
497.746	694.12
497.963	704.12
498.181	740.12
498.398	726.12
498.615	729.12
498.832	757.12
499.049	766.12
499.267	796.12
499.484	834.12
499.701	870.12
499.918	931.12
500.135	950.12
500.352	995.12
500.569	1046.12
500.786	1015.12
501.003	1008.12
501.22	936.12
501.437	957.12
501.654	886.12
501.871	848.12
502.088	834.12
