Data from 1979.PennyLincolnUp.Lamp.En5.5.200Scan.071719.P1_HRD10591_16-17-36-863.txt Node
Date: Thu Jul 18 16:17:36 EDT 2019
User: cochatt
Spectrometer: HR+D1059
Trigger mode: 1
Integration Time (sec): 1.000000E-1
Scans to average: 1
Electric dark correction enabled: true
Nonlinearity correction enabled: false
Boxcar width: 0
XAxis mode: Wavelengths
Number of Pixels in Spectrum: 2048
>>>>>Begin Spectral Data<<<<<
223.165	-3.81
223.4	-3.81
223.635	-3.81
223.869	-21.81
224.104	-16.81
224.338	-17.81
224.573	-7.81
224.808	-29.81
225.042	-9.81
225.277	-0.81
225.511	-3.81
225.746	4.19
225.98	9.19
226.215	12.19
226.449	19.19
226.683	3.19
226.918	21.19
227.152	43.19
227.387	40.19
227.621	35.19
227.856	39.19
228.09	36.19
228.324	59.19
228.559	56.19
228.793	56.19
229.027	84.19
229.262	97.19
229.496	123.19
229.73	112.19
229.964	129.19
230.199	119.19
230.433	106.19
230.667	104.19
230.901	113.19
231.136	104.19
231.37	119.19
231.604	106.19
231.838	112.19
232.072	121.19
232.306	111.19
232.541	113.19
232.775	118.19
233.009	118.19
233.243	119.19
233.477	99.19
233.711	127.19
233.945	112.19
234.179	120.19
234.413	118.19
234.647	122.19
234.881	119.19
235.115	106.19
235.349	118.19
235.583	94.19
235.817	121.19
236.051	124.19
236.285	109.19
236.519	116.19
236.753	111.19
236.987	129.19
237.221	156.19
237.455	176.19
237.689	155.19
237.922	132.19
238.156	124.19
238.39	121.19
238.624	123.19
238.858	121.19
239.091	119.19
239.325	123.19
239.559	122.19
239.793	109.19
240.027	119.19
240.26	136.19
240.494	132.19
240.728	137.19
240.961	134.19
241.195	126.19
241.429	125.19
241.662	118.19
241.896	134.19
242.13	112.19
242.363	123.19
242.597	118.19
242.83	136.19
243.064	128.19
243.298	126.19
243.531	132.19
243.765	129.19
243.998	146.19
244.232	144.19
244.465	130.19
244.699	128.19
244.932	127.19
245.166	135.19
245.399	141.19
245.633	133.19
245.866	141.19
246.099	146.19
246.333	153.19
246.566	143.19
246.8	142.19
247.033	144.19
247.266	146.19
247.5	143.19
247.733	154.19
247.966	143.19
248.2	155.19
248.433	164.19
248.666	161.19
248.899	157.19
249.133	172.19
249.366	172.19
249.599	161.19
249.832	163.19
250.066	171.19
250.299	162.19
250.532	163.19
250.765	165.19
250.998	172.19
251.231	188.19
251.465	169.19
251.698	177.19
251.931	171.19
252.164	167.19
252.397	167.19
252.63	175.19
252.863	194.19
253.096	192.19
253.329	188.19
253.562	196.19
253.795	180.19
254.028	188.19
254.261	194.19
254.494	196.19
254.727	204.19
254.96	207.19
255.193	210.19
255.426	206.19
255.659	188.19
255.892	192.19
256.124	192.19
256.357	193.19
256.59	175.19
256.823	176.19
257.056	186.19
257.289	198.19
257.521	185.19
257.754	183.19
257.987	180.19
258.22	181.19
258.452	175.19
258.685	202.19
258.918	183.19
259.151	187.19
259.383	178.19
259.616	182.19
259.849	192.19
260.081	191.19
260.314	200.19
260.547	222.19
260.779	194.19
261.012	197.19
261.244	196.19
261.477	196.19
261.71	181.19
261.942	191.19
262.175	200.19
262.407	195.19
262.64	181.19
262.872	170.19
263.105	188.19
263.337	197.19
263.57	209.19
263.802	188.19
264.035	174.19
264.267	193.19
264.499	178.19
264.732	188.19
264.964	189.19
265.197	197.19
265.429	180.19
265.661	207.19
265.894	207.19
266.126	200.19
266.358	182.19
266.591	190.19
266.823	188.19
267.055	214.19
267.287	210.19
267.52	186.19
267.752	201.19
267.984	204.19
268.216	189.19
268.448	223.19
268.681	204.19
268.913	206.19
269.145	208.19
269.377	228.19
269.609	226.19
269.841	204.19
270.073	213.19
270.306	231.19
270.538	244.19
270.77	233.19
271.002	238.19
271.234	256.19
271.466	236.19
271.698	248.19
271.93	244.19
272.162	239.19
272.394	248.19
272.626	241.19
272.858	216.19
273.09	236.19
273.322	224.19
273.553	217.19
273.785	213.19
274.017	234.19
274.249	237.19
274.481	233.19
274.713	224.19
274.945	233.19
275.176	226.19
275.408	251.19
275.64	237.19
275.872	213.19
276.104	227.19
276.335	215.19
276.567	247.19
276.799	236.19
277.031	246.19
277.262	264.19
277.494	264.19
277.726	253.19
277.957	246.19
278.189	239.19
278.421	227.19
278.652	227.19
278.884	243.19
279.115	236.19
279.347	221.19
279.579	236.19
279.81	239.19
280.042	236.19
280.273	235.19
280.505	225.19
280.736	226.19
280.968	239.19
281.199	245.19
281.431	223.19
281.662	237.19
281.894	253.19
282.125	241.19
282.356	221.19
282.588	251.19
282.819	267.19
283.051	248.19
283.282	253.19
283.513	257.19
283.745	233.19
283.976	236.19
284.207	233.19
284.439	266.19
284.67	248.19
284.901	229.19
285.132	251.19
285.364	230.19
285.595	234.19
285.826	251.19
286.057	257.19
286.288	236.19
286.52	255.19
286.751	247.19
286.982	251.19
287.213	266.19
287.444	266.19
287.675	260.19
287.906	253.19
288.138	254.19
288.369	265.19
288.6	275.19
288.831	268.19
289.062	257.19
289.293	264.19
289.524	260.19
289.755	260.19
289.986	278.19
290.217	249.19
290.448	250.19
290.679	257.19
290.91	252.19
291.141	259.19
291.371	260.19
291.602	252.19
291.833	268.19
292.064	264.19
292.295	270.19
292.526	258.19
292.757	265.19
292.987	274.19
293.218	261.19
293.449	261.19
293.68	265.19
293.91	287.19
294.141	264.19
294.372	250.19
294.603	255.19
294.833	260.19
295.064	258.19
295.295	266.19
295.525	265.19
295.756	263.19
295.987	269.19
296.217	282.19
296.448	298.19
296.679	269.19
296.909	274.19
297.14	269.19
297.37	263.19
297.601	283.19
297.831	257.19
298.062	284.19
298.292	289.19
298.523	281.19
298.753	272.19
298.984	286.19
299.214	278.19
299.445	270.19
299.675	283.19
299.905	288.19
300.136	293.19
300.366	280.19
300.597	288.19
300.827	278.19
301.057	293.19
301.288	299.19
301.518	282.19
301.748	281.19
301.979	279.19
302.209	289.19
302.439	307.19
302.669	288.19
302.9	301.19
303.13	292.19
303.36	294.19
303.59	284.19
303.82	307.19
304.051	313.19
304.281	293.19
304.511	317.19
304.741	297.19
304.971	297.19
305.201	311.19
305.431	293.19
305.661	305.19
305.891	290.19
306.121	290.19
306.352	302.19
306.582	300.19
306.812	304.19
307.042	311.19
307.272	311.19
307.502	292.19
307.731	298.19
307.961	295.19
308.191	298.19
308.421	314.19
308.651	284.19
308.881	298.19
309.111	290.19
309.341	304.19
309.571	305.19
309.8	297.19
310.03	325.19
310.26	311.19
310.49	316.19
310.72	324.19
310.949	321.19
311.179	335.19
311.409	320.19
311.639	329.19
311.868	317.19
312.098	330.19
312.328	332.19
312.557	340.19
312.787	337.19
313.017	333.19
313.246	338.19
313.476	318.19
313.706	333.19
313.935	318.19
314.165	332.19
314.394	333.19
314.624	337.19
314.853	341.19
315.083	322.19
315.312	328.19
315.542	340.19
315.771	316.19
316.001	326.19
316.23	336.19
316.46	320.19
316.689	341.19
316.919	333.19
317.148	326.19
317.377	337.19
317.607	344.19
317.836	346.19
318.065	330.19
318.295	333.19
318.524	316.19
318.753	334.19
318.983	336.19
319.212	327.19
319.441	337.19
319.67	327.19
319.9	332.19
320.129	330.19
320.358	336.19
320.587	348.19
320.816	335.19
321.046	336.19
321.275	355.19
321.504	339.19
321.733	342.19
321.962	351.19
322.191	361.19
322.42	362.19
322.649	363.19
322.878	353.19
323.108	375.19
323.337	406.19
323.566	397.19
323.795	409.19
324.024	420.19
324.253	484.19
324.482	641.19
324.71	989.19
324.939	1463.19
325.168	1245.19
325.397	652.19
325.626	477.19
325.855	423.19
326.084	407.19
326.313	412.19
326.542	384.19
326.77	413.19
326.999	484.19
327.228	608.19
327.457	915.19
327.686	1094.19
327.914	734.19
328.143	525.19
328.372	455.19
328.6	444.19
328.829	419.19
329.058	410.19
329.287	423.19
329.515	433.19
329.744	395.19
329.972	406.19
330.201	407.19
330.43	439.19
330.658	429.19
330.887	423.19
331.115	436.19
331.344	400.19
331.572	402.19
331.801	400.19
332.03	395.19
332.258	393.19
332.486	403.19
332.715	405.19
332.943	386.19
333.172	409.19
333.4	403.19
333.629	429.19
333.857	385.19
334.085	434.19
334.314	429.19
334.542	432.19
334.771	447.19
334.999	421.19
335.227	404.19
335.455	417.19
335.684	422.19
335.912	404.19
336.14	386.19
336.369	385.19
336.597	415.19
336.825	393.19
337.053	404.19
337.281	376.19
337.51	394.19
337.738	403.19
337.966	402.19
338.194	401.19
338.422	397.19
338.65	399.19
338.878	390.19
339.106	374.19
339.334	380.19
339.562	403.19
339.79	383.19
340.018	366.19
340.246	390.19
340.474	400.19
340.702	367.19
340.93	398.19
341.158	388.19
341.386	376.19
341.614	383.19
341.842	377.19
342.07	381.19
342.298	391.19
342.526	383.19
342.754	382.19
342.981	374.19
343.209	385.19
343.437	373.19
343.665	401.19
343.893	403.19
344.12	402.19
344.348	414.19
344.576	422.19
344.804	404.19
345.031	404.19
345.259	398.19
345.487	390.19
345.714	368.19
345.942	387.19
346.17	388.19
346.397	401.19
346.625	368.19
346.853	384.19
347.08	378.19
347.308	386.19
347.535	373.19
347.763	382.19
347.99	354.19
348.218	365.19
348.445	382.19
348.673	374.19
348.9	398.19
349.128	382.19
349.355	367.19
349.583	352.19
349.81	363.19
350.037	358.19
350.265	377.19
350.492	372.19
350.72	351.19
350.947	356.19
351.174	354.19
351.402	372.19
351.629	376.19
351.856	361.19
352.083	362.19
352.311	394.19
352.538	386.19
352.765	362.19
352.992	340.19
353.22	382.19
353.447	372.19
353.674	377.19
353.901	371.19
354.128	366.19
354.355	364.19
354.583	350.19
354.81	352.19
355.037	363.19
355.264	373.19
355.491	380.19
355.718	368.19
355.945	360.19
356.172	347.19
356.399	362.19
356.626	359.19
356.853	356.19
357.08	359.19
357.307	375.19
357.534	367.19
357.761	361.19
357.988	369.19
358.215	369.19
358.441	377.19
358.668	354.19
358.895	376.19
359.122	378.19
359.349	354.19
359.576	359.19
359.802	364.19
360.029	386.19
360.256	408.19
360.483	390.19
360.709	380.19
360.936	388.19
361.163	392.19
361.39	378.19
361.616	364.19
361.843	366.19
362.07	374.19
362.296	407.19
362.523	377.19
362.749	390.19
362.976	377.19
363.203	384.19
363.429	378.19
363.656	370.19
363.882	367.19
364.109	380.19
364.335	366.19
364.562	362.19
364.788	388.19
365.015	381.19
365.241	372.19
365.468	379.19
365.694	377.19
365.92	372.19
366.147	379.19
366.373	369.19
366.599	347.19
366.826	363.19
367.052	359.19
367.278	373.19
367.505	358.19
367.731	382.19
367.957	358.19
368.184	380.19
368.41	374.19
368.636	381.19
368.862	388.19
369.089	372.19
369.315	370.19
369.541	384.19
369.767	373.19
369.993	376.19
370.219	361.19
370.445	369.19
370.672	383.19
370.898	380.19
371.124	369.19
371.35	382.19
371.576	382.19
371.802	383.19
372.028	384.19
372.254	385.19
372.48	380.19
372.706	396.19
372.932	405.19
373.158	391.19
373.384	400.19
373.61	389.19
373.835	399.19
374.061	391.19
374.287	394.19
374.513	397.19
374.739	396.19
374.965	409.19
375.191	410.19
375.416	397.19
375.642	393.19
375.868	392.19
376.094	390.19
376.319	381.19
376.545	408.19
376.771	397.19
376.997	382.19
377.222	349.19
377.448	391.19
377.674	388.19
377.899	390.19
378.125	397.19
378.35	362.19
378.576	381.19
378.802	391.19
379.027	405.19
379.253	394.19
379.478	388.19
379.704	374.19
379.929	379.19
380.155	378.19
380.38	365.19
380.606	398.19
380.831	396.19
381.057	397.19
381.282	391.19
381.507	380.19
381.733	378.19
381.958	388.19
382.184	409.19
382.409	409.19
382.634	393.19
382.86	391.19
383.085	406.19
383.31	401.19
383.535	418.19
383.761	416.19
383.986	419.19
384.211	423.19
384.436	406.19
384.662	406.19
384.887	418.19
385.112	417.19
385.337	426.19
385.562	418.19
385.787	428.19
386.013	444.19
386.238	441.19
386.463	429.19
386.688	439.19
386.913	429.19
387.138	455.19
387.363	416.19
387.588	430.19
387.813	430.19
388.038	442.19
388.263	456.19
388.488	445.19
388.713	438.19
388.938	445.19
389.163	440.19
389.387	436.19
389.612	423.19
389.837	438.19
390.062	431.19
390.287	440.19
390.512	436.19
390.736	432.19
390.961	443.19
391.186	434.19
391.411	451.19
391.636	471.19
391.86	464.19
392.085	452.19
392.31	452.19
392.534	478.19
392.759	449.19
392.984	461.19
393.208	459.19
393.433	471.19
393.658	461.19
393.882	465.19
394.107	444.19
394.331	453.19
394.556	432.19
394.78	436.19
395.005	461.19
395.229	445.19
395.454	470.19
395.678	462.19
395.903	460.19
396.127	472.19
396.352	473.19
396.576	456.19
396.801	476.19
397.025	487.19
397.249	471.19
397.474	475.19
397.698	489.19
397.922	478.19
398.147	487.19
398.371	518.19
398.595	511.19
398.82	500.19
399.044	516.19
399.268	560.19
399.492	568.19
399.717	608.19
399.941	634.19
400.165	640.19
400.389	616.19
400.613	569.19
400.837	562.19
401.062	531.19
401.286	534.19
401.51	521.19
401.734	508.19
401.958	506.19
402.182	538.19
402.406	498.19
402.63	525.19
402.854	543.19
403.078	516.19
403.302	532.19
403.526	526.19
403.75	530.19
403.974	534.19
404.198	544.19
404.422	538.19
404.645	545.19
404.869	561.19
405.093	564.19
405.317	606.19
405.541	607.19
405.765	594.19
405.988	551.19
406.212	544.19
406.436	572.19
406.66	588.19
406.883	576.19
407.107	594.19
407.331	641.19
407.555	676.19
407.778	694.19
408.002	642.19
408.226	604.19
408.449	596.19
408.673	593.19
408.896	605.19
409.12	623.19
409.344	626.19
409.567	589.19
409.791	546.19
410.014	549.19
410.238	537.19
410.461	527.19
410.685	553.19
410.908	557.19
411.132	581.19
411.355	595.19
411.578	565.19
411.802	536.19
412.025	548.19
412.249	552.19
412.472	556.19
412.695	582.19
412.919	569.19
413.142	509.19
413.365	524.19
413.589	542.19
413.812	527.19
414.035	528.19
414.258	530.19
414.482	504.19
414.705	524.19
414.928	521.19
415.151	512.19
415.374	510.19
415.597	500.19
415.821	517.19
416.044	508.19
416.267	487.19
416.49	520.19
416.713	487.19
416.936	491.19
417.159	504.19
417.382	525.19
417.605	512.19
417.828	544.19
418.051	517.19
418.274	508.19
418.497	509.19
418.72	520.19
418.943	516.19
419.166	513.19
419.389	561.19
419.611	540.19
419.834	551.19
420.057	550.19
420.28	538.19
420.503	542.19
420.726	532.19
420.948	531.19
421.171	551.19
421.394	604.19
421.617	530.19
421.839	541.19
422.062	539.19
422.285	529.19
422.507	568.19
422.73	633.19
422.953	614.19
423.175	558.19
423.398	538.19
423.621	527.19
423.843	565.19
424.066	555.19
424.288	559.19
424.511	554.19
424.733	601.19
424.956	677.19
425.178	642.19
425.401	610.19
425.623	646.19
425.846	568.19
426.068	537.19
426.291	538.19
426.513	549.19
426.735	544.19
426.958	570.19
427.18	633.19
427.402	745.19
427.625	822.19
427.847	696.19
428.069	628.19
428.292	557.19
428.514	530.19
428.736	508.19
428.958	513.19
429.181	521.19
429.403	510.19
429.625	522.19
429.847	541.19
430.069	585.19
430.292	576.19
430.514	511.19
430.736	509.19
430.958	526.19
431.18	505.19
431.402	503.19
431.624	502.19
431.846	500.19
432.068	497.19
432.29	470.19
432.512	476.19
432.734	510.19
432.956	485.19
433.178	501.19
433.4	497.19
433.622	500.19
433.844	479.19
434.066	496.19
434.287	516.19
434.509	486.19
434.731	487.19
434.953	534.19
435.175	533.19
435.397	537.19
435.618	527.19
435.84	561.19
436.062	644.19
436.284	698.19
436.505	608.19
436.727	560.19
436.949	536.19
437.17	510.19
437.392	505.19
437.614	517.19
437.835	536.19
438.057	574.19
438.278	664.19
438.5	679.19
438.721	780.19
438.943	696.19
439.165	601.19
439.386	541.19
439.608	528.19
439.829	553.19
440.05	574.19
440.272	580.19
440.493	550.19
440.715	521.19
440.936	524.19
441.158	504.19
441.379	523.19
441.6	525.19
441.822	548.19
442.043	562.19
442.264	628.19
442.486	664.19
442.707	612.19
442.928	552.19
443.149	562.19
443.371	578.19
443.592	615.19
443.813	676.19
444.034	714.19
444.255	623.19
444.476	574.19
444.698	560.19
444.919	575.19
445.14	684.19
445.361	632.19
445.582	590.19
445.803	610.19
446.024	697.19
446.245	723.19
446.466	644.19
446.687	581.19
446.908	552.19
447.129	506.19
447.35	500.19
447.571	494.19
447.792	505.19
448.013	515.19
448.234	493.19
448.455	550.19
448.675	611.19
448.896	732.19
449.117	600.19
449.338	580.19
449.559	666.19
449.779	762.19
450	612.19
450.221	544.19
450.442	513.19
450.662	481.19
450.883	493.19
451.104	491.19
451.324	467.19
451.545	477.19
451.766	465.19
451.986	437.19
452.207	441.19
452.428	455.19
452.648	458.19
452.869	433.19
453.089	463.19
453.31	458.19
453.53	430.19
453.751	441.19
453.971	461.19
454.192	466.19
454.412	455.19
454.633	456.19
454.853	441.19
455.073	438.19
455.294	485.19
455.514	510.19
455.734	517.19
455.955	434.19
456.175	454.19
456.395	437.19
456.616	432.19
456.836	435.19
457.056	449.19
457.276	440.19
457.497	452.19
457.717	441.19
457.937	460.19
458.157	466.19
458.377	441.19
458.598	452.19
458.818	502.19
459.038	534.19
459.258	560.19
459.478	520.19
459.698	504.19
459.918	494.19
460.138	500.19
460.358	496.19
460.578	520.19
460.798	504.19
461.018	518.19
461.238	535.19
461.458	516.19
461.678	517.19
461.898	525.19
462.118	541.19
462.338	540.19
462.558	559.19
462.777	545.19
462.997	583.19
463.217	593.19
463.437	589.19
463.657	559.19
463.876	567.19
464.096	556.19
464.316	568.19
464.536	576.19
464.755	561.19
464.975	552.19
465.195	552.19
465.414	609.19
465.634	552.19
465.854	506.19
466.073	523.19
466.293	476.19
466.512	506.19
466.732	484.19
466.951	483.19
467.171	488.19
467.391	477.19
467.61	502.19
467.829	490.19
468.049	470.19
468.268	458.19
468.488	472.19
468.707	466.19
468.927	469.19
469.146	461.19
469.365	465.19
469.585	480.19
469.804	496.19
470.023	492.19
470.243	487.19
470.462	509.19
470.681	495.19
470.901	503.19
471.12	496.19
471.339	492.19
471.558	460.19
471.777	461.19
471.997	479.19
472.216	470.19
472.435	491.19
472.654	498.19
472.873	493.19
473.092	465.19
473.311	488.19
473.53	493.19
473.749	489.19
473.968	501.19
474.187	558.19
474.406	585.19
474.625	518.19
474.844	483.19
475.063	478.19
475.282	490.19
475.501	495.19
475.72	500.19
475.939	500.19
476.158	492.19
476.377	504.19
476.596	496.19
476.814	512.19
477.033	510.19
477.252	496.19
477.471	512.19
477.69	517.19
477.908	545.19
478.127	562.19
478.346	544.19
478.564	549.19
478.783	540.19
479.002	559.19
479.22	548.19
479.439	550.19
479.658	581.19
479.876	578.19
480.095	576.19
480.313	611.19
480.532	608.19
480.751	582.19
480.969	591.19
481.188	617.19
481.406	635.19
481.624	593.19
481.843	578.19
482.061	547.19
482.28	585.19
482.498	585.19
482.717	571.19
482.935	574.19
483.153	561.19
483.372	545.19
483.59	567.19
483.808	534.19
484.027	586.19
484.245	559.19
484.463	574.19
484.681	568.19
484.9	571.19
485.118	581.19
485.336	590.19
485.554	574.19
485.772	602.19
485.99	606.19
486.209	581.19
486.427	588.19
486.645	600.19
486.863	597.19
487.081	615.19
487.299	604.19
487.517	604.19
487.735	590.19
487.953	618.19
488.171	604.19
488.389	609.19
488.607	618.19
488.825	613.19
489.043	608.19
489.261	608.19
489.479	601.19
489.696	633.19
489.914	611.19
490.132	615.19
490.35	609.19
490.568	635.19
490.786	623.19
491.003	650.19
491.221	623.19
491.439	653.19
491.657	632.19
491.874	670.19
492.092	673.19
492.31	666.19
492.527	668.19
492.745	641.19
492.963	662.19
493.18	667.19
493.398	695.19
493.615	688.19
493.833	681.19
494.05	689.19
494.268	674.19
494.485	694.19
494.703	662.19
494.92	695.19
495.138	676.19
495.355	676.19
495.573	715.19
495.79	708.19
496.008	699.19
496.225	716.19
496.442	693.19
496.66	713.19
496.877	720.19
497.094	733.19
497.312	719.19
497.529	720.19
497.746	750.19
497.963	746.19
498.181	764.19
498.398	796.19
498.615	803.19
498.832	838.19
499.049	855.19
499.267	898.19
499.484	916.19
499.701	959.19
499.918	1018.19
500.135	1065.19
500.352	1103.19
500.569	1157.19
500.786	1148.19
501.003	1128.19
501.22	1052.19
501.437	994.19
501.654	990.19
501.871	952.19
502.088	912.19
