Data from 1979.PennyLincolnUp.Lamp.En5.5.200Scan.071719.P1_HRD10591_16-18-34-863.txt Node
Date: Thu Jul 18 16:18:34 EDT 2019
User: cochatt
Spectrometer: HR+D1059
Trigger mode: 1
Integration Time (sec): 1.000000E-1
Scans to average: 1
Electric dark correction enabled: true
Nonlinearity correction enabled: false
Boxcar width: 0
XAxis mode: Wavelengths
Number of Pixels in Spectrum: 2048
>>>>>Begin Spectral Data<<<<<
223.165	-18.06
223.4	-18.06
223.635	-18.06
223.869	-14.06
224.104	-26.06
224.338	-14.06
224.573	-1.06
224.808	-6.06
225.042	-14.06
225.277	-10.06
225.511	-7.06
225.746	4.94
225.98	-1.06
226.215	14.94
226.449	25.94
226.683	9.94
226.918	25.94
227.152	29.94
227.387	35.94
227.621	40.94
227.856	37.94
228.09	66.94
228.324	57.94
228.559	67.94
228.793	59.94
229.027	102.94
229.262	100.94
229.496	97.94
229.73	117.94
229.964	139.94
230.199	130.94
230.433	115.94
230.667	91.94
230.901	108.94
231.136	97.94
231.37	105.94
231.604	105.94
231.838	115.94
232.072	108.94
232.306	104.94
232.541	105.94
232.775	124.94
233.009	119.94
233.243	104.94
233.477	111.94
233.711	121.94
233.945	103.94
234.179	123.94
234.413	122.94
234.647	112.94
234.881	122.94
235.115	121.94
235.349	131.94
235.583	122.94
235.817	117.94
236.051	129.94
236.285	116.94
236.519	131.94
236.753	117.94
236.987	134.94
237.221	167.94
237.455	202.94
237.689	158.94
237.922	130.94
238.156	124.94
238.39	125.94
238.624	125.94
238.858	126.94
239.091	127.94
239.325	106.94
239.559	124.94
239.793	124.94
240.027	127.94
240.26	140.94
240.494	133.94
240.728	135.94
240.961	150.94
241.195	138.94
241.429	122.94
241.662	119.94
241.896	134.94
242.13	136.94
242.363	120.94
242.597	126.94
242.83	131.94
243.064	134.94
243.298	139.94
243.531	134.94
243.765	133.94
243.998	136.94
244.232	132.94
244.465	157.94
244.699	149.94
244.932	148.94
245.166	148.94
245.399	150.94
245.633	145.94
245.866	134.94
246.099	139.94
246.333	152.94
246.566	130.94
246.8	152.94
247.033	136.94
247.266	147.94
247.5	145.94
247.733	162.94
247.966	145.94
248.2	153.94
248.433	146.94
248.666	160.94
248.899	182.94
249.133	194.94
249.366	180.94
249.599	180.94
249.832	150.94
250.066	191.94
250.299	168.94
250.532	166.94
250.765	178.94
250.998	191.94
251.231	204.94
251.465	189.94
251.698	177.94
251.931	196.94
252.164	201.94
252.397	185.94
252.63	182.94
252.863	189.94
253.096	184.94
253.329	192.94
253.562	191.94
253.795	188.94
254.028	196.94
254.261	195.94
254.494	194.94
254.727	213.94
254.96	244.94
255.193	235.94
255.426	207.94
255.659	206.94
255.892	208.94
256.124	204.94
256.357	208.94
256.59	208.94
256.823	188.94
257.056	199.94
257.289	199.94
257.521	202.94
257.754	184.94
257.987	183.94
258.22	194.94
258.452	195.94
258.685	204.94
258.918	192.94
259.151	188.94
259.383	200.94
259.616	205.94
259.849	205.94
260.081	202.94
260.314	225.94
260.547	227.94
260.779	214.94
261.012	219.94
261.244	209.94
261.477	209.94
261.71	209.94
261.942	223.94
262.175	205.94
262.407	216.94
262.64	204.94
262.872	202.94
263.105	206.94
263.337	197.94
263.57	201.94
263.802	212.94
264.035	197.94
264.267	214.94
264.499	203.94
264.732	197.94
264.964	198.94
265.197	195.94
265.429	192.94
265.661	198.94
265.894	184.94
266.126	203.94
266.358	204.94
266.591	208.94
266.823	194.94
267.055	219.94
267.287	212.94
267.52	198.94
267.752	205.94
267.984	212.94
268.216	213.94
268.448	199.94
268.681	218.94
268.913	216.94
269.145	245.94
269.377	248.94
269.609	240.94
269.841	233.94
270.073	235.94
270.306	250.94
270.538	281.94
270.77	266.94
271.002	247.94
271.234	252.94
271.466	264.94
271.698	288.94
271.93	274.94
272.162	253.94
272.394	268.94
272.626	269.94
272.858	245.94
273.09	261.94
273.322	232.94
273.553	219.94
273.785	254.94
274.017	242.94
274.249	244.94
274.481	236.94
274.713	242.94
274.945	235.94
275.176	248.94
275.408	268.94
275.64	229.94
275.872	219.94
276.104	250.94
276.335	241.94
276.567	240.94
276.799	266.94
277.031	269.94
277.262	295.94
277.494	291.94
277.726	273.94
277.957	251.94
278.189	260.94
278.421	252.94
278.652	243.94
278.884	234.94
279.115	243.94
279.347	252.94
279.579	247.94
279.81	255.94
280.042	251.94
280.273	260.94
280.505	242.94
280.736	253.94
280.968	257.94
281.199	255.94
281.431	250.94
281.662	249.94
281.894	249.94
282.125	250.94
282.356	265.94
282.588	302.94
282.819	287.94
283.051	257.94
283.282	269.94
283.513	270.94
283.745	256.94
283.976	264.94
284.207	258.94
284.439	264.94
284.67	247.94
284.901	271.94
285.132	267.94
285.364	251.94
285.595	235.94
285.826	260.94
286.057	272.94
286.288	247.94
286.52	260.94
286.751	248.94
286.982	262.94
287.213	268.94
287.444	272.94
287.675	246.94
287.906	259.94
288.138	288.94
288.369	282.94
288.6	283.94
288.831	284.94
289.062	277.94
289.293	278.94
289.524	271.94
289.755	266.94
289.986	260.94
290.217	270.94
290.448	280.94
290.679	268.94
290.91	290.94
291.141	282.94
291.371	273.94
291.602	266.94
291.833	263.94
292.064	280.94
292.295	274.94
292.526	285.94
292.757	257.94
292.987	270.94
293.218	270.94
293.449	277.94
293.68	282.94
293.91	304.94
294.141	271.94
294.372	268.94
294.603	276.94
294.833	286.94
295.064	259.94
295.295	269.94
295.525	276.94
295.756	276.94
295.987	311.94
296.217	308.94
296.448	315.94
296.679	293.94
296.909	284.94
297.14	290.94
297.37	272.94
297.601	282.94
297.831	270.94
298.062	286.94
298.292	305.94
298.523	308.94
298.753	293.94
298.984	278.94
299.214	302.94
299.445	314.94
299.675	300.94
299.905	308.94
300.136	296.94
300.366	295.94
300.597	313.94
300.827	302.94
301.057	308.94
301.288	313.94
301.518	309.94
301.748	321.94
301.979	310.94
302.209	301.94
302.439	316.94
302.669	314.94
302.9	320.94
303.13	290.94
303.36	323.94
303.59	324.94
303.82	323.94
304.051	334.94
304.281	304.94
304.511	301.94
304.741	320.94
304.971	321.94
305.201	319.94
305.431	308.94
305.661	324.94
305.891	336.94
306.121	294.94
306.352	327.94
306.582	331.94
306.812	309.94
307.042	321.94
307.272	312.94
307.502	337.94
307.731	330.94
307.961	299.94
308.191	304.94
308.421	308.94
308.651	320.94
308.881	334.94
309.111	325.94
309.341	329.94
309.571	321.94
309.8	334.94
310.03	329.94
310.26	339.94
310.49	355.94
310.72	372.94
310.949	368.94
311.179	365.94
311.409	346.94
311.639	358.94
311.868	338.94
312.098	347.94
312.328	368.94
312.557	364.94
312.787	369.94
313.017	362.94
313.246	338.94
313.476	367.94
313.706	347.94
313.935	359.94
314.165	388.94
314.394	378.94
314.624	366.94
314.853	380.94
315.083	365.94
315.312	355.94
315.542	364.94
315.771	349.94
316.001	346.94
316.23	335.94
316.46	357.94
316.689	357.94
316.919	365.94
317.148	378.94
317.377	376.94
317.607	387.94
317.836	378.94
318.065	354.94
318.295	352.94
318.524	350.94
318.753	360.94
318.983	364.94
319.212	342.94
319.441	355.94
319.67	374.94
319.9	352.94
320.129	340.94
320.358	359.94
320.587	372.94
320.816	364.94
321.046	378.94
321.275	370.94
321.504	377.94
321.733	370.94
321.962	377.94
322.191	378.94
322.42	386.94
322.649	397.94
322.878	417.94
323.108	393.94
323.337	428.94
323.566	453.94
323.795	445.94
324.024	496.94
324.253	591.94
324.482	808.94
324.71	1293.94
324.939	1907.94
325.168	1648.94
325.397	812.94
325.626	555.94
325.855	490.94
326.084	471.94
326.313	466.94
326.542	460.94
326.77	501.94
326.999	582.94
327.228	753.94
327.457	1153.94
327.686	1431.94
327.914	973.94
328.143	633.94
328.372	555.94
328.6	500.94
328.829	493.94
329.058	506.94
329.287	511.94
329.515	489.94
329.744	444.94
329.972	481.94
330.201	455.94
330.43	491.94
330.658	523.94
330.887	523.94
331.115	541.94
331.344	494.94
331.572	448.94
331.801	438.94
332.03	450.94
332.258	437.94
332.486	439.94
332.715	450.94
332.943	436.94
333.172	428.94
333.4	454.94
333.629	482.94
333.857	448.94
334.085	462.94
334.314	483.94
334.542	491.94
334.771	485.94
334.999	489.94
335.227	453.94
335.455	456.94
335.684	454.94
335.912	425.94
336.14	412.94
336.369	437.94
336.597	429.94
336.825	426.94
337.053	419.94
337.281	421.94
337.51	439.94
337.738	432.94
337.966	433.94
338.194	436.94
338.422	442.94
338.65	422.94
338.878	410.94
339.106	430.94
339.334	424.94
339.562	413.94
339.79	414.94
340.018	411.94
340.246	399.94
340.474	425.94
340.702	421.94
340.93	402.94
341.158	425.94
341.386	400.94
341.614	407.94
341.842	408.94
342.07	402.94
342.298	412.94
342.526	428.94
342.754	398.94
342.981	401.94
343.209	425.94
343.437	385.94
343.665	425.94
343.893	413.94
344.12	433.94
344.348	433.94
344.576	417.94
344.804	424.94
345.031	436.94
345.259	440.94
345.487	423.94
345.714	415.94
345.942	405.94
346.17	423.94
346.397	403.94
346.625	414.94
346.853	412.94
347.08	410.94
347.308	405.94
347.535	407.94
347.763	420.94
347.99	402.94
348.218	410.94
348.445	392.94
348.673	397.94
348.9	413.94
349.128	422.94
349.355	406.94
349.583	389.94
349.81	392.94
350.037	392.94
350.265	386.94
350.492	402.94
350.72	385.94
350.947	399.94
351.174	410.94
351.402	408.94
351.629	399.94
351.856	396.94
352.083	400.94
352.311	399.94
352.538	411.94
352.765	408.94
352.992	405.94
353.22	393.94
353.447	402.94
353.674	399.94
353.901	397.94
354.128	388.94
354.355	401.94
354.583	382.94
354.81	388.94
355.037	396.94
355.264	368.94
355.491	371.94
355.718	402.94
355.945	382.94
356.172	387.94
356.399	364.94
356.626	388.94
356.853	375.94
357.08	372.94
357.307	384.94
357.534	392.94
357.761	394.94
357.988	387.94
358.215	368.94
358.441	374.94
358.668	386.94
358.895	388.94
359.122	375.94
359.349	396.94
359.576	395.94
359.802	395.94
360.029	442.94
360.256	459.94
360.483	409.94
360.709	410.94
360.936	416.94
361.163	408.94
361.39	397.94
361.616	420.94
361.843	401.94
362.07	404.94
362.296	430.94
362.523	403.94
362.749	405.94
362.976	387.94
363.203	388.94
363.429	397.94
363.656	400.94
363.882	406.94
364.109	397.94
364.335	411.94
364.562	406.94
364.788	387.94
365.015	388.94
365.241	407.94
365.468	379.94
365.694	385.94
365.92	411.94
366.147	410.94
366.373	396.94
366.599	405.94
366.826	396.94
367.052	384.94
367.278	395.94
367.505	382.94
367.731	397.94
367.957	384.94
368.184	378.94
368.41	402.94
368.636	425.94
368.862	408.94
369.089	390.94
369.315	422.94
369.541	391.94
369.767	400.94
369.993	395.94
370.219	393.94
370.445	404.94
370.672	392.94
370.898	402.94
371.124	402.94
371.35	393.94
371.576	402.94
371.802	404.94
372.028	390.94
372.254	413.94
372.48	392.94
372.706	393.94
372.932	408.94
373.158	406.94
373.384	400.94
373.61	408.94
373.835	421.94
374.061	424.94
374.287	423.94
374.513	405.94
374.739	421.94
374.965	417.94
375.191	417.94
375.416	414.94
375.642	398.94
375.868	426.94
376.094	418.94
376.319	413.94
376.545	400.94
376.771	409.94
376.997	397.94
377.222	390.94
377.448	395.94
377.674	413.94
377.899	409.94
378.125	409.94
378.35	394.94
378.576	403.94
378.802	379.94
379.027	393.94
379.253	387.94
379.478	401.94
379.704	409.94
379.929	417.94
380.155	408.94
380.38	415.94
380.606	396.94
380.831	406.94
381.057	396.94
381.282	403.94
381.507	400.94
381.733	397.94
381.958	394.94
382.184	408.94
382.409	413.94
382.634	425.94
382.86	405.94
383.085	413.94
383.31	402.94
383.535	433.94
383.761	416.94
383.986	412.94
384.211	438.94
384.436	411.94
384.662	439.94
384.887	437.94
385.112	427.94
385.337	450.94
385.562	461.94
385.787	453.94
386.013	456.94
386.238	452.94
386.463	454.94
386.688	464.94
386.913	454.94
387.138	460.94
387.363	445.94
387.588	461.94
387.813	458.94
388.038	465.94
388.263	469.94
388.488	454.94
388.713	449.94
388.938	445.94
389.163	439.94
389.387	450.94
389.612	466.94
389.837	452.94
390.062	451.94
390.287	468.94
390.512	460.94
390.736	448.94
390.961	449.94
391.186	441.94
391.411	465.94
391.636	476.94
391.86	479.94
392.085	485.94
392.31	461.94
392.534	480.94
392.759	481.94
392.984	445.94
393.208	459.94
393.433	484.94
393.658	495.94
393.882	447.94
394.107	446.94
394.331	494.94
394.556	471.94
394.78	473.94
395.005	476.94
395.229	460.94
395.454	493.94
395.678	489.94
395.903	502.94
396.127	503.94
396.352	487.94
396.576	483.94
396.801	478.94
397.025	485.94
397.249	491.94
397.474	470.94
397.698	505.94
397.922	505.94
398.147	546.94
398.371	502.94
398.595	500.94
398.82	553.94
399.044	527.94
399.268	570.94
399.492	588.94
399.717	611.94
399.941	661.94
400.165	682.94
400.389	686.94
400.613	628.94
400.837	574.94
401.062	544.94
401.286	556.94
401.51	536.94
401.734	530.94
401.958	545.94
402.182	546.94
402.406	560.94
402.63	572.94
402.854	563.94
403.078	568.94
403.302	557.94
403.526	578.94
403.75	580.94
403.974	544.94
404.198	545.94
404.422	583.94
404.645	577.94
404.869	573.94
405.093	614.94
405.317	633.94
405.541	655.94
405.765	624.94
405.988	590.94
406.212	599.94
406.436	616.94
406.66	624.94
406.883	615.94
407.107	636.94
407.331	656.94
407.555	723.94
407.778	764.94
408.002	674.94
408.226	626.94
408.449	628.94
408.673	597.94
408.896	637.94
409.12	688.94
409.344	660.94
409.567	608.94
409.791	572.94
410.014	563.94
410.238	583.94
410.461	562.94
410.685	545.94
410.908	577.94
411.132	600.94
411.355	625.94
411.578	619.94
411.802	568.94
412.025	564.94
412.249	562.94
412.472	596.94
412.695	635.94
412.919	610.94
413.142	592.94
413.365	546.94
413.589	540.94
413.812	564.94
414.035	560.94
414.258	544.94
414.482	528.94
414.705	539.94
414.928	558.94
415.151	521.94
415.374	544.94
415.597	536.94
415.821	514.94
416.044	517.94
416.267	512.94
416.49	550.94
416.713	514.94
416.936	538.94
417.159	519.94
417.382	524.94
417.605	529.94
417.828	550.94
418.051	551.94
418.274	557.94
418.497	550.94
418.72	535.94
418.943	529.94
419.166	560.94
419.389	574.94
419.611	578.94
419.834	570.94
420.057	564.94
420.28	555.94
420.503	538.94
420.726	556.94
420.948	557.94
421.171	605.94
421.394	609.94
421.617	566.94
421.839	557.94
422.062	557.94
422.285	556.94
422.507	595.94
422.73	676.94
422.953	670.94
423.175	616.94
423.398	587.94
423.621	573.94
423.843	601.94
424.066	598.94
424.288	602.94
424.511	586.94
424.733	657.94
424.956	709.94
425.178	674.94
425.401	677.94
425.623	738.94
425.846	608.94
426.068	589.94
426.291	573.94
426.513	585.94
426.735	573.94
426.958	621.94
427.18	652.94
427.402	809.94
427.625	911.94
427.847	780.94
428.069	664.94
428.292	614.94
428.514	568.94
428.736	541.94
428.958	555.94
429.181	548.94
429.403	546.94
429.625	575.94
429.847	567.94
430.069	624.94
430.292	629.94
430.514	552.94
430.736	535.94
430.958	553.94
431.18	540.94
431.402	505.94
431.624	503.94
431.846	505.94
432.068	518.94
432.29	534.94
432.512	536.94
432.734	540.94
432.956	530.94
433.178	547.94
433.4	531.94
433.622	514.94
433.844	508.94
434.066	505.94
434.287	540.94
434.509	562.94
434.731	543.94
434.953	568.94
435.175	564.94
435.397	595.94
435.618	585.94
435.84	614.94
436.062	690.94
436.284	767.94
436.505	646.94
436.727	588.94
436.949	540.94
437.17	543.94
437.392	549.94
437.614	547.94
437.835	561.94
438.057	656.94
438.278	759.94
438.5	739.94
438.721	833.94
438.943	783.94
439.165	648.94
439.386	591.94
439.608	599.94
439.829	588.94
440.05	603.94
440.272	626.94
440.493	605.94
440.715	577.94
440.936	567.94
441.158	545.94
441.379	535.94
441.6	564.94
441.822	579.94
442.043	604.94
442.264	704.94
442.486	728.94
442.707	625.94
442.928	613.94
443.149	618.94
443.371	632.94
443.592	651.94
443.813	717.94
444.034	783.94
444.255	679.94
444.476	636.94
444.698	611.94
444.919	585.94
445.14	726.94
445.361	646.94
445.582	635.94
445.803	675.94
446.024	790.94
446.245	783.94
446.466	707.94
446.687	608.94
446.908	561.94
447.129	572.94
447.35	547.94
447.571	523.94
447.792	503.94
448.013	520.94
448.234	560.94
448.455	602.94
448.675	701.94
448.896	787.94
449.117	711.94
449.338	642.94
449.559	728.94
449.779	856.94
450	670.94
450.221	568.94
450.442	554.94
450.662	532.94
450.883	532.94
451.104	532.94
451.324	543.94
451.545	528.94
451.766	507.94
451.986	481.94
452.207	488.94
452.428	476.94
452.648	468.94
452.869	474.94
453.089	508.94
453.31	485.94
453.53	494.94
453.751	472.94
453.971	468.94
454.192	504.94
454.412	489.94
454.633	476.94
454.853	471.94
455.073	473.94
455.294	512.94
455.514	564.94
455.734	532.94
455.955	468.94
456.175	459.94
456.395	462.94
456.616	470.94
456.836	442.94
457.056	443.94
457.276	462.94
457.497	471.94
457.717	479.94
457.937	472.94
458.157	473.94
458.377	473.94
458.598	501.94
458.818	548.94
459.038	610.94
459.258	620.94
459.478	541.94
459.698	541.94
459.918	523.94
460.138	553.94
460.358	556.94
460.578	530.94
460.798	551.94
461.018	564.94
461.238	525.94
461.458	548.94
461.678	544.94
461.898	549.94
462.118	554.94
462.338	568.94
462.558	573.94
462.777	576.94
462.997	608.94
463.217	613.94
463.437	613.94
463.657	590.94
463.876	583.94
464.096	608.94
464.316	594.94
464.536	594.94
464.755	591.94
464.975	588.94
465.195	597.94
465.414	656.94
465.634	583.94
465.854	557.94
466.073	548.94
466.293	540.94
466.512	493.94
466.732	519.94
466.951	534.94
467.171	485.94
467.391	524.94
467.61	510.94
467.829	524.94
468.049	519.94
468.268	507.94
468.488	512.94
468.707	492.94
468.927	496.94
469.146	502.94
469.365	502.94
469.585	485.94
469.804	501.94
470.023	518.94
470.243	502.94
470.462	499.94
470.681	523.94
470.901	523.94
471.12	522.94
471.339	484.94
471.558	508.94
471.777	493.94
471.997	481.94
472.216	516.94
472.435	554.94
472.654	539.94
472.873	510.94
473.092	502.94
473.311	485.94
473.53	501.94
473.749	517.94
473.968	548.94
474.187	624.94
474.406	647.94
474.625	557.94
474.844	520.94
475.063	524.94
475.282	519.94
475.501	525.94
475.72	514.94
475.939	514.94
476.158	519.94
476.377	534.94
476.596	498.94
476.814	536.94
477.033	547.94
477.252	546.94
477.471	589.94
477.69	549.94
477.908	578.94
478.127	560.94
478.346	561.94
478.564	563.94
478.783	559.94
479.002	590.94
479.22	584.94
479.439	613.94
479.658	607.94
479.876	627.94
480.095	628.94
480.313	632.94
480.532	614.94
480.751	634.94
480.969	621.94
481.188	649.94
481.406	673.94
481.624	628.94
481.843	594.94
482.061	602.94
482.28	616.94
482.498	611.94
482.717	599.94
482.935	575.94
483.153	573.94
483.372	576.94
483.59	600.94
483.808	596.94
484.027	619.94
484.245	583.94
484.463	596.94
484.681	599.94
484.9	610.94
485.118	603.94
485.336	580.94
485.554	604.94
485.772	609.94
485.99	614.94
486.209	612.94
486.427	607.94
486.645	623.94
486.863	628.94
487.081	626.94
487.299	653.94
487.517	617.94
487.735	631.94
487.953	632.94
488.171	638.94
488.389	646.94
488.607	644.94
488.825	643.94
489.043	646.94
489.261	665.94
489.479	635.94
489.696	625.94
489.914	664.94
490.132	668.94
490.35	659.94
490.568	653.94
490.786	689.94
491.003	672.94
491.221	665.94
491.439	706.94
491.657	712.94
491.874	707.94
492.092	702.94
492.31	707.94
492.527	703.94
492.745	713.94
492.963	723.94
493.18	729.94
493.398	728.94
493.615	730.94
493.833	747.94
494.05	733.94
494.268	728.94
494.485	726.94
494.703	714.94
494.92	728.94
495.138	729.94
495.355	731.94
495.573	724.94
495.79	743.94
496.008	741.94
496.225	737.94
496.442	744.94
496.66	746.94
496.877	761.94
497.094	774.94
497.312	746.94
497.529	785.94
497.746	799.94
497.963	826.94
498.181	825.94
498.398	857.94
498.615	859.94
498.832	899.94
499.049	887.94
499.267	936.94
499.484	978.94
499.701	1006.94
499.918	1030.94
500.135	1093.94
500.352	1152.94
500.569	1181.94
500.786	1187.94
501.003	1194.94
501.22	1132.94
501.437	1075.94
501.654	1032.94
501.871	996.94
