Data from 1979.PennyLincolnUp.Lamp.En5.5.200Scan.071719.P1_HRD10591_16-19-10-864.txt Node
Date: Thu Jul 18 16:19:10 EDT 2019
User: cochatt
Spectrometer: HR+D1059
Trigger mode: 1
Integration Time (sec): 1.000000E-1
Scans to average: 1
Electric dark correction enabled: true
Nonlinearity correction enabled: false
Boxcar width: 0
XAxis mode: Wavelengths
Number of Pixels in Spectrum: 2048
>>>>>Begin Spectral Data<<<<<
223.165	-20.75
223.4	-20.75
223.635	-20.75
223.869	-24.75
224.104	-12.75
224.338	-20.75
224.573	-9.75
224.808	-10.75
225.042	-5.75
225.277	-13.75
225.511	-12.75
225.746	11.25
225.98	17.25
226.215	14.25
226.449	20.25
226.683	24.25
226.918	16.25
227.152	28.25
227.387	30.25
227.621	51.25
227.856	53.25
228.09	41.25
228.324	50.25
228.559	53.25
228.793	60.25
229.027	90.25
229.262	101.25
229.496	88.25
229.73	121.25
229.964	138.25
230.199	119.25
230.433	110.25
230.667	116.25
230.901	93.25
231.136	105.25
231.37	96.25
231.604	106.25
231.838	118.25
232.072	126.25
232.306	115.25
232.541	116.25
232.775	123.25
233.009	98.25
233.243	116.25
233.477	103.25
233.711	109.25
233.945	117.25
234.179	116.25
234.413	111.25
234.647	98.25
234.881	108.25
235.115	121.25
235.349	130.25
235.583	120.25
235.817	111.25
236.051	128.25
236.285	109.25
236.519	122.25
236.753	134.25
236.987	138.25
237.221	167.25
237.455	213.25
237.689	169.25
237.922	129.25
238.156	127.25
238.39	114.25
238.624	119.25
238.858	117.25
239.091	136.25
239.325	134.25
239.559	111.25
239.793	122.25
240.027	144.25
240.26	154.25
240.494	151.25
240.728	131.25
240.961	143.25
241.195	156.25
241.429	138.25
241.662	123.25
241.896	119.25
242.13	135.25
242.363	120.25
242.597	123.25
242.83	137.25
243.064	135.25
243.298	145.25
243.531	132.25
243.765	138.25
243.998	137.25
244.232	132.25
244.465	121.25
244.699	148.25
244.932	142.25
245.166	136.25
245.399	135.25
245.633	133.25
245.866	148.25
246.099	138.25
246.333	141.25
246.566	143.25
246.8	149.25
247.033	155.25
247.266	155.25
247.5	147.25
247.733	152.25
247.966	164.25
248.2	156.25
248.433	157.25
248.666	168.25
248.899	176.25
249.133	178.25
249.366	184.25
249.599	184.25
249.832	168.25
250.066	159.25
250.299	165.25
250.532	181.25
250.765	201.25
250.998	190.25
251.231	213.25
251.465	190.25
251.698	199.25
251.931	181.25
252.164	178.25
252.397	162.25
252.63	183.25
252.863	193.25
253.096	200.25
253.329	198.25
253.562	202.25
253.795	191.25
254.028	207.25
254.261	185.25
254.494	202.25
254.727	231.25
254.96	229.25
255.193	248.25
255.426	220.25
255.659	206.25
255.892	236.25
256.124	211.25
256.357	200.25
256.59	199.25
256.823	196.25
257.056	192.25
257.289	198.25
257.521	184.25
257.754	180.25
257.987	209.25
258.22	198.25
258.452	193.25
258.685	194.25
258.918	203.25
259.151	203.25
259.383	214.25
259.616	189.25
259.849	190.25
260.081	229.25
260.314	220.25
260.547	237.25
260.779	216.25
261.012	213.25
261.244	205.25
261.477	197.25
261.71	187.25
261.942	224.25
262.175	218.25
262.407	211.25
262.64	187.25
262.872	198.25
263.105	180.25
263.337	214.25
263.57	200.25
263.802	212.25
264.035	208.25
264.267	201.25
264.499	198.25
264.732	200.25
264.964	222.25
265.197	207.25
265.429	205.25
265.661	200.25
265.894	206.25
266.126	195.25
266.358	181.25
266.591	206.25
266.823	227.25
267.055	202.25
267.287	195.25
267.52	208.25
267.752	207.25
267.984	202.25
268.216	199.25
268.448	205.25
268.681	202.25
268.913	246.25
269.145	234.25
269.377	242.25
269.609	226.25
269.841	246.25
270.073	251.25
270.306	250.25
270.538	278.25
270.77	275.25
271.002	262.25
271.234	238.25
271.466	273.25
271.698	263.25
271.93	258.25
272.162	263.25
272.394	295.25
272.626	270.25
272.858	263.25
273.09	250.25
273.322	243.25
273.553	257.25
273.785	255.25
274.017	249.25
274.249	248.25
274.481	239.25
274.713	244.25
274.945	247.25
275.176	238.25
275.408	220.25
275.64	244.25
275.872	247.25
276.104	247.25
276.335	258.25
276.567	279.25
276.799	276.25
277.031	292.25
277.262	289.25
277.494	282.25
277.726	280.25
277.957	252.25
278.189	258.25
278.421	251.25
278.652	253.25
278.884	242.25
279.115	244.25
279.347	231.25
279.579	264.25
279.81	251.25
280.042	256.25
280.273	238.25
280.505	240.25
280.736	250.25
280.968	255.25
281.199	257.25
281.431	247.25
281.662	264.25
281.894	235.25
282.125	258.25
282.356	271.25
282.588	298.25
282.819	294.25
283.051	267.25
283.282	264.25
283.513	272.25
283.745	244.25
283.976	262.25
284.207	261.25
284.439	269.25
284.67	255.25
284.901	268.25
285.132	271.25
285.364	264.25
285.595	256.25
285.826	263.25
286.057	266.25
286.288	272.25
286.52	268.25
286.751	262.25
286.982	270.25
287.213	261.25
287.444	252.25
287.675	271.25
287.906	286.25
288.138	291.25
288.369	278.25
288.6	297.25
288.831	270.25
289.062	257.25
289.293	296.25
289.524	285.25
289.755	283.25
289.986	284.25
290.217	290.25
290.448	282.25
290.679	271.25
290.91	272.25
291.141	254.25
291.371	270.25
291.602	262.25
291.833	272.25
292.064	290.25
292.295	277.25
292.526	274.25
292.757	285.25
292.987	280.25
293.218	265.25
293.449	279.25
293.68	275.25
293.91	274.25
294.141	263.25
294.372	258.25
294.603	266.25
294.833	278.25
295.064	259.25
295.295	277.25
295.525	280.25
295.756	286.25
295.987	292.25
296.217	308.25
296.448	311.25
296.679	303.25
296.909	289.25
297.14	283.25
297.37	283.25
297.601	282.25
297.831	303.25
298.062	285.25
298.292	285.25
298.523	297.25
298.753	283.25
298.984	304.25
299.214	278.25
299.445	281.25
299.675	302.25
299.905	302.25
300.136	293.25
300.366	296.25
300.597	295.25
300.827	307.25
301.057	320.25
301.288	296.25
301.518	318.25
301.748	317.25
301.979	310.25
302.209	311.25
302.439	308.25
302.669	310.25
302.9	309.25
303.13	308.25
303.36	326.25
303.59	311.25
303.82	331.25
304.051	319.25
304.281	314.25
304.511	325.25
304.741	295.25
304.971	324.25
305.201	308.25
305.431	325.25
305.661	326.25
305.891	326.25
306.121	311.25
306.352	330.25
306.582	328.25
306.812	335.25
307.042	332.25
307.272	330.25
307.502	309.25
307.731	330.25
307.961	310.25
308.191	326.25
308.421	340.25
308.651	324.25
308.881	328.25
309.111	329.25
309.341	331.25
309.571	320.25
309.8	351.25
310.03	342.25
310.26	336.25
310.49	349.25
310.72	327.25
310.949	364.25
311.179	350.25
311.409	362.25
311.639	364.25
311.868	377.25
312.098	362.25
312.328	347.25
312.557	375.25
312.787	374.25
313.017	383.25
313.246	375.25
313.476	354.25
313.706	364.25
313.935	367.25
314.165	365.25
314.394	369.25
314.624	362.25
314.853	355.25
315.083	370.25
315.312	346.25
315.542	342.25
315.771	365.25
316.001	349.25
316.23	351.25
316.46	363.25
316.689	363.25
316.919	375.25
317.148	379.25
317.377	387.25
317.607	371.25
317.836	381.25
318.065	356.25
318.295	372.25
318.524	352.25
318.753	362.25
318.983	367.25
319.212	367.25
319.441	380.25
319.67	378.25
319.9	347.25
320.129	344.25
320.358	366.25
320.587	373.25
320.816	388.25
321.046	372.25
321.275	365.25
321.504	384.25
321.733	380.25
321.962	401.25
322.191	399.25
322.42	402.25
322.649	406.25
322.878	414.25
323.108	422.25
323.337	439.25
323.566	446.25
323.795	454.25
324.024	511.25
324.253	598.25
324.482	846.25
324.71	1346.25
324.939	1958.25
325.168	1684.25
325.397	838.25
325.626	578.25
325.855	482.25
326.084	478.25
326.313	452.25
326.542	461.25
326.77	508.25
326.999	582.25
327.228	778.25
327.457	1204.25
327.686	1528.25
327.914	964.25
328.143	651.25
328.372	562.25
328.6	522.25
328.829	487.25
329.058	512.25
329.287	527.25
329.515	484.25
329.744	465.25
329.972	490.25
330.201	485.25
330.43	508.25
330.658	530.25
330.887	516.25
331.115	534.25
331.344	482.25
331.572	462.25
331.801	464.25
332.03	469.25
332.258	444.25
332.486	436.25
332.715	424.25
332.943	451.25
333.172	437.25
333.4	429.25
333.629	457.25
333.857	444.25
334.085	481.25
334.314	498.25
334.542	483.25
334.771	496.25
334.999	475.25
335.227	469.25
335.455	456.25
335.684	431.25
335.912	448.25
336.14	428.25
336.369	436.25
336.597	462.25
336.825	436.25
337.053	409.25
337.281	415.25
337.51	420.25
337.738	436.25
337.966	433.25
338.194	424.25
338.422	419.25
338.65	414.25
338.878	438.25
339.106	419.25
339.334	429.25
339.562	406.25
339.79	428.25
340.018	426.25
340.246	408.25
340.474	421.25
340.702	433.25
340.93	431.25
341.158	413.25
341.386	403.25
341.614	408.25
341.842	427.25
342.07	410.25
342.298	410.25
342.526	403.25
342.754	404.25
342.981	394.25
343.209	388.25
343.437	410.25
343.665	420.25
343.893	424.25
344.12	435.25
344.348	438.25
344.576	426.25
344.804	430.25
345.031	427.25
345.259	446.25
345.487	440.25
345.714	430.25
345.942	410.25
346.17	406.25
346.397	384.25
346.625	396.25
346.853	398.25
347.08	414.25
347.308	426.25
347.535	403.25
347.763	404.25
347.99	397.25
348.218	395.25
348.445	430.25
348.673	411.25
348.9	414.25
349.128	378.25
349.355	396.25
349.583	387.25
349.81	393.25
350.037	390.25
350.265	390.25
350.492	386.25
350.72	381.25
350.947	383.25
351.174	401.25
351.402	422.25
351.629	411.25
351.856	404.25
352.083	414.25
352.311	422.25
352.538	442.25
352.765	419.25
352.992	415.25
353.22	406.25
353.447	411.25
353.674	414.25
353.901	385.25
354.128	382.25
354.355	382.25
354.583	378.25
354.81	382.25
355.037	394.25
355.264	368.25
355.491	382.25
355.718	374.25
355.945	363.25
356.172	377.25
356.399	390.25
356.626	381.25
356.853	374.25
357.08	385.25
357.307	377.25
357.534	385.25
357.761	387.25
357.988	378.25
358.215	383.25
358.441	387.25
358.668	386.25
358.895	415.25
359.122	392.25
359.349	434.25
359.576	398.25
359.802	422.25
360.029	442.25
360.256	439.25
360.483	444.25
360.709	424.25
360.936	422.25
361.163	407.25
361.39	411.25
361.616	418.25
361.843	390.25
362.07	399.25
362.296	407.25
362.523	420.25
362.749	420.25
362.976	431.25
363.203	412.25
363.429	387.25
363.656	390.25
363.882	398.25
364.109	380.25
364.335	370.25
364.562	376.25
364.788	400.25
365.015	420.25
365.241	380.25
365.468	398.25
365.694	392.25
365.92	397.25
366.147	409.25
366.373	409.25
366.599	403.25
366.826	397.25
367.052	375.25
367.278	391.25
367.505	402.25
367.731	401.25
367.957	396.25
368.184	397.25
368.41	406.25
368.636	386.25
368.862	410.25
369.089	409.25
369.315	371.25
369.541	399.25
369.767	392.25
369.993	392.25
370.219	429.25
370.445	406.25
370.672	414.25
370.898	405.25
371.124	400.25
371.35	395.25
371.576	394.25
371.802	406.25
372.028	416.25
372.254	419.25
372.48	418.25
372.706	402.25
372.932	409.25
373.158	406.25
373.384	408.25
373.61	419.25
373.835	428.25
374.061	397.25
374.287	406.25
374.513	408.25
374.739	413.25
374.965	414.25
375.191	422.25
375.416	420.25
375.642	446.25
375.868	418.25
376.094	420.25
376.319	423.25
376.545	400.25
376.771	427.25
376.997	403.25
377.222	399.25
377.448	413.25
377.674	404.25
377.899	394.25
378.125	404.25
378.35	401.25
378.576	425.25
378.802	411.25
379.027	414.25
379.253	384.25
379.478	397.25
379.704	395.25
379.929	417.25
380.155	412.25
380.38	403.25
380.606	387.25
380.831	401.25
381.057	425.25
381.282	420.25
381.507	418.25
381.733	407.25
381.958	409.25
382.184	422.25
382.409	406.25
382.634	416.25
382.86	419.25
383.085	417.25
383.31	409.25
383.535	420.25
383.761	422.25
383.986	414.25
384.211	434.25
384.436	446.25
384.662	430.25
384.887	428.25
385.112	442.25
385.337	426.25
385.562	450.25
385.787	450.25
386.013	463.25
386.238	459.25
386.463	450.25
386.688	451.25
386.913	448.25
387.138	450.25
387.363	446.25
387.588	442.25
387.813	449.25
388.038	445.25
388.263	445.25
388.488	452.25
388.713	456.25
388.938	465.25
389.163	446.25
389.387	451.25
389.612	448.25
389.837	454.25
390.062	454.25
390.287	456.25
390.512	470.25
390.736	469.25
390.961	444.25
391.186	453.25
391.411	475.25
391.636	469.25
391.86	460.25
392.085	464.25
392.31	464.25
392.534	467.25
392.759	475.25
392.984	472.25
393.208	466.25
393.433	468.25
393.658	483.25
393.882	477.25
394.107	451.25
394.331	464.25
394.556	462.25
394.78	459.25
395.005	470.25
395.229	475.25
395.454	479.25
395.678	465.25
395.903	478.25
396.127	507.25
396.352	494.25
396.576	487.25
396.801	481.25
397.025	488.25
397.249	502.25
397.474	498.25
397.698	502.25
397.922	494.25
398.147	504.25
398.371	527.25
398.595	500.25
398.82	512.25
399.044	541.25
399.268	568.25
399.492	598.25
399.717	636.25
399.941	658.25
400.165	654.25
400.389	652.25
400.613	625.25
400.837	597.25
401.062	546.25
401.286	560.25
401.51	549.25
401.734	528.25
401.958	530.25
402.182	556.25
402.406	560.25
402.63	573.25
402.854	552.25
403.078	544.25
403.302	568.25
403.526	544.25
403.75	571.25
403.974	554.25
404.198	563.25
404.422	550.25
404.645	573.25
404.869	566.25
405.093	615.25
405.317	635.25
405.541	676.25
405.765	617.25
405.988	584.25
406.212	610.25
406.436	602.25
406.66	637.25
406.883	593.25
407.107	654.25
407.331	649.25
407.555	724.25
407.778	714.25
408.002	684.25
408.226	618.25
408.449	633.25
408.673	606.25
408.896	662.25
409.12	668.25
409.344	636.25
409.567	594.25
409.791	574.25
410.014	576.25
410.238	539.25
410.461	574.25
410.685	574.25
410.908	562.25
411.132	599.25
411.355	640.25
411.578	602.25
411.802	574.25
412.025	574.25
412.249	579.25
412.472	579.25
412.695	637.25
412.919	603.25
413.142	588.25
413.365	561.25
413.589	536.25
413.812	542.25
414.035	537.25
414.258	536.25
414.482	537.25
414.705	538.25
414.928	552.25
415.151	524.25
415.374	555.25
415.597	544.25
415.821	536.25
416.044	529.25
416.267	523.25
416.49	518.25
416.713	539.25
416.936	527.25
417.159	532.25
417.382	542.25
417.605	545.25
417.828	534.25
418.051	549.25
418.274	529.25
418.497	535.25
418.72	531.25
418.943	539.25
419.166	543.25
419.389	568.25
419.611	591.25
419.834	579.25
420.057	544.25
420.28	566.25
420.503	548.25
420.726	557.25
420.948	563.25
421.171	600.25
421.394	631.25
421.617	564.25
421.839	564.25
422.062	560.25
422.285	569.25
422.507	617.25
422.73	682.25
422.953	666.25
423.175	615.25
423.398	604.25
423.621	567.25
423.843	555.25
424.066	559.25
424.288	587.25
424.511	621.25
424.733	646.25
424.956	729.25
425.178	658.25
425.401	706.25
425.623	726.25
425.846	623.25
426.068	575.25
426.291	574.25
426.513	590.25
426.735	601.25
426.958	601.25
427.18	715.25
427.402	830.25
427.625	894.25
427.847	793.25
428.069	664.25
428.292	614.25
428.514	586.25
428.736	550.25
428.958	558.25
429.181	547.25
429.403	512.25
429.625	562.25
429.847	560.25
430.069	641.25
430.292	611.25
430.514	556.25
430.736	532.25
430.958	548.25
431.18	533.25
431.402	512.25
431.624	514.25
431.846	514.25
432.068	520.25
432.29	511.25
432.512	511.25
432.734	514.25
432.956	525.25
433.178	551.25
433.4	540.25
433.622	549.25
433.844	507.25
434.066	506.25
434.287	506.25
434.509	535.25
434.731	527.25
434.953	543.25
435.175	560.25
435.397	588.25
435.618	575.25
435.84	619.25
436.062	702.25
436.284	751.25
436.505	630.25
436.727	582.25
436.949	548.25
437.17	540.25
437.392	549.25
437.614	544.25
437.835	598.25
438.057	644.25
438.278	774.25
438.5	752.25
438.721	818.25
438.943	787.25
439.165	632.25
439.386	600.25
439.608	588.25
439.829	562.25
440.05	614.25
440.272	676.25
440.493	619.25
440.715	564.25
440.936	554.25
441.158	563.25
441.379	537.25
441.6	569.25
441.822	587.25
442.043	627.25
442.264	675.25
442.486	742.25
442.707	638.25
442.928	602.25
443.149	612.25
443.371	610.25
443.592	654.25
443.813	711.25
444.034	796.25
444.255	676.25
444.476	623.25
444.698	604.25
444.919	592.25
445.14	672.25
445.361	618.25
445.582	630.25
445.803	701.25
446.024	741.25
446.245	772.25
446.466	724.25
446.687	599.25
446.908	568.25
447.129	554.25
447.35	533.25
447.571	531.25
447.792	536.25
448.013	525.25
448.234	555.25
448.455	569.25
448.675	691.25
448.896	805.25
449.117	688.25
449.338	642.25
449.559	750.25
449.779	874.25
450	697.25
450.221	586.25
450.442	518.25
450.662	516.25
450.883	535.25
451.104	552.25
451.324	526.25
451.545	519.25
451.766	513.25
451.986	522.25
452.207	470.25
452.428	476.25
452.648	489.25
452.869	489.25
453.089	484.25
453.31	488.25
453.53	472.25
453.751	490.25
453.971	483.25
454.192	488.25
454.412	490.25
454.633	492.25
454.853	455.25
455.073	483.25
455.294	498.25
455.514	572.25
455.734	546.25
455.955	493.25
456.175	461.25
456.395	455.25
456.616	452.25
456.836	427.25
457.056	460.25
457.276	455.25
457.497	451.25
457.717	461.25
457.937	473.25
458.157	465.25
458.377	482.25
458.598	517.25
458.818	548.25
459.038	599.25
459.258	634.25
459.478	545.25
459.698	514.25
459.918	549.25
460.138	526.25
460.358	524.25
460.578	531.25
460.798	558.25
461.018	544.25
461.238	557.25
461.458	552.25
461.678	559.25
461.898	533.25
462.118	559.25
462.338	548.25
462.558	566.25
462.777	562.25
462.997	554.25
463.217	601.25
463.437	597.25
463.657	591.25
463.876	584.25
464.096	576.25
464.316	581.25
464.536	575.25
464.755	576.25
464.975	603.25
465.195	630.25
465.414	684.25
465.634	589.25
465.854	565.25
466.073	534.25
466.293	520.25
466.512	527.25
466.732	502.25
466.951	513.25
467.171	512.25
467.391	508.25
467.61	506.25
467.829	525.25
468.049	519.25
468.268	533.25
468.488	513.25
468.707	491.25
468.927	491.25
469.146	500.25
469.365	509.25
469.585	481.25
469.804	499.25
470.023	527.25
470.243	508.25
470.462	526.25
470.681	527.25
470.901	544.25
471.12	527.25
471.339	520.25
471.558	512.25
471.777	508.25
471.997	492.25
472.216	511.25
472.435	566.25
472.654	534.25
472.873	519.25
473.092	522.25
473.311	503.25
473.53	510.25
473.749	503.25
473.968	538.25
474.187	631.25
474.406	620.25
474.625	546.25
474.844	527.25
475.063	527.25
475.282	514.25
475.501	537.25
475.72	499.25
475.939	523.25
476.158	521.25
476.377	523.25
476.596	534.25
476.814	537.25
477.033	536.25
477.252	544.25
477.471	536.25
477.69	539.25
477.908	556.25
478.127	548.25
478.346	572.25
478.564	579.25
478.783	578.25
479.002	571.25
479.22	591.25
479.439	597.25
479.658	623.25
479.876	615.25
480.095	617.25
480.313	642.25
480.532	640.25
480.751	616.25
480.969	631.25
481.188	651.25
481.406	711.25
481.624	628.25
481.843	602.25
482.061	612.25
482.28	589.25
482.498	589.25
482.717	595.25
482.935	599.25
483.153	579.25
483.372	611.25
483.59	605.25
483.808	558.25
484.027	585.25
484.245	581.25
484.463	627.25
484.681	621.25
484.9	602.25
485.118	600.25
485.336	630.25
485.554	631.25
485.772	628.25
485.99	600.25
486.209	605.25
486.427	618.25
486.645	631.25
486.863	629.25
487.081	650.25
487.299	646.25
487.517	630.25
487.735	647.25
487.953	636.25
488.171	631.25
488.389	629.25
488.607	646.25
488.825	612.25
489.043	631.25
489.261	646.25
489.479	641.25
489.696	638.25
489.914	618.25
490.132	683.25
490.35	654.25
490.568	658.25
490.786	672.25
491.003	683.25
491.221	688.25
491.439	723.25
491.657	702.25
491.874	698.25
492.092	720.25
492.31	706.25
492.527	703.25
492.745	723.25
492.963	724.25
493.18	727.25
493.398	730.25
493.615	751.25
493.833	742.25
494.05	734.25
494.268	714.25
494.485	754.25
494.703	746.25
494.92	735.25
495.138	736.25
495.355	762.25
495.573	739.25
495.79	749.25
496.008	737.25
496.225	738.25
496.442	737.25
496.66	742.25
496.877	760.25
497.094	770.25
497.312	760.25
497.529	776.25
497.746	808.25
497.963	798.25
498.181	838.25
498.398	848.25
498.615	862.25
498.832	895.25
499.049	895.25
499.267	927.25
499.484	959.25
499.701	1011.25
499.918	1048.25
500.135	1098.25
500.352	1181.25
500.569	1188.25
500.786	1198.25
501.003	1150.25
501.22	1119.25
501.437	1090.25
501.654	1050.25
501.871	992.25
