Data from 1979.PennyLincolnUp.Lamp.En5.5.200Scan.071719.P1_HRD10591_16-19-34-863.txt Node
Date: Thu Jul 18 16:19:34 EDT 2019
User: cochatt
Spectrometer: HR+D1059
Trigger mode: 1
Integration Time (sec): 1.000000E-1
Scans to average: 1
Electric dark correction enabled: true
Nonlinearity correction enabled: false
Boxcar width: 0
XAxis mode: Wavelengths
Number of Pixels in Spectrum: 2048
>>>>>Begin Spectral Data<<<<<
223.165	-7.31
223.4	-7.31
223.635	-7.31
223.869	-18.31
224.104	-30.31
224.338	-6.31
224.573	-20.31
224.808	-1.31
225.042	-1.31
225.277	1.69
225.511	-10.31
225.746	3.69
225.98	7.69
226.215	3.69
226.449	7.69
226.683	28.69
226.918	24.69
227.152	17.69
227.387	20.69
227.621	34.69
227.856	33.69
228.09	47.69
228.324	43.69
228.559	52.69
228.793	61.69
229.027	94.69
229.262	117.69
229.496	107.69
229.73	127.69
229.964	145.69
230.199	120.69
230.433	109.69
230.667	120.69
230.901	110.69
231.136	105.69
231.37	122.69
231.604	109.69
231.838	102.69
232.072	114.69
232.306	105.69
232.541	100.69
232.775	113.69
233.009	103.69
233.243	117.69
233.477	119.69
233.711	125.69
233.945	127.69
234.179	129.69
234.413	119.69
234.647	125.69
234.881	117.69
235.115	107.69
235.349	122.69
235.583	127.69
235.817	125.69
236.051	119.69
236.285	129.69
236.519	115.69
236.753	121.69
236.987	135.69
237.221	163.69
237.455	205.69
237.689	179.69
237.922	134.69
238.156	135.69
238.39	137.69
238.624	139.69
238.858	125.69
239.091	111.69
239.325	137.69
239.559	125.69
239.793	125.69
240.027	133.69
240.26	133.69
240.494	142.69
240.728	141.69
240.961	147.69
241.195	129.69
241.429	144.69
241.662	127.69
241.896	123.69
242.13	124.69
242.363	131.69
242.597	142.69
242.83	145.69
243.064	138.69
243.298	138.69
243.531	124.69
243.765	135.69
243.998	139.69
244.232	134.69
244.465	143.69
244.699	137.69
244.932	134.69
245.166	144.69
245.399	150.69
245.633	150.69
245.866	142.69
246.099	142.69
246.333	146.69
246.566	150.69
246.8	146.69
247.033	130.69
247.266	153.69
247.5	149.69
247.733	180.69
247.966	165.69
248.2	155.69
248.433	158.69
248.666	167.69
248.899	167.69
249.133	195.69
249.366	194.69
249.599	184.69
249.832	180.69
250.066	165.69
250.299	179.69
250.532	195.69
250.765	206.69
250.998	223.69
251.231	224.69
251.465	210.69
251.698	195.69
251.931	189.69
252.164	189.69
252.397	185.69
252.63	180.69
252.863	203.69
253.096	215.69
253.329	218.69
253.562	210.69
253.795	212.69
254.028	206.69
254.261	202.69
254.494	207.69
254.727	233.69
254.96	268.69
255.193	238.69
255.426	226.69
255.659	202.69
255.892	213.69
256.124	209.69
256.357	205.69
256.59	231.69
256.823	216.69
257.056	199.69
257.289	195.69
257.521	213.69
257.754	211.69
257.987	195.69
258.22	181.69
258.452	181.69
258.685	210.69
258.918	198.69
259.151	204.69
259.383	210.69
259.616	202.69
259.849	205.69
260.081	213.69
260.314	221.69
260.547	230.69
260.779	241.69
261.012	213.69
261.244	214.69
261.477	229.69
261.71	220.69
261.942	204.69
262.175	217.69
262.407	227.69
262.64	213.69
262.872	223.69
263.105	214.69
263.337	209.69
263.57	204.69
263.802	205.69
264.035	210.69
264.267	197.69
264.499	210.69
264.732	206.69
264.964	211.69
265.197	203.69
265.429	196.69
265.661	212.69
265.894	209.69
266.126	211.69
266.358	221.69
266.591	207.69
266.823	225.69
267.055	213.69
267.287	213.69
267.52	215.69
267.752	203.69
267.984	191.69
268.216	208.69
268.448	220.69
268.681	220.69
268.913	213.69
269.145	233.69
269.377	263.69
269.609	258.69
269.841	247.69
270.073	256.69
270.306	270.69
270.538	282.69
270.77	265.69
271.002	263.69
271.234	260.69
271.466	270.69
271.698	268.69
271.93	278.69
272.162	292.69
272.394	297.69
272.626	266.69
272.858	270.69
273.09	294.69
273.322	244.69
273.553	262.69
273.785	249.69
274.017	238.69
274.249	257.69
274.481	240.69
274.713	255.69
274.945	234.69
275.176	256.69
275.408	230.69
275.64	241.69
275.872	246.69
276.104	248.69
276.335	258.69
276.567	253.69
276.799	277.69
277.031	293.69
277.262	302.69
277.494	298.69
277.726	282.69
277.957	268.69
278.189	278.69
278.421	258.69
278.652	275.69
278.884	270.69
279.115	274.69
279.347	237.69
279.579	243.69
279.81	263.69
280.042	272.69
280.273	260.69
280.505	253.69
280.736	255.69
280.968	262.69
281.199	266.69
281.431	254.69
281.662	266.69
281.894	249.69
282.125	260.69
282.356	266.69
282.588	298.69
282.819	290.69
283.051	277.69
283.282	247.69
283.513	274.69
283.745	268.69
283.976	251.69
284.207	275.69
284.439	269.69
284.67	268.69
284.901	276.69
285.132	259.69
285.364	261.69
285.595	267.69
285.826	261.69
286.057	259.69
286.288	264.69
286.52	250.69
286.751	276.69
286.982	275.69
287.213	294.69
287.444	276.69
287.675	286.69
287.906	267.69
288.138	277.69
288.369	271.69
288.6	273.69
288.831	282.69
289.062	277.69
289.293	277.69
289.524	287.69
289.755	272.69
289.986	276.69
290.217	276.69
290.448	282.69
290.679	277.69
290.91	277.69
291.141	273.69
291.371	297.69
291.602	305.69
291.833	279.69
292.064	283.69
292.295	284.69
292.526	287.69
292.757	289.69
292.987	293.69
293.218	272.69
293.449	301.69
293.68	285.69
293.91	284.69
294.141	284.69
294.372	286.69
294.603	294.69
294.833	283.69
295.064	284.69
295.295	283.69
295.525	288.69
295.756	299.69
295.987	287.69
296.217	307.69
296.448	325.69
296.679	299.69
296.909	282.69
297.14	289.69
297.37	295.69
297.601	286.69
297.831	282.69
298.062	306.69
298.292	304.69
298.523	289.69
298.753	312.69
298.984	296.69
299.214	301.69
299.445	306.69
299.675	322.69
299.905	311.69
300.136	303.69
300.366	306.69
300.597	321.69
300.827	307.69
301.057	328.69
301.288	320.69
301.518	323.69
301.748	313.69
301.979	319.69
302.209	317.69
302.439	314.69
302.669	332.69
302.9	307.69
303.13	321.69
303.36	325.69
303.59	322.69
303.82	338.69
304.051	332.69
304.281	335.69
304.511	311.69
304.741	334.69
304.971	313.69
305.201	330.69
305.431	320.69
305.661	323.69
305.891	328.69
306.121	321.69
306.352	325.69
306.582	331.69
306.812	321.69
307.042	332.69
307.272	316.69
307.502	315.69
307.731	324.69
307.961	331.69
308.191	326.69
308.421	339.69
308.651	339.69
308.881	305.69
309.111	327.69
309.341	326.69
309.571	338.69
309.8	347.69
310.03	350.69
310.26	350.69
310.49	373.69
310.72	354.69
310.949	369.69
311.179	366.69
311.409	350.69
311.639	373.69
311.868	374.69
312.098	366.69
312.328	367.69
312.557	373.69
312.787	385.69
313.017	395.69
313.246	363.69
313.476	367.69
313.706	369.69
313.935	366.69
314.165	364.69
314.394	382.69
314.624	389.69
314.853	387.69
315.083	363.69
315.312	374.69
315.542	373.69
315.771	366.69
316.001	379.69
316.23	369.69
316.46	366.69
316.689	383.69
316.919	371.69
317.148	372.69
317.377	375.69
317.607	365.69
317.836	389.69
318.065	366.69
318.295	374.69
318.524	377.69
318.753	358.69
318.983	336.69
319.212	386.69
319.441	399.69
319.67	377.69
319.9	379.69
320.129	349.69
320.358	366.69
320.587	371.69
320.816	389.69
321.046	377.69
321.275	380.69
321.504	386.69
321.733	391.69
321.962	404.69
322.191	399.69
322.42	412.69
322.649	427.69
322.878	446.69
323.108	438.69
323.337	458.69
323.566	464.69
323.795	513.69
324.024	545.69
324.253	630.69
324.482	885.69
324.71	1379.69
324.939	2057.69
325.168	1759.69
325.397	859.69
325.626	620.69
325.855	509.69
326.084	485.69
326.313	473.69
326.542	481.69
326.77	504.69
326.999	594.69
327.228	825.69
327.457	1270.69
327.686	1549.69
327.914	1032.69
328.143	666.69
328.372	602.69
328.6	560.69
328.829	517.69
329.058	546.69
329.287	527.69
329.515	523.69
329.744	508.69
329.972	486.69
330.201	486.69
330.43	510.69
330.658	548.69
330.887	569.69
331.115	551.69
331.344	493.69
331.572	462.69
331.801	484.69
332.03	471.69
332.258	465.69
332.486	459.69
332.715	441.69
332.943	439.69
333.172	448.69
333.4	472.69
333.629	469.69
333.857	472.69
334.085	508.69
334.314	510.69
334.542	518.69
334.771	545.69
334.999	493.69
335.227	468.69
335.455	450.69
335.684	463.69
335.912	451.69
336.14	445.69
336.369	437.69
336.597	466.69
336.825	479.69
337.053	442.69
337.281	433.69
337.51	461.69
337.738	438.69
337.966	436.69
338.194	449.69
338.422	447.69
338.65	427.69
338.878	440.69
339.106	402.69
339.334	440.69
339.562	419.69
339.79	419.69
340.018	422.69
340.246	423.69
340.474	406.69
340.702	436.69
340.93	429.69
341.158	429.69
341.386	419.69
341.614	435.69
341.842	422.69
342.07	439.69
342.298	431.69
342.526	418.69
342.754	410.69
342.981	425.69
343.209	405.69
343.437	429.69
343.665	433.69
343.893	432.69
344.12	455.69
344.348	456.69
344.576	427.69
344.804	427.69
345.031	445.69
345.259	460.69
345.487	425.69
345.714	423.69
345.942	414.69
346.17	429.69
346.397	405.69
346.625	415.69
346.853	438.69
347.08	417.69
347.308	429.69
347.535	428.69
347.763	434.69
347.99	437.69
348.218	420.69
348.445	413.69
348.673	423.69
348.9	414.69
349.128	424.69
349.355	412.69
349.583	403.69
349.81	419.69
350.037	399.69
350.265	415.69
350.492	418.69
350.72	413.69
350.947	411.69
351.174	409.69
351.402	415.69
351.629	415.69
351.856	424.69
352.083	396.69
352.311	426.69
352.538	410.69
352.765	429.69
352.992	422.69
353.22	406.69
353.447	431.69
353.674	409.69
353.901	394.69
354.128	381.69
354.355	395.69
354.583	385.69
354.81	392.69
355.037	384.69
355.264	392.69
355.491	378.69
355.718	383.69
355.945	394.69
356.172	380.69
356.399	381.69
356.626	387.69
356.853	407.69
357.08	387.69
357.307	379.69
357.534	386.69
357.761	394.69
357.988	405.69
358.215	383.69
358.441	377.69
358.668	390.69
358.895	400.69
359.122	407.69
359.349	422.69
359.576	388.69
359.802	430.69
360.029	451.69
360.256	462.69
360.483	443.69
360.709	422.69
360.936	407.69
361.163	403.69
361.39	405.69
361.616	419.69
361.843	429.69
362.07	409.69
362.296	421.69
362.523	430.69
362.749	425.69
362.976	400.69
363.203	399.69
363.429	395.69
363.656	417.69
363.882	395.69
364.109	424.69
364.335	390.69
364.562	405.69
364.788	396.69
365.015	396.69
365.241	399.69
365.468	429.69
365.694	440.69
365.92	405.69
366.147	386.69
366.373	400.69
366.599	402.69
366.826	385.69
367.052	391.69
367.278	395.69
367.505	393.69
367.731	405.69
367.957	398.69
368.184	406.69
368.41	431.69
368.636	410.69
368.862	431.69
369.089	412.69
369.315	399.69
369.541	428.69
369.767	401.69
369.993	411.69
370.219	399.69
370.445	403.69
370.672	426.69
370.898	395.69
371.124	392.69
371.35	408.69
371.576	405.69
371.802	409.69
372.028	413.69
372.254	416.69
372.48	418.69
372.706	407.69
372.932	405.69
373.158	394.69
373.384	431.69
373.61	425.69
373.835	418.69
374.061	420.69
374.287	413.69
374.513	425.69
374.739	433.69
374.965	422.69
375.191	441.69
375.416	433.69
375.642	410.69
375.868	426.69
376.094	433.69
376.319	410.69
376.545	404.69
376.771	405.69
376.997	420.69
377.222	405.69
377.448	419.69
377.674	395.69
377.899	420.69
378.125	426.69
378.35	408.69
378.576	435.69
378.802	413.69
379.027	402.69
379.253	397.69
379.478	421.69
379.704	395.69
379.929	405.69
380.155	413.69
380.38	411.69
380.606	428.69
380.831	413.69
381.057	399.69
381.282	408.69
381.507	409.69
381.733	426.69
381.958	402.69
382.184	429.69
382.409	428.69
382.634	422.69
382.86	426.69
383.085	451.69
383.31	436.69
383.535	419.69
383.761	458.69
383.986	433.69
384.211	452.69
384.436	455.69
384.662	453.69
384.887	451.69
385.112	447.69
385.337	447.69
385.562	450.69
385.787	443.69
386.013	448.69
386.238	461.69
386.463	473.69
386.688	469.69
386.913	446.69
387.138	466.69
387.363	480.69
387.588	467.69
387.813	465.69
388.038	461.69
388.263	455.69
388.488	444.69
388.713	444.69
388.938	446.69
389.163	464.69
389.387	483.69
389.612	451.69
389.837	448.69
390.062	455.69
390.287	465.69
390.512	475.69
390.736	456.69
390.961	473.69
391.186	467.69
391.411	479.69
391.636	476.69
391.86	462.69
392.085	482.69
392.31	489.69
392.534	483.69
392.759	485.69
392.984	474.69
393.208	486.69
393.433	492.69
393.658	471.69
393.882	465.69
394.107	490.69
394.331	476.69
394.556	477.69
394.78	476.69
395.005	488.69
395.229	457.69
395.454	491.69
395.678	488.69
395.903	513.69
396.127	510.69
396.352	511.69
396.576	507.69
396.801	489.69
397.025	472.69
397.249	484.69
397.474	531.69
397.698	515.69
397.922	523.69
398.147	536.69
398.371	555.69
398.595	520.69
398.82	528.69
399.044	567.69
399.268	581.69
399.492	612.69
399.717	638.69
399.941	680.69
400.165	664.69
400.389	676.69
400.613	603.69
400.837	569.69
401.062	595.69
401.286	573.69
401.51	585.69
401.734	553.69
401.958	541.69
402.182	543.69
402.406	540.69
402.63	569.69
402.854	594.69
403.078	571.69
403.302	584.69
403.526	554.69
403.75	588.69
403.974	584.69
404.198	563.69
404.422	573.69
404.645	602.69
404.869	611.69
405.093	633.69
405.317	636.69
405.541	695.69
405.765	615.69
405.988	614.69
406.212	609.69
406.436	621.69
406.66	631.69
406.883	611.69
407.107	620.69
407.331	694.69
407.555	737.69
407.778	767.69
408.002	701.69
408.226	651.69
408.449	637.69
408.673	618.69
408.896	655.69
409.12	688.69
409.344	683.69
409.567	607.69
409.791	598.69
410.014	587.69
410.238	581.69
410.461	591.69
410.685	583.69
410.908	601.69
411.132	638.69
411.355	656.69
411.578	612.69
411.802	588.69
412.025	580.69
412.249	595.69
412.472	603.69
412.695	635.69
412.919	637.69
413.142	577.69
413.365	555.69
413.589	574.69
413.812	549.69
414.035	549.69
414.258	561.69
414.482	542.69
414.705	556.69
414.928	537.69
415.151	553.69
415.374	564.69
415.597	542.69
415.821	523.69
416.044	534.69
416.267	565.69
416.49	557.69
416.713	547.69
416.936	538.69
417.159	550.69
417.382	558.69
417.605	548.69
417.828	558.69
418.051	589.69
418.274	569.69
418.497	556.69
418.72	555.69
418.943	548.69
419.166	596.69
419.389	597.69
419.611	607.69
419.834	595.69
420.057	595.69
420.28	580.69
420.503	582.69
420.726	583.69
420.948	603.69
421.171	625.69
421.394	656.69
421.617	590.69
421.839	572.69
422.062	588.69
422.285	590.69
422.507	623.69
422.73	706.69
422.953	695.69
423.175	614.69
423.398	597.69
423.621	595.69
423.843	602.69
424.066	617.69
424.288	591.69
424.511	609.69
424.733	682.69
424.956	739.69
425.178	681.69
425.401	697.69
425.623	739.69
425.846	647.69
426.068	615.69
426.291	581.69
426.513	604.69
426.735	603.69
426.958	619.69
427.18	710.69
427.402	864.69
427.625	945.69
427.847	824.69
428.069	697.69
428.292	644.69
428.514	606.69
428.736	581.69
428.958	564.69
429.181	561.69
429.403	553.69
429.625	554.69
429.847	612.69
430.069	657.69
430.292	636.69
430.514	587.69
430.736	551.69
430.958	564.69
431.18	553.69
431.402	553.69
431.624	554.69
431.846	531.69
432.068	532.69
432.29	527.69
432.512	549.69
432.734	536.69
432.956	534.69
433.178	557.69
433.4	568.69
433.622	552.69
433.844	546.69
434.066	525.69
434.287	548.69
434.509	554.69
434.731	548.69
434.953	547.69
435.175	567.69
435.397	609.69
435.618	594.69
435.84	644.69
436.062	722.69
436.284	790.69
436.505	653.69
436.727	602.69
436.949	552.69
437.17	582.69
437.392	556.69
437.614	576.69
437.835	599.69
438.057	686.69
438.278	797.69
438.5	742.69
438.721	835.69
438.943	819.69
439.165	642.69
439.386	625.69
439.608	609.69
439.829	602.69
440.05	614.69
440.272	700.69
440.493	625.69
440.715	607.69
440.936	547.69
441.158	586.69
441.379	564.69
441.6	586.69
441.822	599.69
442.043	644.69
442.264	725.69
442.486	811.69
442.707	681.69
442.928	610.69
443.149	636.69
443.371	652.69
443.592	675.69
443.813	759.69
444.034	838.69
444.255	702.69
444.476	664.69
444.698	627.69
444.919	650.69
445.14	706.69
445.361	661.69
445.582	675.69
445.803	718.69
446.024	823.69
446.245	795.69
446.466	737.69
446.687	628.69
446.908	614.69
447.129	567.69
447.35	566.69
447.571	567.69
447.792	547.69
448.013	550.69
448.234	566.69
448.455	604.69
448.675	724.69
448.896	844.69
449.117	721.69
449.338	663.69
449.559	779.69
449.779	865.69
450	715.69
450.221	602.69
450.442	545.69
450.662	547.69
450.883	532.69
451.104	540.69
451.324	534.69
451.545	516.69
451.766	525.69
451.986	490.69
452.207	506.69
452.428	513.69
452.648	492.69
452.869	497.69
453.089	530.69
453.31	505.69
453.53	519.69
453.751	498.69
453.971	498.69
454.192	530.69
454.412	493.69
454.633	506.69
454.853	496.69
455.073	518.69
455.294	519.69
455.514	589.69
455.734	563.69
455.955	490.69
456.175	478.69
456.395	482.69
456.616	491.69
456.836	456.69
457.056	459.69
457.276	445.69
457.497	469.69
457.717	457.69
457.937	473.69
458.157	463.69
458.377	486.69
458.598	509.69
458.818	567.69
459.038	653.69
459.258	671.69
459.478	561.69
459.698	550.69
459.918	519.69
460.138	542.69
460.358	548.69
460.578	555.69
460.798	584.69
461.018	561.69
461.238	575.69
461.458	549.69
461.678	547.69
461.898	576.69
462.118	569.69
462.338	597.69
462.558	574.69
462.777	603.69
462.997	625.69
463.217	621.69
463.437	625.69
463.657	609.69
463.876	617.69
464.096	604.69
464.316	586.69
464.536	617.69
464.755	625.69
464.975	603.69
465.195	636.69
465.414	695.69
465.634	614.69
465.854	567.69
466.073	563.69
466.293	530.69
466.512	515.69
466.732	526.69
466.951	512.69
467.171	526.69
467.391	532.69
467.61	524.69
467.829	539.69
468.049	551.69
468.268	507.69
468.488	489.69
468.707	526.69
468.927	485.69
469.146	486.69
469.365	512.69
469.585	509.69
469.804	524.69
470.023	545.69
470.243	526.69
470.462	529.69
470.681	545.69
470.901	564.69
471.12	519.69
471.339	532.69
471.558	521.69
471.777	551.69
471.997	526.69
472.216	539.69
472.435	553.69
472.654	548.69
472.873	515.69
473.092	519.69
473.311	515.69
473.53	515.69
473.749	508.69
473.968	563.69
474.187	651.69
474.406	650.69
474.625	585.69
474.844	533.69
475.063	515.69
475.282	527.69
475.501	527.69
475.72	531.69
475.939	524.69
476.158	542.69
476.377	540.69
476.596	530.69
476.814	544.69
477.033	551.69
477.252	578.69
477.471	554.69
477.69	540.69
477.908	561.69
478.127	581.69
478.346	584.69
478.564	594.69
478.783	584.69
479.002	602.69
479.22	621.69
479.439	621.69
479.658	611.69
479.876	617.69
480.095	650.69
480.313	659.69
480.532	639.69
480.751	647.69
480.969	668.69
481.188	701.69
481.406	759.69
481.624	666.69
481.843	625.69
482.061	627.69
482.28	605.69
482.498	612.69
482.717	621.69
482.935	613.69
483.153	598.69
483.372	599.69
483.59	612.69
483.808	618.69
484.027	610.69
484.245	617.69
484.463	608.69
484.681	628.69
484.9	617.69
485.118	611.69
485.336	636.69
485.554	619.69
485.772	639.69
485.99	639.69
486.209	662.69
486.427	661.69
486.645	667.69
486.863	658.69
487.081	687.69
487.299	636.69
487.517	631.69
487.735	644.69
487.953	639.69
488.171	657.69
488.389	619.69
488.607	654.69
488.825	649.69
489.043	638.69
489.261	671.69
489.479	670.69
489.696	657.69
489.914	665.69
490.132	664.69
490.35	682.69
490.568	662.69
490.786	675.69
491.003	687.69
491.221	705.69
491.439	732.69
491.657	720.69
491.874	714.69
492.092	714.69
492.31	732.69
492.527	762.69
492.745	759.69
492.963	733.69
493.18	746.69
493.398	753.69
493.615	776.69
493.833	757.69
494.05	770.69
494.268	759.69
494.485	768.69
494.703	745.69
494.92	759.69
495.138	751.69
495.355	751.69
495.573	774.69
495.79	753.69
496.008	796.69
496.225	794.69
496.442	783.69
496.66	773.69
496.877	754.69
497.094	813.69
497.312	801.69
497.529	802.69
497.746	800.69
497.963	842.69
498.181	860.69
498.398	865.69
498.615	861.69
498.832	895.69
499.049	921.69
499.267	935.69
499.484	994.69
499.701	1013.69
499.918	1086.69
500.135	1120.69
500.352	1208.69
500.569	1234.69
500.786	1248.69
501.003	1166.69
501.22	1155.69
501.437	1115.69
501.654	1061.69
501.871	1024.69
