Data from Location5.07152019.Energy5.Lamp.07192019.3%Agarose_HRD10591_15-38-09-387.txt Node
Date: Fri Jul 19 15:38:09 EDT 2019
User: cochatt
Spectrometer: HR+D1059
Trigger mode: 1
Integration Time (sec): 1.000000E-1
Scans to average: 1
Electric dark correction enabled: true
Nonlinearity correction enabled: false
Boxcar width: 0
XAxis mode: Wavelengths
Number of Pixels in Spectrum: 2048
>>>>>Begin Spectral Data<<<<<
223.165	-10.56
223.4	-10.56
223.635	-10.56
223.869	-28.56
224.104	-19.56
224.338	-26.56
224.573	-12.56
224.808	-17.56
225.042	-4.56
225.277	-9.56
225.511	0.44
225.746	-8.56
225.98	5.44
226.215	11.44
226.449	29.44
226.683	30.44
226.918	36.44
227.152	24.44
227.387	20.44
227.621	44.44
227.856	43.44
228.09	38.44
228.324	52.44
228.559	48.44
228.793	64.44
229.027	57.44
229.262	56.44
229.496	54.44
229.73	78.44
229.964	70.44
230.199	77.44
230.433	68.44
230.667	78.44
230.901	70.44
231.136	79.44
231.37	77.44
231.604	78.44
231.838	81.44
232.072	74.44
232.306	86.44
232.541	79.44
232.775	74.44
233.009	68.44
233.243	87.44
233.477	82.44
233.711	82.44
233.945	70.44
234.179	89.44
234.413	92.44
234.647	81.44
234.881	84.44
235.115	78.44
235.349	72.44
235.583	86.44
235.817	80.44
236.051	82.44
236.285	71.44
236.519	75.44
236.753	83.44
236.987	66.44
237.221	72.44
237.455	75.44
237.689	92.44
237.922	82.44
238.156	69.44
238.39	71.44
238.624	64.44
238.858	70.44
239.091	59.44
239.325	73.44
239.559	75.44
239.793	83.44
240.027	80.44
240.26	79.44
240.494	82.44
240.728	70.44
240.961	76.44
241.195	86.44
241.429	65.44
241.662	80.44
241.896	81.44
242.13	70.44
242.363	77.44
242.597	73.44
242.83	84.44
243.064	67.44
243.298	77.44
243.531	82.44
243.765	92.44
243.998	100.44
244.232	86.44
244.465	70.44
244.699	77.44
244.932	73.44
245.166	69.44
245.399	80.44
245.633	73.44
245.866	100.44
246.099	79.44
246.333	75.44
246.566	67.44
246.8	84.44
247.033	61.44
247.266	78.44
247.5	51.44
247.733	78.44
247.966	66.44
248.2	69.44
248.433	83.44
248.666	71.44
248.899	81.44
249.133	86.44
249.366	67.44
249.599	92.44
249.832	68.44
250.066	84.44
250.299	82.44
250.532	70.44
250.765	77.44
250.998	81.44
251.231	84.44
251.465	76.44
251.698	79.44
251.931	78.44
252.164	72.44
252.397	71.44
252.63	78.44
252.863	86.44
253.096	90.44
253.329	86.44
253.562	88.44
253.795	76.44
254.028	78.44
254.261	56.44
254.494	81.44
254.727	73.44
254.96	76.44
255.193	76.44
255.426	76.44
255.659	84.44
255.892	79.44
256.124	87.44
256.357	92.44
256.59	76.44
256.823	82.44
257.056	83.44
257.289	75.44
257.521	83.44
257.754	73.44
257.987	71.44
258.22	81.44
258.452	71.44
258.685	70.44
258.918	69.44
259.151	77.44
259.383	77.44
259.616	74.44
259.849	91.44
260.081	77.44
260.314	80.44
260.547	74.44
260.779	79.44
261.012	83.44
261.244	80.44
261.477	78.44
261.71	75.44
261.942	77.44
262.175	70.44
262.407	84.44
262.64	64.44
262.872	100.44
263.105	75.44
263.337	79.44
263.57	72.44
263.802	81.44
264.035	84.44
264.267	76.44
264.499	83.44
264.732	94.44
264.964	70.44
265.197	79.44
265.429	80.44
265.661	85.44
265.894	78.44
266.126	69.44
266.358	76.44
266.591	83.44
266.823	84.44
267.055	85.44
267.287	73.44
267.52	79.44
267.752	86.44
267.984	72.44
268.216	71.44
268.448	85.44
268.681	72.44
268.913	85.44
269.145	81.44
269.377	93.44
269.609	72.44
269.841	89.44
270.073	83.44
270.306	88.44
270.538	71.44
270.77	67.44
271.002	70.44
271.234	79.44
271.466	77.44
271.698	75.44
271.93	80.44
272.162	84.44
272.394	72.44
272.626	72.44
272.858	64.44
273.09	88.44
273.322	88.44
273.553	57.44
273.785	83.44
274.017	79.44
274.249	79.44
274.481	88.44
274.713	89.44
274.945	91.44
275.176	87.44
275.408	79.44
275.64	85.44
275.872	80.44
276.104	83.44
276.335	82.44
276.567	96.44
276.799	76.44
277.031	81.44
277.262	79.44
277.494	67.44
277.726	80.44
277.957	68.44
278.189	82.44
278.421	71.44
278.652	89.44
278.884	79.44
279.115	81.44
279.347	77.44
279.579	76.44
279.81	87.44
280.042	75.44
280.273	70.44
280.505	76.44
280.736	85.44
280.968	86.44
281.199	80.44
281.431	78.44
281.662	84.44
281.894	83.44
282.125	86.44
282.356	83.44
282.588	92.44
282.819	87.44
283.051	83.44
283.282	72.44
283.513	88.44
283.745	77.44
283.976	75.44
284.207	79.44
284.439	84.44
284.67	82.44
284.901	77.44
285.132	82.44
285.364	88.44
285.595	98.44
285.826	74.44
286.057	73.44
286.288	79.44
286.52	87.44
286.751	89.44
286.982	90.44
287.213	83.44
287.444	72.44
287.675	83.44
287.906	79.44
288.138	84.44
288.369	86.44
288.6	76.44
288.831	67.44
289.062	73.44
289.293	91.44
289.524	85.44
289.755	85.44
289.986	89.44
290.217	76.44
290.448	86.44
290.679	80.44
290.91	83.44
291.141	75.44
291.371	80.44
291.602	76.44
291.833	86.44
292.064	68.44
292.295	98.44
292.526	81.44
292.757	78.44
292.987	78.44
293.218	77.44
293.449	80.44
293.68	86.44
293.91	81.44
294.141	79.44
294.372	87.44
294.603	80.44
294.833	82.44
295.064	68.44
295.295	80.44
295.525	88.44
295.756	73.44
295.987	75.44
296.217	80.44
296.448	73.44
296.679	83.44
296.909	78.44
297.14	93.44
297.37	84.44
297.601	81.44
297.831	79.44
298.062	61.44
298.292	78.44
298.523	88.44
298.753	98.44
298.984	80.44
299.214	73.44
299.445	69.44
299.675	80.44
299.905	87.44
300.136	88.44
300.366	92.44
300.597	77.44
300.827	94.44
301.057	81.44
301.288	77.44
301.518	95.44
301.748	85.44
301.979	89.44
302.209	70.44
302.439	82.44
302.669	78.44
302.9	95.44
303.13	76.44
303.36	83.44
303.59	64.44
303.82	79.44
304.051	84.44
304.281	85.44
304.511	80.44
304.741	76.44
304.971	92.44
305.201	78.44
305.431	88.44
305.661	76.44
305.891	82.44
306.121	90.44
306.352	87.44
306.582	75.44
306.812	79.44
307.042	72.44
307.272	66.44
307.502	88.44
307.731	87.44
307.961	95.44
308.191	76.44
308.421	68.44
308.651	84.44
308.881	74.44
309.111	87.44
309.341	69.44
309.571	82.44
309.8	86.44
310.03	66.44
310.26	86.44
310.49	80.44
310.72	79.44
310.949	79.44
311.179	74.44
311.409	77.44
311.639	90.44
311.868	87.44
312.098	86.44
312.328	84.44
312.557	81.44
312.787	87.44
313.017	95.44
313.246	101.44
313.476	79.44
313.706	80.44
313.935	63.44
314.165	91.44
314.394	78.44
314.624	83.44
314.853	76.44
315.083	76.44
315.312	94.44
315.542	83.44
315.771	87.44
316.001	85.44
316.23	88.44
316.46	70.44
316.689	83.44
316.919	81.44
317.148	77.44
317.377	80.44
317.607	90.44
317.836	95.44
318.065	94.44
318.295	82.44
318.524	76.44
318.753	94.44
318.983	75.44
319.212	84.44
319.441	75.44
319.67	79.44
319.9	78.44
320.129	80.44
320.358	80.44
320.587	78.44
320.816	80.44
321.046	73.44
321.275	85.44
321.504	82.44
321.733	87.44
321.962	86.44
322.191	75.44
322.42	85.44
322.649	81.44
322.878	99.44
323.108	84.44
323.337	78.44
323.566	81.44
323.795	77.44
324.024	80.44
324.253	84.44
324.482	79.44
324.71	85.44
324.939	83.44
325.168	77.44
325.397	70.44
325.626	71.44
325.855	79.44
326.084	86.44
326.313	92.44
326.542	81.44
326.77	87.44
326.999	82.44
327.228	85.44
327.457	79.44
327.686	69.44
327.914	97.44
328.143	85.44
328.372	89.44
328.6	89.44
328.829	82.44
329.058	79.44
329.287	74.44
329.515	82.44
329.744	66.44
329.972	92.44
330.201	99.44
330.43	89.44
330.658	98.44
330.887	76.44
331.115	76.44
331.344	67.44
331.572	76.44
331.801	80.44
332.03	79.44
332.258	80.44
332.486	75.44
332.715	77.44
332.943	79.44
333.172	85.44
333.4	87.44
333.629	71.44
333.857	77.44
334.085	88.44
334.314	80.44
334.542	76.44
334.771	81.44
334.999	73.44
335.227	78.44
335.455	89.44
335.684	89.44
335.912	85.44
336.14	75.44
336.369	71.44
336.597	67.44
336.825	83.44
337.053	78.44
337.281	90.44
337.51	75.44
337.738	79.44
337.966	76.44
338.194	82.44
338.422	87.44
338.65	91.44
338.878	76.44
339.106	83.44
339.334	82.44
339.562	74.44
339.79	83.44
340.018	80.44
340.246	93.44
340.474	94.44
340.702	77.44
340.93	80.44
341.158	81.44
341.386	80.44
341.614	69.44
341.842	91.44
342.07	86.44
342.298	84.44
342.526	78.44
342.754	81.44
342.981	86.44
343.209	64.44
343.437	75.44
343.665	77.44
343.893	72.44
344.12	80.44
344.348	66.44
344.576	85.44
344.804	79.44
345.031	83.44
345.259	75.44
345.487	73.44
345.714	93.44
345.942	76.44
346.17	72.44
346.397	72.44
346.625	78.44
346.853	79.44
347.08	82.44
347.308	69.44
347.535	82.44
347.763	72.44
347.99	80.44
348.218	65.44
348.445	67.44
348.673	79.44
348.9	89.44
349.128	81.44
349.355	92.44
349.583	88.44
349.81	86.44
350.037	76.44
350.265	85.44
350.492	72.44
350.72	72.44
350.947	60.44
351.174	75.44
351.402	85.44
351.629	63.44
351.856	83.44
352.083	78.44
352.311	79.44
352.538	58.44
352.765	78.44
352.992	85.44
353.22	84.44
353.447	80.44
353.674	89.44
353.901	87.44
354.128	76.44
354.355	70.44
354.583	75.44
354.81	81.44
355.037	78.44
355.264	82.44
355.491	80.44
355.718	73.44
355.945	85.44
356.172	73.44
356.399	77.44
356.626	87.44
356.853	79.44
357.08	82.44
357.307	81.44
357.534	81.44
357.761	100.44
357.988	87.44
358.215	80.44
358.441	79.44
358.668	73.44
358.895	85.44
359.122	70.44
359.349	85.44
359.576	86.44
359.802	67.44
360.029	73.44
360.256	68.44
360.483	80.44
360.709	91.44
360.936	83.44
361.163	63.44
361.39	77.44
361.616	68.44
361.843	82.44
362.07	91.44
362.296	76.44
362.523	97.44
362.749	72.44
362.976	95.44
363.203	92.44
363.429	102.44
363.656	85.44
363.882	74.44
364.109	89.44
364.335	88.44
364.562	84.44
364.788	65.44
365.015	101.44
365.241	79.44
365.468	75.44
365.694	81.44
365.92	72.44
366.147	78.44
366.373	77.44
366.599	77.44
366.826	85.44
367.052	86.44
367.278	79.44
367.505	77.44
367.731	91.44
367.957	86.44
368.184	71.44
368.41	74.44
368.636	78.44
368.862	84.44
369.089	94.44
369.315	85.44
369.541	82.44
369.767	85.44
369.993	56.44
370.219	73.44
370.445	75.44
370.672	75.44
370.898	90.44
371.124	75.44
371.35	88.44
371.576	81.44
371.802	84.44
372.028	76.44
372.254	73.44
372.48	75.44
372.706	90.44
372.932	78.44
373.158	88.44
373.384	71.44
373.61	86.44
373.835	77.44
374.061	98.44
374.287	79.44
374.513	76.44
374.739	72.44
374.965	80.44
375.191	88.44
375.416	91.44
375.642	77.44
375.868	92.44
376.094	89.44
376.319	78.44
376.545	71.44
376.771	68.44
376.997	80.44
377.222	89.44
377.448	79.44
377.674	76.44
377.899	78.44
378.125	87.44
378.35	79.44
378.576	83.44
378.802	72.44
379.027	85.44
379.253	81.44
379.478	77.44
379.704	68.44
379.929	60.44
380.155	80.44
380.38	77.44
380.606	93.44
380.831	74.44
381.057	91.44
381.282	66.44
381.507	83.44
381.733	86.44
381.958	67.44
382.184	75.44
382.409	72.44
382.634	81.44
382.86	79.44
383.085	88.44
383.31	72.44
383.535	85.44
383.761	85.44
383.986	80.44
384.211	82.44
384.436	71.44
384.662	77.44
384.887	77.44
385.112	80.44
385.337	65.44
385.562	79.44
385.787	77.44
386.013	88.44
386.238	76.44
386.463	80.44
386.688	81.44
386.913	80.44
387.138	95.44
387.363	63.44
387.588	78.44
387.813	88.44
388.038	77.44
388.263	84.44
388.488	84.44
388.713	88.44
388.938	88.44
389.163	70.44
389.387	79.44
389.612	73.44
389.837	83.44
390.062	77.44
390.287	91.44
390.512	67.44
390.736	79.44
390.961	71.44
391.186	90.44
391.411	78.44
391.636	91.44
391.86	85.44
392.085	89.44
392.31	67.44
392.534	79.44
392.759	68.44
392.984	70.44
393.208	77.44
393.433	75.44
393.658	69.44
393.882	83.44
394.107	83.44
394.331	78.44
394.556	87.44
394.78	84.44
395.005	65.44
395.229	77.44
395.454	86.44
395.678	93.44
395.903	73.44
396.127	96.44
396.352	87.44
396.576	88.44
396.801	73.44
397.025	73.44
397.249	94.44
397.474	100.44
397.698	89.44
397.922	75.44
398.147	81.44
398.371	87.44
398.595	81.44
398.82	98.44
399.044	91.44
399.268	86.44
399.492	85.44
399.717	92.44
399.941	69.44
400.165	79.44
400.389	69.44
400.613	89.44
400.837	70.44
401.062	80.44
401.286	83.44
401.51	74.44
401.734	84.44
401.958	77.44
402.182	89.44
402.406	90.44
402.63	91.44
402.854	96.44
403.078	82.44
403.302	84.44
403.526	93.44
403.75	80.44
403.974	85.44
404.198	96.44
404.422	95.44
404.645	87.44
404.869	87.44
405.093	85.44
405.317	108.44
405.541	87.44
405.765	87.44
405.988	77.44
406.212	86.44
406.436	91.44
406.66	87.44
406.883	68.44
407.107	92.44
407.331	83.44
407.555	88.44
407.778	70.44
408.002	79.44
408.226	76.44
408.449	102.44
408.673	95.44
408.896	72.44
409.12	80.44
409.344	92.44
409.567	83.44
409.791	83.44
410.014	81.44
410.238	92.44
410.461	80.44
410.685	81.44
410.908	85.44
411.132	82.44
411.355	80.44
411.578	77.44
411.802	75.44
412.025	99.44
412.249	91.44
412.472	79.44
412.695	83.44
412.919	100.44
413.142	83.44
413.365	82.44
413.589	71.44
413.812	79.44
414.035	94.44
414.258	83.44
414.482	73.44
414.705	83.44
414.928	83.44
415.151	76.44
415.374	87.44
415.597	76.44
415.821	81.44
416.044	88.44
416.267	79.44
416.49	88.44
416.713	78.44
416.936	95.44
417.159	67.44
417.382	86.44
417.605	75.44
417.828	88.44
418.051	84.44
418.274	86.44
418.497	99.44
418.72	92.44
418.943	92.44
419.166	81.44
419.389	73.44
419.611	78.44
419.834	96.44
420.057	95.44
420.28	85.44
420.503	82.44
420.726	86.44
420.948	104.44
421.171	97.44
421.394	86.44
421.617	93.44
421.839	76.44
422.062	89.44
422.285	89.44
422.507	84.44
422.73	93.44
422.953	80.44
423.175	91.44
423.398	85.44
423.621	79.44
423.843	94.44
424.066	84.44
424.288	77.44
424.511	78.44
424.733	93.44
424.956	89.44
425.178	91.44
425.401	91.44
425.623	96.44
425.846	99.44
426.068	85.44
426.291	84.44
426.513	76.44
426.735	87.44
426.958	89.44
427.18	93.44
427.402	98.44
427.625	84.44
427.847	85.44
428.069	89.44
428.292	81.44
428.514	96.44
428.736	80.44
428.958	101.44
429.181	88.44
429.403	91.44
429.625	87.44
429.847	82.44
430.069	87.44
430.292	94.44
430.514	84.44
430.736	79.44
430.958	100.44
431.18	96.44
431.402	103.44
431.624	79.44
431.846	84.44
432.068	77.44
432.29	93.44
432.512	77.44
432.734	83.44
432.956	88.44
433.178	94.44
433.4	79.44
433.622	93.44
433.844	77.44
434.066	92.44
434.287	79.44
434.509	83.44
434.731	77.44
434.953	88.44
435.175	80.44
435.397	87.44
435.618	87.44
435.84	88.44
436.062	86.44
436.284	90.44
436.505	92.44
436.727	85.44
436.949	86.44
437.17	82.44
437.392	82.44
437.614	86.44
437.835	77.44
438.057	90.44
438.278	85.44
438.5	84.44
438.721	93.44
438.943	91.44
439.165	91.44
439.386	90.44
439.608	101.44
439.829	89.44
440.05	103.44
440.272	94.44
440.493	93.44
440.715	86.44
440.936	97.44
441.158	82.44
441.379	93.44
441.6	98.44
441.822	101.44
442.043	90.44
442.264	95.44
442.486	88.44
442.707	87.44
442.928	92.44
443.149	100.44
443.371	94.44
443.592	93.44
443.813	92.44
444.034	93.44
444.255	97.44
444.476	89.44
444.698	97.44
444.919	85.44
445.14	211.44
445.361	147.44
445.582	96.44
445.803	109.44
446.024	80.44
446.245	80.44
446.466	77.44
446.687	99.44
446.908	96.44
447.129	87.44
447.35	91.44
447.571	89.44
447.792	82.44
448.013	82.44
448.234	79.44
448.455	88.44
448.675	79.44
448.896	91.44
449.117	92.44
449.338	81.44
449.559	91.44
449.779	74.44
450	99.44
450.221	98.44
450.442	87.44
450.662	86.44
450.883	84.44
451.104	94.44
451.324	98.44
451.545	80.44
451.766	83.44
451.986	92.44
452.207	75.44
452.428	81.44
452.648	87.44
452.869	97.44
453.089	81.44
453.31	90.44
453.53	77.44
453.751	83.44
453.971	85.44
454.192	86.44
454.412	91.44
454.633	84.44
454.853	88.44
455.073	85.44
455.294	84.44
455.514	63.44
455.734	81.44
455.955	84.44
456.175	69.44
456.395	81.44
456.616	84.44
456.836	96.44
457.056	81.44
457.276	80.44
457.497	65.44
457.717	78.44
457.937	88.44
458.157	64.44
458.377	76.44
458.598	89.44
458.818	74.44
459.038	73.44
459.258	87.44
459.478	77.44
459.698	95.44
459.918	95.44
460.138	88.44
460.358	112.44
460.578	79.44
460.798	95.44
461.018	98.44
461.238	88.44
461.458	84.44
461.678	90.44
461.898	92.44
462.118	91.44
462.338	78.44
462.558	91.44
462.777	84.44
462.997	83.44
463.217	71.44
463.437	100.44
463.657	85.44
463.876	78.44
464.096	75.44
464.316	92.44
464.536	83.44
464.755	80.44
464.975	73.44
465.195	87.44
465.414	89.44
465.634	81.44
465.854	92.44
466.073	79.44
466.293	86.44
466.512	97.44
466.732	98.44
466.951	89.44
467.171	96.44
467.391	102.44
467.61	70.44
467.829	92.44
468.049	88.44
468.268	87.44
468.488	88.44
468.707	96.44
468.927	83.44
469.146	86.44
469.365	87.44
469.585	85.44
469.804	91.44
470.023	99.44
470.243	80.44
470.462	89.44
470.681	104.44
470.901	104.44
471.12	95.44
471.339	95.44
471.558	100.44
471.777	85.44
471.997	100.44
472.216	96.44
472.435	87.44
472.654	88.44
472.873	80.44
473.092	81.44
473.311	97.44
473.53	91.44
473.749	88.44
473.968	78.44
474.187	90.44
474.406	86.44
474.625	81.44
474.844	92.44
475.063	85.44
475.282	92.44
475.501	95.44
475.72	91.44
475.939	82.44
476.158	87.44
476.377	93.44
476.596	93.44
476.814	94.44
477.033	80.44
477.252	85.44
477.471	100.44
477.69	92.44
477.908	72.44
478.127	95.44
478.346	95.44
478.564	77.44
478.783	102.44
479.002	85.44
479.22	105.44
479.439	111.44
479.658	101.44
479.876	82.44
480.095	84.44
480.313	79.44
480.532	81.44
480.751	92.44
480.969	73.44
481.188	82.44
481.406	81.44
481.624	71.44
481.843	76.44
482.061	82.44
482.28	86.44
482.498	76.44
482.717	81.44
482.935	83.44
483.153	74.44
483.372	81.44
483.59	108.44
483.808	96.44
484.027	89.44
484.245	87.44
484.463	80.44
484.681	87.44
484.9	99.44
485.118	99.44
485.336	96.44
485.554	79.44
485.772	91.44
485.99	83.44
486.209	107.44
486.427	74.44
486.645	87.44
486.863	91.44
487.081	101.44
487.299	92.44
487.517	98.44
487.735	94.44
487.953	119.44
488.171	107.44
488.389	115.44
488.607	90.44
488.825	97.44
489.043	93.44
489.261	91.44
489.479	97.44
489.696	111.44
489.914	90.44
490.132	75.44
490.35	93.44
490.568	86.44
490.786	101.44
491.003	103.44
491.221	97.44
491.439	108.44
491.657	97.44
491.874	114.44
492.092	124.44
492.31	118.44
492.527	109.44
492.745	105.44
492.963	110.44
493.18	109.44
493.398	112.44
493.615	117.44
493.833	110.44
494.05	88.44
494.268	104.44
494.485	111.44
494.703	84.44
494.92	103.44
495.138	103.44
495.355	113.44
495.573	104.44
495.79	103.44
496.008	97.44
496.225	93.44
496.442	100.44
496.66	102.44
496.877	87.44
497.094	93.44
497.312	101.44
497.529	105.44
497.746	95.44
497.963	103.44
498.181	86.44
498.398	73.44
498.615	97.44
498.832	82.44
499.049	86.44
499.267	86.44
499.484	98.44
499.701	79.44
499.918	92.44
500.135	83.44
500.352	90.44
500.569	102.44
500.786	89.44
501.003	87.44
501.22	85.44
501.437	107.44
501.654	95.44
501.871	91.44
502.088	104.44
502.305	92.44
502.522	83.44
502.739	79.44
502.956	96.44
503.172	88.44
503.389	86.44
503.606	91.44
503.823	80.44
504.04	89.44
504.256	87.44
504.473	69.44
504.69	101.44
504.907	109.44
505.123	86.44
505.34	85.44
505.557	81.44
505.773	83.44
505.99	99.44
506.207	83.44
506.423	78.44
506.64	92.44
506.856	95.44
507.073	85.44
507.289	97.44
507.506	91.44
507.722	84.44
507.939	80.44
508.155	73.44
508.372	82.44
508.588	93.44
508.805	90.44
509.021	73.44
509.238	82.44
509.454	73.44
509.67	77.44
509.887	78.44
510.103	86.44
510.319	75.44
510.536	78.44
510.752	88.44
510.968	90.44
511.184	83.44
511.401	81.44
511.617	89.44
511.833	77.44
512.049	93.44
512.265	87.44
512.481	88.44
512.698	78.44
512.914	85.44
513.13	70.44
513.346	82.44
513.562	85.44
513.778	79.44
513.994	99.44
514.21	83.44
514.426	79.44
514.642	90.44
514.858	78.44
515.074	74.44
515.29	83.44
515.506	86.44
515.721	84.44
515.937	77.44
516.153	80.44
516.369	77.44
516.585	94.44
516.801	87.44
517.016	87.44
517.232	76.44
517.448	92.44
517.664	88.44
517.879	82.44
518.095	88.44
518.311	75.44
518.527	86.44
