Data from Location5.07152019.Energy5.Lamp.07192019.3%Agarose_HRD10591_15-39-31-389.txt Node
Date: Fri Jul 19 15:39:31 EDT 2019
User: cochatt
Spectrometer: HR+D1059
Trigger mode: 1
Integration Time (sec): 1.000000E-1
Scans to average: 1
Electric dark correction enabled: true
Nonlinearity correction enabled: false
Boxcar width: 0
XAxis mode: Wavelengths
Number of Pixels in Spectrum: 2048
>>>>>Begin Spectral Data<<<<<
223.165	-18.38
223.4	-18.38
223.635	-18.38
223.869	-9.38
224.104	-25.38
224.338	-21.38
224.573	-4.38
224.808	-16.38
225.042	-0.38
225.277	-7.38
225.511	6.62
225.746	-11.38
225.98	0.62
226.215	11.62
226.449	27.62
226.683	11.62
226.918	31.62
227.152	24.62
227.387	30.62
227.621	39.62
227.856	56.62
228.09	55.62
228.324	47.62
228.559	47.62
228.793	46.62
229.027	56.62
229.262	68.62
229.496	72.62
229.73	79.62
229.964	79.62
230.199	79.62
230.433	88.62
230.667	76.62
230.901	83.62
231.136	98.62
231.37	68.62
231.604	85.62
231.838	96.62
232.072	88.62
232.306	77.62
232.541	70.62
232.775	83.62
233.009	95.62
233.243	93.62
233.477	76.62
233.711	77.62
233.945	89.62
234.179	84.62
234.413	87.62
234.647	69.62
234.881	79.62
235.115	68.62
235.349	86.62
235.583	79.62
235.817	74.62
236.051	81.62
236.285	72.62
236.519	86.62
236.753	84.62
236.987	82.62
237.221	70.62
237.455	74.62
237.689	86.62
237.922	77.62
238.156	90.62
238.39	87.62
238.624	74.62
238.858	84.62
239.091	80.62
239.325	66.62
239.559	77.62
239.793	82.62
240.027	93.62
240.26	93.62
240.494	84.62
240.728	63.62
240.961	91.62
241.195	83.62
241.429	88.62
241.662	80.62
241.896	77.62
242.13	71.62
242.363	80.62
242.597	82.62
242.83	98.62
243.064	80.62
243.298	76.62
243.531	71.62
243.765	68.62
243.998	74.62
244.232	85.62
244.465	80.62
244.699	86.62
244.932	89.62
245.166	87.62
245.399	73.62
245.633	87.62
245.866	72.62
246.099	78.62
246.333	87.62
246.566	73.62
246.8	86.62
247.033	76.62
247.266	88.62
247.5	75.62
247.733	83.62
247.966	77.62
248.2	95.62
248.433	86.62
248.666	84.62
248.899	72.62
249.133	78.62
249.366	90.62
249.599	77.62
249.832	76.62
250.066	85.62
250.299	77.62
250.532	87.62
250.765	89.62
250.998	66.62
251.231	79.62
251.465	106.62
251.698	83.62
251.931	80.62
252.164	85.62
252.397	91.62
252.63	90.62
252.863	82.62
253.096	86.62
253.329	92.62
253.562	88.62
253.795	91.62
254.028	84.62
254.261	87.62
254.494	83.62
254.727	76.62
254.96	85.62
255.193	74.62
255.426	77.62
255.659	75.62
255.892	91.62
256.124	82.62
256.357	78.62
256.59	92.62
256.823	79.62
257.056	75.62
257.289	72.62
257.521	89.62
257.754	84.62
257.987	94.62
258.22	83.62
258.452	81.62
258.685	92.62
258.918	86.62
259.151	91.62
259.383	77.62
259.616	86.62
259.849	95.62
260.081	83.62
260.314	94.62
260.547	84.62
260.779	98.62
261.012	79.62
261.244	88.62
261.477	95.62
261.71	91.62
261.942	91.62
262.175	103.62
262.407	78.62
262.64	68.62
262.872	85.62
263.105	77.62
263.337	89.62
263.57	72.62
263.802	80.62
264.035	77.62
264.267	89.62
264.499	96.62
264.732	88.62
264.964	96.62
265.197	81.62
265.429	81.62
265.661	80.62
265.894	81.62
266.126	86.62
266.358	85.62
266.591	86.62
266.823	88.62
267.055	72.62
267.287	79.62
267.52	82.62
267.752	89.62
267.984	85.62
268.216	98.62
268.448	84.62
268.681	93.62
268.913	80.62
269.145	87.62
269.377	99.62
269.609	91.62
269.841	90.62
270.073	75.62
270.306	82.62
270.538	82.62
270.77	82.62
271.002	86.62
271.234	84.62
271.466	85.62
271.698	83.62
271.93	70.62
272.162	88.62
272.394	84.62
272.626	85.62
272.858	82.62
273.09	80.62
273.322	74.62
273.553	89.62
273.785	86.62
274.017	84.62
274.249	87.62
274.481	85.62
274.713	95.62
274.945	95.62
275.176	69.62
275.408	88.62
275.64	96.62
275.872	87.62
276.104	89.62
276.335	86.62
276.567	86.62
276.799	91.62
277.031	92.62
277.262	83.62
277.494	108.62
277.726	90.62
277.957	80.62
278.189	88.62
278.421	74.62
278.652	79.62
278.884	89.62
279.115	86.62
279.347	85.62
279.579	91.62
279.81	87.62
280.042	88.62
280.273	87.62
280.505	87.62
280.736	85.62
280.968	88.62
281.199	91.62
281.431	80.62
281.662	99.62
281.894	90.62
282.125	93.62
282.356	89.62
282.588	83.62
282.819	87.62
283.051	78.62
283.282	82.62
283.513	79.62
283.745	90.62
283.976	88.62
284.207	103.62
284.439	87.62
284.67	82.62
284.901	102.62
285.132	92.62
285.364	76.62
285.595	83.62
285.826	88.62
286.057	86.62
286.288	87.62
286.52	100.62
286.751	93.62
286.982	92.62
287.213	93.62
287.444	99.62
287.675	82.62
287.906	86.62
288.138	85.62
288.369	74.62
288.6	78.62
288.831	87.62
289.062	95.62
289.293	93.62
289.524	93.62
289.755	86.62
289.986	77.62
290.217	94.62
290.448	78.62
290.679	86.62
290.91	90.62
291.141	85.62
291.371	82.62
291.602	95.62
291.833	88.62
292.064	73.62
292.295	92.62
292.526	66.62
292.757	79.62
292.987	83.62
293.218	86.62
293.449	104.62
293.68	95.62
293.91	98.62
294.141	88.62
294.372	89.62
294.603	82.62
294.833	89.62
295.064	86.62
295.295	90.62
295.525	76.62
295.756	94.62
295.987	95.62
296.217	93.62
296.448	86.62
296.679	92.62
296.909	90.62
297.14	97.62
297.37	86.62
297.601	89.62
297.831	89.62
298.062	78.62
298.292	81.62
298.523	79.62
298.753	79.62
298.984	85.62
299.214	86.62
299.445	83.62
299.675	89.62
299.905	92.62
300.136	93.62
300.366	86.62
300.597	79.62
300.827	88.62
301.057	80.62
301.288	92.62
301.518	77.62
301.748	79.62
301.979	92.62
302.209	93.62
302.439	89.62
302.669	85.62
302.9	94.62
303.13	91.62
303.36	93.62
303.59	91.62
303.82	83.62
304.051	78.62
304.281	86.62
304.511	97.62
304.741	95.62
304.971	83.62
305.201	93.62
305.431	95.62
305.661	96.62
305.891	91.62
306.121	91.62
306.352	86.62
306.582	85.62
306.812	95.62
307.042	97.62
307.272	79.62
307.502	69.62
307.731	97.62
307.961	80.62
308.191	80.62
308.421	83.62
308.651	89.62
308.881	81.62
309.111	99.62
309.341	102.62
309.571	81.62
309.8	84.62
310.03	92.62
310.26	80.62
310.49	91.62
310.72	88.62
310.949	93.62
311.179	84.62
311.409	95.62
311.639	82.62
311.868	84.62
312.098	87.62
312.328	88.62
312.557	92.62
312.787	86.62
313.017	85.62
313.246	92.62
313.476	92.62
313.706	93.62
313.935	100.62
314.165	96.62
314.394	101.62
314.624	98.62
314.853	85.62
315.083	90.62
315.312	109.62
315.542	94.62
315.771	93.62
316.001	80.62
316.23	86.62
316.46	93.62
316.689	89.62
316.919	102.62
317.148	93.62
317.377	82.62
317.607	85.62
317.836	78.62
318.065	86.62
318.295	82.62
318.524	83.62
318.753	88.62
318.983	84.62
319.212	101.62
319.441	87.62
319.67	89.62
319.9	84.62
320.129	74.62
320.358	89.62
320.587	81.62
320.816	95.62
321.046	108.62
321.275	91.62
321.504	88.62
321.733	82.62
321.962	90.62
322.191	82.62
322.42	87.62
322.649	92.62
322.878	99.62
323.108	85.62
323.337	88.62
323.566	87.62
323.795	74.62
324.024	96.62
324.253	82.62
324.482	89.62
324.71	87.62
324.939	88.62
325.168	87.62
325.397	91.62
325.626	92.62
325.855	100.62
326.084	84.62
326.313	92.62
326.542	90.62
326.77	96.62
326.999	81.62
327.228	97.62
327.457	76.62
327.686	95.62
327.914	81.62
328.143	103.62
328.372	101.62
328.6	86.62
328.829	85.62
329.058	83.62
329.287	87.62
329.515	87.62
329.744	84.62
329.972	90.62
330.201	103.62
330.43	90.62
330.658	72.62
330.887	80.62
331.115	89.62
331.344	78.62
331.572	93.62
331.801	81.62
332.03	90.62
332.258	87.62
332.486	89.62
332.715	96.62
332.943	87.62
333.172	83.62
333.4	97.62
333.629	90.62
333.857	93.62
334.085	87.62
334.314	84.62
334.542	86.62
334.771	79.62
334.999	73.62
335.227	93.62
335.455	76.62
335.684	92.62
335.912	107.62
336.14	93.62
336.369	96.62
336.597	94.62
336.825	96.62
337.053	91.62
337.281	80.62
337.51	89.62
337.738	92.62
337.966	76.62
338.194	80.62
338.422	87.62
338.65	86.62
338.878	97.62
339.106	90.62
339.334	84.62
339.562	93.62
339.79	99.62
340.018	74.62
340.246	95.62
340.474	89.62
340.702	85.62
340.93	90.62
341.158	85.62
341.386	79.62
341.614	94.62
341.842	95.62
342.07	84.62
342.298	93.62
342.526	92.62
342.754	96.62
342.981	76.62
343.209	80.62
343.437	91.62
343.665	92.62
343.893	100.62
344.12	100.62
344.348	87.62
344.576	84.62
344.804	76.62
345.031	83.62
345.259	75.62
345.487	85.62
345.714	98.62
345.942	93.62
346.17	90.62
346.397	79.62
346.625	77.62
346.853	92.62
347.08	89.62
347.308	75.62
347.535	91.62
347.763	66.62
347.99	79.62
348.218	94.62
348.445	71.62
348.673	86.62
348.9	90.62
349.128	90.62
349.355	79.62
349.583	88.62
349.81	84.62
350.037	98.62
350.265	80.62
350.492	93.62
350.72	76.62
350.947	96.62
351.174	88.62
351.402	78.62
351.629	105.62
351.856	96.62
352.083	87.62
352.311	92.62
352.538	95.62
352.765	90.62
352.992	90.62
353.22	83.62
353.447	86.62
353.674	89.62
353.901	81.62
354.128	83.62
354.355	83.62
354.583	78.62
354.81	86.62
355.037	91.62
355.264	90.62
355.491	87.62
355.718	68.62
355.945	82.62
356.172	80.62
356.399	94.62
356.626	72.62
356.853	84.62
357.08	93.62
357.307	95.62
357.534	81.62
357.761	84.62
357.988	86.62
358.215	84.62
358.441	83.62
358.668	90.62
358.895	78.62
359.122	85.62
359.349	87.62
359.576	85.62
359.802	92.62
360.029	95.62
360.256	89.62
360.483	76.62
360.709	77.62
360.936	86.62
361.163	87.62
361.39	80.62
361.616	90.62
361.843	87.62
362.07	88.62
362.296	81.62
362.523	80.62
362.749	92.62
362.976	88.62
363.203	92.62
363.429	80.62
363.656	85.62
363.882	87.62
364.109	92.62
364.335	101.62
364.562	96.62
364.788	76.62
365.015	97.62
365.241	77.62
365.468	99.62
365.694	98.62
365.92	90.62
366.147	94.62
366.373	99.62
366.599	87.62
366.826	92.62
367.052	87.62
367.278	94.62
367.505	87.62
367.731	95.62
367.957	85.62
368.184	78.62
368.41	90.62
368.636	77.62
368.862	92.62
369.089	90.62
369.315	85.62
369.541	95.62
369.767	98.62
369.993	84.62
370.219	82.62
370.445	79.62
370.672	74.62
370.898	77.62
371.124	92.62
371.35	74.62
371.576	96.62
371.802	84.62
372.028	80.62
372.254	84.62
372.48	109.62
372.706	91.62
372.932	88.62
373.158	91.62
373.384	81.62
373.61	86.62
373.835	85.62
374.061	88.62
374.287	81.62
374.513	90.62
374.739	79.62
374.965	86.62
375.191	84.62
375.416	81.62
375.642	93.62
375.868	93.62
376.094	90.62
376.319	84.62
376.545	83.62
376.771	85.62
376.997	86.62
377.222	86.62
377.448	89.62
377.674	92.62
377.899	85.62
378.125	83.62
378.35	83.62
378.576	80.62
378.802	95.62
379.027	93.62
379.253	91.62
379.478	83.62
379.704	96.62
379.929	97.62
380.155	87.62
380.38	80.62
380.606	82.62
380.831	87.62
381.057	90.62
381.282	91.62
381.507	85.62
381.733	91.62
381.958	101.62
382.184	75.62
382.409	90.62
382.634	97.62
382.86	77.62
383.085	86.62
383.31	89.62
383.535	91.62
383.761	95.62
383.986	98.62
384.211	88.62
384.436	98.62
384.662	90.62
384.887	106.62
385.112	89.62
385.337	94.62
385.562	79.62
385.787	87.62
386.013	93.62
386.238	82.62
386.463	76.62
386.688	86.62
386.913	84.62
387.138	96.62
387.363	87.62
387.588	86.62
387.813	103.62
388.038	93.62
388.263	88.62
388.488	95.62
388.713	90.62
388.938	87.62
389.163	84.62
389.387	79.62
389.612	85.62
389.837	89.62
390.062	94.62
390.287	92.62
390.512	90.62
390.736	77.62
390.961	74.62
391.186	91.62
391.411	90.62
391.636	87.62
391.86	87.62
392.085	80.62
392.31	84.62
392.534	92.62
392.759	97.62
392.984	86.62
393.208	92.62
393.433	84.62
393.658	89.62
393.882	94.62
394.107	88.62
394.331	88.62
394.556	101.62
394.78	95.62
395.005	86.62
395.229	89.62
395.454	88.62
395.678	84.62
395.903	76.62
396.127	88.62
396.352	84.62
396.576	95.62
396.801	98.62
397.025	91.62
397.249	89.62
397.474	99.62
397.698	83.62
397.922	82.62
398.147	91.62
398.371	87.62
398.595	86.62
398.82	74.62
399.044	90.62
399.268	76.62
399.492	88.62
399.717	77.62
399.941	90.62
400.165	92.62
400.389	82.62
400.613	71.62
400.837	92.62
401.062	92.62
401.286	95.62
401.51	88.62
401.734	87.62
401.958	89.62
402.182	91.62
402.406	103.62
402.63	88.62
402.854	75.62
403.078	82.62
403.302	103.62
403.526	94.62
403.75	94.62
403.974	83.62
404.198	84.62
404.422	80.62
404.645	86.62
404.869	101.62
405.093	100.62
405.317	79.62
405.541	93.62
405.765	91.62
405.988	81.62
406.212	91.62
406.436	103.62
406.66	108.62
406.883	94.62
407.107	99.62
407.331	94.62
407.555	93.62
407.778	79.62
408.002	83.62
408.226	85.62
408.449	89.62
408.673	85.62
408.896	90.62
409.12	98.62
409.344	93.62
409.567	98.62
409.791	97.62
410.014	90.62
410.238	85.62
410.461	79.62
410.685	101.62
410.908	95.62
411.132	98.62
411.355	90.62
411.578	94.62
411.802	85.62
412.025	101.62
412.249	93.62
412.472	94.62
412.695	103.62
412.919	78.62
413.142	100.62
413.365	85.62
413.589	93.62
413.812	74.62
414.035	100.62
414.258	102.62
414.482	91.62
414.705	85.62
414.928	107.62
415.151	88.62
415.374	89.62
415.597	91.62
415.821	101.62
416.044	80.62
416.267	85.62
416.49	96.62
416.713	94.62
416.936	112.62
417.159	94.62
417.382	98.62
417.605	90.62
417.828	109.62
418.051	94.62
418.274	93.62
418.497	92.62
418.72	102.62
418.943	88.62
419.166	93.62
419.389	78.62
419.611	98.62
419.834	87.62
420.057	79.62
420.28	87.62
420.503	95.62
420.726	75.62
420.948	111.62
421.171	100.62
421.394	100.62
421.617	92.62
421.839	101.62
422.062	91.62
422.285	76.62
422.507	83.62
422.73	90.62
422.953	103.62
423.175	93.62
423.398	87.62
423.621	92.62
423.843	91.62
424.066	95.62
424.288	99.62
424.511	103.62
424.733	91.62
424.956	98.62
425.178	96.62
425.401	83.62
425.623	96.62
425.846	84.62
426.068	90.62
426.291	115.62
426.513	95.62
426.735	89.62
426.958	118.62
427.18	102.62
427.402	91.62
427.625	93.62
427.847	90.62
428.069	90.62
428.292	97.62
428.514	84.62
428.736	94.62
428.958	91.62
429.181	77.62
429.403	98.62
429.625	97.62
429.847	92.62
430.069	103.62
430.292	106.62
430.514	93.62
430.736	112.62
430.958	84.62
431.18	102.62
431.402	84.62
431.624	90.62
431.846	91.62
432.068	97.62
432.29	79.62
432.512	89.62
432.734	104.62
432.956	100.62
433.178	71.62
433.4	94.62
433.622	93.62
433.844	93.62
434.066	94.62
434.287	92.62
434.509	97.62
434.731	87.62
434.953	80.62
435.175	89.62
435.397	94.62
435.618	88.62
435.84	86.62
436.062	78.62
436.284	106.62
436.505	87.62
436.727	107.62
436.949	103.62
437.17	104.62
437.392	98.62
437.614	98.62
437.835	91.62
438.057	75.62
438.278	106.62
438.5	93.62
438.721	103.62
438.943	87.62
439.165	104.62
439.386	78.62
439.608	108.62
439.829	113.62
440.05	94.62
440.272	93.62
440.493	97.62
440.715	107.62
440.936	96.62
441.158	85.62
441.379	95.62
441.6	108.62
441.822	80.62
442.043	95.62
442.264	103.62
442.486	109.62
442.707	98.62
442.928	103.62
443.149	93.62
443.371	81.62
443.592	102.62
443.813	90.62
444.034	103.62
444.255	100.62
444.476	106.62
444.698	91.62
444.919	100.62
445.14	241.62
445.361	166.62
445.582	115.62
445.803	95.62
446.024	106.62
446.245	94.62
446.466	100.62
446.687	113.62
446.908	93.62
447.129	104.62
447.35	99.62
447.571	107.62
447.792	96.62
448.013	102.62
448.234	94.62
448.455	89.62
448.675	98.62
448.896	90.62
449.117	92.62
449.338	87.62
449.559	96.62
449.779	87.62
450	107.62
450.221	94.62
450.442	100.62
450.662	96.62
450.883	86.62
451.104	90.62
451.324	93.62
451.545	99.62
451.766	95.62
451.986	86.62
452.207	102.62
452.428	93.62
452.648	82.62
452.869	99.62
453.089	96.62
453.31	86.62
453.53	87.62
453.751	74.62
453.971	75.62
454.192	91.62
454.412	97.62
454.633	92.62
454.853	91.62
455.073	96.62
455.294	91.62
455.514	80.62
455.734	81.62
455.955	101.62
456.175	94.62
456.395	81.62
456.616	95.62
456.836	105.62
457.056	93.62
457.276	91.62
457.497	89.62
457.717	91.62
457.937	101.62
458.157	93.62
458.377	78.62
458.598	93.62
458.818	78.62
459.038	86.62
459.258	92.62
459.478	78.62
459.698	85.62
459.918	70.62
460.138	83.62
460.358	95.62
460.578	99.62
460.798	96.62
461.018	89.62
461.238	113.62
461.458	77.62
461.678	90.62
461.898	103.62
462.118	91.62
462.338	92.62
462.558	96.62
462.777	86.62
462.997	91.62
463.217	94.62
463.437	88.62
463.657	81.62
463.876	87.62
464.096	83.62
464.316	88.62
464.536	86.62
464.755	89.62
464.975	91.62
465.195	104.62
465.414	93.62
465.634	84.62
465.854	95.62
466.073	93.62
466.293	86.62
466.512	89.62
466.732	93.62
466.951	93.62
467.171	90.62
467.391	92.62
467.61	87.62
467.829	102.62
468.049	96.62
468.268	100.62
468.488	85.62
468.707	100.62
468.927	101.62
469.146	91.62
469.365	103.62
469.585	111.62
469.804	114.62
470.023	108.62
470.243	102.62
470.462	87.62
470.681	92.62
470.901	99.62
471.12	95.62
471.339	110.62
471.558	92.62
471.777	75.62
471.997	86.62
472.216	91.62
472.435	91.62
472.654	106.62
472.873	86.62
473.092	87.62
473.311	102.62
473.53	111.62
473.749	96.62
473.968	112.62
474.187	94.62
474.406	108.62
474.625	103.62
474.844	109.62
475.063	95.62
475.282	87.62
475.501	93.62
475.72	108.62
475.939	74.62
476.158	90.62
476.377	95.62
476.596	92.62
476.814	103.62
477.033	82.62
477.252	82.62
477.471	84.62
477.69	97.62
477.908	99.62
478.127	91.62
478.346	106.62
478.564	87.62
478.783	93.62
479.002	98.62
479.22	98.62
479.439	99.62
479.658	95.62
479.876	83.62
480.095	99.62
480.313	106.62
480.532	106.62
480.751	100.62
480.969	92.62
481.188	86.62
481.406	77.62
481.624	79.62
481.843	76.62
482.061	86.62
482.28	84.62
482.498	89.62
482.717	86.62
482.935	100.62
483.153	92.62
483.372	97.62
483.59	109.62
483.808	99.62
484.027	103.62
484.245	91.62
484.463	107.62
484.681	98.62
484.9	88.62
485.118	96.62
485.336	99.62
485.554	89.62
485.772	94.62
485.99	103.62
486.209	103.62
486.427	98.62
486.645	88.62
486.863	108.62
487.081	113.62
487.299	101.62
487.517	97.62
487.735	105.62
487.953	112.62
488.171	99.62
488.389	107.62
488.607	108.62
488.825	102.62
489.043	104.62
489.261	97.62
489.479	94.62
489.696	105.62
489.914	80.62
490.132	107.62
490.35	106.62
490.568	111.62
490.786	96.62
491.003	104.62
491.221	104.62
491.439	122.62
491.657	104.62
491.874	128.62
492.092	127.62
492.31	120.62
492.527	100.62
492.745	114.62
492.963	96.62
493.18	116.62
493.398	109.62
493.615	116.62
493.833	111.62
494.05	101.62
494.268	111.62
494.485	99.62
494.703	118.62
494.92	109.62
495.138	112.62
495.355	115.62
495.573	110.62
495.79	111.62
496.008	119.62
496.225	110.62
496.442	108.62
496.66	106.62
496.877	99.62
497.094	100.62
497.312	98.62
497.529	101.62
497.746	91.62
497.963	95.62
498.181	99.62
498.398	99.62
498.615	94.62
498.832	90.62
499.049	99.62
499.267	95.62
499.484	95.62
499.701	119.62
499.918	107.62
500.135	93.62
500.352	95.62
500.569	88.62
500.786	94.62
501.003	94.62
501.22	114.62
501.437	103.62
501.654	114.62
501.871	94.62
502.088	100.62
502.305	104.62
502.522	82.62
502.739	99.62
502.956	94.62
503.172	86.62
503.389	87.62
503.606	87.62
503.823	94.62
504.04	103.62
504.256	103.62
504.473	97.62
504.69	88.62
504.907	90.62
505.123	108.62
505.34	97.62
505.557	84.62
505.773	88.62
505.99	94.62
506.207	89.62
506.423	99.62
506.64	109.62
506.856	80.62
507.073	85.62
507.289	102.62
507.506	93.62
507.722	83.62
507.939	85.62
508.155	97.62
508.372	91.62
508.588	90.62
508.805	88.62
509.021	104.62
509.238	85.62
509.454	76.62
509.67	82.62
509.887	86.62
510.103	82.62
510.319	85.62
510.536	93.62
510.752	90.62
510.968	91.62
511.184	83.62
511.401	86.62
511.617	96.62
511.833	82.62
512.049	79.62
512.265	76.62
512.481	95.62
512.698	81.62
512.914	88.62
513.13	89.62
513.346	92.62
513.562	79.62
513.778	76.62
513.994	93.62
514.21	104.62
514.426	77.62
514.642	97.62
514.858	91.62
515.074	84.62
515.29	88.62
515.506	84.62
515.721	95.62
515.937	95.62
516.153	78.62
516.369	70.62
516.585	77.62
516.801	78.62
517.016	98.62
