Data from Location5.07152019.Energy5.Lamp.07192019.3%Agarose_HRD10591_15-38-46-387.txt Node
Date: Fri Jul 19 15:38:46 EDT 2019
User: cochatt
Spectrometer: HR+D1059
Trigger mode: 1
Integration Time (sec): 1.000000E-1
Scans to average: 1
Electric dark correction enabled: true
Nonlinearity correction enabled: false
Boxcar width: 0
XAxis mode: Wavelengths
Number of Pixels in Spectrum: 2048
>>>>>Begin Spectral Data<<<<<
223.165	-15.38
223.4	-15.38
223.635	-15.38
223.869	-17.38
224.104	-19.38
224.338	-9.38
224.573	-19.38
224.808	-1.38
225.042	-24.38
225.277	-1.38
225.511	14.62
225.746	-1.38
225.98	14.62
226.215	16.62
226.449	5.62
226.683	6.62
226.918	23.62
227.152	27.62
227.387	19.62
227.621	30.62
227.856	48.62
228.09	52.62
228.324	45.62
228.559	55.62
228.793	54.62
229.027	44.62
229.262	50.62
229.496	76.62
229.73	73.62
229.964	71.62
230.199	59.62
230.433	78.62
230.667	67.62
230.901	80.62
231.136	73.62
231.37	80.62
231.604	85.62
231.838	84.62
232.072	79.62
232.306	83.62
232.541	77.62
232.775	79.62
233.009	80.62
233.243	74.62
233.477	75.62
233.711	81.62
233.945	75.62
234.179	92.62
234.413	100.62
234.647	87.62
234.881	77.62
235.115	75.62
235.349	70.62
235.583	84.62
235.817	76.62
236.051	72.62
236.285	76.62
236.519	83.62
236.753	74.62
236.987	73.62
237.221	88.62
237.455	72.62
237.689	81.62
237.922	76.62
238.156	76.62
238.39	73.62
238.624	70.62
238.858	68.62
239.091	76.62
239.325	75.62
239.559	58.62
239.793	90.62
240.027	79.62
240.26	71.62
240.494	80.62
240.728	83.62
240.961	84.62
241.195	76.62
241.429	58.62
241.662	84.62
241.896	70.62
242.13	92.62
242.363	66.62
242.597	74.62
242.83	85.62
243.064	73.62
243.298	70.62
243.531	82.62
243.765	79.62
243.998	83.62
244.232	79.62
244.465	93.62
244.699	76.62
244.932	80.62
245.166	76.62
245.399	87.62
245.633	88.62
245.866	75.62
246.099	82.62
246.333	85.62
246.566	74.62
246.8	87.62
247.033	72.62
247.266	84.62
247.5	71.62
247.733	77.62
247.966	76.62
248.2	66.62
248.433	80.62
248.666	76.62
248.899	66.62
249.133	73.62
249.366	74.62
249.599	75.62
249.832	80.62
250.066	72.62
250.299	83.62
250.532	72.62
250.765	85.62
250.998	75.62
251.231	69.62
251.465	90.62
251.698	68.62
251.931	77.62
252.164	66.62
252.397	70.62
252.63	86.62
252.863	66.62
253.096	99.62
253.329	82.62
253.562	79.62
253.795	64.62
254.028	78.62
254.261	79.62
254.494	75.62
254.727	78.62
254.96	77.62
255.193	93.62
255.426	79.62
255.659	82.62
255.892	76.62
256.124	78.62
256.357	76.62
256.59	89.62
256.823	69.62
257.056	90.62
257.289	88.62
257.521	86.62
257.754	78.62
257.987	84.62
258.22	74.62
258.452	86.62
258.685	87.62
258.918	67.62
259.151	81.62
259.383	86.62
259.616	71.62
259.849	83.62
260.081	82.62
260.314	79.62
260.547	79.62
260.779	67.62
261.012	88.62
261.244	76.62
261.477	79.62
261.71	82.62
261.942	88.62
262.175	88.62
262.407	79.62
262.64	75.62
262.872	73.62
263.105	80.62
263.337	84.62
263.57	82.62
263.802	86.62
264.035	82.62
264.267	74.62
264.499	73.62
264.732	82.62
264.964	76.62
265.197	79.62
265.429	85.62
265.661	87.62
265.894	86.62
266.126	84.62
266.358	79.62
266.591	84.62
266.823	82.62
267.055	77.62
267.287	90.62
267.52	73.62
267.752	80.62
267.984	74.62
268.216	60.62
268.448	74.62
268.681	95.62
268.913	89.62
269.145	79.62
269.377	77.62
269.609	86.62
269.841	88.62
270.073	84.62
270.306	81.62
270.538	91.62
270.77	69.62
271.002	79.62
271.234	80.62
271.466	89.62
271.698	76.62
271.93	87.62
272.162	88.62
272.394	88.62
272.626	72.62
272.858	85.62
273.09	82.62
273.322	76.62
273.553	78.62
273.785	73.62
274.017	81.62
274.249	86.62
274.481	90.62
274.713	89.62
274.945	85.62
275.176	92.62
275.408	80.62
275.64	91.62
275.872	87.62
276.104	71.62
276.335	82.62
276.567	84.62
276.799	81.62
277.031	83.62
277.262	98.62
277.494	76.62
277.726	75.62
277.957	82.62
278.189	83.62
278.421	88.62
278.652	90.62
278.884	63.62
279.115	74.62
279.347	81.62
279.579	95.62
279.81	80.62
280.042	85.62
280.273	89.62
280.505	83.62
280.736	98.62
280.968	89.62
281.199	85.62
281.431	70.62
281.662	75.62
281.894	76.62
282.125	81.62
282.356	82.62
282.588	81.62
282.819	78.62
283.051	72.62
283.282	79.62
283.513	86.62
283.745	72.62
283.976	87.62
284.207	89.62
284.439	85.62
284.67	79.62
284.901	82.62
285.132	85.62
285.364	96.62
285.595	87.62
285.826	85.62
286.057	88.62
286.288	77.62
286.52	84.62
286.751	84.62
286.982	82.62
287.213	89.62
287.444	82.62
287.675	101.62
287.906	82.62
288.138	78.62
288.369	77.62
288.6	67.62
288.831	82.62
289.062	76.62
289.293	84.62
289.524	67.62
289.755	87.62
289.986	82.62
290.217	84.62
290.448	74.62
290.679	81.62
290.91	88.62
291.141	77.62
291.371	91.62
291.602	89.62
291.833	96.62
292.064	103.62
292.295	85.62
292.526	76.62
292.757	72.62
292.987	85.62
293.218	79.62
293.449	64.62
293.68	76.62
293.91	72.62
294.141	84.62
294.372	80.62
294.603	83.62
294.833	83.62
295.064	86.62
295.295	84.62
295.525	82.62
295.756	76.62
295.987	83.62
296.217	83.62
296.448	91.62
296.679	84.62
296.909	81.62
297.14	73.62
297.37	86.62
297.601	86.62
297.831	88.62
298.062	78.62
298.292	97.62
298.523	95.62
298.753	80.62
298.984	89.62
299.214	82.62
299.445	86.62
299.675	71.62
299.905	94.62
300.136	76.62
300.366	68.62
300.597	87.62
300.827	82.62
301.057	85.62
301.288	84.62
301.518	82.62
301.748	80.62
301.979	75.62
302.209	78.62
302.439	81.62
302.669	89.62
302.9	81.62
303.13	88.62
303.36	77.62
303.59	87.62
303.82	90.62
304.051	93.62
304.281	86.62
304.511	86.62
304.741	83.62
304.971	80.62
305.201	81.62
305.431	83.62
305.661	83.62
305.891	83.62
306.121	98.62
306.352	97.62
306.582	80.62
306.812	75.62
307.042	75.62
307.272	75.62
307.502	96.62
307.731	78.62
307.961	75.62
308.191	88.62
308.421	79.62
308.651	87.62
308.881	90.62
309.111	90.62
309.341	82.62
309.571	80.62
309.8	91.62
310.03	78.62
310.26	78.62
310.49	102.62
310.72	79.62
310.949	99.62
311.179	84.62
311.409	104.62
311.639	88.62
311.868	76.62
312.098	77.62
312.328	76.62
312.557	86.62
312.787	92.62
313.017	92.62
313.246	78.62
313.476	80.62
313.706	93.62
313.935	81.62
314.165	80.62
314.394	84.62
314.624	83.62
314.853	85.62
315.083	87.62
315.312	89.62
315.542	94.62
315.771	80.62
316.001	78.62
316.23	98.62
316.46	85.62
316.689	86.62
316.919	79.62
317.148	87.62
317.377	90.62
317.607	87.62
317.836	83.62
318.065	88.62
318.295	74.62
318.524	68.62
318.753	85.62
318.983	70.62
319.212	88.62
319.441	84.62
319.67	93.62
319.9	90.62
320.129	74.62
320.358	84.62
320.587	87.62
320.816	72.62
321.046	65.62
321.275	80.62
321.504	99.62
321.733	74.62
321.962	72.62
322.191	91.62
322.42	79.62
322.649	87.62
322.878	87.62
323.108	84.62
323.337	79.62
323.566	82.62
323.795	80.62
324.024	94.62
324.253	82.62
324.482	90.62
324.71	79.62
324.939	70.62
325.168	82.62
325.397	84.62
325.626	79.62
325.855	87.62
326.084	96.62
326.313	94.62
326.542	71.62
326.77	88.62
326.999	85.62
327.228	86.62
327.457	86.62
327.686	86.62
327.914	82.62
328.143	89.62
328.372	82.62
328.6	80.62
328.829	87.62
329.058	74.62
329.287	87.62
329.515	84.62
329.744	79.62
329.972	85.62
330.201	79.62
330.43	80.62
330.658	90.62
330.887	85.62
331.115	94.62
331.344	93.62
331.572	83.62
331.801	88.62
332.03	83.62
332.258	73.62
332.486	90.62
332.715	82.62
332.943	78.62
333.172	88.62
333.4	86.62
333.629	87.62
333.857	92.62
334.085	80.62
334.314	77.62
334.542	85.62
334.771	86.62
334.999	75.62
335.227	78.62
335.455	74.62
335.684	89.62
335.912	85.62
336.14	89.62
336.369	101.62
336.597	86.62
336.825	83.62
337.053	89.62
337.281	95.62
337.51	93.62
337.738	84.62
337.966	95.62
338.194	75.62
338.422	81.62
338.65	80.62
338.878	89.62
339.106	93.62
339.334	91.62
339.562	85.62
339.79	86.62
340.018	80.62
340.246	88.62
340.474	101.62
340.702	80.62
340.93	91.62
341.158	82.62
341.386	76.62
341.614	73.62
341.842	84.62
342.07	91.62
342.298	88.62
342.526	78.62
342.754	88.62
342.981	90.62
343.209	91.62
343.437	86.62
343.665	87.62
343.893	90.62
344.12	88.62
344.348	84.62
344.576	101.62
344.804	75.62
345.031	70.62
345.259	66.62
345.487	85.62
345.714	84.62
345.942	86.62
346.17	79.62
346.397	85.62
346.625	80.62
346.853	91.62
347.08	90.62
347.308	81.62
347.535	81.62
347.763	87.62
347.99	89.62
348.218	96.62
348.445	84.62
348.673	86.62
348.9	99.62
349.128	71.62
349.355	72.62
349.583	75.62
349.81	83.62
350.037	74.62
350.265	89.62
350.492	86.62
350.72	70.62
350.947	73.62
351.174	75.62
351.402	78.62
351.629	76.62
351.856	80.62
352.083	83.62
352.311	88.62
352.538	80.62
352.765	76.62
352.992	85.62
353.22	81.62
353.447	81.62
353.674	93.62
353.901	80.62
354.128	76.62
354.355	70.62
354.583	66.62
354.81	87.62
355.037	86.62
355.264	81.62
355.491	78.62
355.718	69.62
355.945	93.62
356.172	82.62
356.399	86.62
356.626	87.62
356.853	75.62
357.08	84.62
357.307	70.62
357.534	75.62
357.761	71.62
357.988	80.62
358.215	89.62
358.441	82.62
358.668	89.62
358.895	88.62
359.122	71.62
359.349	76.62
359.576	75.62
359.802	84.62
360.029	95.62
360.256	76.62
360.483	73.62
360.709	78.62
360.936	82.62
361.163	82.62
361.39	75.62
361.616	95.62
361.843	85.62
362.07	93.62
362.296	76.62
362.523	81.62
362.749	94.62
362.976	79.62
363.203	73.62
363.429	76.62
363.656	75.62
363.882	90.62
364.109	78.62
364.335	86.62
364.562	88.62
364.788	80.62
365.015	80.62
365.241	70.62
365.468	75.62
365.694	83.62
365.92	73.62
366.147	84.62
366.373	80.62
366.599	89.62
366.826	76.62
367.052	86.62
367.278	91.62
367.505	82.62
367.731	83.62
367.957	86.62
368.184	94.62
368.41	75.62
368.636	85.62
368.862	88.62
369.089	86.62
369.315	70.62
369.541	89.62
369.767	89.62
369.993	85.62
370.219	83.62
370.445	100.62
370.672	102.62
370.898	66.62
371.124	87.62
371.35	77.62
371.576	79.62
371.802	71.62
372.028	71.62
372.254	89.62
372.48	77.62
372.706	83.62
372.932	77.62
373.158	69.62
373.384	74.62
373.61	81.62
373.835	80.62
374.061	67.62
374.287	86.62
374.513	84.62
374.739	85.62
374.965	100.62
375.191	96.62
375.416	85.62
375.642	84.62
375.868	82.62
376.094	86.62
376.319	88.62
376.545	65.62
376.771	90.62
376.997	82.62
377.222	82.62
377.448	76.62
377.674	88.62
377.899	72.62
378.125	83.62
378.35	87.62
378.576	87.62
378.802	90.62
379.027	87.62
379.253	91.62
379.478	89.62
379.704	91.62
379.929	83.62
380.155	80.62
380.38	80.62
380.606	69.62
380.831	77.62
381.057	84.62
381.282	84.62
381.507	83.62
381.733	75.62
381.958	92.62
382.184	76.62
382.409	94.62
382.634	93.62
382.86	87.62
383.085	90.62
383.31	89.62
383.535	80.62
383.761	89.62
383.986	85.62
384.211	90.62
384.436	83.62
384.662	90.62
384.887	87.62
385.112	81.62
385.337	68.62
385.562	81.62
385.787	84.62
386.013	83.62
386.238	95.62
386.463	96.62
386.688	88.62
386.913	83.62
387.138	81.62
387.363	81.62
387.588	90.62
387.813	97.62
388.038	97.62
388.263	82.62
388.488	96.62
388.713	86.62
388.938	95.62
389.163	77.62
389.387	80.62
389.612	76.62
389.837	80.62
390.062	99.62
390.287	73.62
390.512	74.62
390.736	80.62
390.961	98.62
391.186	84.62
391.411	81.62
391.636	92.62
391.86	90.62
392.085	80.62
392.31	89.62
392.534	96.62
392.759	88.62
392.984	73.62
393.208	79.62
393.433	76.62
393.658	84.62
393.882	97.62
394.107	89.62
394.331	87.62
394.556	75.62
394.78	85.62
395.005	75.62
395.229	77.62
395.454	73.62
395.678	90.62
395.903	86.62
396.127	85.62
396.352	89.62
396.576	95.62
396.801	86.62
397.025	81.62
397.249	82.62
397.474	87.62
397.698	86.62
397.922	91.62
398.147	79.62
398.371	99.62
398.595	80.62
398.82	94.62
399.044	81.62
399.268	84.62
399.492	98.62
399.717	93.62
399.941	85.62
400.165	87.62
400.389	80.62
400.613	75.62
400.837	78.62
401.062	91.62
401.286	77.62
401.51	78.62
401.734	81.62
401.958	90.62
402.182	99.62
402.406	96.62
402.63	96.62
402.854	94.62
403.078	86.62
403.302	78.62
403.526	94.62
403.75	91.62
403.974	97.62
404.198	89.62
404.422	92.62
404.645	91.62
404.869	83.62
405.093	86.62
405.317	89.62
405.541	96.62
405.765	80.62
405.988	86.62
406.212	86.62
406.436	91.62
406.66	99.62
406.883	92.62
407.107	83.62
407.331	103.62
407.555	93.62
407.778	75.62
408.002	95.62
408.226	79.62
408.449	80.62
408.673	86.62
408.896	72.62
409.12	88.62
409.344	94.62
409.567	74.62
409.791	97.62
410.014	92.62
410.238	98.62
410.461	97.62
410.685	80.62
410.908	78.62
411.132	95.62
411.355	64.62
411.578	91.62
411.802	71.62
412.025	66.62
412.249	83.62
412.472	89.62
412.695	98.62
412.919	85.62
413.142	89.62
413.365	99.62
413.589	94.62
413.812	76.62
414.035	85.62
414.258	86.62
414.482	96.62
414.705	75.62
414.928	93.62
415.151	88.62
415.374	82.62
415.597	82.62
415.821	99.62
416.044	92.62
416.267	107.62
416.49	89.62
416.713	92.62
416.936	98.62
417.159	82.62
417.382	87.62
417.605	104.62
417.828	92.62
418.051	90.62
418.274	99.62
418.497	104.62
418.72	92.62
418.943	105.62
419.166	106.62
419.389	105.62
419.611	87.62
419.834	91.62
420.057	102.62
420.28	92.62
420.503	98.62
420.726	86.62
420.948	87.62
421.171	76.62
421.394	101.62
421.617	101.62
421.839	89.62
422.062	103.62
422.285	88.62
422.507	87.62
422.73	102.62
422.953	99.62
423.175	88.62
423.398	99.62
423.621	82.62
423.843	94.62
424.066	99.62
424.288	74.62
424.511	93.62
424.733	93.62
424.956	89.62
425.178	82.62
425.401	88.62
425.623	91.62
425.846	94.62
426.068	98.62
426.291	105.62
426.513	115.62
426.735	76.62
426.958	87.62
427.18	87.62
427.402	85.62
427.625	90.62
427.847	89.62
428.069	85.62
428.292	96.62
428.514	82.62
428.736	98.62
428.958	77.62
429.181	90.62
429.403	94.62
429.625	94.62
429.847	92.62
430.069	90.62
430.292	81.62
430.514	85.62
430.736	81.62
430.958	99.62
431.18	90.62
431.402	89.62
431.624	80.62
431.846	87.62
432.068	88.62
432.29	91.62
432.512	93.62
432.734	91.62
432.956	97.62
433.178	98.62
433.4	102.62
433.622	95.62
433.844	91.62
434.066	85.62
434.287	83.62
434.509	85.62
434.731	94.62
434.953	91.62
435.175	91.62
435.397	92.62
435.618	95.62
435.84	92.62
436.062	83.62
436.284	95.62
436.505	84.62
436.727	92.62
436.949	94.62
437.17	79.62
437.392	89.62
437.614	91.62
437.835	83.62
438.057	99.62
438.278	87.62
438.5	95.62
438.721	98.62
438.943	91.62
439.165	94.62
439.386	101.62
439.608	89.62
439.829	90.62
440.05	97.62
440.272	89.62
440.493	91.62
440.715	92.62
440.936	96.62
441.158	104.62
441.379	92.62
441.6	90.62
441.822	96.62
442.043	99.62
442.264	80.62
442.486	91.62
442.707	92.62
442.928	103.62
443.149	92.62
443.371	107.62
443.592	98.62
443.813	102.62
444.034	94.62
444.255	102.62
444.476	91.62
444.698	110.62
444.919	93.62
445.14	199.62
445.361	131.62
445.582	101.62
445.803	99.62
446.024	94.62
446.245	96.62
446.466	95.62
446.687	94.62
446.908	99.62
447.129	91.62
447.35	100.62
447.571	99.62
447.792	83.62
448.013	108.62
448.234	101.62
448.455	102.62
448.675	88.62
448.896	95.62
449.117	85.62
449.338	94.62
449.559	98.62
449.779	89.62
450	97.62
450.221	113.62
450.442	97.62
450.662	107.62
450.883	96.62
451.104	102.62
451.324	90.62
451.545	94.62
451.766	96.62
451.986	82.62
452.207	80.62
452.428	110.62
452.648	104.62
452.869	94.62
453.089	87.62
453.31	92.62
453.53	90.62
453.751	85.62
453.971	87.62
454.192	82.62
454.412	82.62
454.633	84.62
454.853	91.62
455.073	100.62
455.294	84.62
455.514	98.62
455.734	90.62
455.955	83.62
456.175	91.62
456.395	82.62
456.616	84.62
456.836	74.62
457.056	94.62
457.276	90.62
457.497	80.62
457.717	76.62
457.937	87.62
458.157	75.62
458.377	73.62
458.598	85.62
458.818	79.62
459.038	82.62
459.258	95.62
459.478	87.62
459.698	78.62
459.918	69.62
460.138	95.62
460.358	86.62
460.578	84.62
460.798	90.62
461.018	101.62
461.238	88.62
461.458	92.62
461.678	86.62
461.898	91.62
462.118	90.62
462.338	87.62
462.558	84.62
462.777	84.62
462.997	91.62
463.217	78.62
463.437	82.62
463.657	84.62
463.876	82.62
464.096	90.62
464.316	80.62
464.536	91.62
464.755	79.62
464.975	78.62
465.195	88.62
465.414	74.62
465.634	79.62
465.854	82.62
466.073	71.62
466.293	96.62
466.512	98.62
466.732	101.62
466.951	89.62
467.171	88.62
467.391	88.62
467.61	96.62
467.829	88.62
468.049	111.62
468.268	85.62
468.488	74.62
468.707	95.62
468.927	83.62
469.146	96.62
469.365	84.62
469.585	83.62
469.804	111.62
470.023	100.62
470.243	86.62
470.462	87.62
470.681	95.62
470.901	107.62
471.12	84.62
471.339	94.62
471.558	85.62
471.777	89.62
471.997	86.62
472.216	97.62
472.435	82.62
472.654	76.62
472.873	96.62
473.092	85.62
473.311	98.62
473.53	84.62
473.749	98.62
473.968	89.62
474.187	88.62
474.406	105.62
474.625	99.62
474.844	96.62
475.063	97.62
475.282	97.62
475.501	89.62
475.72	84.62
475.939	96.62
476.158	84.62
476.377	103.62
476.596	81.62
476.814	90.62
477.033	82.62
477.252	82.62
477.471	98.62
477.69	92.62
477.908	104.62
478.127	85.62
478.346	100.62
478.564	96.62
478.783	96.62
479.002	79.62
479.22	104.62
479.439	87.62
479.658	90.62
479.876	81.62
480.095	97.62
480.313	103.62
480.532	92.62
480.751	93.62
480.969	89.62
481.188	94.62
481.406	77.62
481.624	78.62
481.843	79.62
482.061	87.62
482.28	84.62
482.498	94.62
482.717	85.62
482.935	91.62
483.153	95.62
483.372	98.62
483.59	104.62
483.808	87.62
484.027	87.62
484.245	99.62
484.463	84.62
484.681	102.62
484.9	95.62
485.118	94.62
485.336	100.62
485.554	96.62
485.772	87.62
485.99	82.62
486.209	90.62
486.427	80.62
486.645	94.62
486.863	94.62
487.081	93.62
487.299	101.62
487.517	85.62
487.735	99.62
487.953	103.62
488.171	97.62
488.389	106.62
488.607	112.62
488.825	96.62
489.043	93.62
489.261	103.62
489.479	92.62
489.696	89.62
489.914	88.62
490.132	105.62
490.35	99.62
490.568	108.62
490.786	105.62
491.003	122.62
491.221	113.62
491.439	111.62
491.657	119.62
491.874	106.62
492.092	109.62
492.31	112.62
492.527	127.62
492.745	115.62
492.963	116.62
493.18	99.62
493.398	94.62
493.615	101.62
493.833	95.62
494.05	104.62
494.268	79.62
494.485	110.62
494.703	111.62
494.92	100.62
495.138	103.62
495.355	100.62
495.573	92.62
495.79	108.62
496.008	105.62
496.225	100.62
496.442	89.62
496.66	99.62
496.877	96.62
497.094	110.62
497.312	107.62
497.529	98.62
497.746	90.62
497.963	99.62
498.181	84.62
498.398	84.62
498.615	85.62
498.832	80.62
499.049	76.62
499.267	99.62
499.484	79.62
499.701	91.62
499.918	110.62
500.135	100.62
500.352	102.62
500.569	87.62
500.786	103.62
501.003	96.62
501.22	96.62
501.437	106.62
501.654	102.62
501.871	85.62
502.088	95.62
502.305	90.62
502.522	101.62
502.739	102.62
502.956	95.62
503.172	83.62
503.389	86.62
503.606	91.62
503.823	95.62
504.04	104.62
504.256	86.62
504.473	80.62
504.69	89.62
504.907	96.62
505.123	93.62
505.34	89.62
505.557	83.62
505.773	80.62
505.99	87.62
506.207	96.62
506.423	84.62
506.64	94.62
506.856	75.62
507.073	91.62
507.289	87.62
507.506	98.62
507.722	87.62
507.939	89.62
508.155	80.62
508.372	97.62
508.588	87.62
508.805	102.62
509.021	84.62
509.238	96.62
509.454	87.62
509.67	86.62
509.887	83.62
510.103	77.62
510.319	89.62
510.536	79.62
510.752	81.62
510.968	74.62
511.184	92.62
511.401	90.62
511.617	86.62
511.833	77.62
512.049	83.62
512.265	81.62
512.481	69.62
512.698	88.62
512.914	84.62
513.13	87.62
513.346	90.62
513.562	82.62
513.778	81.62
513.994	76.62
514.21	82.62
514.426	78.62
514.642	83.62
514.858	93.62
515.074	99.62
515.29	72.62
515.506	82.62
515.721	92.62
515.937	91.62
516.153	91.62
516.369	88.62
516.585	93.62
516.801	84.62
517.016	89.62
517.232	83.62
517.448	78.62
517.664	97.62
517.879	78.62
518.095	79.62
