Data from Location5.07152019.Energy5.Lamp.07192019.3%Agarose_HRD10591_16-04-39-629.txt Node
Date: Fri Jul 19 16:04:39 EDT 2019
User: cochatt
Spectrometer: HR+D1059
Trigger mode: 1
Integration Time (sec): 1.000000E-1
Scans to average: 1
Electric dark correction enabled: true
Nonlinearity correction enabled: false
Boxcar width: 0
XAxis mode: Wavelengths
Number of Pixels in Spectrum: 2048
>>>>>Begin Spectral Data<<<<<
223.165	-10.19
223.4	-10.19
223.635	-10.19
223.869	-14.19
224.104	-26.19
224.338	-20.19
224.573	-23.19
224.808	-2.19
225.042	-4.19
225.277	2.81
225.511	6.81
225.746	-10.19
225.98	6.81
226.215	-0.19
226.449	18.81
226.683	22.81
226.918	18.81
227.152	33.81
227.387	38.81
227.621	31.81
227.856	39.81
228.09	54.81
228.324	62.81
228.559	43.81
228.793	48.81
229.027	67.81
229.262	65.81
229.496	74.81
229.73	67.81
229.964	64.81
230.199	65.81
230.433	75.81
230.667	66.81
230.901	81.81
231.136	77.81
231.37	72.81
231.604	81.81
231.838	70.81
232.072	72.81
232.306	84.81
232.541	82.81
232.775	74.81
233.009	80.81
233.243	88.81
233.477	79.81
233.711	76.81
233.945	70.81
234.179	82.81
234.413	82.81
234.647	86.81
234.881	81.81
235.115	99.81
235.349	87.81
235.583	80.81
235.817	85.81
236.051	74.81
236.285	79.81
236.519	80.81
236.753	78.81
236.987	95.81
237.221	72.81
237.455	72.81
237.689	78.81
237.922	72.81
238.156	90.81
238.39	74.81
238.624	79.81
238.858	75.81
239.091	84.81
239.325	86.81
239.559	86.81
239.793	67.81
240.027	69.81
240.26	64.81
240.494	77.81
240.728	79.81
240.961	78.81
241.195	92.81
241.429	92.81
241.662	82.81
241.896	68.81
242.13	81.81
242.363	77.81
242.597	83.81
242.83	78.81
243.064	83.81
243.298	74.81
243.531	73.81
243.765	90.81
243.998	90.81
244.232	69.81
244.465	73.81
244.699	64.81
244.932	74.81
245.166	86.81
245.399	86.81
245.633	71.81
245.866	76.81
246.099	73.81
246.333	92.81
246.566	65.81
246.8	82.81
247.033	91.81
247.266	73.81
247.5	86.81
247.733	70.81
247.966	76.81
248.2	75.81
248.433	82.81
248.666	70.81
248.899	95.81
249.133	76.81
249.366	73.81
249.599	89.81
249.832	79.81
250.066	74.81
250.299	84.81
250.532	99.81
250.765	75.81
250.998	76.81
251.231	83.81
251.465	94.81
251.698	79.81
251.931	88.81
252.164	73.81
252.397	93.81
252.63	86.81
252.863	74.81
253.096	93.81
253.329	96.81
253.562	80.81
253.795	67.81
254.028	80.81
254.261	87.81
254.494	80.81
254.727	88.81
254.96	80.81
255.193	77.81
255.426	75.81
255.659	96.81
255.892	78.81
256.124	76.81
256.357	70.81
256.59	73.81
256.823	90.81
257.056	89.81
257.289	70.81
257.521	93.81
257.754	75.81
257.987	86.81
258.22	87.81
258.452	75.81
258.685	83.81
258.918	83.81
259.151	89.81
259.383	85.81
259.616	84.81
259.849	71.81
260.081	86.81
260.314	80.81
260.547	86.81
260.779	87.81
261.012	86.81
261.244	75.81
261.477	82.81
261.71	90.81
261.942	87.81
262.175	84.81
262.407	66.81
262.64	84.81
262.872	71.81
263.105	82.81
263.337	76.81
263.57	89.81
263.802	94.81
264.035	95.81
264.267	81.81
264.499	75.81
264.732	69.81
264.964	95.81
265.197	89.81
265.429	96.81
265.661	92.81
265.894	80.81
266.126	90.81
266.358	103.81
266.591	99.81
266.823	98.81
267.055	75.81
267.287	90.81
267.52	90.81
267.752	87.81
267.984	92.81
268.216	88.81
268.448	80.81
268.681	80.81
268.913	91.81
269.145	79.81
269.377	95.81
269.609	83.81
269.841	81.81
270.073	81.81
270.306	94.81
270.538	83.81
270.77	86.81
271.002	96.81
271.234	91.81
271.466	79.81
271.698	86.81
271.93	95.81
272.162	92.81
272.394	70.81
272.626	86.81
272.858	91.81
273.09	85.81
273.322	85.81
273.553	83.81
273.785	78.81
274.017	87.81
274.249	92.81
274.481	99.81
274.713	84.81
274.945	84.81
275.176	91.81
275.408	88.81
275.64	98.81
275.872	86.81
276.104	73.81
276.335	86.81
276.567	87.81
276.799	88.81
277.031	91.81
277.262	88.81
277.494	90.81
277.726	90.81
277.957	91.81
278.189	77.81
278.421	79.81
278.652	94.81
278.884	75.81
279.115	97.81
279.347	91.81
279.579	84.81
279.81	102.81
280.042	99.81
280.273	88.81
280.505	83.81
280.736	92.81
280.968	90.81
281.199	92.81
281.431	83.81
281.662	81.81
281.894	77.81
282.125	88.81
282.356	95.81
282.588	84.81
282.819	97.81
283.051	70.81
283.282	78.81
283.513	105.81
283.745	96.81
283.976	110.81
284.207	91.81
284.439	82.81
284.67	97.81
284.901	96.81
285.132	73.81
285.364	86.81
285.595	76.81
285.826	89.81
286.057	78.81
286.288	93.81
286.52	84.81
286.751	94.81
286.982	89.81
287.213	86.81
287.444	91.81
287.675	89.81
287.906	93.81
288.138	104.81
288.369	88.81
288.6	80.81
288.831	98.81
289.062	79.81
289.293	86.81
289.524	75.81
289.755	94.81
289.986	81.81
290.217	82.81
290.448	86.81
290.679	93.81
290.91	81.81
291.141	88.81
291.371	95.81
291.602	78.81
291.833	90.81
292.064	79.81
292.295	78.81
292.526	86.81
292.757	97.81
292.987	91.81
293.218	102.81
293.449	81.81
293.68	87.81
293.91	92.81
294.141	94.81
294.372	85.81
294.603	85.81
294.833	88.81
295.064	99.81
295.295	99.81
295.525	93.81
295.756	108.81
295.987	83.81
296.217	86.81
296.448	84.81
296.679	81.81
296.909	88.81
297.14	92.81
297.37	95.81
297.601	73.81
297.831	87.81
298.062	92.81
298.292	104.81
298.523	83.81
298.753	78.81
298.984	78.81
299.214	89.81
299.445	95.81
299.675	97.81
299.905	90.81
300.136	89.81
300.366	89.81
300.597	73.81
300.827	84.81
301.057	98.81
301.288	89.81
301.518	87.81
301.748	82.81
301.979	91.81
302.209	85.81
302.439	98.81
302.669	91.81
302.9	96.81
303.13	93.81
303.36	82.81
303.59	94.81
303.82	88.81
304.051	85.81
304.281	94.81
304.511	84.81
304.741	87.81
304.971	82.81
305.201	81.81
305.431	93.81
305.661	78.81
305.891	108.81
306.121	84.81
306.352	89.81
306.582	104.81
306.812	99.81
307.042	99.81
307.272	86.81
307.502	97.81
307.731	94.81
307.961	93.81
308.191	88.81
308.421	93.81
308.651	90.81
308.881	81.81
309.111	98.81
309.341	86.81
309.571	89.81
309.8	87.81
310.03	93.81
310.26	89.81
310.49	89.81
310.72	106.81
310.949	92.81
311.179	88.81
311.409	87.81
311.639	97.81
311.868	95.81
312.098	89.81
312.328	97.81
312.557	82.81
312.787	91.81
313.017	88.81
313.246	113.81
313.476	93.81
313.706	72.81
313.935	93.81
314.165	97.81
314.394	89.81
314.624	96.81
314.853	87.81
315.083	94.81
315.312	89.81
315.542	102.81
315.771	101.81
316.001	88.81
316.23	88.81
316.46	84.81
316.689	97.81
316.919	92.81
317.148	99.81
317.377	103.81
317.607	101.81
317.836	89.81
318.065	82.81
318.295	80.81
318.524	83.81
318.753	96.81
318.983	92.81
319.212	82.81
319.441	91.81
319.67	83.81
319.9	118.81
320.129	95.81
320.358	97.81
320.587	99.81
320.816	88.81
321.046	89.81
321.275	85.81
321.504	83.81
321.733	86.81
321.962	76.81
322.191	96.81
322.42	103.81
322.649	78.81
322.878	93.81
323.108	84.81
323.337	93.81
323.566	92.81
323.795	92.81
324.024	85.81
324.253	97.81
324.482	93.81
324.71	90.81
324.939	83.81
325.168	83.81
325.397	90.81
325.626	84.81
325.855	90.81
326.084	92.81
326.313	95.81
326.542	91.81
326.77	79.81
326.999	97.81
327.228	87.81
327.457	96.81
327.686	87.81
327.914	80.81
328.143	93.81
328.372	100.81
328.6	88.81
328.829	83.81
329.058	91.81
329.287	79.81
329.515	90.81
329.744	101.81
329.972	83.81
330.201	91.81
330.43	93.81
330.658	90.81
330.887	91.81
331.115	96.81
331.344	82.81
331.572	78.81
331.801	86.81
332.03	81.81
332.258	99.81
332.486	94.81
332.715	92.81
332.943	98.81
333.172	92.81
333.4	100.81
333.629	96.81
333.857	92.81
334.085	91.81
334.314	94.81
334.542	92.81
334.771	79.81
334.999	103.81
335.227	91.81
335.455	103.81
335.684	88.81
335.912	86.81
336.14	90.81
336.369	82.81
336.597	87.81
336.825	87.81
337.053	107.81
337.281	96.81
337.51	99.81
337.738	94.81
337.966	99.81
338.194	88.81
338.422	90.81
338.65	85.81
338.878	92.81
339.106	84.81
339.334	92.81
339.562	84.81
339.79	86.81
340.018	84.81
340.246	97.81
340.474	93.81
340.702	93.81
340.93	97.81
341.158	86.81
341.386	91.81
341.614	94.81
341.842	86.81
342.07	88.81
342.298	99.81
342.526	88.81
342.754	112.81
342.981	87.81
343.209	101.81
343.437	82.81
343.665	91.81
343.893	72.81
344.12	95.81
344.348	86.81
344.576	88.81
344.804	94.81
345.031	82.81
345.259	81.81
345.487	83.81
345.714	91.81
345.942	98.81
346.17	83.81
346.397	96.81
346.625	91.81
346.853	91.81
347.08	90.81
347.308	100.81
347.535	81.81
347.763	84.81
347.99	98.81
348.218	90.81
348.445	91.81
348.673	75.81
348.9	94.81
349.128	76.81
349.355	82.81
349.583	98.81
349.81	80.81
350.037	77.81
350.265	86.81
350.492	95.81
350.72	105.81
350.947	92.81
351.174	84.81
351.402	90.81
351.629	83.81
351.856	88.81
352.083	88.81
352.311	91.81
352.538	99.81
352.765	85.81
352.992	83.81
353.22	76.81
353.447	95.81
353.674	97.81
353.901	87.81
354.128	89.81
354.355	81.81
354.583	87.81
354.81	84.81
355.037	84.81
355.264	96.81
355.491	92.81
355.718	101.81
355.945	97.81
356.172	80.81
356.399	84.81
356.626	92.81
356.853	82.81
357.08	77.81
357.307	107.81
357.534	94.81
357.761	99.81
357.988	87.81
358.215	98.81
358.441	99.81
358.668	90.81
358.895	94.81
359.122	80.81
359.349	91.81
359.576	90.81
359.802	94.81
360.029	80.81
360.256	102.81
360.483	92.81
360.709	83.81
360.936	91.81
361.163	74.81
361.39	72.81
361.616	89.81
361.843	85.81
362.07	88.81
362.296	84.81
362.523	88.81
362.749	90.81
362.976	97.81
363.203	87.81
363.429	84.81
363.656	86.81
363.882	83.81
364.109	87.81
364.335	101.81
364.562	86.81
364.788	82.81
365.015	98.81
365.241	100.81
365.468	98.81
365.694	99.81
365.92	94.81
366.147	92.81
366.373	76.81
366.599	82.81
366.826	88.81
367.052	81.81
367.278	85.81
367.505	86.81
367.731	75.81
367.957	85.81
368.184	76.81
368.41	96.81
368.636	104.81
368.862	86.81
369.089	94.81
369.315	87.81
369.541	90.81
369.767	81.81
369.993	83.81
370.219	79.81
370.445	82.81
370.672	79.81
370.898	92.81
371.124	96.81
371.35	96.81
371.576	90.81
371.802	97.81
372.028	88.81
372.254	93.81
372.48	88.81
372.706	82.81
372.932	98.81
373.158	90.81
373.384	107.81
373.61	98.81
373.835	85.81
374.061	82.81
374.287	97.81
374.513	76.81
374.739	84.81
374.965	101.81
375.191	93.81
375.416	98.81
375.642	93.81
375.868	83.81
376.094	98.81
376.319	75.81
376.545	82.81
376.771	84.81
376.997	82.81
377.222	86.81
377.448	89.81
377.674	94.81
377.899	94.81
378.125	99.81
378.35	78.81
378.576	74.81
378.802	97.81
379.027	85.81
379.253	84.81
379.478	94.81
379.704	87.81
379.929	75.81
380.155	81.81
380.38	84.81
380.606	89.81
380.831	105.81
381.057	96.81
381.282	101.81
381.507	82.81
381.733	89.81
381.958	97.81
382.184	94.81
382.409	103.81
382.634	92.81
382.86	86.81
383.085	84.81
383.31	86.81
383.535	86.81
383.761	95.81
383.986	88.81
384.211	66.81
384.436	92.81
384.662	96.81
384.887	84.81
385.112	90.81
385.337	79.81
385.562	84.81
385.787	94.81
386.013	106.81
386.238	102.81
386.463	94.81
386.688	79.81
386.913	87.81
387.138	93.81
387.363	93.81
387.588	103.81
387.813	103.81
388.038	94.81
388.263	97.81
388.488	97.81
388.713	100.81
388.938	92.81
389.163	76.81
389.387	92.81
389.612	96.81
389.837	77.81
390.062	90.81
390.287	83.81
390.512	89.81
390.736	71.81
390.961	94.81
391.186	93.81
391.411	101.81
391.636	91.81
391.86	110.81
392.085	102.81
392.31	99.81
392.534	97.81
392.759	81.81
392.984	99.81
393.208	90.81
393.433	89.81
393.658	114.81
393.882	103.81
394.107	87.81
394.331	82.81
394.556	82.81
394.78	84.81
395.005	87.81
395.229	82.81
395.454	103.81
395.678	82.81
395.903	98.81
396.127	86.81
396.352	90.81
396.576	78.81
396.801	83.81
397.025	92.81
397.249	89.81
397.474	88.81
397.698	107.81
397.922	96.81
398.147	85.81
398.371	90.81
398.595	95.81
398.82	96.81
399.044	89.81
399.268	92.81
399.492	98.81
399.717	101.81
399.941	106.81
400.165	98.81
400.389	92.81
400.613	96.81
400.837	85.81
401.062	98.81
401.286	92.81
401.51	90.81
401.734	99.81
401.958	104.81
402.182	93.81
402.406	107.81
402.63	89.81
402.854	96.81
403.078	92.81
403.302	87.81
403.526	101.81
403.75	91.81
403.974	99.81
404.198	94.81
404.422	99.81
404.645	95.81
404.869	91.81
405.093	98.81
405.317	97.81
405.541	99.81
405.765	91.81
405.988	92.81
406.212	85.81
406.436	105.81
406.66	99.81
406.883	86.81
407.107	87.81
407.331	91.81
407.555	94.81
407.778	89.81
408.002	91.81
408.226	98.81
408.449	104.81
408.673	91.81
408.896	80.81
409.12	96.81
409.344	78.81
409.567	106.81
409.791	95.81
410.014	89.81
410.238	101.81
410.461	90.81
410.685	93.81
410.908	91.81
411.132	88.81
411.355	86.81
411.578	86.81
411.802	80.81
412.025	97.81
412.249	85.81
412.472	91.81
412.695	92.81
412.919	95.81
413.142	92.81
413.365	85.81
413.589	98.81
413.812	96.81
414.035	106.81
414.258	91.81
414.482	97.81
414.705	78.81
414.928	96.81
415.151	86.81
415.374	85.81
415.597	81.81
415.821	85.81
416.044	86.81
416.267	90.81
416.49	95.81
416.713	103.81
416.936	93.81
417.159	88.81
417.382	85.81
417.605	99.81
417.828	87.81
418.051	95.81
418.274	101.81
418.497	110.81
418.72	96.81
418.943	82.81
419.166	100.81
419.389	95.81
419.611	95.81
419.834	87.81
420.057	90.81
420.28	82.81
420.503	92.81
420.726	79.81
420.948	77.81
421.171	91.81
421.394	103.81
421.617	87.81
421.839	87.81
422.062	83.81
422.285	92.81
422.507	100.81
422.73	103.81
422.953	90.81
423.175	98.81
423.398	100.81
423.621	84.81
423.843	97.81
424.066	117.81
424.288	88.81
424.511	87.81
424.733	98.81
424.956	83.81
425.178	92.81
425.401	102.81
425.623	99.81
425.846	86.81
426.068	98.81
426.291	70.81
426.513	68.81
426.735	102.81
426.958	94.81
427.18	92.81
427.402	101.81
427.625	83.81
427.847	99.81
428.069	97.81
428.292	94.81
428.514	84.81
428.736	92.81
428.958	87.81
429.181	86.81
429.403	89.81
429.625	81.81
429.847	87.81
430.069	99.81
430.292	84.81
430.514	81.81
430.736	87.81
430.958	87.81
431.18	96.81
431.402	95.81
431.624	80.81
431.846	91.81
432.068	102.81
432.29	99.81
432.512	79.81
432.734	85.81
432.956	81.81
433.178	87.81
433.4	94.81
433.622	90.81
433.844	82.81
434.066	75.81
434.287	84.81
434.509	89.81
434.731	90.81
434.953	94.81
435.175	95.81
435.397	91.81
435.618	90.81
435.84	85.81
436.062	84.81
436.284	88.81
436.505	91.81
436.727	95.81
436.949	104.81
437.17	101.81
437.392	83.81
437.614	83.81
437.835	95.81
438.057	84.81
438.278	71.81
438.5	75.81
438.721	85.81
438.943	102.81
439.165	86.81
439.386	100.81
439.608	81.81
439.829	95.81
440.05	99.81
440.272	85.81
440.493	89.81
440.715	92.81
440.936	99.81
441.158	91.81
441.379	89.81
441.6	81.81
441.822	94.81
442.043	87.81
442.264	94.81
442.486	82.81
442.707	95.81
442.928	92.81
443.149	87.81
443.371	92.81
443.592	86.81
443.813	97.81
444.034	99.81
444.255	95.81
444.476	101.81
444.698	100.81
444.919	101.81
445.14	219.81
445.361	171.81
445.582	87.81
445.803	76.81
446.024	96.81
446.245	101.81
446.466	90.81
446.687	89.81
446.908	85.81
447.129	98.81
447.35	88.81
447.571	86.81
447.792	93.81
448.013	77.81
448.234	80.81
448.455	92.81
448.675	95.81
448.896	91.81
449.117	86.81
449.338	97.81
449.559	82.81
449.779	75.81
450	86.81
450.221	87.81
450.442	93.81
450.662	99.81
450.883	95.81
451.104	91.81
451.324	98.81
451.545	98.81
451.766	83.81
451.986	85.81
452.207	88.81
452.428	86.81
452.648	102.81
452.869	102.81
453.089	94.81
453.31	75.81
453.53	82.81
453.751	87.81
453.971	91.81
454.192	79.81
454.412	87.81
454.633	79.81
454.853	90.81
455.073	92.81
455.294	87.81
455.514	95.81
455.734	97.81
455.955	98.81
456.175	78.81
456.395	98.81
456.616	94.81
456.836	96.81
457.056	98.81
457.276	99.81
457.497	90.81
457.717	92.81
457.937	82.81
458.157	87.81
458.377	86.81
458.598	90.81
458.818	92.81
459.038	103.81
459.258	80.81
459.478	99.81
459.698	97.81
459.918	83.81
460.138	100.81
460.358	90.81
460.578	103.81
460.798	99.81
461.018	100.81
461.238	92.81
461.458	100.81
461.678	91.81
461.898	103.81
462.118	89.81
462.338	85.81
462.558	92.81
462.777	98.81
462.997	106.81
463.217	110.81
463.437	113.81
463.657	105.81
463.876	97.81
464.096	91.81
464.316	97.81
464.536	77.81
464.755	105.81
464.975	98.81
465.195	101.81
465.414	104.81
465.634	106.81
465.854	96.81
466.073	99.81
466.293	86.81
466.512	92.81
466.732	99.81
466.951	98.81
467.171	93.81
467.391	89.81
467.61	89.81
467.829	99.81
468.049	92.81
468.268	89.81
468.488	94.81
468.707	112.81
468.927	89.81
469.146	97.81
469.365	97.81
469.585	95.81
469.804	94.81
470.023	90.81
470.243	98.81
470.462	90.81
470.681	111.81
470.901	91.81
471.12	90.81
471.339	94.81
471.558	100.81
471.777	108.81
471.997	113.81
472.216	93.81
472.435	106.81
472.654	91.81
472.873	96.81
473.092	86.81
473.311	100.81
473.53	89.81
473.749	98.81
473.968	107.81
474.187	97.81
474.406	100.81
474.625	89.81
474.844	85.81
475.063	102.81
475.282	81.81
475.501	89.81
475.72	104.81
475.939	95.81
476.158	98.81
476.377	105.81
476.596	105.81
476.814	111.81
477.033	102.81
477.252	91.81
477.471	99.81
477.69	88.81
477.908	104.81
478.127	103.81
478.346	105.81
478.564	101.81
478.783	91.81
479.002	96.81
479.22	91.81
479.439	113.81
479.658	82.81
479.876	93.81
480.095	95.81
480.313	100.81
480.532	100.81
480.751	92.81
480.969	98.81
481.188	98.81
481.406	102.81
481.624	115.81
481.843	105.81
482.061	108.81
482.28	91.81
482.498	104.81
482.717	103.81
482.935	100.81
483.153	104.81
483.372	99.81
483.59	102.81
483.808	106.81
484.027	107.81
484.245	106.81
484.463	102.81
484.681	108.81
484.9	103.81
485.118	92.81
485.336	106.81
485.554	105.81
485.772	90.81
485.99	92.81
486.209	102.81
486.427	105.81
486.645	103.81
486.863	86.81
487.081	94.81
487.299	105.81
487.517	105.81
487.735	113.81
487.953	100.81
488.171	106.81
488.389	104.81
488.607	99.81
488.825	101.81
489.043	100.81
489.261	103.81
489.479	106.81
489.696	105.81
489.914	108.81
490.132	106.81
490.35	104.81
490.568	97.81
490.786	115.81
491.003	87.81
491.221	108.81
491.439	123.81
491.657	106.81
491.874	122.81
492.092	108.81
492.31	104.81
492.527	114.81
492.745	119.81
492.963	122.81
493.18	108.81
493.398	104.81
493.615	98.81
493.833	126.81
494.05	104.81
494.268	104.81
494.485	104.81
494.703	93.81
494.92	99.81
495.138	105.81
495.355	103.81
495.573	99.81
495.79	102.81
496.008	105.81
496.225	107.81
496.442	100.81
496.66	104.81
496.877	114.81
497.094	112.81
497.312	111.81
497.529	108.81
497.746	116.81
497.963	112.81
498.181	90.81
498.398	110.81
498.615	104.81
498.832	118.81
499.049	104.81
499.267	118.81
499.484	120.81
499.701	106.81
499.918	120.81
500.135	144.81
500.352	144.81
500.569	150.81
500.786	144.81
501.003	142.81
501.22	152.81
501.437	133.81
501.654	128.81
501.871	129.81
502.088	108.81
502.305	115.81
502.522	108.81
502.739	120.81
502.956	106.81
503.172	96.81
503.389	102.81
503.606	106.81
503.823	103.81
504.04	110.81
504.256	127.81
504.473	116.81
504.69	121.81
504.907	104.81
505.123	90.81
505.34	93.81
505.557	111.81
505.773	110.81
505.99	100.81
506.207	107.81
506.423	116.81
506.64	114.81
506.856	112.81
507.073	112.81
507.289	98.81
507.506	91.81
507.722	96.81
507.939	97.81
508.155	99.81
508.372	106.81
508.588	88.81
508.805	102.81
509.021	105.81
509.238	99.81
509.454	88.81
509.67	79.81
509.887	96.81
510.103	81.81
510.319	100.81
510.536	93.81
510.752	98.81
510.968	85.81
511.184	109.81
511.401	100.81
511.617	98.81
511.833	102.81
512.049	93.81
512.265	91.81
512.481	92.81
512.698	96.81
512.914	95.81
513.13	89.81
513.346	103.81
513.562	93.81
513.778	104.81
513.994	89.81
514.21	103.81
514.426	94.81
514.642	96.81
514.858	95.81
515.074	91.81
515.29	91.81
515.506	95.81
515.721	90.81
515.937	95.81
516.153	83.81
