Data from Location5.07152019.Energy5.Lamp.07192019.3%Agarose_HRD10591_15-38-34-388.txt Node
Date: Fri Jul 19 15:38:34 EDT 2019
User: cochatt
Spectrometer: HR+D1059
Trigger mode: 1
Integration Time (sec): 1.000000E-1
Scans to average: 1
Electric dark correction enabled: true
Nonlinearity correction enabled: false
Boxcar width: 0
XAxis mode: Wavelengths
Number of Pixels in Spectrum: 2048
>>>>>Begin Spectral Data<<<<<
223.165	-18.5
223.4	-18.5
223.635	-18.5
223.869	-20.5
224.104	-8.5
224.338	-13.5
224.573	3.5
224.808	7.5
225.042	7.5
225.277	-9.5
225.511	-3.5
225.746	0.5
225.98	4.5
226.215	10.5
226.449	4.5
226.683	-0.5
226.918	13.5
227.152	22.5
227.387	34.5
227.621	22.5
227.856	38.5
228.09	31.5
228.324	39.5
228.559	41.5
228.793	51.5
229.027	62.5
229.262	52.5
229.496	63.5
229.73	66.5
229.964	66.5
230.199	73.5
230.433	68.5
230.667	59.5
230.901	87.5
231.136	88.5
231.37	75.5
231.604	73.5
231.838	82.5
232.072	90.5
232.306	64.5
232.541	66.5
232.775	70.5
233.009	85.5
233.243	97.5
233.477	78.5
233.711	81.5
233.945	79.5
234.179	67.5
234.413	86.5
234.647	73.5
234.881	73.5
235.115	87.5
235.349	78.5
235.583	86.5
235.817	82.5
236.051	83.5
236.285	71.5
236.519	83.5
236.753	79.5
236.987	85.5
237.221	75.5
237.455	87.5
237.689	84.5
237.922	73.5
238.156	61.5
238.39	66.5
238.624	80.5
238.858	88.5
239.091	78.5
239.325	90.5
239.559	66.5
239.793	89.5
240.027	78.5
240.26	86.5
240.494	75.5
240.728	64.5
240.961	76.5
241.195	70.5
241.429	60.5
241.662	78.5
241.896	76.5
242.13	68.5
242.363	87.5
242.597	82.5
242.83	84.5
243.064	76.5
243.298	85.5
243.531	66.5
243.765	77.5
243.998	79.5
244.232	75.5
244.465	69.5
244.699	65.5
244.932	75.5
245.166	79.5
245.399	74.5
245.633	87.5
245.866	77.5
246.099	75.5
246.333	78.5
246.566	88.5
246.8	75.5
247.033	82.5
247.266	73.5
247.5	75.5
247.733	89.5
247.966	72.5
248.2	87.5
248.433	85.5
248.666	80.5
248.899	72.5
249.133	70.5
249.366	68.5
249.599	82.5
249.832	88.5
250.066	76.5
250.299	91.5
250.532	87.5
250.765	82.5
250.998	78.5
251.231	81.5
251.465	80.5
251.698	79.5
251.931	76.5
252.164	89.5
252.397	82.5
252.63	86.5
252.863	82.5
253.096	75.5
253.329	73.5
253.562	82.5
253.795	86.5
254.028	83.5
254.261	70.5
254.494	75.5
254.727	75.5
254.96	94.5
255.193	80.5
255.426	79.5
255.659	78.5
255.892	81.5
256.124	82.5
256.357	86.5
256.59	86.5
256.823	81.5
257.056	79.5
257.289	83.5
257.521	73.5
257.754	81.5
257.987	76.5
258.22	68.5
258.452	84.5
258.685	90.5
258.918	83.5
259.151	75.5
259.383	80.5
259.616	82.5
259.849	81.5
260.081	69.5
260.314	83.5
260.547	75.5
260.779	80.5
261.012	80.5
261.244	89.5
261.477	85.5
261.71	73.5
261.942	78.5
262.175	72.5
262.407	81.5
262.64	85.5
262.872	62.5
263.105	80.5
263.337	80.5
263.57	89.5
263.802	101.5
264.035	83.5
264.267	82.5
264.499	78.5
264.732	83.5
264.964	78.5
265.197	79.5
265.429	75.5
265.661	84.5
265.894	78.5
266.126	73.5
266.358	78.5
266.591	82.5
266.823	79.5
267.055	81.5
267.287	87.5
267.52	89.5
267.752	79.5
267.984	97.5
268.216	89.5
268.448	78.5
268.681	91.5
268.913	81.5
269.145	80.5
269.377	80.5
269.609	86.5
269.841	101.5
270.073	81.5
270.306	73.5
270.538	76.5
270.77	78.5
271.002	71.5
271.234	86.5
271.466	71.5
271.698	84.5
271.93	83.5
272.162	90.5
272.394	67.5
272.626	80.5
272.858	72.5
273.09	84.5
273.322	83.5
273.553	81.5
273.785	81.5
274.017	88.5
274.249	83.5
274.481	88.5
274.713	90.5
274.945	73.5
275.176	81.5
275.408	75.5
275.64	96.5
275.872	95.5
276.104	85.5
276.335	81.5
276.567	76.5
276.799	84.5
277.031	85.5
277.262	74.5
277.494	80.5
277.726	80.5
277.957	86.5
278.189	91.5
278.421	67.5
278.652	86.5
278.884	79.5
279.115	84.5
279.347	79.5
279.579	83.5
279.81	93.5
280.042	93.5
280.273	84.5
280.505	83.5
280.736	79.5
280.968	81.5
281.199	75.5
281.431	66.5
281.662	90.5
281.894	62.5
282.125	73.5
282.356	93.5
282.588	93.5
282.819	85.5
283.051	86.5
283.282	76.5
283.513	79.5
283.745	87.5
283.976	89.5
284.207	86.5
284.439	81.5
284.67	93.5
284.901	85.5
285.132	75.5
285.364	76.5
285.595	91.5
285.826	82.5
286.057	82.5
286.288	82.5
286.52	75.5
286.751	97.5
286.982	80.5
287.213	80.5
287.444	83.5
287.675	83.5
287.906	82.5
288.138	85.5
288.369	82.5
288.6	88.5
288.831	105.5
289.062	101.5
289.293	76.5
289.524	85.5
289.755	82.5
289.986	88.5
290.217	82.5
290.448	73.5
290.679	81.5
290.91	64.5
291.141	96.5
291.371	94.5
291.602	97.5
291.833	90.5
292.064	82.5
292.295	74.5
292.526	86.5
292.757	95.5
292.987	94.5
293.218	79.5
293.449	87.5
293.68	94.5
293.91	91.5
294.141	88.5
294.372	93.5
294.603	82.5
294.833	80.5
295.064	88.5
295.295	89.5
295.525	87.5
295.756	83.5
295.987	89.5
296.217	82.5
296.448	95.5
296.679	81.5
296.909	88.5
297.14	84.5
297.37	86.5
297.601	92.5
297.831	80.5
298.062	80.5
298.292	83.5
298.523	91.5
298.753	75.5
298.984	63.5
299.214	87.5
299.445	81.5
299.675	87.5
299.905	76.5
300.136	83.5
300.366	92.5
300.597	102.5
300.827	76.5
301.057	90.5
301.288	91.5
301.518	93.5
301.748	88.5
301.979	77.5
302.209	82.5
302.439	89.5
302.669	81.5
302.9	71.5
303.13	82.5
303.36	100.5
303.59	74.5
303.82	70.5
304.051	71.5
304.281	88.5
304.511	80.5
304.741	89.5
304.971	86.5
305.201	82.5
305.431	76.5
305.661	94.5
305.891	78.5
306.121	83.5
306.352	73.5
306.582	70.5
306.812	90.5
307.042	88.5
307.272	81.5
307.502	89.5
307.731	84.5
307.961	84.5
308.191	74.5
308.421	76.5
308.651	81.5
308.881	80.5
309.111	88.5
309.341	79.5
309.571	86.5
309.8	88.5
310.03	92.5
310.26	81.5
310.49	76.5
310.72	80.5
310.949	80.5
311.179	80.5
311.409	71.5
311.639	73.5
311.868	82.5
312.098	77.5
312.328	94.5
312.557	78.5
312.787	94.5
313.017	90.5
313.246	79.5
313.476	83.5
313.706	84.5
313.935	80.5
314.165	75.5
314.394	89.5
314.624	80.5
314.853	89.5
315.083	84.5
315.312	86.5
315.542	72.5
315.771	74.5
316.001	90.5
316.23	99.5
316.46	91.5
316.689	90.5
316.919	88.5
317.148	85.5
317.377	87.5
317.607	93.5
317.836	82.5
318.065	75.5
318.295	73.5
318.524	82.5
318.753	78.5
318.983	102.5
319.212	88.5
319.441	88.5
319.67	79.5
319.9	80.5
320.129	89.5
320.358	75.5
320.587	92.5
320.816	76.5
321.046	83.5
321.275	93.5
321.504	89.5
321.733	99.5
321.962	91.5
322.191	86.5
322.42	81.5
322.649	88.5
322.878	85.5
323.108	82.5
323.337	89.5
323.566	97.5
323.795	90.5
324.024	83.5
324.253	73.5
324.482	88.5
324.71	86.5
324.939	98.5
325.168	93.5
325.397	88.5
325.626	107.5
325.855	82.5
326.084	82.5
326.313	89.5
326.542	85.5
326.77	72.5
326.999	79.5
327.228	85.5
327.457	96.5
327.686	80.5
327.914	82.5
328.143	94.5
328.372	91.5
328.6	82.5
328.829	74.5
329.058	80.5
329.287	81.5
329.515	68.5
329.744	100.5
329.972	88.5
330.201	73.5
330.43	83.5
330.658	97.5
330.887	77.5
331.115	79.5
331.344	83.5
331.572	88.5
331.801	86.5
332.03	91.5
332.258	84.5
332.486	76.5
332.715	79.5
332.943	72.5
333.172	70.5
333.4	73.5
333.629	95.5
333.857	80.5
334.085	90.5
334.314	83.5
334.542	86.5
334.771	87.5
334.999	77.5
335.227	76.5
335.455	78.5
335.684	85.5
335.912	99.5
336.14	77.5
336.369	82.5
336.597	82.5
336.825	85.5
337.053	79.5
337.281	91.5
337.51	92.5
337.738	81.5
337.966	97.5
338.194	85.5
338.422	76.5
338.65	83.5
338.878	78.5
339.106	77.5
339.334	95.5
339.562	88.5
339.79	70.5
340.018	92.5
340.246	79.5
340.474	73.5
340.702	85.5
340.93	71.5
341.158	82.5
341.386	88.5
341.614	80.5
341.842	88.5
342.07	89.5
342.298	87.5
342.526	90.5
342.754	79.5
342.981	83.5
343.209	86.5
343.437	79.5
343.665	86.5
343.893	81.5
344.12	94.5
344.348	77.5
344.576	85.5
344.804	80.5
345.031	74.5
345.259	88.5
345.487	90.5
345.714	80.5
345.942	76.5
346.17	71.5
346.397	91.5
346.625	85.5
346.853	98.5
347.08	82.5
347.308	80.5
347.535	88.5
347.763	90.5
347.99	88.5
348.218	94.5
348.445	98.5
348.673	79.5
348.9	87.5
349.128	99.5
349.355	91.5
349.583	79.5
349.81	78.5
350.037	82.5
350.265	87.5
350.492	77.5
350.72	81.5
350.947	86.5
351.174	83.5
351.402	74.5
351.629	80.5
351.856	66.5
352.083	80.5
352.311	93.5
352.538	85.5
352.765	90.5
352.992	85.5
353.22	86.5
353.447	78.5
353.674	87.5
353.901	86.5
354.128	83.5
354.355	88.5
354.583	85.5
354.81	66.5
355.037	73.5
355.264	91.5
355.491	80.5
355.718	90.5
355.945	80.5
356.172	64.5
356.399	77.5
356.626	85.5
356.853	97.5
357.08	97.5
357.307	98.5
357.534	75.5
357.761	75.5
357.988	81.5
358.215	86.5
358.441	80.5
358.668	88.5
358.895	83.5
359.122	88.5
359.349	91.5
359.576	74.5
359.802	85.5
360.029	69.5
360.256	84.5
360.483	81.5
360.709	82.5
360.936	91.5
361.163	96.5
361.39	81.5
361.616	90.5
361.843	66.5
362.07	90.5
362.296	70.5
362.523	81.5
362.749	90.5
362.976	75.5
363.203	83.5
363.429	82.5
363.656	84.5
363.882	77.5
364.109	92.5
364.335	74.5
364.562	73.5
364.788	80.5
365.015	85.5
365.241	83.5
365.468	85.5
365.694	68.5
365.92	80.5
366.147	85.5
366.373	71.5
366.599	81.5
366.826	77.5
367.052	70.5
367.278	72.5
367.505	78.5
367.731	91.5
367.957	78.5
368.184	82.5
368.41	79.5
368.636	76.5
368.862	91.5
369.089	80.5
369.315	76.5
369.541	76.5
369.767	79.5
369.993	76.5
370.219	67.5
370.445	72.5
370.672	98.5
370.898	97.5
371.124	66.5
371.35	86.5
371.576	75.5
371.802	77.5
372.028	94.5
372.254	71.5
372.48	80.5
372.706	80.5
372.932	82.5
373.158	84.5
373.384	75.5
373.61	77.5
373.835	93.5
374.061	75.5
374.287	87.5
374.513	94.5
374.739	72.5
374.965	95.5
375.191	87.5
375.416	103.5
375.642	88.5
375.868	83.5
376.094	92.5
376.319	93.5
376.545	80.5
376.771	80.5
376.997	88.5
377.222	75.5
377.448	89.5
377.674	81.5
377.899	69.5
378.125	92.5
378.35	84.5
378.576	80.5
378.802	84.5
379.027	83.5
379.253	80.5
379.478	76.5
379.704	87.5
379.929	85.5
380.155	84.5
380.38	94.5
380.606	81.5
380.831	85.5
381.057	88.5
381.282	90.5
381.507	87.5
381.733	90.5
381.958	81.5
382.184	84.5
382.409	81.5
382.634	98.5
382.86	100.5
383.085	80.5
383.31	76.5
383.535	93.5
383.761	76.5
383.986	73.5
384.211	87.5
384.436	84.5
384.662	90.5
384.887	82.5
385.112	73.5
385.337	84.5
385.562	82.5
385.787	90.5
386.013	95.5
386.238	87.5
386.463	82.5
386.688	73.5
386.913	78.5
387.138	84.5
387.363	83.5
387.588	93.5
387.813	90.5
388.038	82.5
388.263	89.5
388.488	84.5
388.713	103.5
388.938	102.5
389.163	84.5
389.387	73.5
389.612	87.5
389.837	86.5
390.062	85.5
390.287	84.5
390.512	75.5
390.736	75.5
390.961	88.5
391.186	99.5
391.411	76.5
391.636	83.5
391.86	98.5
392.085	89.5
392.31	82.5
392.534	88.5
392.759	75.5
392.984	91.5
393.208	80.5
393.433	97.5
393.658	75.5
393.882	91.5
394.107	86.5
394.331	79.5
394.556	94.5
394.78	86.5
395.005	84.5
395.229	90.5
395.454	94.5
395.678	95.5
395.903	90.5
396.127	97.5
396.352	90.5
396.576	79.5
396.801	70.5
397.025	87.5
397.249	92.5
397.474	96.5
397.698	91.5
397.922	81.5
398.147	80.5
398.371	84.5
398.595	85.5
398.82	102.5
399.044	86.5
399.268	82.5
399.492	81.5
399.717	99.5
399.941	95.5
400.165	88.5
400.389	84.5
400.613	85.5
400.837	99.5
401.062	89.5
401.286	88.5
401.51	87.5
401.734	93.5
401.958	81.5
402.182	72.5
402.406	88.5
402.63	94.5
402.854	83.5
403.078	83.5
403.302	76.5
403.526	87.5
403.75	85.5
403.974	94.5
404.198	84.5
404.422	80.5
404.645	82.5
404.869	76.5
405.093	94.5
405.317	78.5
405.541	80.5
405.765	90.5
405.988	95.5
406.212	97.5
406.436	90.5
406.66	89.5
406.883	95.5
407.107	80.5
407.331	86.5
407.555	87.5
407.778	86.5
408.002	83.5
408.226	92.5
408.449	95.5
408.673	86.5
408.896	91.5
409.12	80.5
409.344	99.5
409.567	91.5
409.791	91.5
410.014	89.5
410.238	77.5
410.461	82.5
410.685	84.5
410.908	93.5
411.132	89.5
411.355	94.5
411.578	83.5
411.802	91.5
412.025	91.5
412.249	83.5
412.472	94.5
412.695	90.5
412.919	89.5
413.142	75.5
413.365	84.5
413.589	92.5
413.812	90.5
414.035	77.5
414.258	97.5
414.482	87.5
414.705	98.5
414.928	98.5
415.151	98.5
415.374	84.5
415.597	95.5
415.821	90.5
416.044	83.5
416.267	102.5
416.49	86.5
416.713	88.5
416.936	88.5
417.159	76.5
417.382	79.5
417.605	86.5
417.828	95.5
418.051	98.5
418.274	108.5
418.497	81.5
418.72	98.5
418.943	86.5
419.166	96.5
419.389	95.5
419.611	79.5
419.834	86.5
420.057	93.5
420.28	99.5
420.503	84.5
420.726	92.5
420.948	87.5
421.171	92.5
421.394	97.5
421.617	101.5
421.839	95.5
422.062	100.5
422.285	101.5
422.507	69.5
422.73	86.5
422.953	87.5
423.175	87.5
423.398	83.5
423.621	92.5
423.843	101.5
424.066	96.5
424.288	104.5
424.511	100.5
424.733	89.5
424.956	86.5
425.178	90.5
425.401	94.5
425.623	99.5
425.846	89.5
426.068	103.5
426.291	89.5
426.513	91.5
426.735	80.5
426.958	103.5
427.18	97.5
427.402	99.5
427.625	94.5
427.847	89.5
428.069	96.5
428.292	86.5
428.514	101.5
428.736	90.5
428.958	89.5
429.181	89.5
429.403	87.5
429.625	104.5
429.847	83.5
430.069	105.5
430.292	87.5
430.514	99.5
430.736	91.5
430.958	100.5
431.18	73.5
431.402	88.5
431.624	90.5
431.846	90.5
432.068	75.5
432.29	102.5
432.512	91.5
432.734	72.5
432.956	80.5
433.178	87.5
433.4	95.5
433.622	90.5
433.844	88.5
434.066	88.5
434.287	87.5
434.509	85.5
434.731	81.5
434.953	90.5
435.175	85.5
435.397	81.5
435.618	90.5
435.84	79.5
436.062	86.5
436.284	90.5
436.505	99.5
436.727	98.5
436.949	89.5
437.17	99.5
437.392	88.5
437.614	92.5
437.835	100.5
438.057	102.5
438.278	84.5
438.5	87.5
438.721	82.5
438.943	97.5
439.165	79.5
439.386	98.5
439.608	97.5
439.829	96.5
440.05	100.5
440.272	88.5
440.493	74.5
440.715	100.5
440.936	108.5
441.158	103.5
441.379	87.5
441.6	93.5
441.822	101.5
442.043	88.5
442.264	87.5
442.486	95.5
442.707	93.5
442.928	97.5
443.149	79.5
443.371	83.5
443.592	111.5
443.813	100.5
444.034	91.5
444.255	88.5
444.476	92.5
444.698	96.5
444.919	89.5
445.14	207.5
445.361	140.5
445.582	80.5
445.803	89.5
446.024	89.5
446.245	89.5
446.466	105.5
446.687	79.5
446.908	105.5
447.129	100.5
447.35	102.5
447.571	106.5
447.792	98.5
448.013	86.5
448.234	99.5
448.455	90.5
448.675	94.5
448.896	95.5
449.117	96.5
449.338	91.5
449.559	90.5
449.779	91.5
450	90.5
450.221	115.5
450.442	92.5
450.662	88.5
450.883	91.5
451.104	81.5
451.324	94.5
451.545	103.5
451.766	91.5
451.986	93.5
452.207	90.5
452.428	96.5
452.648	99.5
452.869	102.5
453.089	73.5
453.31	82.5
453.53	82.5
453.751	84.5
453.971	84.5
454.192	92.5
454.412	93.5
454.633	88.5
454.853	84.5
455.073	81.5
455.294	79.5
455.514	79.5
455.734	81.5
455.955	96.5
456.175	89.5
456.395	80.5
456.616	86.5
456.836	80.5
457.056	99.5
457.276	80.5
457.497	81.5
457.717	85.5
457.937	92.5
458.157	94.5
458.377	95.5
458.598	86.5
458.818	87.5
459.038	83.5
459.258	90.5
459.478	84.5
459.698	86.5
459.918	87.5
460.138	90.5
460.358	96.5
460.578	96.5
460.798	95.5
461.018	83.5
461.238	84.5
461.458	87.5
461.678	90.5
461.898	88.5
462.118	98.5
462.338	85.5
462.558	91.5
462.777	76.5
462.997	89.5
463.217	79.5
463.437	96.5
463.657	86.5
463.876	88.5
464.096	100.5
464.316	80.5
464.536	97.5
464.755	91.5
464.975	100.5
465.195	98.5
465.414	100.5
465.634	81.5
465.854	104.5
466.073	90.5
466.293	75.5
466.512	95.5
466.732	90.5
466.951	103.5
467.171	92.5
467.391	108.5
467.61	80.5
467.829	98.5
468.049	104.5
468.268	108.5
468.488	98.5
468.707	104.5
468.927	102.5
469.146	74.5
469.365	90.5
469.585	109.5
469.804	97.5
470.023	97.5
470.243	102.5
470.462	97.5
470.681	82.5
470.901	104.5
471.12	89.5
471.339	93.5
471.558	99.5
471.777	95.5
471.997	96.5
472.216	84.5
472.435	99.5
472.654	82.5
472.873	98.5
473.092	88.5
473.311	91.5
473.53	88.5
473.749	105.5
473.968	102.5
474.187	93.5
474.406	84.5
474.625	99.5
474.844	86.5
475.063	96.5
475.282	82.5
475.501	82.5
475.72	85.5
475.939	92.5
476.158	90.5
476.377	88.5
476.596	97.5
476.814	88.5
477.033	75.5
477.252	99.5
477.471	87.5
477.69	97.5
477.908	91.5
478.127	88.5
478.346	89.5
478.564	98.5
478.783	95.5
479.002	100.5
479.22	98.5
479.439	71.5
479.658	106.5
479.876	82.5
480.095	69.5
480.313	81.5
480.532	90.5
480.751	90.5
480.969	105.5
481.188	77.5
481.406	71.5
481.624	70.5
481.843	74.5
482.061	80.5
482.28	76.5
482.498	89.5
482.717	79.5
482.935	82.5
483.153	93.5
483.372	89.5
483.59	105.5
483.808	99.5
484.027	100.5
484.245	90.5
484.463	94.5
484.681	116.5
484.9	99.5
485.118	98.5
485.336	90.5
485.554	90.5
485.772	85.5
485.99	89.5
486.209	98.5
486.427	84.5
486.645	89.5
486.863	92.5
487.081	84.5
487.299	84.5
487.517	108.5
487.735	105.5
487.953	114.5
488.171	111.5
488.389	112.5
488.607	100.5
488.825	102.5
489.043	91.5
489.261	89.5
489.479	99.5
489.696	105.5
489.914	96.5
490.132	91.5
490.35	106.5
490.568	101.5
490.786	94.5
491.003	99.5
491.221	120.5
491.439	107.5
491.657	114.5
491.874	103.5
492.092	107.5
492.31	105.5
492.527	103.5
492.745	120.5
492.963	105.5
493.18	110.5
493.398	104.5
493.615	116.5
493.833	107.5
494.05	104.5
494.268	106.5
494.485	100.5
494.703	112.5
494.92	101.5
495.138	100.5
495.355	111.5
495.573	95.5
495.79	112.5
496.008	104.5
496.225	96.5
496.442	91.5
496.66	97.5
496.877	91.5
497.094	106.5
497.312	93.5
497.529	86.5
497.746	101.5
497.963	103.5
498.181	97.5
498.398	97.5
498.615	96.5
498.832	84.5
499.049	92.5
499.267	103.5
499.484	90.5
499.701	101.5
499.918	106.5
500.135	94.5
500.352	107.5
500.569	101.5
500.786	93.5
501.003	100.5
501.22	97.5
501.437	90.5
501.654	91.5
501.871	91.5
502.088	85.5
502.305	100.5
502.522	90.5
502.739	92.5
502.956	90.5
503.172	77.5
503.389	96.5
503.606	84.5
503.823	86.5
504.04	102.5
504.256	98.5
504.473	89.5
504.69	87.5
504.907	100.5
505.123	84.5
505.34	96.5
505.557	72.5
505.773	92.5
505.99	90.5
506.207	77.5
506.423	95.5
506.64	96.5
506.856	84.5
507.073	95.5
507.289	100.5
507.506	89.5
507.722	90.5
507.939	81.5
508.155	96.5
508.372	98.5
508.588	95.5
508.805	84.5
509.021	82.5
509.238	83.5
509.454	74.5
509.67	92.5
509.887	104.5
510.103	96.5
510.319	88.5
510.536	84.5
510.752	91.5
510.968	79.5
511.184	84.5
511.401	77.5
511.617	98.5
511.833	82.5
512.049	91.5
512.265	79.5
512.481	87.5
512.698	83.5
512.914	90.5
513.13	89.5
513.346	92.5
513.562	102.5
513.778	92.5
513.994	91.5
514.21	84.5
514.426	73.5
514.642	73.5
514.858	84.5
515.074	95.5
515.29	83.5
515.506	79.5
515.721	90.5
515.937	77.5
516.153	80.5
516.369	93.5
516.585	82.5
516.801	91.5
517.016	92.5
517.232	88.5
517.448	88.5
517.664	84.5
517.879	84.5
518.095	74.5
518.311	91.5
518.527	80.5
518.742	80.5
518.958	86.5
519.173	84.5
519.389	105.5
519.605	80.5
519.82	88.5
520.036	87.5
520.251	82.5
520.467	87.5
520.682	79.5
520.898	82.5
521.113	87.5
521.329	88.5
521.544	82.5
521.76	86.5
521.975	91.5
522.19	104.5
522.406	73.5
522.621	86.5
522.836	90.5
523.052	95.5
523.267	79.5
523.482	79.5
523.698	78.5
523.913	89.5
524.128	111.5
524.343	82.5
524.559	99.5
524.774	101.5
524.989	95.5
525.204	94.5
525.419	102.5
525.634	76.5
525.849	90.5
526.064	78.5
526.28	92.5
526.495	86.5
526.71	84.5
526.925	92.5
527.14	87.5
527.355	96.5
527.57	91.5
527.785	89.5
527.999	74.5
528.214	86.5
528.429	89.5
528.644	93.5
528.859	96.5
529.074	97.5
529.289	110.5
529.503	110.5
529.718	83.5
529.933	102.5
530.148	89.5
530.363	81.5
530.577	95.5
530.792	98.5
531.007	81.5
531.221	93.5
531.436	78.5
531.651	84.5
531.865	54.5
532.08	83.5
532.295	72.5
532.509	98.5
532.724	79.5
532.938	60.5
533.153	72.5
533.367	80.5
533.582	92.5
533.796	83.5
534.011	100.5
534.225	79.5
534.44	82.5
534.654	72.5
534.868	91.5
535.083	99.5
535.297	96.5
535.511	86.5
535.726	92.5
535.94	96.5
536.154	94.5
536.369	94.5
536.583	79.5
536.797	90.5
537.011	87.5
537.225	92.5
537.44	85.5
537.654	96.5
537.868	105.5
538.082	79.5
