Data from Location5.07152019.Energy5.Lamp.07192019.3%Agarose_HRD10591_15-37-08-386.txt Node
Date: Fri Jul 19 15:37:08 EDT 2019
User: cochatt
Spectrometer: HR+D1059
Trigger mode: 1
Integration Time (sec): 1.000000E-1
Scans to average: 1
Electric dark correction enabled: true
Nonlinearity correction enabled: false
Boxcar width: 0
XAxis mode: Wavelengths
Number of Pixels in Spectrum: 2048
>>>>>Begin Spectral Data<<<<<
223.165	-22.94
223.4	-22.94
223.635	-22.94
223.869	-6.94
224.104	-18.94
224.338	-20.94
224.573	-13.94
224.808	-11.94
225.042	-8.94
225.277	-6.94
225.511	9.06
225.746	1.06
225.98	6.06
226.215	13.06
226.449	27.06
226.683	21.06
226.918	21.06
227.152	13.06
227.387	37.06
227.621	42.06
227.856	40.06
228.09	54.06
228.324	49.06
228.559	66.06
228.793	51.06
229.027	68.06
229.262	47.06
229.496	45.06
229.73	66.06
229.964	72.06
230.199	72.06
230.433	63.06
230.667	66.06
230.901	72.06
231.136	81.06
231.37	72.06
231.604	89.06
231.838	83.06
232.072	67.06
232.306	87.06
232.541	81.06
232.775	82.06
233.009	97.06
233.243	84.06
233.477	72.06
233.711	90.06
233.945	70.06
234.179	84.06
234.413	83.06
234.647	75.06
234.881	73.06
235.115	67.06
235.349	86.06
235.583	75.06
235.817	81.06
236.051	83.06
236.285	87.06
236.519	79.06
236.753	93.06
236.987	92.06
237.221	82.06
237.455	73.06
237.689	89.06
237.922	82.06
238.156	77.06
238.39	79.06
238.624	83.06
238.858	91.06
239.091	85.06
239.325	83.06
239.559	75.06
239.793	72.06
240.027	87.06
240.26	73.06
240.494	79.06
240.728	70.06
240.961	72.06
241.195	82.06
241.429	68.06
241.662	72.06
241.896	73.06
242.13	85.06
242.363	74.06
242.597	77.06
242.83	78.06
243.064	63.06
243.298	70.06
243.531	81.06
243.765	86.06
243.998	77.06
244.232	65.06
244.465	89.06
244.699	85.06
244.932	90.06
245.166	82.06
245.399	76.06
245.633	81.06
245.866	81.06
246.099	81.06
246.333	75.06
246.566	86.06
246.8	76.06
247.033	75.06
247.266	82.06
247.5	67.06
247.733	87.06
247.966	88.06
248.2	69.06
248.433	79.06
248.666	78.06
248.899	82.06
249.133	95.06
249.366	81.06
249.599	75.06
249.832	75.06
250.066	83.06
250.299	74.06
250.532	71.06
250.765	70.06
250.998	65.06
251.231	73.06
251.465	96.06
251.698	83.06
251.931	88.06
252.164	80.06
252.397	55.06
252.63	76.06
252.863	84.06
253.096	78.06
253.329	78.06
253.562	86.06
253.795	89.06
254.028	84.06
254.261	78.06
254.494	82.06
254.727	72.06
254.96	73.06
255.193	79.06
255.426	80.06
255.659	84.06
255.892	90.06
256.124	85.06
256.357	84.06
256.59	72.06
256.823	83.06
257.056	85.06
257.289	80.06
257.521	86.06
257.754	87.06
257.987	87.06
258.22	66.06
258.452	90.06
258.685	85.06
258.918	80.06
259.151	81.06
259.383	85.06
259.616	85.06
259.849	75.06
260.081	84.06
260.314	73.06
260.547	79.06
260.779	78.06
261.012	86.06
261.244	86.06
261.477	78.06
261.71	62.06
261.942	87.06
262.175	83.06
262.407	76.06
262.64	71.06
262.872	73.06
263.105	78.06
263.337	83.06
263.57	77.06
263.802	67.06
264.035	90.06
264.267	66.06
264.499	69.06
264.732	74.06
264.964	80.06
265.197	88.06
265.429	78.06
265.661	82.06
265.894	71.06
266.126	78.06
266.358	69.06
266.591	96.06
266.823	92.06
267.055	86.06
267.287	69.06
267.52	77.06
267.752	95.06
267.984	76.06
268.216	80.06
268.448	89.06
268.681	82.06
268.913	90.06
269.145	74.06
269.377	71.06
269.609	73.06
269.841	89.06
270.073	85.06
270.306	89.06
270.538	77.06
270.77	85.06
271.002	73.06
271.234	80.06
271.466	85.06
271.698	100.06
271.93	76.06
272.162	82.06
272.394	88.06
272.626	80.06
272.858	91.06
273.09	87.06
273.322	73.06
273.553	84.06
273.785	86.06
274.017	87.06
274.249	83.06
274.481	72.06
274.713	97.06
274.945	84.06
275.176	84.06
275.408	93.06
275.64	87.06
275.872	89.06
276.104	78.06
276.335	74.06
276.567	88.06
276.799	88.06
277.031	81.06
277.262	70.06
277.494	84.06
277.726	72.06
277.957	84.06
278.189	82.06
278.421	85.06
278.652	79.06
278.884	90.06
279.115	83.06
279.347	91.06
279.579	82.06
279.81	77.06
280.042	83.06
280.273	90.06
280.505	84.06
280.736	92.06
280.968	86.06
281.199	89.06
281.431	83.06
281.662	75.06
281.894	76.06
282.125	86.06
282.356	75.06
282.588	89.06
282.819	89.06
283.051	73.06
283.282	88.06
283.513	93.06
283.745	99.06
283.976	80.06
284.207	92.06
284.439	81.06
284.67	67.06
284.901	76.06
285.132	79.06
285.364	83.06
285.595	81.06
285.826	68.06
286.057	77.06
286.288	83.06
286.52	81.06
286.751	86.06
286.982	83.06
287.213	81.06
287.444	89.06
287.675	86.06
287.906	74.06
288.138	88.06
288.369	70.06
288.6	72.06
288.831	80.06
289.062	83.06
289.293	85.06
289.524	79.06
289.755	90.06
289.986	68.06
290.217	87.06
290.448	97.06
290.679	96.06
290.91	80.06
291.141	90.06
291.371	87.06
291.602	84.06
291.833	76.06
292.064	97.06
292.295	88.06
292.526	75.06
292.757	85.06
292.987	91.06
293.218	87.06
293.449	77.06
293.68	78.06
293.91	74.06
294.141	85.06
294.372	87.06
294.603	85.06
294.833	81.06
295.064	74.06
295.295	87.06
295.525	78.06
295.756	89.06
295.987	75.06
296.217	75.06
296.448	85.06
296.679	74.06
296.909	86.06
297.14	89.06
297.37	85.06
297.601	89.06
297.831	75.06
298.062	83.06
298.292	85.06
298.523	83.06
298.753	93.06
298.984	79.06
299.214	83.06
299.445	95.06
299.675	82.06
299.905	81.06
300.136	75.06
300.366	94.06
300.597	72.06
300.827	82.06
301.057	78.06
301.288	79.06
301.518	72.06
301.748	90.06
301.979	85.06
302.209	89.06
302.439	78.06
302.669	104.06
302.9	64.06
303.13	75.06
303.36	83.06
303.59	95.06
303.82	101.06
304.051	88.06
304.281	85.06
304.511	79.06
304.741	75.06
304.971	74.06
305.201	75.06
305.431	78.06
305.661	77.06
305.891	81.06
306.121	97.06
306.352	80.06
306.582	86.06
306.812	72.06
307.042	82.06
307.272	63.06
307.502	81.06
307.731	73.06
307.961	70.06
308.191	83.06
308.421	84.06
308.651	82.06
308.881	90.06
309.111	75.06
309.341	83.06
309.571	67.06
309.8	86.06
310.03	81.06
310.26	97.06
310.49	76.06
310.72	81.06
310.949	89.06
311.179	97.06
311.409	78.06
311.639	83.06
311.868	83.06
312.098	83.06
312.328	90.06
312.557	90.06
312.787	75.06
313.017	95.06
313.246	93.06
313.476	86.06
313.706	89.06
313.935	82.06
314.165	80.06
314.394	84.06
314.624	95.06
314.853	92.06
315.083	86.06
315.312	83.06
315.542	68.06
315.771	87.06
316.001	96.06
316.23	75.06
316.46	82.06
316.689	79.06
316.919	76.06
317.148	88.06
317.377	93.06
317.607	85.06
317.836	94.06
318.065	85.06
318.295	66.06
318.524	86.06
318.753	78.06
318.983	93.06
319.212	88.06
319.441	88.06
319.67	89.06
319.9	78.06
320.129	81.06
320.358	86.06
320.587	89.06
320.816	84.06
321.046	90.06
321.275	98.06
321.504	76.06
321.733	80.06
321.962	95.06
322.191	67.06
322.42	79.06
322.649	85.06
322.878	92.06
323.108	74.06
323.337	95.06
323.566	80.06
323.795	85.06
324.024	79.06
324.253	81.06
324.482	98.06
324.71	82.06
324.939	77.06
325.168	71.06
325.397	82.06
325.626	91.06
325.855	89.06
326.084	82.06
326.313	82.06
326.542	71.06
326.77	66.06
326.999	90.06
327.228	74.06
327.457	92.06
327.686	99.06
327.914	94.06
328.143	90.06
328.372	82.06
328.6	74.06
328.829	86.06
329.058	99.06
329.287	90.06
329.515	81.06
329.744	69.06
329.972	84.06
330.201	82.06
330.43	80.06
330.658	85.06
330.887	92.06
331.115	86.06
331.344	75.06
331.572	78.06
331.801	91.06
332.03	86.06
332.258	86.06
332.486	82.06
332.715	84.06
332.943	77.06
333.172	75.06
333.4	78.06
333.629	93.06
333.857	85.06
334.085	103.06
334.314	83.06
334.542	89.06
334.771	85.06
334.999	94.06
335.227	81.06
335.455	87.06
335.684	88.06
335.912	84.06
336.14	83.06
336.369	104.06
336.597	85.06
336.825	92.06
337.053	90.06
337.281	97.06
337.51	83.06
337.738	89.06
337.966	98.06
338.194	88.06
338.422	67.06
338.65	84.06
338.878	79.06
339.106	83.06
339.334	74.06
339.562	85.06
339.79	98.06
340.018	95.06
340.246	84.06
340.474	67.06
340.702	84.06
340.93	95.06
341.158	81.06
341.386	83.06
341.614	76.06
341.842	81.06
342.07	67.06
342.298	72.06
342.526	94.06
342.754	81.06
342.981	87.06
343.209	90.06
343.437	83.06
343.665	90.06
343.893	87.06
344.12	94.06
344.348	83.06
344.576	82.06
344.804	94.06
345.031	73.06
345.259	84.06
345.487	84.06
345.714	85.06
345.942	75.06
346.17	79.06
346.397	70.06
346.625	88.06
346.853	79.06
347.08	87.06
347.308	86.06
347.535	82.06
347.763	85.06
347.99	83.06
348.218	79.06
348.445	99.06
348.673	93.06
348.9	84.06
349.128	80.06
349.355	86.06
349.583	90.06
349.81	95.06
350.037	85.06
350.265	82.06
350.492	79.06
350.72	74.06
350.947	90.06
351.174	97.06
351.402	81.06
351.629	75.06
351.856	84.06
352.083	85.06
352.311	80.06
352.538	79.06
352.765	93.06
352.992	85.06
353.22	71.06
353.447	75.06
353.674	87.06
353.901	77.06
354.128	86.06
354.355	81.06
354.583	82.06
354.81	90.06
355.037	77.06
355.264	95.06
355.491	94.06
355.718	79.06
355.945	83.06
356.172	83.06
356.399	91.06
356.626	79.06
356.853	87.06
357.08	85.06
357.307	82.06
357.534	81.06
357.761	83.06
357.988	66.06
358.215	91.06
358.441	85.06
358.668	89.06
358.895	89.06
359.122	88.06
359.349	74.06
359.576	80.06
359.802	85.06
360.029	86.06
360.256	91.06
360.483	80.06
360.709	91.06
360.936	87.06
361.163	81.06
361.39	89.06
361.616	91.06
361.843	85.06
362.07	83.06
362.296	98.06
362.523	85.06
362.749	94.06
362.976	75.06
363.203	87.06
363.429	100.06
363.656	88.06
363.882	91.06
364.109	86.06
364.335	82.06
364.562	78.06
364.788	88.06
365.015	72.06
365.241	67.06
365.468	74.06
365.694	75.06
365.92	78.06
366.147	79.06
366.373	75.06
366.599	83.06
366.826	84.06
367.052	93.06
367.278	87.06
367.505	79.06
367.731	84.06
367.957	96.06
368.184	93.06
368.41	84.06
368.636	88.06
368.862	82.06
369.089	87.06
369.315	88.06
369.541	70.06
369.767	84.06
369.993	77.06
370.219	78.06
370.445	74.06
370.672	93.06
370.898	85.06
371.124	97.06
371.35	92.06
371.576	82.06
371.802	74.06
372.028	79.06
372.254	75.06
372.48	85.06
372.706	82.06
372.932	88.06
373.158	74.06
373.384	82.06
373.61	86.06
373.835	86.06
374.061	79.06
374.287	82.06
374.513	89.06
374.739	74.06
374.965	61.06
375.191	84.06
375.416	88.06
375.642	84.06
375.868	89.06
376.094	93.06
376.319	76.06
376.545	91.06
376.771	80.06
376.997	75.06
377.222	80.06
377.448	79.06
377.674	87.06
377.899	87.06
378.125	84.06
378.35	83.06
378.576	79.06
378.802	83.06
379.027	92.06
379.253	105.06
379.478	95.06
379.704	96.06
379.929	99.06
380.155	81.06
380.38	80.06
380.606	81.06
380.831	94.06
381.057	93.06
381.282	86.06
381.507	94.06
381.733	85.06
381.958	80.06
382.184	93.06
382.409	84.06
382.634	72.06
382.86	86.06
383.085	78.06
383.31	89.06
383.535	86.06
383.761	84.06
383.986	70.06
384.211	84.06
384.436	68.06
384.662	74.06
384.887	73.06
385.112	75.06
385.337	78.06
385.562	87.06
385.787	76.06
386.013	85.06
386.238	84.06
386.463	75.06
386.688	85.06
386.913	79.06
387.138	79.06
387.363	87.06
387.588	88.06
387.813	82.06
388.038	82.06
388.263	75.06
388.488	84.06
388.713	89.06
388.938	76.06
389.163	73.06
389.387	96.06
389.612	84.06
389.837	81.06
390.062	90.06
390.287	96.06
390.512	92.06
390.736	78.06
390.961	92.06
391.186	71.06
391.411	87.06
391.636	91.06
391.86	90.06
392.085	94.06
392.31	96.06
392.534	82.06
392.759	90.06
392.984	86.06
393.208	82.06
393.433	87.06
393.658	81.06
393.882	88.06
394.107	81.06
394.331	85.06
394.556	81.06
394.78	88.06
395.005	71.06
395.229	93.06
395.454	78.06
395.678	93.06
395.903	98.06
396.127	89.06
396.352	88.06
396.576	82.06
396.801	95.06
397.025	93.06
397.249	84.06
397.474	91.06
397.698	104.06
397.922	80.06
398.147	89.06
398.371	94.06
398.595	94.06
398.82	87.06
399.044	89.06
399.268	80.06
399.492	72.06
399.717	70.06
399.941	83.06
400.165	83.06
400.389	94.06
400.613	78.06
400.837	88.06
401.062	78.06
401.286	85.06
401.51	98.06
401.734	84.06
401.958	83.06
402.182	78.06
402.406	89.06
402.63	79.06
402.854	86.06
403.078	98.06
403.302	84.06
403.526	77.06
403.75	82.06
403.974	89.06
404.198	85.06
404.422	77.06
404.645	87.06
404.869	79.06
405.093	78.06
405.317	88.06
405.541	89.06
405.765	76.06
405.988	74.06
406.212	82.06
406.436	77.06
406.66	93.06
406.883	85.06
407.107	89.06
407.331	88.06
407.555	83.06
407.778	78.06
408.002	97.06
408.226	95.06
408.449	90.06
408.673	94.06
408.896	96.06
409.12	89.06
409.344	97.06
409.567	96.06
409.791	75.06
410.014	95.06
410.238	93.06
410.461	93.06
410.685	89.06
410.908	93.06
411.132	77.06
411.355	87.06
411.578	111.06
411.802	91.06
412.025	91.06
412.249	83.06
412.472	79.06
412.695	100.06
412.919	89.06
413.142	99.06
413.365	81.06
413.589	86.06
413.812	82.06
414.035	94.06
414.258	95.06
414.482	86.06
414.705	85.06
414.928	90.06
415.151	91.06
415.374	81.06
415.597	82.06
415.821	85.06
416.044	89.06
416.267	77.06
416.49	90.06
416.713	88.06
416.936	86.06
417.159	78.06
417.382	90.06
417.605	82.06
417.828	88.06
418.051	98.06
418.274	103.06
418.497	93.06
418.72	92.06
418.943	81.06
419.166	85.06
419.389	87.06
419.611	93.06
419.834	95.06
420.057	71.06
420.28	84.06
420.503	97.06
420.726	98.06
420.948	89.06
421.171	93.06
421.394	90.06
421.617	76.06
421.839	85.06
422.062	104.06
422.285	92.06
422.507	91.06
422.73	86.06
422.953	82.06
423.175	100.06
423.398	102.06
423.621	93.06
423.843	89.06
424.066	94.06
424.288	89.06
424.511	111.06
424.733	105.06
424.956	83.06
425.178	105.06
425.401	89.06
425.623	101.06
425.846	102.06
426.068	75.06
426.291	80.06
426.513	89.06
426.735	95.06
426.958	103.06
427.18	85.06
427.402	84.06
427.625	88.06
427.847	86.06
428.069	90.06
428.292	81.06
428.514	89.06
428.736	82.06
428.958	89.06
429.181	98.06
429.403	93.06
429.625	95.06
429.847	94.06
430.069	96.06
430.292	97.06
430.514	104.06
430.736	89.06
430.958	92.06
431.18	102.06
431.402	99.06
431.624	84.06
431.846	90.06
432.068	94.06
432.29	86.06
432.512	92.06
432.734	91.06
432.956	94.06
433.178	91.06
433.4	87.06
433.622	84.06
433.844	91.06
434.066	87.06
434.287	87.06
434.509	85.06
434.731	90.06
434.953	75.06
435.175	80.06
435.397	85.06
435.618	89.06
435.84	95.06
436.062	93.06
436.284	89.06
436.505	84.06
436.727	75.06
436.949	85.06
437.17	88.06
437.392	96.06
437.614	99.06
437.835	88.06
438.057	90.06
438.278	97.06
438.5	103.06
438.721	86.06
438.943	95.06
439.165	89.06
439.386	90.06
439.608	96.06
439.829	80.06
440.05	95.06
440.272	102.06
440.493	90.06
440.715	97.06
440.936	90.06
441.158	93.06
441.379	100.06
441.6	93.06
441.822	92.06
442.043	92.06
442.264	94.06
442.486	110.06
442.707	107.06
442.928	94.06
443.149	90.06
443.371	95.06
443.592	73.06
443.813	86.06
444.034	109.06
444.255	95.06
444.476	92.06
444.698	89.06
444.919	102.06
445.14	196.06
445.361	167.06
445.582	92.06
445.803	78.06
446.024	99.06
446.245	82.06
446.466	94.06
446.687	101.06
446.908	91.06
447.129	93.06
447.35	92.06
447.571	97.06
447.792	100.06
448.013	107.06
448.234	94.06
448.455	87.06
448.675	85.06
448.896	94.06
449.117	109.06
449.338	102.06
449.559	94.06
449.779	93.06
450	103.06
450.221	103.06
450.442	104.06
450.662	80.06
450.883	97.06
451.104	99.06
451.324	94.06
451.545	111.06
451.766	101.06
451.986	91.06
452.207	86.06
452.428	81.06
452.648	86.06
452.869	98.06
453.089	83.06
453.31	80.06
453.53	91.06
453.751	99.06
453.971	73.06
454.192	90.06
454.412	78.06
454.633	87.06
454.853	81.06
455.073	75.06
455.294	99.06
455.514	85.06
455.734	82.06
455.955	90.06
456.175	89.06
456.395	90.06
456.616	95.06
456.836	82.06
457.056	81.06
457.276	94.06
457.497	84.06
457.717	91.06
457.937	82.06
458.157	90.06
458.377	86.06
458.598	84.06
458.818	86.06
459.038	82.06
459.258	78.06
459.478	67.06
459.698	93.06
459.918	85.06
460.138	85.06
460.358	104.06
460.578	90.06
460.798	91.06
461.018	86.06
461.238	101.06
461.458	90.06
461.678	86.06
461.898	102.06
462.118	90.06
462.338	95.06
462.558	91.06
462.777	89.06
462.997	96.06
463.217	91.06
463.437	94.06
463.657	83.06
463.876	71.06
464.096	87.06
464.316	87.06
464.536	91.06
464.755	95.06
464.975	95.06
465.195	90.06
465.414	85.06
465.634	89.06
465.854	96.06
466.073	95.06
466.293	98.06
466.512	84.06
466.732	104.06
466.951	85.06
467.171	94.06
467.391	82.06
467.61	82.06
467.829	100.06
468.049	101.06
468.268	83.06
468.488	84.06
468.707	98.06
468.927	89.06
469.146	80.06
469.365	89.06
469.585	99.06
469.804	101.06
470.023	103.06
470.243	93.06
470.462	88.06
470.681	94.06
470.901	78.06
471.12	100.06
471.339	89.06
471.558	94.06
471.777	92.06
471.997	93.06
472.216	91.06
472.435	90.06
472.654	95.06
472.873	79.06
473.092	78.06
473.311	87.06
473.53	87.06
473.749	98.06
473.968	95.06
474.187	98.06
474.406	97.06
474.625	100.06
474.844	90.06
475.063	87.06
475.282	89.06
475.501	105.06
475.72	101.06
475.939	81.06
476.158	90.06
476.377	101.06
476.596	87.06
476.814	91.06
477.033	71.06
477.252	80.06
477.471	94.06
477.69	103.06
477.908	97.06
478.127	111.06
478.346	81.06
478.564	96.06
478.783	81.06
479.002	97.06
479.22	98.06
479.439	94.06
479.658	85.06
479.876	99.06
480.095	89.06
480.313	83.06
480.532	90.06
480.751	82.06
480.969	89.06
481.188	80.06
481.406	89.06
481.624	83.06
481.843	85.06
482.061	86.06
482.28	95.06
482.498	96.06
482.717	94.06
482.935	78.06
483.153	89.06
483.372	94.06
483.59	95.06
483.808	88.06
484.027	101.06
484.245	90.06
484.463	91.06
484.681	113.06
484.9	104.06
485.118	102.06
485.336	98.06
485.554	82.06
485.772	87.06
485.99	75.06
486.209	87.06
486.427	104.06
486.645	78.06
486.863	94.06
487.081	95.06
487.299	89.06
487.517	91.06
487.735	93.06
487.953	105.06
488.171	129.06
488.389	112.06
488.607	93.06
488.825	90.06
489.043	96.06
489.261	102.06
489.479	89.06
489.696	105.06
489.914	111.06
490.132	93.06
490.35	95.06
490.568	113.06
490.786	105.06
491.003	111.06
491.221	106.06
491.439	109.06
491.657	101.06
491.874	119.06
492.092	113.06
492.31	140.06
492.527	119.06
492.745	121.06
492.963	111.06
493.18	107.06
493.398	112.06
493.615	99.06
493.833	111.06
494.05	114.06
494.268	97.06
494.485	108.06
494.703	92.06
494.92	102.06
495.138	88.06
495.355	100.06
495.573	108.06
495.79	98.06
496.008	117.06
496.225	99.06
496.442	107.06
496.66	115.06
496.877	102.06
497.094	101.06
497.312	112.06
497.529	119.06
497.746	95.06
497.963	75.06
498.181	98.06
498.398	89.06
498.615	91.06
498.832	103.06
499.049	101.06
499.267	102.06
499.484	93.06
499.701	97.06
499.918	90.06
500.135	109.06
500.352	81.06
500.569	101.06
500.786	96.06
501.003	101.06
501.22	100.06
501.437	84.06
501.654	95.06
501.871	90.06
502.088	86.06
502.305	105.06
502.522	104.06
502.739	89.06
502.956	85.06
503.172	92.06
503.389	91.06
503.606	92.06
503.823	93.06
504.04	85.06
504.256	87.06
504.473	84.06
504.69	86.06
504.907	95.06
505.123	65.06
505.34	97.06
505.557	103.06
505.773	88.06
505.99	84.06
506.207	102.06
506.423	84.06
506.64	92.06
506.856	97.06
507.073	81.06
507.289	83.06
507.506	109.06
507.722	98.06
507.939	98.06
508.155	88.06
508.372	86.06
508.588	94.06
508.805	79.06
509.021	96.06
509.238	99.06
509.454	97.06
509.67	78.06
509.887	93.06
510.103	81.06
510.319	69.06
510.536	79.06
510.752	79.06
510.968	82.06
511.184	90.06
511.401	85.06
511.617	93.06
511.833	87.06
512.049	80.06
512.265	80.06
512.481	94.06
512.698	82.06
512.914	89.06
513.13	89.06
513.346	79.06
513.562	87.06
513.778	94.06
513.994	81.06
514.21	91.06
514.426	83.06
514.642	88.06
514.858	88.06
515.074	73.06
515.29	84.06
515.506	88.06
515.721	93.06
515.937	81.06
516.153	79.06
516.369	69.06
516.585	67.06
516.801	79.06
517.016	73.06
517.232	86.06
517.448	69.06
517.664	93.06
517.879	83.06
518.095	63.06
