Data from Location5.07152019.Energy5.Lamp.07192019.3%Agarose_HRD10591_15-37-58-387.txt Node
Date: Fri Jul 19 15:37:58 EDT 2019
User: cochatt
Spectrometer: HR+D1059
Trigger mode: 1
Integration Time (sec): 1.000000E-1
Scans to average: 1
Electric dark correction enabled: true
Nonlinearity correction enabled: false
Boxcar width: 0
XAxis mode: Wavelengths
Number of Pixels in Spectrum: 2048
>>>>>Begin Spectral Data<<<<<
223.165	-14.25
223.4	-14.25
223.635	-14.25
223.869	-25.25
224.104	-11.25
224.338	-3.25
224.573	0.75
224.808	3.75
225.042	-18.25
225.277	-19.25
225.511	0.75
225.746	-6.25
225.98	9.75
226.215	10.75
226.449	21.75
226.683	12.75
226.918	14.75
227.152	22.75
227.387	22.75
227.621	33.75
227.856	55.75
228.09	41.75
228.324	44.75
228.559	53.75
228.793	52.75
229.027	65.75
229.262	62.75
229.496	75.75
229.73	71.75
229.964	69.75
230.199	63.75
230.433	98.75
230.667	67.75
230.901	77.75
231.136	75.75
231.37	80.75
231.604	82.75
231.838	81.75
232.072	83.75
232.306	84.75
232.541	80.75
232.775	74.75
233.009	89.75
233.243	89.75
233.477	84.75
233.711	95.75
233.945	84.75
234.179	80.75
234.413	90.75
234.647	76.75
234.881	78.75
235.115	82.75
235.349	90.75
235.583	88.75
235.817	74.75
236.051	82.75
236.285	82.75
236.519	97.75
236.753	90.75
236.987	74.75
237.221	69.75
237.455	88.75
237.689	84.75
237.922	69.75
238.156	61.75
238.39	75.75
238.624	63.75
238.858	66.75
239.091	77.75
239.325	66.75
239.559	83.75
239.793	70.75
240.027	77.75
240.26	76.75
240.494	85.75
240.728	81.75
240.961	71.75
241.195	83.75
241.429	83.75
241.662	71.75
241.896	75.75
242.13	79.75
242.363	86.75
242.597	81.75
242.83	76.75
243.064	85.75
243.298	61.75
243.531	75.75
243.765	80.75
243.998	71.75
244.232	79.75
244.465	82.75
244.699	68.75
244.932	71.75
245.166	86.75
245.399	77.75
245.633	78.75
245.866	72.75
246.099	79.75
246.333	76.75
246.566	79.75
246.8	71.75
247.033	86.75
247.266	81.75
247.5	78.75
247.733	81.75
247.966	88.75
248.2	72.75
248.433	75.75
248.666	73.75
248.899	68.75
249.133	80.75
249.366	91.75
249.599	74.75
249.832	80.75
250.066	94.75
250.299	80.75
250.532	94.75
250.765	67.75
250.998	70.75
251.231	81.75
251.465	84.75
251.698	79.75
251.931	73.75
252.164	80.75
252.397	88.75
252.63	89.75
252.863	78.75
253.096	81.75
253.329	91.75
253.562	74.75
253.795	73.75
254.028	76.75
254.261	88.75
254.494	85.75
254.727	69.75
254.96	84.75
255.193	77.75
255.426	83.75
255.659	91.75
255.892	83.75
256.124	73.75
256.357	72.75
256.59	85.75
256.823	71.75
257.056	91.75
257.289	72.75
257.521	74.75
257.754	73.75
257.987	74.75
258.22	76.75
258.452	84.75
258.685	81.75
258.918	78.75
259.151	75.75
259.383	88.75
259.616	83.75
259.849	75.75
260.081	75.75
260.314	83.75
260.547	83.75
260.779	82.75
261.012	87.75
261.244	78.75
261.477	96.75
261.71	83.75
261.942	67.75
262.175	80.75
262.407	73.75
262.64	88.75
262.872	82.75
263.105	81.75
263.337	86.75
263.57	96.75
263.802	85.75
264.035	79.75
264.267	85.75
264.499	74.75
264.732	69.75
264.964	83.75
265.197	87.75
265.429	86.75
265.661	85.75
265.894	83.75
266.126	83.75
266.358	77.75
266.591	76.75
266.823	79.75
267.055	63.75
267.287	81.75
267.52	86.75
267.752	86.75
267.984	73.75
268.216	89.75
268.448	80.75
268.681	85.75
268.913	87.75
269.145	81.75
269.377	82.75
269.609	76.75
269.841	81.75
270.073	85.75
270.306	82.75
270.538	87.75
270.77	81.75
271.002	90.75
271.234	79.75
271.466	79.75
271.698	82.75
271.93	84.75
272.162	84.75
272.394	81.75
272.626	88.75
272.858	86.75
273.09	85.75
273.322	84.75
273.553	74.75
273.785	79.75
274.017	84.75
274.249	85.75
274.481	91.75
274.713	83.75
274.945	75.75
275.176	81.75
275.408	74.75
275.64	72.75
275.872	79.75
276.104	81.75
276.335	97.75
276.567	103.75
276.799	80.75
277.031	99.75
277.262	86.75
277.494	65.75
277.726	70.75
277.957	84.75
278.189	68.75
278.421	80.75
278.652	74.75
278.884	82.75
279.115	81.75
279.347	92.75
279.579	88.75
279.81	93.75
280.042	83.75
280.273	84.75
280.505	77.75
280.736	87.75
280.968	71.75
281.199	81.75
281.431	83.75
281.662	87.75
281.894	81.75
282.125	84.75
282.356	85.75
282.588	83.75
282.819	80.75
283.051	77.75
283.282	84.75
283.513	91.75
283.745	88.75
283.976	91.75
284.207	85.75
284.439	82.75
284.67	74.75
284.901	100.75
285.132	89.75
285.364	88.75
285.595	79.75
285.826	84.75
286.057	100.75
286.288	83.75
286.52	88.75
286.751	80.75
286.982	83.75
287.213	77.75
287.444	94.75
287.675	83.75
287.906	80.75
288.138	94.75
288.369	82.75
288.6	88.75
288.831	77.75
289.062	95.75
289.293	93.75
289.524	79.75
289.755	83.75
289.986	100.75
290.217	91.75
290.448	81.75
290.679	84.75
290.91	90.75
291.141	89.75
291.371	87.75
291.602	84.75
291.833	95.75
292.064	88.75
292.295	92.75
292.526	86.75
292.757	75.75
292.987	84.75
293.218	85.75
293.449	71.75
293.68	87.75
293.91	82.75
294.141	92.75
294.372	74.75
294.603	95.75
294.833	73.75
295.064	95.75
295.295	83.75
295.525	82.75
295.756	79.75
295.987	79.75
296.217	83.75
296.448	77.75
296.679	90.75
296.909	79.75
297.14	92.75
297.37	84.75
297.601	80.75
297.831	85.75
298.062	86.75
298.292	76.75
298.523	73.75
298.753	77.75
298.984	84.75
299.214	83.75
299.445	86.75
299.675	83.75
299.905	82.75
300.136	85.75
300.366	84.75
300.597	86.75
300.827	85.75
301.057	82.75
301.288	80.75
301.518	84.75
301.748	83.75
301.979	90.75
302.209	80.75
302.439	97.75
302.669	85.75
302.9	95.75
303.13	88.75
303.36	83.75
303.59	85.75
303.82	86.75
304.051	78.75
304.281	90.75
304.511	99.75
304.741	101.75
304.971	80.75
305.201	97.75
305.431	88.75
305.661	95.75
305.891	101.75
306.121	72.75
306.352	83.75
306.582	100.75
306.812	72.75
307.042	78.75
307.272	81.75
307.502	95.75
307.731	97.75
307.961	81.75
308.191	92.75
308.421	83.75
308.651	106.75
308.881	103.75
309.111	86.75
309.341	85.75
309.571	78.75
309.8	85.75
310.03	80.75
310.26	84.75
310.49	85.75
310.72	108.75
310.949	90.75
311.179	89.75
311.409	89.75
311.639	91.75
311.868	70.75
312.098	82.75
312.328	97.75
312.557	89.75
312.787	74.75
313.017	97.75
313.246	81.75
313.476	87.75
313.706	85.75
313.935	79.75
314.165	75.75
314.394	86.75
314.624	54.75
314.853	92.75
315.083	81.75
315.312	75.75
315.542	85.75
315.771	82.75
316.001	98.75
316.23	99.75
316.46	91.75
316.689	101.75
316.919	82.75
317.148	85.75
317.377	77.75
317.607	82.75
317.836	94.75
318.065	84.75
318.295	93.75
318.524	90.75
318.753	90.75
318.983	91.75
319.212	87.75
319.441	95.75
319.67	96.75
319.9	84.75
320.129	88.75
320.358	83.75
320.587	86.75
320.816	80.75
321.046	87.75
321.275	78.75
321.504	80.75
321.733	84.75
321.962	92.75
322.191	95.75
322.42	85.75
322.649	87.75
322.878	81.75
323.108	89.75
323.337	72.75
323.566	89.75
323.795	81.75
324.024	83.75
324.253	97.75
324.482	108.75
324.71	93.75
324.939	89.75
325.168	83.75
325.397	91.75
325.626	90.75
325.855	91.75
326.084	80.75
326.313	98.75
326.542	101.75
326.77	99.75
326.999	92.75
327.228	88.75
327.457	80.75
327.686	85.75
327.914	87.75
328.143	98.75
328.372	81.75
328.6	68.75
328.829	73.75
329.058	71.75
329.287	85.75
329.515	88.75
329.744	84.75
329.972	96.75
330.201	93.75
330.43	85.75
330.658	88.75
330.887	87.75
331.115	85.75
331.344	84.75
331.572	82.75
331.801	100.75
332.03	90.75
332.258	90.75
332.486	83.75
332.715	85.75
332.943	75.75
333.172	89.75
333.4	84.75
333.629	83.75
333.857	78.75
334.085	78.75
334.314	83.75
334.542	70.75
334.771	85.75
334.999	77.75
335.227	81.75
335.455	75.75
335.684	90.75
335.912	86.75
336.14	94.75
336.369	92.75
336.597	71.75
336.825	82.75
337.053	60.75
337.281	90.75
337.51	80.75
337.738	89.75
337.966	85.75
338.194	87.75
338.422	75.75
338.65	87.75
338.878	73.75
339.106	86.75
339.334	91.75
339.562	84.75
339.79	85.75
340.018	82.75
340.246	95.75
340.474	93.75
340.702	86.75
340.93	86.75
341.158	77.75
341.386	77.75
341.614	87.75
341.842	96.75
342.07	86.75
342.298	86.75
342.526	89.75
342.754	86.75
342.981	93.75
343.209	87.75
343.437	91.75
343.665	89.75
343.893	80.75
344.12	86.75
344.348	90.75
344.576	94.75
344.804	83.75
345.031	87.75
345.259	85.75
345.487	76.75
345.714	90.75
345.942	86.75
346.17	84.75
346.397	89.75
346.625	86.75
346.853	92.75
347.08	93.75
347.308	90.75
347.535	83.75
347.763	78.75
347.99	87.75
348.218	77.75
348.445	88.75
348.673	76.75
348.9	81.75
349.128	89.75
349.355	84.75
349.583	84.75
349.81	77.75
350.037	77.75
350.265	93.75
350.492	89.75
350.72	90.75
350.947	98.75
351.174	90.75
351.402	78.75
351.629	98.75
351.856	82.75
352.083	90.75
352.311	89.75
352.538	86.75
352.765	83.75
352.992	91.75
353.22	82.75
353.447	79.75
353.674	99.75
353.901	91.75
354.128	81.75
354.355	76.75
354.583	81.75
354.81	83.75
355.037	82.75
355.264	67.75
355.491	83.75
355.718	80.75
355.945	83.75
356.172	93.75
356.399	89.75
356.626	88.75
356.853	100.75
357.08	86.75
357.307	86.75
357.534	98.75
357.761	88.75
357.988	83.75
358.215	64.75
358.441	81.75
358.668	91.75
358.895	80.75
359.122	100.75
359.349	93.75
359.576	77.75
359.802	91.75
360.029	74.75
360.256	91.75
360.483	76.75
360.709	90.75
360.936	85.75
361.163	81.75
361.39	85.75
361.616	77.75
361.843	80.75
362.07	88.75
362.296	85.75
362.523	74.75
362.749	84.75
362.976	78.75
363.203	75.75
363.429	79.75
363.656	85.75
363.882	71.75
364.109	90.75
364.335	76.75
364.562	73.75
364.788	86.75
365.015	92.75
365.241	95.75
365.468	75.75
365.694	77.75
365.92	75.75
366.147	85.75
366.373	87.75
366.599	71.75
366.826	95.75
367.052	68.75
367.278	81.75
367.505	96.75
367.731	111.75
367.957	101.75
368.184	87.75
368.41	82.75
368.636	85.75
368.862	80.75
369.089	98.75
369.315	86.75
369.541	79.75
369.767	88.75
369.993	89.75
370.219	92.75
370.445	88.75
370.672	96.75
370.898	82.75
371.124	87.75
371.35	86.75
371.576	88.75
371.802	97.75
372.028	95.75
372.254	91.75
372.48	89.75
372.706	68.75
372.932	78.75
373.158	89.75
373.384	82.75
373.61	88.75
373.835	79.75
374.061	83.75
374.287	81.75
374.513	79.75
374.739	82.75
374.965	85.75
375.191	83.75
375.416	105.75
375.642	98.75
375.868	89.75
376.094	80.75
376.319	77.75
376.545	83.75
376.771	90.75
376.997	98.75
377.222	76.75
377.448	87.75
377.674	97.75
377.899	79.75
378.125	92.75
378.35	90.75
378.576	96.75
378.802	86.75
379.027	85.75
379.253	96.75
379.478	87.75
379.704	93.75
379.929	70.75
380.155	85.75
380.38	89.75
380.606	75.75
380.831	91.75
381.057	88.75
381.282	70.75
381.507	77.75
381.733	69.75
381.958	87.75
382.184	92.75
382.409	84.75
382.634	81.75
382.86	85.75
383.085	80.75
383.31	82.75
383.535	95.75
383.761	95.75
383.986	75.75
384.211	76.75
384.436	85.75
384.662	89.75
384.887	91.75
385.112	81.75
385.337	91.75
385.562	96.75
385.787	82.75
386.013	99.75
386.238	67.75
386.463	80.75
386.688	72.75
386.913	83.75
387.138	70.75
387.363	84.75
387.588	76.75
387.813	85.75
388.038	87.75
388.263	92.75
388.488	87.75
388.713	89.75
388.938	88.75
389.163	78.75
389.387	78.75
389.612	76.75
389.837	90.75
390.062	102.75
390.287	89.75
390.512	89.75
390.736	92.75
390.961	79.75
391.186	94.75
391.411	92.75
391.636	87.75
391.86	91.75
392.085	98.75
392.31	94.75
392.534	93.75
392.759	94.75
392.984	82.75
393.208	93.75
393.433	84.75
393.658	88.75
393.882	84.75
394.107	78.75
394.331	80.75
394.556	78.75
394.78	76.75
395.005	77.75
395.229	82.75
395.454	78.75
395.678	106.75
395.903	83.75
396.127	85.75
396.352	99.75
396.576	83.75
396.801	89.75
397.025	93.75
397.249	92.75
397.474	86.75
397.698	85.75
397.922	82.75
398.147	90.75
398.371	86.75
398.595	85.75
398.82	88.75
399.044	98.75
399.268	96.75
399.492	86.75
399.717	94.75
399.941	90.75
400.165	100.75
400.389	116.75
400.613	98.75
400.837	85.75
401.062	92.75
401.286	101.75
401.51	89.75
401.734	64.75
401.958	90.75
402.182	90.75
402.406	85.75
402.63	91.75
402.854	90.75
403.078	87.75
403.302	89.75
403.526	96.75
403.75	99.75
403.974	77.75
404.198	97.75
404.422	84.75
404.645	98.75
404.869	99.75
405.093	90.75
405.317	96.75
405.541	96.75
405.765	80.75
405.988	91.75
406.212	85.75
406.436	74.75
406.66	92.75
406.883	102.75
407.107	98.75
407.331	75.75
407.555	89.75
407.778	86.75
408.002	88.75
408.226	91.75
408.449	82.75
408.673	92.75
408.896	87.75
409.12	93.75
409.344	90.75
409.567	83.75
409.791	95.75
410.014	86.75
410.238	85.75
410.461	88.75
410.685	93.75
410.908	92.75
411.132	97.75
411.355	75.75
411.578	86.75
411.802	93.75
412.025	95.75
412.249	85.75
412.472	77.75
412.695	97.75
412.919	83.75
413.142	87.75
413.365	84.75
413.589	85.75
413.812	84.75
414.035	91.75
414.258	92.75
414.482	88.75
414.705	75.75
414.928	89.75
415.151	99.75
415.374	95.75
415.597	85.75
415.821	93.75
416.044	78.75
416.267	87.75
416.49	97.75
416.713	82.75
416.936	90.75
417.159	85.75
417.382	95.75
417.605	79.75
417.828	91.75
418.051	108.75
418.274	90.75
418.497	91.75
418.72	88.75
418.943	100.75
419.166	92.75
419.389	86.75
419.611	88.75
419.834	76.75
420.057	104.75
420.28	91.75
420.503	88.75
420.726	99.75
420.948	98.75
421.171	85.75
421.394	87.75
421.617	95.75
421.839	87.75
422.062	92.75
422.285	85.75
422.507	89.75
422.73	99.75
422.953	89.75
423.175	87.75
423.398	93.75
423.621	90.75
423.843	94.75
424.066	90.75
424.288	104.75
424.511	91.75
424.733	95.75
424.956	94.75
425.178	81.75
425.401	97.75
425.623	108.75
425.846	92.75
426.068	83.75
426.291	89.75
426.513	93.75
426.735	91.75
426.958	98.75
427.18	81.75
427.402	83.75
427.625	94.75
427.847	99.75
428.069	98.75
428.292	84.75
428.514	93.75
428.736	92.75
428.958	90.75
429.181	95.75
429.403	104.75
429.625	85.75
429.847	92.75
430.069	92.75
430.292	99.75
430.514	93.75
430.736	90.75
430.958	92.75
431.18	83.75
431.402	60.75
431.624	90.75
431.846	84.75
432.068	77.75
432.29	97.75
432.512	72.75
432.734	99.75
432.956	85.75
433.178	105.75
433.4	104.75
433.622	84.75
433.844	99.75
434.066	92.75
434.287	78.75
434.509	87.75
434.731	90.75
434.953	88.75
435.175	101.75
435.397	83.75
435.618	97.75
435.84	91.75
436.062	103.75
436.284	86.75
436.505	84.75
436.727	90.75
436.949	75.75
437.17	90.75
437.392	94.75
437.614	88.75
437.835	90.75
438.057	87.75
438.278	92.75
438.5	90.75
438.721	101.75
438.943	111.75
439.165	88.75
439.386	91.75
439.608	92.75
439.829	95.75
440.05	91.75
440.272	102.75
440.493	102.75
440.715	103.75
440.936	89.75
441.158	89.75
441.379	105.75
441.6	84.75
441.822	86.75
442.043	82.75
442.264	83.75
442.486	98.75
442.707	100.75
442.928	92.75
443.149	108.75
443.371	104.75
443.592	82.75
443.813	106.75
444.034	89.75
444.255	91.75
444.476	81.75
444.698	86.75
444.919	104.75
445.14	180.75
445.361	140.75
445.582	108.75
445.803	104.75
446.024	102.75
446.245	96.75
446.466	90.75
446.687	97.75
446.908	101.75
447.129	86.75
447.35	102.75
447.571	108.75
447.792	86.75
448.013	87.75
448.234	87.75
448.455	87.75
448.675	83.75
448.896	91.75
449.117	101.75
449.338	96.75
449.559	97.75
449.779	103.75
450	83.75
450.221	100.75
450.442	79.75
450.662	89.75
450.883	90.75
451.104	99.75
451.324	87.75
451.545	99.75
451.766	92.75
451.986	98.75
452.207	88.75
452.428	89.75
452.648	92.75
452.869	93.75
453.089	91.75
453.31	97.75
453.53	89.75
453.751	91.75
453.971	83.75
454.192	74.75
454.412	92.75
454.633	82.75
454.853	89.75
455.073	93.75
455.294	83.75
455.514	95.75
455.734	77.75
455.955	78.75
456.175	93.75
456.395	88.75
456.616	81.75
456.836	89.75
457.056	80.75
457.276	88.75
457.497	101.75
457.717	85.75
457.937	81.75
458.157	84.75
458.377	83.75
458.598	82.75
458.818	72.75
459.038	78.75
459.258	81.75
459.478	58.75
459.698	82.75
459.918	89.75
460.138	73.75
460.358	91.75
460.578	87.75
460.798	89.75
461.018	89.75
461.238	91.75
461.458	97.75
461.678	92.75
461.898	80.75
462.118	103.75
462.338	94.75
462.558	98.75
462.777	95.75
462.997	99.75
463.217	76.75
463.437	104.75
463.657	84.75
463.876	80.75
464.096	91.75
464.316	93.75
464.536	85.75
464.755	85.75
464.975	86.75
465.195	96.75
465.414	96.75
465.634	88.75
465.854	84.75
466.073	100.75
466.293	90.75
466.512	82.75
466.732	96.75
466.951	99.75
467.171	95.75
467.391	96.75
467.61	99.75
467.829	92.75
468.049	106.75
468.268	95.75
468.488	90.75
468.707	90.75
468.927	91.75
469.146	104.75
469.365	104.75
469.585	90.75
469.804	100.75
470.023	77.75
470.243	89.75
470.462	98.75
470.681	112.75
470.901	98.75
471.12	101.75
471.339	114.75
471.558	99.75
471.777	84.75
471.997	93.75
472.216	86.75
472.435	97.75
472.654	93.75
472.873	99.75
473.092	87.75
473.311	91.75
473.53	92.75
473.749	105.75
473.968	101.75
474.187	91.75
474.406	84.75
474.625	89.75
474.844	99.75
475.063	89.75
475.282	84.75
475.501	80.75
475.72	92.75
475.939	89.75
476.158	95.75
476.377	87.75
476.596	85.75
476.814	96.75
477.033	77.75
477.252	105.75
477.471	95.75
477.69	90.75
477.908	107.75
478.127	103.75
478.346	102.75
478.564	91.75
478.783	97.75
479.002	90.75
479.22	95.75
479.439	96.75
479.658	100.75
479.876	90.75
480.095	98.75
480.313	91.75
480.532	109.75
480.751	87.75
480.969	98.75
481.188	86.75
481.406	77.75
481.624	82.75
481.843	85.75
482.061	90.75
482.28	97.75
482.498	79.75
482.717	96.75
482.935	87.75
483.153	92.75
483.372	91.75
483.59	105.75
483.808	102.75
484.027	84.75
484.245	103.75
484.463	109.75
484.681	111.75
484.9	105.75
485.118	102.75
485.336	93.75
485.554	95.75
485.772	93.75
485.99	96.75
486.209	94.75
486.427	91.75
486.645	105.75
486.863	96.75
487.081	75.75
487.299	92.75
487.517	89.75
487.735	100.75
487.953	92.75
488.171	114.75
488.389	88.75
488.607	85.75
488.825	108.75
489.043	101.75
489.261	96.75
489.479	82.75
489.696	97.75
489.914	95.75
490.132	100.75
490.35	101.75
490.568	118.75
490.786	97.75
491.003	110.75
491.221	98.75
491.439	112.75
491.657	101.75
491.874	125.75
492.092	131.75
492.31	119.75
492.527	124.75
492.745	115.75
492.963	104.75
493.18	112.75
493.398	121.75
493.615	112.75
493.833	117.75
494.05	95.75
494.268	104.75
494.485	111.75
494.703	108.75
494.92	119.75
495.138	101.75
495.355	102.75
495.573	93.75
495.79	97.75
496.008	97.75
496.225	100.75
496.442	95.75
496.66	104.75
496.877	100.75
497.094	108.75
497.312	109.75
497.529	93.75
497.746	106.75
497.963	111.75
498.181	113.75
498.398	83.75
498.615	84.75
498.832	90.75
499.049	98.75
499.267	98.75
499.484	88.75
499.701	90.75
499.918	96.75
500.135	97.75
500.352	90.75
500.569	104.75
500.786	93.75
501.003	100.75
501.22	93.75
501.437	99.75
501.654	99.75
501.871	85.75
502.088	81.75
502.305	85.75
502.522	92.75
502.739	85.75
502.956	91.75
503.172	89.75
503.389	90.75
503.606	101.75
503.823	94.75
504.04	87.75
504.256	86.75
504.473	77.75
504.69	82.75
504.907	93.75
505.123	96.75
505.34	84.75
505.557	96.75
505.773	91.75
505.99	102.75
506.207	85.75
506.423	78.75
506.64	91.75
506.856	100.75
507.073	92.75
507.289	88.75
507.506	95.75
507.722	91.75
507.939	88.75
508.155	107.75
508.372	98.75
508.588	93.75
508.805	82.75
509.021	95.75
509.238	96.75
509.454	90.75
509.67	81.75
509.887	86.75
510.103	100.75
510.319	89.75
510.536	101.75
510.752	91.75
510.968	83.75
511.184	87.75
511.401	86.75
511.617	85.75
511.833	100.75
512.049	80.75
512.265	77.75
512.481	83.75
512.698	95.75
512.914	95.75
513.13	96.75
513.346	94.75
513.562	84.75
513.778	86.75
513.994	91.75
514.21	91.75
514.426	81.75
514.642	86.75
514.858	97.75
515.074	59.75
515.29	80.75
515.506	100.75
515.721	76.75
515.937	83.75
516.153	78.75
516.369	82.75
516.585	79.75
516.801	86.75
517.016	91.75
517.232	89.75
517.448	85.75
517.664	97.75
