Data from Location5.07152019.Energy5.Lamp.07192019.3%Agarose_HRD10591_16-03-28-628.txt Node
Date: Fri Jul 19 16:03:28 EDT 2019
User: cochatt
Spectrometer: HR+D1059
Trigger mode: 1
Integration Time (sec): 1.000000E-1
Scans to average: 1
Electric dark correction enabled: true
Nonlinearity correction enabled: false
Boxcar width: 0
XAxis mode: Wavelengths
Number of Pixels in Spectrum: 2048
>>>>>Begin Spectral Data<<<<<
223.165	-15.81
223.4	-15.81
223.635	-15.81
223.869	-4.81
224.104	-17.81
224.338	-14.81
224.573	-28.81
224.808	-8.81
225.042	-1.81
225.277	0.19
225.511	1.19
225.746	-6.81
225.98	10.19
226.215	4.19
226.449	27.19
226.683	21.19
226.918	9.19
227.152	26.19
227.387	32.19
227.621	50.19
227.856	39.19
228.09	46.19
228.324	57.19
228.559	41.19
228.793	46.19
229.027	56.19
229.262	62.19
229.496	65.19
229.73	52.19
229.964	68.19
230.199	54.19
230.433	79.19
230.667	76.19
230.901	80.19
231.136	78.19
231.37	64.19
231.604	87.19
231.838	76.19
232.072	81.19
232.306	82.19
232.541	75.19
232.775	82.19
233.009	76.19
233.243	88.19
233.477	70.19
233.711	90.19
233.945	72.19
234.179	65.19
234.413	76.19
234.647	79.19
234.881	80.19
235.115	75.19
235.349	88.19
235.583	72.19
235.817	74.19
236.051	63.19
236.285	66.19
236.519	74.19
236.753	79.19
236.987	66.19
237.221	73.19
237.455	77.19
237.689	73.19
237.922	70.19
238.156	63.19
238.39	76.19
238.624	81.19
238.858	89.19
239.091	71.19
239.325	72.19
239.559	86.19
239.793	83.19
240.027	76.19
240.26	69.19
240.494	96.19
240.728	73.19
240.961	67.19
241.195	83.19
241.429	63.19
241.662	73.19
241.896	75.19
242.13	77.19
242.363	73.19
242.597	80.19
242.83	80.19
243.064	87.19
243.298	82.19
243.531	64.19
243.765	66.19
243.998	96.19
244.232	73.19
244.465	72.19
244.699	64.19
244.932	68.19
245.166	79.19
245.399	84.19
245.633	79.19
245.866	79.19
246.099	79.19
246.333	76.19
246.566	83.19
246.8	68.19
247.033	78.19
247.266	77.19
247.5	81.19
247.733	103.19
247.966	73.19
248.2	82.19
248.433	87.19
248.666	76.19
248.899	81.19
249.133	72.19
249.366	80.19
249.599	84.19
249.832	88.19
250.066	73.19
250.299	69.19
250.532	76.19
250.765	84.19
250.998	72.19
251.231	97.19
251.465	83.19
251.698	73.19
251.931	91.19
252.164	78.19
252.397	75.19
252.63	76.19
252.863	88.19
253.096	84.19
253.329	73.19
253.562	75.19
253.795	86.19
254.028	89.19
254.261	63.19
254.494	81.19
254.727	94.19
254.96	81.19
255.193	74.19
255.426	85.19
255.659	72.19
255.892	79.19
256.124	102.19
256.357	85.19
256.59	74.19
256.823	80.19
257.056	95.19
257.289	86.19
257.521	87.19
257.754	90.19
257.987	82.19
258.22	80.19
258.452	84.19
258.685	82.19
258.918	83.19
259.151	95.19
259.383	86.19
259.616	87.19
259.849	89.19
260.081	91.19
260.314	90.19
260.547	94.19
260.779	86.19
261.012	72.19
261.244	85.19
261.477	65.19
261.71	74.19
261.942	79.19
262.175	91.19
262.407	72.19
262.64	69.19
262.872	58.19
263.105	71.19
263.337	78.19
263.57	77.19
263.802	80.19
264.035	91.19
264.267	87.19
264.499	97.19
264.732	86.19
264.964	76.19
265.197	88.19
265.429	89.19
265.661	74.19
265.894	94.19
266.126	80.19
266.358	85.19
266.591	74.19
266.823	86.19
267.055	81.19
267.287	83.19
267.52	72.19
267.752	89.19
267.984	88.19
268.216	79.19
268.448	98.19
268.681	83.19
268.913	90.19
269.145	94.19
269.377	100.19
269.609	97.19
269.841	101.19
270.073	81.19
270.306	74.19
270.538	86.19
270.77	88.19
271.002	76.19
271.234	86.19
271.466	79.19
271.698	77.19
271.93	90.19
272.162	91.19
272.394	97.19
272.626	81.19
272.858	84.19
273.09	78.19
273.322	83.19
273.553	88.19
273.785	99.19
274.017	90.19
274.249	80.19
274.481	89.19
274.713	85.19
274.945	84.19
275.176	87.19
275.408	89.19
275.64	93.19
275.872	93.19
276.104	87.19
276.335	82.19
276.567	92.19
276.799	68.19
277.031	78.19
277.262	85.19
277.494	89.19
277.726	96.19
277.957	88.19
278.189	81.19
278.421	80.19
278.652	90.19
278.884	92.19
279.115	95.19
279.347	90.19
279.579	81.19
279.81	96.19
280.042	84.19
280.273	85.19
280.505	78.19
280.736	93.19
280.968	93.19
281.199	89.19
281.431	88.19
281.662	90.19
281.894	82.19
282.125	91.19
282.356	84.19
282.588	96.19
282.819	79.19
283.051	82.19
283.282	80.19
283.513	86.19
283.745	86.19
283.976	95.19
284.207	91.19
284.439	87.19
284.67	86.19
284.901	83.19
285.132	97.19
285.364	92.19
285.595	81.19
285.826	95.19
286.057	65.19
286.288	91.19
286.52	79.19
286.751	87.19
286.982	92.19
287.213	87.19
287.444	87.19
287.675	87.19
287.906	86.19
288.138	76.19
288.369	85.19
288.6	77.19
288.831	74.19
289.062	103.19
289.293	83.19
289.524	86.19
289.755	88.19
289.986	92.19
290.217	78.19
290.448	91.19
290.679	82.19
290.91	90.19
291.141	89.19
291.371	96.19
291.602	90.19
291.833	80.19
292.064	92.19
292.295	95.19
292.526	94.19
292.757	89.19
292.987	89.19
293.218	82.19
293.449	80.19
293.68	80.19
293.91	79.19
294.141	85.19
294.372	80.19
294.603	92.19
294.833	95.19
295.064	82.19
295.295	81.19
295.525	89.19
295.756	90.19
295.987	86.19
296.217	89.19
296.448	95.19
296.679	96.19
296.909	91.19
297.14	98.19
297.37	91.19
297.601	84.19
297.831	95.19
298.062	86.19
298.292	105.19
298.523	84.19
298.753	83.19
298.984	88.19
299.214	83.19
299.445	97.19
299.675	95.19
299.905	85.19
300.136	94.19
300.366	89.19
300.597	95.19
300.827	78.19
301.057	96.19
301.288	99.19
301.518	97.19
301.748	88.19
301.979	89.19
302.209	90.19
302.439	84.19
302.669	100.19
302.9	103.19
303.13	83.19
303.36	89.19
303.59	78.19
303.82	100.19
304.051	91.19
304.281	86.19
304.511	104.19
304.741	94.19
304.971	81.19
305.201	89.19
305.431	99.19
305.661	91.19
305.891	84.19
306.121	89.19
306.352	78.19
306.582	105.19
306.812	97.19
307.042	87.19
307.272	85.19
307.502	84.19
307.731	98.19
307.961	81.19
308.191	87.19
308.421	84.19
308.651	87.19
308.881	105.19
309.111	96.19
309.341	101.19
309.571	83.19
309.8	87.19
310.03	97.19
310.26	100.19
310.49	95.19
310.72	101.19
310.949	88.19
311.179	90.19
311.409	88.19
311.639	82.19
311.868	97.19
312.098	94.19
312.328	85.19
312.557	95.19
312.787	80.19
313.017	96.19
313.246	77.19
313.476	86.19
313.706	93.19
313.935	78.19
314.165	86.19
314.394	97.19
314.624	74.19
314.853	91.19
315.083	102.19
315.312	87.19
315.542	97.19
315.771	99.19
316.001	98.19
316.23	105.19
316.46	90.19
316.689	104.19
316.919	103.19
317.148	94.19
317.377	85.19
317.607	87.19
317.836	73.19
318.065	82.19
318.295	74.19
318.524	97.19
318.753	106.19
318.983	93.19
319.212	88.19
319.441	81.19
319.67	98.19
319.9	90.19
320.129	98.19
320.358	92.19
320.587	86.19
320.816	80.19
321.046	75.19
321.275	90.19
321.504	92.19
321.733	99.19
321.962	97.19
322.191	92.19
322.42	103.19
322.649	90.19
322.878	112.19
323.108	109.19
323.337	84.19
323.566	96.19
323.795	101.19
324.024	107.19
324.253	90.19
324.482	88.19
324.71	87.19
324.939	88.19
325.168	103.19
325.397	92.19
325.626	91.19
325.855	88.19
326.084	76.19
326.313	97.19
326.542	95.19
326.77	76.19
326.999	87.19
327.228	101.19
327.457	92.19
327.686	90.19
327.914	83.19
328.143	77.19
328.372	78.19
328.6	85.19
328.829	88.19
329.058	84.19
329.287	92.19
329.515	92.19
329.744	96.19
329.972	96.19
330.201	103.19
330.43	108.19
330.658	98.19
330.887	88.19
331.115	92.19
331.344	103.19
331.572	89.19
331.801	98.19
332.03	106.19
332.258	88.19
332.486	92.19
332.715	102.19
332.943	98.19
333.172	79.19
333.4	90.19
333.629	97.19
333.857	100.19
334.085	105.19
334.314	92.19
334.542	86.19
334.771	103.19
334.999	107.19
335.227	103.19
335.455	96.19
335.684	97.19
335.912	105.19
336.14	97.19
336.369	70.19
336.597	94.19
336.825	113.19
337.053	93.19
337.281	92.19
337.51	99.19
337.738	115.19
337.966	85.19
338.194	98.19
338.422	88.19
338.65	101.19
338.878	96.19
339.106	90.19
339.334	89.19
339.562	91.19
339.79	98.19
340.018	92.19
340.246	100.19
340.474	95.19
340.702	110.19
340.93	88.19
341.158	87.19
341.386	87.19
341.614	83.19
341.842	89.19
342.07	85.19
342.298	86.19
342.526	93.19
342.754	91.19
342.981	86.19
343.209	100.19
343.437	81.19
343.665	90.19
343.893	97.19
344.12	88.19
344.348	94.19
344.576	91.19
344.804	101.19
345.031	88.19
345.259	92.19
345.487	91.19
345.714	89.19
345.942	91.19
346.17	103.19
346.397	95.19
346.625	85.19
346.853	75.19
347.08	105.19
347.308	106.19
347.535	90.19
347.763	107.19
347.99	91.19
348.218	94.19
348.445	78.19
348.673	98.19
348.9	82.19
349.128	102.19
349.355	84.19
349.583	81.19
349.81	79.19
350.037	100.19
350.265	103.19
350.492	89.19
350.72	80.19
350.947	87.19
351.174	100.19
351.402	91.19
351.629	79.19
351.856	81.19
352.083	82.19
352.311	103.19
352.538	89.19
352.765	98.19
352.992	96.19
353.22	81.19
353.447	90.19
353.674	89.19
353.901	97.19
354.128	98.19
354.355	92.19
354.583	94.19
354.81	96.19
355.037	87.19
355.264	98.19
355.491	84.19
355.718	94.19
355.945	76.19
356.172	99.19
356.399	101.19
356.626	82.19
356.853	83.19
357.08	77.19
357.307	92.19
357.534	96.19
357.761	93.19
357.988	91.19
358.215	98.19
358.441	95.19
358.668	98.19
358.895	96.19
359.122	77.19
359.349	96.19
359.576	97.19
359.802	91.19
360.029	107.19
360.256	99.19
360.483	87.19
360.709	95.19
360.936	99.19
361.163	90.19
361.39	74.19
361.616	96.19
361.843	83.19
362.07	92.19
362.296	98.19
362.523	90.19
362.749	104.19
362.976	101.19
363.203	102.19
363.429	94.19
363.656	76.19
363.882	96.19
364.109	106.19
364.335	97.19
364.562	95.19
364.788	93.19
365.015	75.19
365.241	98.19
365.468	90.19
365.694	82.19
365.92	83.19
366.147	80.19
366.373	77.19
366.599	107.19
366.826	94.19
367.052	105.19
367.278	87.19
367.505	79.19
367.731	90.19
367.957	103.19
368.184	95.19
368.41	88.19
368.636	95.19
368.862	92.19
369.089	89.19
369.315	86.19
369.541	91.19
369.767	101.19
369.993	80.19
370.219	70.19
370.445	101.19
370.672	91.19
370.898	77.19
371.124	99.19
371.35	96.19
371.576	101.19
371.802	88.19
372.028	91.19
372.254	89.19
372.48	80.19
372.706	90.19
372.932	90.19
373.158	106.19
373.384	99.19
373.61	98.19
373.835	86.19
374.061	96.19
374.287	86.19
374.513	96.19
374.739	101.19
374.965	89.19
375.191	98.19
375.416	96.19
375.642	97.19
375.868	98.19
376.094	99.19
376.319	105.19
376.545	90.19
376.771	90.19
376.997	104.19
377.222	98.19
377.448	96.19
377.674	95.19
377.899	92.19
378.125	91.19
378.35	95.19
378.576	92.19
378.802	90.19
379.027	91.19
379.253	94.19
379.478	82.19
379.704	98.19
379.929	99.19
380.155	87.19
380.38	104.19
380.606	100.19
380.831	94.19
381.057	104.19
381.282	68.19
381.507	73.19
381.733	92.19
381.958	88.19
382.184	91.19
382.409	76.19
382.634	94.19
382.86	86.19
383.085	100.19
383.31	92.19
383.535	84.19
383.761	104.19
383.986	93.19
384.211	92.19
384.436	89.19
384.662	89.19
384.887	92.19
385.112	105.19
385.337	103.19
385.562	94.19
385.787	103.19
386.013	97.19
386.238	86.19
386.463	96.19
386.688	98.19
386.913	95.19
387.138	81.19
387.363	98.19
387.588	94.19
387.813	89.19
388.038	83.19
388.263	95.19
388.488	92.19
388.713	80.19
388.938	95.19
389.163	86.19
389.387	99.19
389.612	89.19
389.837	90.19
390.062	90.19
390.287	87.19
390.512	83.19
390.736	90.19
390.961	91.19
391.186	95.19
391.411	91.19
391.636	96.19
391.86	105.19
392.085	89.19
392.31	110.19
392.534	85.19
392.759	74.19
392.984	82.19
393.208	87.19
393.433	93.19
393.658	88.19
393.882	110.19
394.107	104.19
394.331	89.19
394.556	114.19
394.78	77.19
395.005	106.19
395.229	101.19
395.454	107.19
395.678	96.19
395.903	107.19
396.127	102.19
396.352	97.19
396.576	95.19
396.801	95.19
397.025	108.19
397.249	97.19
397.474	97.19
397.698	104.19
397.922	103.19
398.147	106.19
398.371	105.19
398.595	103.19
398.82	91.19
399.044	110.19
399.268	96.19
399.492	95.19
399.717	106.19
399.941	101.19
400.165	115.19
400.389	98.19
400.613	84.19
400.837	93.19
401.062	92.19
401.286	87.19
401.51	82.19
401.734	100.19
401.958	86.19
402.182	99.19
402.406	102.19
402.63	78.19
402.854	95.19
403.078	110.19
403.302	106.19
403.526	99.19
403.75	101.19
403.974	99.19
404.198	110.19
404.422	96.19
404.645	106.19
404.869	93.19
405.093	115.19
405.317	102.19
405.541	98.19
405.765	98.19
405.988	94.19
406.212	97.19
406.436	104.19
406.66	86.19
406.883	104.19
407.107	105.19
407.331	103.19
407.555	102.19
407.778	96.19
408.002	88.19
408.226	103.19
408.449	95.19
408.673	108.19
408.896	103.19
409.12	86.19
409.344	118.19
409.567	99.19
409.791	98.19
410.014	114.19
410.238	83.19
410.461	107.19
410.685	117.19
410.908	108.19
411.132	87.19
411.355	109.19
411.578	95.19
411.802	114.19
412.025	103.19
412.249	114.19
412.472	110.19
412.695	91.19
412.919	106.19
413.142	88.19
413.365	110.19
413.589	97.19
413.812	105.19
414.035	103.19
414.258	91.19
414.482	105.19
414.705	90.19
414.928	104.19
415.151	110.19
415.374	97.19
415.597	101.19
415.821	99.19
416.044	94.19
416.267	104.19
416.49	93.19
416.713	95.19
416.936	111.19
417.159	78.19
417.382	102.19
417.605	104.19
417.828	91.19
418.051	87.19
418.274	88.19
418.497	104.19
418.72	101.19
418.943	94.19
419.166	83.19
419.389	93.19
419.611	91.19
419.834	106.19
420.057	91.19
420.28	103.19
420.503	100.19
420.726	112.19
420.948	100.19
421.171	103.19
421.394	104.19
421.617	104.19
421.839	95.19
422.062	94.19
422.285	102.19
422.507	98.19
422.73	82.19
422.953	102.19
423.175	89.19
423.398	88.19
423.621	102.19
423.843	84.19
424.066	110.19
424.288	107.19
424.511	97.19
424.733	102.19
424.956	103.19
425.178	87.19
425.401	89.19
425.623	91.19
425.846	95.19
426.068	99.19
426.291	91.19
426.513	99.19
426.735	90.19
426.958	96.19
427.18	97.19
427.402	90.19
427.625	102.19
427.847	101.19
428.069	104.19
428.292	99.19
428.514	86.19
428.736	98.19
428.958	92.19
429.181	106.19
429.403	111.19
429.625	82.19
429.847	93.19
430.069	92.19
430.292	100.19
430.514	99.19
430.736	96.19
430.958	111.19
431.18	100.19
431.402	89.19
431.624	95.19
431.846	98.19
432.068	91.19
432.29	91.19
432.512	91.19
432.734	97.19
432.956	94.19
433.178	88.19
433.4	95.19
433.622	95.19
433.844	100.19
434.066	102.19
434.287	99.19
434.509	82.19
434.731	95.19
434.953	102.19
435.175	93.19
435.397	91.19
435.618	98.19
435.84	79.19
436.062	108.19
436.284	85.19
436.505	92.19
436.727	95.19
436.949	108.19
437.17	91.19
437.392	86.19
437.614	94.19
437.835	96.19
438.057	93.19
438.278	107.19
438.5	89.19
438.721	97.19
438.943	92.19
439.165	101.19
439.386	94.19
439.608	91.19
439.829	91.19
440.05	100.19
440.272	88.19
440.493	99.19
440.715	91.19
440.936	74.19
441.158	80.19
441.379	94.19
441.6	96.19
441.822	112.19
442.043	101.19
442.264	92.19
442.486	94.19
442.707	110.19
442.928	101.19
443.149	89.19
443.371	98.19
443.592	92.19
443.813	102.19
444.034	115.19
444.255	90.19
444.476	94.19
444.698	96.19
444.919	110.19
445.14	236.19
445.361	152.19
445.582	91.19
445.803	100.19
446.024	92.19
446.245	118.19
446.466	102.19
446.687	94.19
446.908	89.19
447.129	91.19
447.35	98.19
447.571	99.19
447.792	97.19
448.013	87.19
448.234	90.19
448.455	95.19
448.675	105.19
448.896	100.19
449.117	89.19
449.338	99.19
449.559	95.19
449.779	95.19
450	75.19
450.221	92.19
450.442	85.19
450.662	106.19
450.883	81.19
451.104	94.19
451.324	84.19
451.545	96.19
451.766	90.19
451.986	89.19
452.207	73.19
452.428	82.19
452.648	74.19
452.869	98.19
453.089	99.19
453.31	85.19
453.53	98.19
453.751	111.19
453.971	101.19
454.192	86.19
454.412	88.19
454.633	88.19
454.853	95.19
455.073	87.19
455.294	94.19
455.514	89.19
455.734	92.19
455.955	97.19
456.175	95.19
456.395	72.19
456.616	95.19
456.836	104.19
457.056	84.19
457.276	98.19
457.497	97.19
457.717	94.19
457.937	94.19
458.157	90.19
458.377	94.19
458.598	87.19
458.818	94.19
459.038	94.19
459.258	97.19
459.478	83.19
459.698	90.19
459.918	103.19
460.138	105.19
460.358	94.19
460.578	88.19
460.798	99.19
461.018	99.19
461.238	93.19
461.458	111.19
461.678	90.19
461.898	94.19
462.118	96.19
462.338	108.19
462.558	107.19
462.777	93.19
462.997	104.19
463.217	106.19
463.437	117.19
463.657	110.19
463.876	114.19
464.096	114.19
464.316	97.19
464.536	104.19
464.755	103.19
464.975	99.19
465.195	94.19
465.414	90.19
465.634	96.19
465.854	105.19
466.073	95.19
466.293	85.19
466.512	91.19
466.732	105.19
466.951	104.19
467.171	90.19
467.391	88.19
467.61	94.19
467.829	82.19
468.049	107.19
468.268	95.19
468.488	86.19
468.707	88.19
468.927	100.19
469.146	102.19
469.365	90.19
469.585	84.19
469.804	97.19
470.023	101.19
470.243	96.19
470.462	103.19
470.681	103.19
470.901	75.19
471.12	112.19
471.339	84.19
471.558	106.19
471.777	95.19
471.997	100.19
472.216	87.19
472.435	85.19
472.654	96.19
472.873	94.19
473.092	97.19
473.311	109.19
473.53	94.19
473.749	106.19
473.968	101.19
474.187	99.19
474.406	102.19
474.625	103.19
474.844	85.19
475.063	85.19
475.282	97.19
475.501	86.19
475.72	88.19
475.939	95.19
476.158	99.19
476.377	102.19
476.596	97.19
476.814	102.19
477.033	99.19
477.252	104.19
477.471	105.19
477.69	94.19
477.908	103.19
478.127	85.19
478.346	96.19
478.564	101.19
478.783	82.19
479.002	118.19
479.22	96.19
479.439	104.19
479.658	93.19
479.876	96.19
480.095	102.19
480.313	114.19
480.532	112.19
480.751	102.19
480.969	98.19
481.188	91.19
481.406	101.19
481.624	104.19
481.843	104.19
482.061	96.19
482.28	102.19
482.498	90.19
482.717	99.19
482.935	96.19
483.153	115.19
483.372	94.19
483.59	95.19
483.808	96.19
484.027	103.19
484.245	106.19
484.463	94.19
484.681	125.19
484.9	104.19
485.118	104.19
485.336	107.19
485.554	128.19
485.772	90.19
485.99	94.19
486.209	108.19
486.427	94.19
486.645	100.19
486.863	104.19
487.081	104.19
487.299	89.19
487.517	98.19
487.735	108.19
487.953	105.19
488.171	117.19
488.389	97.19
488.607	103.19
488.825	104.19
489.043	98.19
489.261	96.19
489.479	103.19
489.696	111.19
489.914	115.19
490.132	91.19
490.35	114.19
490.568	98.19
490.786	108.19
491.003	102.19
491.221	105.19
491.439	108.19
491.657	96.19
491.874	110.19
492.092	126.19
492.31	128.19
492.527	112.19
492.745	118.19
492.963	110.19
493.18	108.19
493.398	118.19
493.615	110.19
493.833	106.19
494.05	120.19
494.268	105.19
494.485	119.19
494.703	96.19
494.92	92.19
495.138	106.19
495.355	119.19
495.573	113.19
495.79	106.19
496.008	118.19
496.225	100.19
496.442	110.19
496.66	126.19
496.877	113.19
497.094	111.19
497.312	104.19
497.529	98.19
497.746	97.19
497.963	114.19
498.181	111.19
498.398	93.19
498.615	137.19
498.832	114.19
499.049	114.19
499.267	112.19
499.484	114.19
499.701	122.19
499.918	143.19
500.135	146.19
500.352	152.19
500.569	161.19
500.786	166.19
501.003	162.19
501.22	129.19
501.437	129.19
501.654	138.19
501.871	140.19
502.088	119.19
502.305	116.19
502.522	122.19
502.739	106.19
502.956	124.19
503.172	112.19
503.389	110.19
503.606	100.19
503.823	105.19
504.04	108.19
504.256	112.19
504.473	105.19
504.69	109.19
504.907	120.19
505.123	92.19
505.34	115.19
505.557	95.19
505.773	105.19
505.99	109.19
506.207	103.19
506.423	104.19
506.64	99.19
506.856	109.19
507.073	101.19
507.289	103.19
507.506	87.19
507.722	112.19
507.939	105.19
508.155	112.19
508.372	99.19
508.588	99.19
508.805	91.19
509.021	105.19
509.238	97.19
509.454	100.19
509.67	111.19
509.887	82.19
510.103	88.19
510.319	97.19
510.536	107.19
510.752	102.19
510.968	92.19
511.184	93.19
511.401	96.19
511.617	97.19
511.833	85.19
512.049	84.19
512.265	102.19
512.481	77.19
512.698	96.19
512.914	98.19
513.13	101.19
513.346	115.19
513.562	91.19
513.778	105.19
513.994	97.19
514.21	103.19
514.426	91.19
514.642	99.19
