Data from Location5.07152019.Energy5.Lamp.07192019.3%Agarose_HRD10591_16-02-27-627.txt Node
Date: Fri Jul 19 16:02:27 EDT 2019
User: cochatt
Spectrometer: HR+D1059
Trigger mode: 1
Integration Time (sec): 1.000000E-1
Scans to average: 1
Electric dark correction enabled: true
Nonlinearity correction enabled: false
Boxcar width: 0
XAxis mode: Wavelengths
Number of Pixels in Spectrum: 2048
>>>>>Begin Spectral Data<<<<<
223.165	-22.62
223.4	-22.62
223.635	-22.62
223.869	-3.62
224.104	-32.62
224.338	-20.62
224.573	-0.62
224.808	-1.62
225.042	-13.62
225.277	-19.62
225.511	-6.62
225.746	2.38
225.98	15.38
226.215	13.38
226.449	20.38
226.683	14.38
226.918	23.38
227.152	32.38
227.387	35.38
227.621	35.38
227.856	42.38
228.09	42.38
228.324	46.38
228.559	54.38
228.793	46.38
229.027	64.38
229.262	70.38
229.496	79.38
229.73	68.38
229.964	74.38
230.199	73.38
230.433	83.38
230.667	76.38
230.901	75.38
231.136	68.38
231.37	87.38
231.604	71.38
231.838	72.38
232.072	98.38
232.306	84.38
232.541	74.38
232.775	64.38
233.009	85.38
233.243	76.38
233.477	82.38
233.711	73.38
233.945	84.38
234.179	88.38
234.413	82.38
234.647	79.38
234.881	84.38
235.115	75.38
235.349	74.38
235.583	80.38
235.817	77.38
236.051	76.38
236.285	90.38
236.519	81.38
236.753	79.38
236.987	72.38
237.221	75.38
237.455	75.38
237.689	62.38
237.922	66.38
238.156	67.38
238.39	96.38
238.624	78.38
238.858	76.38
239.091	66.38
239.325	64.38
239.559	73.38
239.793	66.38
240.027	84.38
240.26	75.38
240.494	86.38
240.728	83.38
240.961	67.38
241.195	76.38
241.429	80.38
241.662	77.38
241.896	66.38
242.13	75.38
242.363	71.38
242.597	57.38
242.83	100.38
243.064	75.38
243.298	73.38
243.531	74.38
243.765	76.38
243.998	72.38
244.232	67.38
244.465	82.38
244.699	73.38
244.932	82.38
245.166	84.38
245.399	85.38
245.633	79.38
245.866	67.38
246.099	64.38
246.333	73.38
246.566	71.38
246.8	82.38
247.033	83.38
247.266	77.38
247.5	80.38
247.733	66.38
247.966	76.38
248.2	76.38
248.433	85.38
248.666	72.38
248.899	73.38
249.133	69.38
249.366	84.38
249.599	88.38
249.832	75.38
250.066	88.38
250.299	96.38
250.532	82.38
250.765	87.38
250.998	98.38
251.231	86.38
251.465	89.38
251.698	67.38
251.931	79.38
252.164	91.38
252.397	74.38
252.63	83.38
252.863	76.38
253.096	91.38
253.329	68.38
253.562	80.38
253.795	83.38
254.028	94.38
254.261	80.38
254.494	81.38
254.727	93.38
254.96	74.38
255.193	82.38
255.426	64.38
255.659	71.38
255.892	83.38
256.124	70.38
256.357	83.38
256.59	79.38
256.823	87.38
257.056	92.38
257.289	77.38
257.521	92.38
257.754	73.38
257.987	73.38
258.22	86.38
258.452	75.38
258.685	87.38
258.918	82.38
259.151	81.38
259.383	97.38
259.616	86.38
259.849	91.38
260.081	86.38
260.314	88.38
260.547	86.38
260.779	92.38
261.012	72.38
261.244	85.38
261.477	80.38
261.71	93.38
261.942	98.38
262.175	85.38
262.407	72.38
262.64	83.38
262.872	86.38
263.105	92.38
263.337	86.38
263.57	78.38
263.802	87.38
264.035	94.38
264.267	91.38
264.499	90.38
264.732	75.38
264.964	72.38
265.197	86.38
265.429	90.38
265.661	90.38
265.894	88.38
266.126	83.38
266.358	89.38
266.591	80.38
266.823	77.38
267.055	81.38
267.287	92.38
267.52	79.38
267.752	75.38
267.984	83.38
268.216	97.38
268.448	77.38
268.681	79.38
268.913	83.38
269.145	80.38
269.377	85.38
269.609	90.38
269.841	84.38
270.073	81.38
270.306	70.38
270.538	83.38
270.77	78.38
271.002	87.38
271.234	90.38
271.466	83.38
271.698	82.38
271.93	84.38
272.162	76.38
272.394	97.38
272.626	75.38
272.858	82.38
273.09	95.38
273.322	80.38
273.553	75.38
273.785	77.38
274.017	87.38
274.249	78.38
274.481	90.38
274.713	84.38
274.945	84.38
275.176	101.38
275.408	89.38
275.64	90.38
275.872	83.38
276.104	92.38
276.335	87.38
276.567	95.38
276.799	75.38
277.031	83.38
277.262	93.38
277.494	90.38
277.726	76.38
277.957	81.38
278.189	78.38
278.421	95.38
278.652	78.38
278.884	78.38
279.115	79.38
279.347	99.38
279.579	89.38
279.81	87.38
280.042	88.38
280.273	96.38
280.505	95.38
280.736	82.38
280.968	90.38
281.199	90.38
281.431	90.38
281.662	88.38
281.894	96.38
282.125	94.38
282.356	92.38
282.588	91.38
282.819	77.38
283.051	80.38
283.282	74.38
283.513	98.38
283.745	94.38
283.976	97.38
284.207	75.38
284.439	106.38
284.67	91.38
284.901	81.38
285.132	91.38
285.364	87.38
285.595	81.38
285.826	78.38
286.057	87.38
286.288	82.38
286.52	84.38
286.751	83.38
286.982	86.38
287.213	87.38
287.444	92.38
287.675	85.38
287.906	84.38
288.138	101.38
288.369	94.38
288.6	82.38
288.831	87.38
289.062	90.38
289.293	71.38
289.524	85.38
289.755	90.38
289.986	96.38
290.217	64.38
290.448	92.38
290.679	88.38
290.91	98.38
291.141	94.38
291.371	99.38
291.602	82.38
291.833	89.38
292.064	76.38
292.295	83.38
292.526	98.38
292.757	87.38
292.987	93.38
293.218	81.38
293.449	80.38
293.68	100.38
293.91	93.38
294.141	85.38
294.372	81.38
294.603	80.38
294.833	74.38
295.064	74.38
295.295	91.38
295.525	81.38
295.756	84.38
295.987	79.38
296.217	96.38
296.448	97.38
296.679	94.38
296.909	82.38
297.14	89.38
297.37	98.38
297.601	91.38
297.831	86.38
298.062	69.38
298.292	87.38
298.523	85.38
298.753	75.38
298.984	82.38
299.214	91.38
299.445	87.38
299.675	93.38
299.905	76.38
300.136	87.38
300.366	105.38
300.597	91.38
300.827	86.38
301.057	83.38
301.288	95.38
301.518	86.38
301.748	95.38
301.979	88.38
302.209	86.38
302.439	87.38
302.669	91.38
302.9	90.38
303.13	101.38
303.36	101.38
303.59	75.38
303.82	83.38
304.051	89.38
304.281	100.38
304.511	102.38
304.741	89.38
304.971	85.38
305.201	96.38
305.431	84.38
305.661	93.38
305.891	106.38
306.121	87.38
306.352	85.38
306.582	90.38
306.812	92.38
307.042	88.38
307.272	86.38
307.502	94.38
307.731	92.38
307.961	97.38
308.191	86.38
308.421	88.38
308.651	98.38
308.881	82.38
309.111	83.38
309.341	88.38
309.571	97.38
309.8	112.38
310.03	89.38
310.26	91.38
310.49	103.38
310.72	96.38
310.949	96.38
311.179	96.38
311.409	92.38
311.639	93.38
311.868	101.38
312.098	91.38
312.328	97.38
312.557	85.38
312.787	81.38
313.017	100.38
313.246	86.38
313.476	86.38
313.706	89.38
313.935	87.38
314.165	96.38
314.394	84.38
314.624	97.38
314.853	103.38
315.083	89.38
315.312	91.38
315.542	93.38
315.771	99.38
316.001	90.38
316.23	98.38
316.46	89.38
316.689	92.38
316.919	90.38
317.148	78.38
317.377	75.38
317.607	86.38
317.836	97.38
318.065	74.38
318.295	105.38
318.524	99.38
318.753	92.38
318.983	92.38
319.212	99.38
319.441	84.38
319.67	100.38
319.9	101.38
320.129	83.38
320.358	107.38
320.587	98.38
320.816	80.38
321.046	84.38
321.275	70.38
321.504	88.38
321.733	93.38
321.962	97.38
322.191	101.38
322.42	90.38
322.649	98.38
322.878	102.38
323.108	95.38
323.337	90.38
323.566	97.38
323.795	92.38
324.024	94.38
324.253	96.38
324.482	81.38
324.71	88.38
324.939	91.38
325.168	100.38
325.397	100.38
325.626	94.38
325.855	81.38
326.084	90.38
326.313	88.38
326.542	95.38
326.77	93.38
326.999	97.38
327.228	95.38
327.457	90.38
327.686	89.38
327.914	102.38
328.143	101.38
328.372	94.38
328.6	80.38
328.829	95.38
329.058	94.38
329.287	86.38
329.515	105.38
329.744	103.38
329.972	89.38
330.201	100.38
330.43	91.38
330.658	101.38
330.887	94.38
331.115	85.38
331.344	101.38
331.572	97.38
331.801	94.38
332.03	82.38
332.258	84.38
332.486	91.38
332.715	98.38
332.943	103.38
333.172	84.38
333.4	102.38
333.629	104.38
333.857	91.38
334.085	98.38
334.314	93.38
334.542	105.38
334.771	101.38
334.999	90.38
335.227	92.38
335.455	90.38
335.684	102.38
335.912	96.38
336.14	101.38
336.369	101.38
336.597	106.38
336.825	91.38
337.053	99.38
337.281	107.38
337.51	115.38
337.738	111.38
337.966	97.38
338.194	91.38
338.422	89.38
338.65	98.38
338.878	95.38
339.106	88.38
339.334	81.38
339.562	99.38
339.79	100.38
340.018	91.38
340.246	83.38
340.474	106.38
340.702	94.38
340.93	77.38
341.158	85.38
341.386	100.38
341.614	106.38
341.842	94.38
342.07	105.38
342.298	102.38
342.526	88.38
342.754	95.38
342.981	88.38
343.209	99.38
343.437	104.38
343.665	106.38
343.893	97.38
344.12	98.38
344.348	91.38
344.576	83.38
344.804	89.38
345.031	98.38
345.259	93.38
345.487	90.38
345.714	100.38
345.942	96.38
346.17	91.38
346.397	91.38
346.625	98.38
346.853	85.38
347.08	90.38
347.308	98.38
347.535	100.38
347.763	74.38
347.99	92.38
348.218	85.38
348.445	111.38
348.673	97.38
348.9	77.38
349.128	97.38
349.355	76.38
349.583	89.38
349.81	100.38
350.037	99.38
350.265	89.38
350.492	87.38
350.72	84.38
350.947	93.38
351.174	94.38
351.402	96.38
351.629	95.38
351.856	101.38
352.083	88.38
352.311	98.38
352.538	96.38
352.765	102.38
352.992	98.38
353.22	87.38
353.447	93.38
353.674	96.38
353.901	79.38
354.128	81.38
354.355	86.38
354.583	92.38
354.81	92.38
355.037	93.38
355.264	82.38
355.491	89.38
355.718	99.38
355.945	104.38
356.172	87.38
356.399	98.38
356.626	90.38
356.853	99.38
357.08	86.38
357.307	98.38
357.534	95.38
357.761	101.38
357.988	101.38
358.215	98.38
358.441	83.38
358.668	99.38
358.895	99.38
359.122	97.38
359.349	94.38
359.576	103.38
359.802	91.38
360.029	77.38
360.256	94.38
360.483	95.38
360.709	103.38
360.936	101.38
361.163	97.38
361.39	77.38
361.616	93.38
361.843	104.38
362.07	90.38
362.296	92.38
362.523	91.38
362.749	84.38
362.976	88.38
363.203	95.38
363.429	91.38
363.656	105.38
363.882	105.38
364.109	93.38
364.335	97.38
364.562	98.38
364.788	91.38
365.015	111.38
365.241	89.38
365.468	97.38
365.694	82.38
365.92	103.38
366.147	90.38
366.373	79.38
366.599	108.38
366.826	91.38
367.052	80.38
367.278	97.38
367.505	84.38
367.731	93.38
367.957	81.38
368.184	101.38
368.41	80.38
368.636	96.38
368.862	100.38
369.089	103.38
369.315	81.38
369.541	83.38
369.767	96.38
369.993	90.38
370.219	84.38
370.445	78.38
370.672	94.38
370.898	89.38
371.124	94.38
371.35	90.38
371.576	88.38
371.802	85.38
372.028	95.38
372.254	100.38
372.48	87.38
372.706	97.38
372.932	82.38
373.158	96.38
373.384	98.38
373.61	92.38
373.835	99.38
374.061	95.38
374.287	93.38
374.513	83.38
374.739	108.38
374.965	113.38
375.191	107.38
375.416	107.38
375.642	104.38
375.868	104.38
376.094	90.38
376.319	91.38
376.545	77.38
376.771	90.38
376.997	95.38
377.222	93.38
377.448	94.38
377.674	94.38
377.899	94.38
378.125	81.38
378.35	79.38
378.576	91.38
378.802	85.38
379.027	90.38
379.253	75.38
379.478	96.38
379.704	89.38
379.929	85.38
380.155	89.38
380.38	110.38
380.606	95.38
380.831	89.38
381.057	104.38
381.282	90.38
381.507	89.38
381.733	106.38
381.958	87.38
382.184	93.38
382.409	92.38
382.634	101.38
382.86	108.38
383.085	93.38
383.31	88.38
383.535	103.38
383.761	104.38
383.986	105.38
384.211	100.38
384.436	95.38
384.662	94.38
384.887	108.38
385.112	92.38
385.337	86.38
385.562	84.38
385.787	96.38
386.013	119.38
386.238	116.38
386.463	108.38
386.688	89.38
386.913	99.38
387.138	75.38
387.363	86.38
387.588	110.38
387.813	106.38
388.038	88.38
388.263	97.38
388.488	92.38
388.713	88.38
388.938	105.38
389.163	98.38
389.387	106.38
389.612	106.38
389.837	106.38
390.062	84.38
390.287	86.38
390.512	98.38
390.736	93.38
390.961	97.38
391.186	89.38
391.411	97.38
391.636	81.38
391.86	96.38
392.085	90.38
392.31	105.38
392.534	84.38
392.759	99.38
392.984	88.38
393.208	94.38
393.433	86.38
393.658	91.38
393.882	99.38
394.107	83.38
394.331	87.38
394.556	107.38
394.78	97.38
395.005	98.38
395.229	85.38
395.454	90.38
395.678	105.38
395.903	90.38
396.127	101.38
396.352	90.38
396.576	88.38
396.801	102.38
397.025	98.38
397.249	100.38
397.474	103.38
397.698	99.38
397.922	110.38
398.147	92.38
398.371	101.38
398.595	96.38
398.82	97.38
399.044	101.38
399.268	94.38
399.492	111.38
399.717	131.38
399.941	119.38
400.165	96.38
400.389	101.38
400.613	94.38
400.837	97.38
401.062	96.38
401.286	93.38
401.51	102.38
401.734	93.38
401.958	95.38
402.182	95.38
402.406	96.38
402.63	95.38
402.854	102.38
403.078	93.38
403.302	98.38
403.526	99.38
403.75	82.38
403.974	98.38
404.198	84.38
404.422	94.38
404.645	108.38
404.869	107.38
405.093	114.38
405.317	105.38
405.541	89.38
405.765	102.38
405.988	97.38
406.212	110.38
406.436	101.38
406.66	92.38
406.883	106.38
407.107	104.38
407.331	110.38
407.555	103.38
407.778	101.38
408.002	118.38
408.226	107.38
408.449	101.38
408.673	108.38
408.896	97.38
409.12	91.38
409.344	118.38
409.567	104.38
409.791	100.38
410.014	106.38
410.238	86.38
410.461	99.38
410.685	82.38
410.908	107.38
411.132	104.38
411.355	100.38
411.578	107.38
411.802	107.38
412.025	97.38
412.249	95.38
412.472	84.38
412.695	88.38
412.919	100.38
413.142	100.38
413.365	104.38
413.589	98.38
413.812	100.38
414.035	114.38
414.258	101.38
414.482	103.38
414.705	92.38
414.928	101.38
415.151	99.38
415.374	99.38
415.597	99.38
415.821	96.38
416.044	90.38
416.267	103.38
416.49	108.38
416.713	102.38
416.936	94.38
417.159	98.38
417.382	111.38
417.605	107.38
417.828	99.38
418.051	89.38
418.274	94.38
418.497	116.38
418.72	105.38
418.943	107.38
419.166	95.38
419.389	103.38
419.611	98.38
419.834	100.38
420.057	104.38
420.28	105.38
420.503	105.38
420.726	99.38
420.948	89.38
421.171	88.38
421.394	95.38
421.617	111.38
421.839	106.38
422.062	118.38
422.285	103.38
422.507	96.38
422.73	94.38
422.953	104.38
423.175	84.38
423.398	89.38
423.621	92.38
423.843	99.38
424.066	108.38
424.288	104.38
424.511	112.38
424.733	98.38
424.956	92.38
425.178	88.38
425.401	98.38
425.623	101.38
425.846	91.38
426.068	111.38
426.291	83.38
426.513	97.38
426.735	98.38
426.958	87.38
427.18	106.38
427.402	109.38
427.625	104.38
427.847	93.38
428.069	101.38
428.292	103.38
428.514	95.38
428.736	82.38
428.958	96.38
429.181	99.38
429.403	93.38
429.625	92.38
429.847	95.38
430.069	79.38
430.292	98.38
430.514	104.38
430.736	100.38
430.958	105.38
431.18	85.38
431.402	94.38
431.624	106.38
431.846	107.38
432.068	106.38
432.29	96.38
432.512	96.38
432.734	98.38
432.956	95.38
433.178	92.38
433.4	84.38
433.622	87.38
433.844	94.38
434.066	93.38
434.287	94.38
434.509	97.38
434.731	83.38
434.953	100.38
435.175	102.38
435.397	96.38
435.618	90.38
435.84	104.38
436.062	90.38
436.284	101.38
436.505	94.38
436.727	95.38
436.949	97.38
437.17	79.38
437.392	75.38
437.614	83.38
437.835	106.38
438.057	90.38
438.278	89.38
438.5	96.38
438.721	101.38
438.943	91.38
439.165	94.38
439.386	99.38
439.608	102.38
439.829	102.38
440.05	97.38
440.272	101.38
440.493	105.38
440.715	103.38
440.936	107.38
441.158	88.38
441.379	92.38
441.6	109.38
441.822	98.38
442.043	94.38
442.264	85.38
442.486	99.38
442.707	85.38
442.928	92.38
443.149	94.38
443.371	99.38
443.592	93.38
443.813	94.38
444.034	109.38
444.255	92.38
444.476	96.38
444.698	115.38
444.919	120.38
445.14	226.38
445.361	154.38
445.582	97.38
445.803	92.38
446.024	100.38
446.245	96.38
446.466	114.38
446.687	105.38
446.908	105.38
447.129	94.38
447.35	83.38
447.571	89.38
447.792	91.38
448.013	86.38
448.234	83.38
448.455	97.38
448.675	103.38
448.896	96.38
449.117	93.38
449.338	86.38
449.559	100.38
449.779	98.38
450	92.38
450.221	83.38
450.442	99.38
450.662	107.38
450.883	104.38
451.104	78.38
451.324	110.38
451.545	94.38
451.766	102.38
451.986	98.38
452.207	97.38
452.428	98.38
452.648	97.38
452.869	84.38
453.089	95.38
453.31	76.38
453.53	91.38
453.751	88.38
453.971	92.38
454.192	90.38
454.412	98.38
454.633	106.38
454.853	89.38
455.073	92.38
455.294	104.38
455.514	92.38
455.734	93.38
455.955	91.38
456.175	107.38
456.395	87.38
456.616	98.38
456.836	94.38
457.056	106.38
457.276	97.38
457.497	83.38
457.717	90.38
457.937	93.38
458.157	93.38
458.377	82.38
458.598	97.38
458.818	102.38
459.038	107.38
459.258	87.38
459.478	84.38
459.698	92.38
459.918	90.38
460.138	90.38
460.358	97.38
460.578	115.38
460.798	118.38
461.018	104.38
461.238	106.38
461.458	116.38
461.678	115.38
461.898	94.38
462.118	100.38
462.338	99.38
462.558	99.38
462.777	104.38
462.997	99.38
463.217	96.38
463.437	106.38
463.657	100.38
463.876	90.38
464.096	105.38
464.316	111.38
464.536	86.38
464.755	103.38
464.975	90.38
465.195	97.38
465.414	106.38
465.634	104.38
465.854	91.38
466.073	95.38
466.293	88.38
466.512	103.38
466.732	88.38
466.951	93.38
467.171	112.38
467.391	108.38
467.61	95.38
467.829	100.38
468.049	101.38
468.268	104.38
468.488	98.38
468.707	104.38
468.927	99.38
469.146	97.38
469.365	91.38
469.585	83.38
469.804	93.38
470.023	92.38
470.243	102.38
470.462	107.38
470.681	94.38
470.901	107.38
471.12	96.38
471.339	101.38
471.558	104.38
471.777	82.38
471.997	93.38
472.216	98.38
472.435	98.38
472.654	103.38
472.873	101.38
473.092	95.38
473.311	102.38
473.53	102.38
473.749	99.38
473.968	97.38
474.187	87.38
474.406	101.38
474.625	103.38
474.844	98.38
475.063	94.38
475.282	102.38
475.501	84.38
475.72	98.38
475.939	108.38
476.158	108.38
476.377	89.38
476.596	97.38
476.814	104.38
477.033	94.38
477.252	97.38
477.471	91.38
477.69	101.38
477.908	102.38
478.127	98.38
478.346	111.38
478.564	108.38
478.783	107.38
479.002	109.38
479.22	88.38
479.439	94.38
479.658	110.38
479.876	104.38
480.095	88.38
480.313	94.38
480.532	111.38
480.751	116.38
480.969	98.38
481.188	102.38
481.406	91.38
481.624	105.38
481.843	96.38
482.061	103.38
482.28	100.38
482.498	98.38
482.717	81.38
482.935	111.38
483.153	104.38
483.372	101.38
483.59	110.38
483.808	90.38
484.027	115.38
484.245	92.38
484.463	108.38
484.681	109.38
484.9	108.38
485.118	106.38
485.336	97.38
485.554	105.38
485.772	96.38
485.99	114.38
486.209	99.38
486.427	108.38
486.645	107.38
486.863	97.38
487.081	99.38
487.299	121.38
487.517	109.38
487.735	103.38
487.953	103.38
488.171	99.38
488.389	104.38
488.607	111.38
488.825	113.38
489.043	99.38
489.261	110.38
489.479	103.38
489.696	98.38
489.914	104.38
490.132	119.38
490.35	105.38
490.568	112.38
490.786	114.38
491.003	119.38
491.221	112.38
491.439	116.38
491.657	113.38
491.874	118.38
492.092	112.38
492.31	122.38
492.527	121.38
492.745	130.38
492.963	103.38
493.18	120.38
493.398	120.38
493.615	104.38
493.833	110.38
494.05	130.38
494.268	106.38
494.485	112.38
494.703	118.38
494.92	123.38
495.138	119.38
495.355	117.38
495.573	110.38
495.79	121.38
496.008	121.38
496.225	118.38
496.442	120.38
496.66	128.38
496.877	117.38
497.094	117.38
497.312	102.38
497.529	118.38
497.746	112.38
497.963	104.38
498.181	124.38
498.398	118.38
498.615	127.38
498.832	114.38
499.049	123.38
499.267	138.38
499.484	129.38
499.701	138.38
499.918	158.38
500.135	147.38
500.352	166.38
500.569	172.38
500.786	161.38
501.003	154.38
501.22	140.38
501.437	130.38
501.654	140.38
501.871	135.38
502.088	126.38
502.305	127.38
502.522	121.38
502.739	122.38
502.956	117.38
503.172	120.38
503.389	105.38
503.606	122.38
503.823	102.38
504.04	120.38
504.256	118.38
504.473	114.38
504.69	108.38
504.907	130.38
505.123	97.38
505.34	112.38
505.557	127.38
505.773	116.38
505.99	119.38
506.207	110.38
506.423	101.38
506.64	110.38
506.856	107.38
507.073	108.38
507.289	114.38
507.506	112.38
507.722	102.38
507.939	104.38
508.155	106.38
508.372	113.38
508.588	99.38
508.805	116.38
509.021	110.38
509.238	114.38
509.454	93.38
509.67	107.38
509.887	105.38
510.103	91.38
510.319	109.38
510.536	113.38
510.752	92.38
510.968	116.38
511.184	97.38
511.401	93.38
511.617	104.38
511.833	93.38
512.049	120.38
512.265	120.38
512.481	95.38
512.698	101.38
512.914	113.38
513.13	99.38
513.346	110.38
513.562	102.38
513.778	83.38
513.994	93.38
