Data from Location5.07152019.Energy5.Lamp.07192019.3%Agarose_HRD10591_16-05-00-629.txt Node
Date: Fri Jul 19 16:05:00 EDT 2019
User: cochatt
Spectrometer: HR+D1059
Trigger mode: 1
Integration Time (sec): 1.000000E-1
Scans to average: 1
Electric dark correction enabled: true
Nonlinearity correction enabled: false
Boxcar width: 0
XAxis mode: Wavelengths
Number of Pixels in Spectrum: 2048
>>>>>Begin Spectral Data<<<<<
223.165	-7.5
223.4	-7.5
223.635	-7.5
223.869	-28.5
224.104	-18.5
224.338	-11.5
224.573	-21.5
224.808	-20.5
225.042	-5.5
225.277	-8.5
225.511	-5.5
225.746	17.5
225.98	-1.5
226.215	18.5
226.449	3.5
226.683	25.5
226.918	23.5
227.152	40.5
227.387	37.5
227.621	32.5
227.856	51.5
228.09	24.5
228.324	48.5
228.559	57.5
228.793	59.5
229.027	74.5
229.262	66.5
229.496	57.5
229.73	70.5
229.964	70.5
230.199	71.5
230.433	65.5
230.667	74.5
230.901	75.5
231.136	62.5
231.37	80.5
231.604	88.5
231.838	93.5
232.072	80.5
232.306	87.5
232.541	88.5
232.775	85.5
233.009	82.5
233.243	89.5
233.477	82.5
233.711	98.5
233.945	86.5
234.179	80.5
234.413	88.5
234.647	90.5
234.881	75.5
235.115	91.5
235.349	91.5
235.583	77.5
235.817	78.5
236.051	101.5
236.285	79.5
236.519	82.5
236.753	86.5
236.987	86.5
237.221	86.5
237.455	80.5
237.689	91.5
237.922	81.5
238.156	79.5
238.39	96.5
238.624	73.5
238.858	78.5
239.091	86.5
239.325	86.5
239.559	84.5
239.793	74.5
240.027	71.5
240.26	80.5
240.494	84.5
240.728	78.5
240.961	85.5
241.195	77.5
241.429	77.5
241.662	84.5
241.896	102.5
242.13	76.5
242.363	72.5
242.597	85.5
242.83	90.5
243.064	75.5
243.298	87.5
243.531	82.5
243.765	82.5
243.998	83.5
244.232	77.5
244.465	84.5
244.699	74.5
244.932	76.5
245.166	70.5
245.399	82.5
245.633	84.5
245.866	82.5
246.099	75.5
246.333	85.5
246.566	88.5
246.8	84.5
247.033	75.5
247.266	79.5
247.5	80.5
247.733	69.5
247.966	84.5
248.2	80.5
248.433	85.5
248.666	80.5
248.899	75.5
249.133	83.5
249.366	86.5
249.599	89.5
249.832	85.5
250.066	80.5
250.299	66.5
250.532	88.5
250.765	88.5
250.998	81.5
251.231	98.5
251.465	84.5
251.698	78.5
251.931	87.5
252.164	93.5
252.397	80.5
252.63	87.5
252.863	83.5
253.096	85.5
253.329	87.5
253.562	85.5
253.795	89.5
254.028	86.5
254.261	87.5
254.494	95.5
254.727	90.5
254.96	78.5
255.193	80.5
255.426	70.5
255.659	100.5
255.892	85.5
256.124	84.5
256.357	88.5
256.59	85.5
256.823	92.5
257.056	88.5
257.289	86.5
257.521	88.5
257.754	88.5
257.987	84.5
258.22	103.5
258.452	92.5
258.685	85.5
258.918	83.5
259.151	92.5
259.383	80.5
259.616	78.5
259.849	79.5
260.081	92.5
260.314	85.5
260.547	91.5
260.779	81.5
261.012	78.5
261.244	79.5
261.477	88.5
261.71	83.5
261.942	97.5
262.175	81.5
262.407	74.5
262.64	82.5
262.872	87.5
263.105	88.5
263.337	93.5
263.57	85.5
263.802	81.5
264.035	85.5
264.267	84.5
264.499	76.5
264.732	98.5
264.964	88.5
265.197	93.5
265.429	78.5
265.661	64.5
265.894	84.5
266.126	84.5
266.358	88.5
266.591	79.5
266.823	92.5
267.055	99.5
267.287	93.5
267.52	79.5
267.752	87.5
267.984	85.5
268.216	85.5
268.448	101.5
268.681	92.5
268.913	92.5
269.145	83.5
269.377	87.5
269.609	76.5
269.841	83.5
270.073	98.5
270.306	82.5
270.538	88.5
270.77	86.5
271.002	85.5
271.234	80.5
271.466	87.5
271.698	94.5
271.93	83.5
272.162	93.5
272.394	82.5
272.626	75.5
272.858	78.5
273.09	86.5
273.322	89.5
273.553	90.5
273.785	101.5
274.017	83.5
274.249	78.5
274.481	92.5
274.713	83.5
274.945	92.5
275.176	88.5
275.408	93.5
275.64	93.5
275.872	80.5
276.104	78.5
276.335	82.5
276.567	89.5
276.799	96.5
277.031	101.5
277.262	90.5
277.494	91.5
277.726	80.5
277.957	93.5
278.189	74.5
278.421	88.5
278.652	94.5
278.884	91.5
279.115	88.5
279.347	99.5
279.579	95.5
279.81	87.5
280.042	90.5
280.273	77.5
280.505	92.5
280.736	87.5
280.968	77.5
281.199	86.5
281.431	101.5
281.662	88.5
281.894	85.5
282.125	93.5
282.356	93.5
282.588	87.5
282.819	94.5
283.051	96.5
283.282	75.5
283.513	99.5
283.745	104.5
283.976	85.5
284.207	97.5
284.439	91.5
284.67	90.5
284.901	86.5
285.132	92.5
285.364	86.5
285.595	97.5
285.826	96.5
286.057	88.5
286.288	87.5
286.52	107.5
286.751	88.5
286.982	86.5
287.213	91.5
287.444	96.5
287.675	86.5
287.906	95.5
288.138	87.5
288.369	92.5
288.6	86.5
288.831	92.5
289.062	91.5
289.293	87.5
289.524	102.5
289.755	100.5
289.986	90.5
290.217	74.5
290.448	95.5
290.679	88.5
290.91	85.5
291.141	92.5
291.371	86.5
291.602	97.5
291.833	88.5
292.064	92.5
292.295	81.5
292.526	73.5
292.757	86.5
292.987	82.5
293.218	92.5
293.449	100.5
293.68	81.5
293.91	79.5
294.141	96.5
294.372	83.5
294.603	76.5
294.833	78.5
295.064	96.5
295.295	85.5
295.525	89.5
295.756	94.5
295.987	88.5
296.217	88.5
296.448	96.5
296.679	102.5
296.909	90.5
297.14	87.5
297.37	84.5
297.601	97.5
297.831	83.5
298.062	84.5
298.292	88.5
298.523	89.5
298.753	98.5
298.984	86.5
299.214	88.5
299.445	74.5
299.675	83.5
299.905	94.5
300.136	104.5
300.366	99.5
300.597	105.5
300.827	88.5
301.057	88.5
301.288	97.5
301.518	104.5
301.748	93.5
301.979	85.5
302.209	83.5
302.439	103.5
302.669	89.5
302.9	89.5
303.13	87.5
303.36	80.5
303.59	96.5
303.82	102.5
304.051	99.5
304.281	88.5
304.511	99.5
304.741	90.5
304.971	90.5
305.201	100.5
305.431	113.5
305.661	84.5
305.891	88.5
306.121	98.5
306.352	104.5
306.582	90.5
306.812	90.5
307.042	99.5
307.272	96.5
307.502	100.5
307.731	88.5
307.961	103.5
308.191	91.5
308.421	96.5
308.651	82.5
308.881	88.5
309.111	102.5
309.341	88.5
309.571	89.5
309.8	90.5
310.03	97.5
310.26	97.5
310.49	88.5
310.72	76.5
310.949	87.5
311.179	95.5
311.409	96.5
311.639	104.5
311.868	83.5
312.098	94.5
312.328	108.5
312.557	82.5
312.787	92.5
313.017	91.5
313.246	94.5
313.476	101.5
313.706	101.5
313.935	113.5
314.165	97.5
314.394	107.5
314.624	92.5
314.853	91.5
315.083	97.5
315.312	90.5
315.542	87.5
315.771	93.5
316.001	100.5
316.23	97.5
316.46	102.5
316.689	105.5
316.919	89.5
317.148	94.5
317.377	96.5
317.607	96.5
317.836	93.5
318.065	122.5
318.295	91.5
318.524	112.5
318.753	92.5
318.983	114.5
319.212	90.5
319.441	82.5
319.67	91.5
319.9	89.5
320.129	85.5
320.358	101.5
320.587	97.5
320.816	90.5
321.046	102.5
321.275	105.5
321.504	77.5
321.733	94.5
321.962	92.5
322.191	88.5
322.42	87.5
322.649	91.5
322.878	97.5
323.108	81.5
323.337	90.5
323.566	98.5
323.795	94.5
324.024	94.5
324.253	103.5
324.482	85.5
324.71	100.5
324.939	87.5
325.168	89.5
325.397	98.5
325.626	113.5
325.855	98.5
326.084	90.5
326.313	100.5
326.542	92.5
326.77	86.5
326.999	91.5
327.228	91.5
327.457	92.5
327.686	101.5
327.914	96.5
328.143	105.5
328.372	91.5
328.6	98.5
328.829	101.5
329.058	91.5
329.287	88.5
329.515	92.5
329.744	92.5
329.972	91.5
330.201	93.5
330.43	111.5
330.658	95.5
330.887	104.5
331.115	92.5
331.344	92.5
331.572	100.5
331.801	91.5
332.03	90.5
332.258	92.5
332.486	109.5
332.715	90.5
332.943	105.5
333.172	94.5
333.4	97.5
333.629	106.5
333.857	97.5
334.085	106.5
334.314	79.5
334.542	92.5
334.771	98.5
334.999	100.5
335.227	96.5
335.455	98.5
335.684	104.5
335.912	92.5
336.14	107.5
336.369	94.5
336.597	105.5
336.825	90.5
337.053	104.5
337.281	93.5
337.51	105.5
337.738	81.5
337.966	89.5
338.194	95.5
338.422	91.5
338.65	111.5
338.878	95.5
339.106	88.5
339.334	96.5
339.562	93.5
339.79	97.5
340.018	78.5
340.246	87.5
340.474	96.5
340.702	93.5
340.93	92.5
341.158	98.5
341.386	91.5
341.614	95.5
341.842	94.5
342.07	98.5
342.298	104.5
342.526	102.5
342.754	101.5
342.981	85.5
343.209	107.5
343.437	104.5
343.665	96.5
343.893	96.5
344.12	91.5
344.348	104.5
344.576	108.5
344.804	83.5
345.031	98.5
345.259	106.5
345.487	86.5
345.714	96.5
345.942	100.5
346.17	94.5
346.397	98.5
346.625	93.5
346.853	67.5
347.08	96.5
347.308	84.5
347.535	100.5
347.763	87.5
347.99	108.5
348.218	97.5
348.445	112.5
348.673	92.5
348.9	82.5
349.128	98.5
349.355	83.5
349.583	93.5
349.81	85.5
350.037	87.5
350.265	93.5
350.492	98.5
350.72	88.5
350.947	96.5
351.174	99.5
351.402	93.5
351.629	102.5
351.856	86.5
352.083	81.5
352.311	96.5
352.538	99.5
352.765	90.5
352.992	94.5
353.22	102.5
353.447	89.5
353.674	92.5
353.901	103.5
354.128	91.5
354.355	90.5
354.583	96.5
354.81	90.5
355.037	108.5
355.264	84.5
355.491	77.5
355.718	92.5
355.945	73.5
356.172	94.5
356.399	97.5
356.626	88.5
356.853	90.5
357.08	104.5
357.307	87.5
357.534	106.5
357.761	100.5
357.988	89.5
358.215	94.5
358.441	93.5
358.668	93.5
358.895	93.5
359.122	99.5
359.349	80.5
359.576	99.5
359.802	89.5
360.029	108.5
360.256	91.5
360.483	96.5
360.709	92.5
360.936	98.5
361.163	96.5
361.39	94.5
361.616	99.5
361.843	87.5
362.07	97.5
362.296	92.5
362.523	98.5
362.749	100.5
362.976	87.5
363.203	91.5
363.429	96.5
363.656	86.5
363.882	82.5
364.109	84.5
364.335	92.5
364.562	86.5
364.788	86.5
365.015	99.5
365.241	90.5
365.468	99.5
365.694	106.5
365.92	85.5
366.147	97.5
366.373	88.5
366.599	76.5
366.826	84.5
367.052	96.5
367.278	94.5
367.505	100.5
367.731	72.5
367.957	102.5
368.184	96.5
368.41	97.5
368.636	83.5
368.862	99.5
369.089	85.5
369.315	99.5
369.541	79.5
369.767	88.5
369.993	76.5
370.219	81.5
370.445	111.5
370.672	99.5
370.898	97.5
371.124	86.5
371.35	92.5
371.576	74.5
371.802	98.5
372.028	98.5
372.254	89.5
372.48	78.5
372.706	87.5
372.932	84.5
373.158	81.5
373.384	91.5
373.61	95.5
373.835	97.5
374.061	89.5
374.287	91.5
374.513	94.5
374.739	91.5
374.965	84.5
375.191	96.5
375.416	86.5
375.642	92.5
375.868	84.5
376.094	89.5
376.319	85.5
376.545	81.5
376.771	82.5
376.997	88.5
377.222	76.5
377.448	86.5
377.674	93.5
377.899	98.5
378.125	80.5
378.35	84.5
378.576	78.5
378.802	90.5
379.027	88.5
379.253	89.5
379.478	88.5
379.704	87.5
379.929	99.5
380.155	105.5
380.38	94.5
380.606	95.5
380.831	102.5
381.057	104.5
381.282	93.5
381.507	86.5
381.733	97.5
381.958	86.5
382.184	101.5
382.409	88.5
382.634	86.5
382.86	95.5
383.085	98.5
383.31	94.5
383.535	98.5
383.761	90.5
383.986	79.5
384.211	112.5
384.436	88.5
384.662	96.5
384.887	91.5
385.112	86.5
385.337	84.5
385.562	102.5
385.787	97.5
386.013	101.5
386.238	93.5
386.463	97.5
386.688	102.5
386.913	90.5
387.138	104.5
387.363	104.5
387.588	79.5
387.813	93.5
388.038	98.5
388.263	100.5
388.488	88.5
388.713	92.5
388.938	99.5
389.163	90.5
389.387	87.5
389.612	85.5
389.837	95.5
390.062	99.5
390.287	112.5
390.512	103.5
390.736	94.5
390.961	83.5
391.186	97.5
391.411	90.5
391.636	98.5
391.86	99.5
392.085	114.5
392.31	107.5
392.534	96.5
392.759	88.5
392.984	92.5
393.208	107.5
393.433	97.5
393.658	93.5
393.882	101.5
394.107	92.5
394.331	89.5
394.556	97.5
394.78	107.5
395.005	97.5
395.229	85.5
395.454	91.5
395.678	106.5
395.903	98.5
396.127	96.5
396.352	83.5
396.576	87.5
396.801	94.5
397.025	109.5
397.249	94.5
397.474	86.5
397.698	99.5
397.922	84.5
398.147	105.5
398.371	95.5
398.595	77.5
398.82	94.5
399.044	93.5
399.268	101.5
399.492	88.5
399.717	111.5
399.941	116.5
400.165	99.5
400.389	108.5
400.613	83.5
400.837	87.5
401.062	104.5
401.286	92.5
401.51	85.5
401.734	98.5
401.958	85.5
402.182	105.5
402.406	92.5
402.63	86.5
402.854	108.5
403.078	108.5
403.302	98.5
403.526	110.5
403.75	95.5
403.974	109.5
404.198	116.5
404.422	104.5
404.645	112.5
404.869	101.5
405.093	104.5
405.317	87.5
405.541	106.5
405.765	99.5
405.988	99.5
406.212	79.5
406.436	93.5
406.66	101.5
406.883	120.5
407.107	91.5
407.331	84.5
407.555	95.5
407.778	108.5
408.002	110.5
408.226	113.5
408.449	91.5
408.673	103.5
408.896	110.5
409.12	93.5
409.344	92.5
409.567	105.5
409.791	102.5
410.014	90.5
410.238	99.5
410.461	104.5
410.685	104.5
410.908	92.5
411.132	89.5
411.355	103.5
411.578	81.5
411.802	79.5
412.025	82.5
412.249	96.5
412.472	92.5
412.695	100.5
412.919	97.5
413.142	98.5
413.365	97.5
413.589	94.5
413.812	90.5
414.035	100.5
414.258	72.5
414.482	90.5
414.705	102.5
414.928	87.5
415.151	100.5
415.374	95.5
415.597	83.5
415.821	101.5
416.044	98.5
416.267	106.5
416.49	93.5
416.713	95.5
416.936	106.5
417.159	100.5
417.382	93.5
417.605	90.5
417.828	86.5
418.051	88.5
418.274	99.5
418.497	85.5
418.72	93.5
418.943	99.5
419.166	85.5
419.389	96.5
419.611	99.5
419.834	110.5
420.057	102.5
420.28	114.5
420.503	99.5
420.726	115.5
420.948	96.5
421.171	103.5
421.394	108.5
421.617	91.5
421.839	106.5
422.062	97.5
422.285	92.5
422.507	103.5
422.73	91.5
422.953	97.5
423.175	94.5
423.398	108.5
423.621	100.5
423.843	100.5
424.066	78.5
424.288	91.5
424.511	81.5
424.733	92.5
424.956	93.5
425.178	108.5
425.401	108.5
425.623	95.5
425.846	113.5
426.068	94.5
426.291	88.5
426.513	91.5
426.735	103.5
426.958	89.5
427.18	93.5
427.402	103.5
427.625	98.5
427.847	86.5
428.069	84.5
428.292	93.5
428.514	98.5
428.736	112.5
428.958	92.5
429.181	95.5
429.403	88.5
429.625	86.5
429.847	76.5
430.069	96.5
430.292	84.5
430.514	91.5
430.736	100.5
430.958	113.5
431.18	71.5
431.402	100.5
431.624	95.5
431.846	81.5
432.068	91.5
432.29	85.5
432.512	106.5
432.734	100.5
432.956	97.5
433.178	97.5
433.4	98.5
433.622	88.5
433.844	92.5
434.066	103.5
434.287	100.5
434.509	93.5
434.731	84.5
434.953	83.5
435.175	97.5
435.397	97.5
435.618	104.5
435.84	81.5
436.062	97.5
436.284	87.5
436.505	95.5
436.727	95.5
436.949	100.5
437.17	107.5
437.392	101.5
437.614	80.5
437.835	86.5
438.057	84.5
438.278	82.5
438.5	87.5
438.721	105.5
438.943	89.5
439.165	103.5
439.386	104.5
439.608	100.5
439.829	93.5
440.05	107.5
440.272	91.5
440.493	93.5
440.715	90.5
440.936	100.5
441.158	82.5
441.379	105.5
441.6	93.5
441.822	101.5
442.043	103.5
442.264	95.5
442.486	92.5
442.707	103.5
442.928	95.5
443.149	91.5
443.371	94.5
443.592	101.5
443.813	87.5
444.034	89.5
444.255	101.5
444.476	98.5
444.698	116.5
444.919	108.5
445.14	214.5
445.361	151.5
445.582	109.5
445.803	96.5
446.024	99.5
446.245	90.5
446.466	96.5
446.687	98.5
446.908	100.5
447.129	85.5
447.35	90.5
447.571	89.5
447.792	82.5
448.013	104.5
448.234	86.5
448.455	97.5
448.675	93.5
448.896	93.5
449.117	77.5
449.338	88.5
449.559	91.5
449.779	100.5
450	86.5
450.221	101.5
450.442	87.5
450.662	88.5
450.883	90.5
451.104	83.5
451.324	103.5
451.545	87.5
451.766	94.5
451.986	96.5
452.207	96.5
452.428	85.5
452.648	92.5
452.869	85.5
453.089	93.5
453.31	102.5
453.53	103.5
453.751	76.5
453.971	89.5
454.192	103.5
454.412	88.5
454.633	99.5
454.853	89.5
455.073	101.5
455.294	100.5
455.514	83.5
455.734	77.5
455.955	104.5
456.175	89.5
456.395	84.5
456.616	102.5
456.836	93.5
457.056	87.5
457.276	97.5
457.497	91.5
457.717	91.5
457.937	90.5
458.157	91.5
458.377	93.5
458.598	95.5
458.818	92.5
459.038	98.5
459.258	96.5
459.478	86.5
459.698	97.5
459.918	96.5
460.138	67.5
460.358	89.5
460.578	94.5
460.798	100.5
461.018	89.5
461.238	88.5
461.458	98.5
461.678	98.5
461.898	92.5
462.118	87.5
462.338	99.5
462.558	96.5
462.777	86.5
462.997	105.5
463.217	92.5
463.437	110.5
463.657	117.5
463.876	97.5
464.096	98.5
464.316	93.5
464.536	105.5
464.755	109.5
464.975	93.5
465.195	93.5
465.414	94.5
465.634	101.5
465.854	100.5
466.073	103.5
466.293	87.5
466.512	88.5
466.732	78.5
466.951	97.5
467.171	97.5
467.391	92.5
467.61	85.5
467.829	101.5
468.049	97.5
468.268	102.5
468.488	87.5
468.707	89.5
468.927	87.5
469.146	86.5
469.365	96.5
469.585	95.5
469.804	93.5
470.023	100.5
470.243	108.5
470.462	94.5
470.681	93.5
470.901	89.5
471.12	99.5
471.339	91.5
471.558	93.5
471.777	97.5
471.997	95.5
472.216	100.5
472.435	92.5
472.654	95.5
472.873	101.5
473.092	98.5
473.311	105.5
473.53	80.5
473.749	97.5
473.968	108.5
474.187	88.5
474.406	103.5
474.625	95.5
474.844	103.5
475.063	82.5
475.282	96.5
475.501	98.5
475.72	95.5
475.939	104.5
476.158	101.5
476.377	81.5
476.596	102.5
476.814	102.5
477.033	96.5
477.252	87.5
477.471	98.5
477.69	104.5
477.908	114.5
478.127	86.5
478.346	91.5
478.564	88.5
478.783	98.5
479.002	106.5
479.22	91.5
479.439	116.5
479.658	111.5
479.876	117.5
480.095	105.5
480.313	99.5
480.532	103.5
480.751	103.5
480.969	114.5
481.188	90.5
481.406	88.5
481.624	88.5
481.843	97.5
482.061	92.5
482.28	100.5
482.498	92.5
482.717	96.5
482.935	101.5
483.153	109.5
483.372	93.5
483.59	117.5
483.808	104.5
484.027	104.5
484.245	107.5
484.463	103.5
484.681	92.5
484.9	106.5
485.118	104.5
485.336	101.5
485.554	95.5
485.772	85.5
485.99	113.5
486.209	106.5
486.427	99.5
486.645	112.5
486.863	107.5
487.081	113.5
487.299	97.5
487.517	100.5
487.735	103.5
487.953	95.5
488.171	109.5
488.389	128.5
488.607	108.5
488.825	104.5
489.043	93.5
489.261	88.5
489.479	99.5
489.696	112.5
489.914	106.5
490.132	85.5
490.35	112.5
490.568	100.5
490.786	116.5
491.003	93.5
491.221	112.5
491.439	98.5
491.657	103.5
491.874	112.5
492.092	101.5
492.31	112.5
492.527	113.5
492.745	125.5
492.963	115.5
493.18	108.5
493.398	107.5
493.615	124.5
493.833	108.5
494.05	110.5
494.268	99.5
494.485	104.5
494.703	107.5
494.92	119.5
495.138	118.5
495.355	123.5
495.573	119.5
495.79	113.5
496.008	105.5
496.225	100.5
496.442	108.5
496.66	90.5
496.877	117.5
497.094	106.5
497.312	116.5
497.529	121.5
497.746	98.5
497.963	106.5
498.181	105.5
498.398	113.5
498.615	128.5
498.832	120.5
499.049	121.5
499.267	121.5
499.484	116.5
499.701	125.5
499.918	135.5
500.135	128.5
500.352	149.5
500.569	157.5
500.786	147.5
501.003	153.5
501.22	138.5
501.437	128.5
501.654	138.5
501.871	128.5
502.088	114.5
502.305	122.5
502.522	113.5
502.739	113.5
502.956	109.5
503.172	109.5
503.389	114.5
503.606	110.5
503.823	103.5
504.04	108.5
504.256	109.5
504.473	101.5
504.69	111.5
504.907	121.5
505.123	109.5
505.34	113.5
505.557	106.5
505.773	105.5
505.99	109.5
506.207	103.5
506.423	105.5
506.64	105.5
506.856	98.5
507.073	92.5
507.289	103.5
507.506	103.5
507.722	93.5
507.939	109.5
508.155	101.5
508.372	96.5
508.588	117.5
508.805	96.5
509.021	117.5
509.238	112.5
509.454	98.5
509.67	97.5
509.887	99.5
510.103	114.5
510.319	103.5
510.536	87.5
510.752	103.5
510.968	101.5
511.184	101.5
511.401	90.5
511.617	88.5
511.833	104.5
512.049	93.5
512.265	114.5
512.481	98.5
512.698	99.5
512.914	90.5
513.13	112.5
513.346	102.5
513.562	83.5
513.778	90.5
513.994	105.5
514.21	92.5
514.426	109.5
514.642	90.5
514.858	86.5
515.074	91.5
515.29	113.5
515.506	116.5
515.721	103.5
515.937	101.5
516.153	113.5
516.369	92.5
516.585	102.5
516.801	107.5
517.016	109.5
517.232	115.5
517.448	104.5
517.664	108.5
517.879	101.5
518.095	102.5
518.311	105.5
518.527	93.5
518.742	103.5
518.958	92.5
519.173	104.5
519.389	105.5
519.605	99.5
519.82	114.5
520.036	102.5
520.251	98.5
520.467	97.5
520.682	116.5
520.898	111.5
521.113	90.5
521.329	102.5
521.544	85.5
521.76	95.5
521.975	92.5
522.19	97.5
522.406	104.5
522.621	99.5
522.836	105.5
523.052	104.5
523.267	107.5
523.482	90.5
523.698	119.5
523.913	104.5
524.128	101.5
524.343	94.5
524.559	114.5
524.774	89.5
524.989	105.5
525.204	93.5
525.419	101.5
525.634	94.5
525.849	102.5
526.064	95.5
526.28	90.5
526.495	93.5
526.71	102.5
526.925	92.5
527.14	105.5
527.355	113.5
527.57	103.5
527.785	95.5
527.999	99.5
528.214	96.5
528.429	97.5
528.644	110.5
528.859	105.5
529.074	94.5
529.289	115.5
529.503	91.5
529.718	99.5
529.933	103.5
530.148	118.5
530.363	90.5
530.577	93.5
530.792	104.5
531.007	109.5
531.221	99.5
531.436	108.5
531.651	94.5
531.865	106.5
532.08	113.5
532.295	97.5
532.509	96.5
532.724	82.5
532.938	97.5
533.153	93.5
533.367	89.5
533.582	85.5
533.796	83.5
