Data from Location5.07152019.Energy5.Lamp.07192019.3%Agarose_HRD10591_15-36-51-386.txt Node
Date: Fri Jul 19 15:36:51 EDT 2019
User: cochatt
Spectrometer: HR+D1059
Trigger mode: 1
Integration Time (sec): 1.000000E-1
Scans to average: 1
Electric dark correction enabled: true
Nonlinearity correction enabled: false
Boxcar width: 0
XAxis mode: Wavelengths
Number of Pixels in Spectrum: 2048
>>>>>Begin Spectral Data<<<<<
223.165	-7.31
223.4	-7.31
223.635	-7.31
223.869	-11.31
224.104	-10.31
224.338	-13.31
224.573	-4.31
224.808	-20.31
225.042	-20.31
225.277	-11.31
225.511	-9.31
225.746	11.69
225.98	0.69
226.215	4.69
226.449	22.69
226.683	18.69
226.918	22.69
227.152	26.69
227.387	26.69
227.621	32.69
227.856	44.69
228.09	46.69
228.324	48.69
228.559	61.69
228.793	58.69
229.027	64.69
229.262	73.69
229.496	65.69
229.73	72.69
229.964	76.69
230.199	58.69
230.433	77.69
230.667	80.69
230.901	65.69
231.136	76.69
231.37	76.69
231.604	83.69
231.838	92.69
232.072	88.69
232.306	77.69
232.541	83.69
232.775	104.69
233.009	92.69
233.243	70.69
233.477	82.69
233.711	82.69
233.945	78.69
234.179	81.69
234.413	85.69
234.647	76.69
234.881	71.69
235.115	81.69
235.349	91.69
235.583	91.69
235.817	70.69
236.051	88.69
236.285	81.69
236.519	77.69
236.753	86.69
236.987	78.69
237.221	94.69
237.455	88.69
237.689	81.69
237.922	89.69
238.156	78.69
238.39	91.69
238.624	73.69
238.858	92.69
239.091	77.69
239.325	79.69
239.559	74.69
239.793	62.69
240.027	82.69
240.26	71.69
240.494	69.69
240.728	83.69
240.961	79.69
241.195	81.69
241.429	69.69
241.662	65.69
241.896	67.69
242.13	84.69
242.363	75.69
242.597	83.69
242.83	96.69
243.064	81.69
243.298	75.69
243.531	79.69
243.765	71.69
243.998	94.69
244.232	74.69
244.465	63.69
244.699	82.69
244.932	68.69
245.166	77.69
245.399	82.69
245.633	82.69
245.866	73.69
246.099	75.69
246.333	90.69
246.566	80.69
246.8	77.69
247.033	80.69
247.266	74.69
247.5	86.69
247.733	80.69
247.966	85.69
248.2	82.69
248.433	80.69
248.666	77.69
248.899	75.69
249.133	89.69
249.366	89.69
249.599	78.69
249.832	76.69
250.066	91.69
250.299	65.69
250.532	90.69
250.765	90.69
250.998	81.69
251.231	78.69
251.465	89.69
251.698	88.69
251.931	83.69
252.164	62.69
252.397	79.69
252.63	77.69
252.863	84.69
253.096	79.69
253.329	73.69
253.562	70.69
253.795	80.69
254.028	88.69
254.261	88.69
254.494	86.69
254.727	92.69
254.96	75.69
255.193	71.69
255.426	67.69
255.659	77.69
255.892	87.69
256.124	81.69
256.357	67.69
256.59	91.69
256.823	75.69
257.056	79.69
257.289	86.69
257.521	76.69
257.754	67.69
257.987	78.69
258.22	86.69
258.452	75.69
258.685	101.69
258.918	76.69
259.151	84.69
259.383	90.69
259.616	80.69
259.849	76.69
260.081	88.69
260.314	75.69
260.547	82.69
260.779	82.69
261.012	84.69
261.244	85.69
261.477	89.69
261.71	81.69
261.942	86.69
262.175	82.69
262.407	84.69
262.64	89.69
262.872	82.69
263.105	89.69
263.337	88.69
263.57	75.69
263.802	94.69
264.035	80.69
264.267	88.69
264.499	75.69
264.732	69.69
264.964	84.69
265.197	84.69
265.429	74.69
265.661	94.69
265.894	71.69
266.126	90.69
266.358	96.69
266.591	96.69
266.823	75.69
267.055	77.69
267.287	78.69
267.52	80.69
267.752	87.69
267.984	79.69
268.216	76.69
268.448	82.69
268.681	78.69
268.913	88.69
269.145	72.69
269.377	85.69
269.609	78.69
269.841	81.69
270.073	81.69
270.306	68.69
270.538	83.69
270.77	89.69
271.002	80.69
271.234	93.69
271.466	66.69
271.698	77.69
271.93	81.69
272.162	81.69
272.394	81.69
272.626	69.69
272.858	90.69
273.09	80.69
273.322	87.69
273.553	89.69
273.785	73.69
274.017	76.69
274.249	76.69
274.481	69.69
274.713	87.69
274.945	93.69
275.176	88.69
275.408	77.69
275.64	92.69
275.872	72.69
276.104	85.69
276.335	74.69
276.567	78.69
276.799	93.69
277.031	107.69
277.262	87.69
277.494	98.69
277.726	91.69
277.957	78.69
278.189	93.69
278.421	89.69
278.652	84.69
278.884	84.69
279.115	70.69
279.347	85.69
279.579	81.69
279.81	86.69
280.042	92.69
280.273	81.69
280.505	70.69
280.736	92.69
280.968	77.69
281.199	93.69
281.431	90.69
281.662	80.69
281.894	82.69
282.125	83.69
282.356	72.69
282.588	77.69
282.819	74.69
283.051	71.69
283.282	89.69
283.513	82.69
283.745	80.69
283.976	76.69
284.207	92.69
284.439	95.69
284.67	80.69
284.901	79.69
285.132	87.69
285.364	81.69
285.595	78.69
285.826	88.69
286.057	82.69
286.288	84.69
286.52	86.69
286.751	86.69
286.982	72.69
287.213	85.69
287.444	81.69
287.675	75.69
287.906	95.69
288.138	84.69
288.369	70.69
288.6	87.69
288.831	77.69
289.062	100.69
289.293	88.69
289.524	89.69
289.755	85.69
289.986	85.69
290.217	86.69
290.448	99.69
290.679	89.69
290.91	86.69
291.141	81.69
291.371	84.69
291.602	88.69
291.833	80.69
292.064	95.69
292.295	96.69
292.526	87.69
292.757	88.69
292.987	81.69
293.218	77.69
293.449	88.69
293.68	89.69
293.91	81.69
294.141	84.69
294.372	78.69
294.603	74.69
294.833	88.69
295.064	90.69
295.295	87.69
295.525	93.69
295.756	87.69
295.987	92.69
296.217	83.69
296.448	78.69
296.679	80.69
296.909	84.69
297.14	89.69
297.37	97.69
297.601	92.69
297.831	98.69
298.062	88.69
298.292	95.69
298.523	92.69
298.753	80.69
298.984	83.69
299.214	67.69
299.445	76.69
299.675	86.69
299.905	85.69
300.136	76.69
300.366	73.69
300.597	81.69
300.827	88.69
301.057	86.69
301.288	82.69
301.518	94.69
301.748	84.69
301.979	84.69
302.209	76.69
302.439	86.69
302.669	83.69
302.9	92.69
303.13	78.69
303.36	83.69
303.59	89.69
303.82	78.69
304.051	92.69
304.281	84.69
304.511	88.69
304.741	87.69
304.971	93.69
305.201	86.69
305.431	83.69
305.661	72.69
305.891	88.69
306.121	82.69
306.352	92.69
306.582	88.69
306.812	89.69
307.042	89.69
307.272	89.69
307.502	89.69
307.731	86.69
307.961	90.69
308.191	79.69
308.421	82.69
308.651	82.69
308.881	80.69
309.111	85.69
309.341	78.69
309.571	82.69
309.8	89.69
310.03	88.69
310.26	92.69
310.49	77.69
310.72	82.69
310.949	86.69
311.179	91.69
311.409	85.69
311.639	85.69
311.868	89.69
312.098	93.69
312.328	89.69
312.557	89.69
312.787	87.69
313.017	73.69
313.246	100.69
313.476	88.69
313.706	83.69
313.935	96.69
314.165	76.69
314.394	82.69
314.624	89.69
314.853	68.69
315.083	99.69
315.312	86.69
315.542	95.69
315.771	91.69
316.001	84.69
316.23	85.69
316.46	85.69
316.689	85.69
316.919	85.69
317.148	75.69
317.377	73.69
317.607	84.69
317.836	76.69
318.065	68.69
318.295	89.69
318.524	83.69
318.753	87.69
318.983	83.69
319.212	83.69
319.441	99.69
319.67	83.69
319.9	95.69
320.129	81.69
320.358	88.69
320.587	101.69
320.816	73.69
321.046	88.69
321.275	100.69
321.504	96.69
321.733	91.69
321.962	100.69
322.191	76.69
322.42	83.69
322.649	104.69
322.878	87.69
323.108	84.69
323.337	82.69
323.566	89.69
323.795	89.69
324.024	76.69
324.253	85.69
324.482	84.69
324.71	83.69
324.939	83.69
325.168	77.69
325.397	76.69
325.626	89.69
325.855	85.69
326.084	97.69
326.313	90.69
326.542	86.69
326.77	88.69
326.999	89.69
327.228	91.69
327.457	96.69
327.686	95.69
327.914	89.69
328.143	91.69
328.372	82.69
328.6	90.69
328.829	88.69
329.058	96.69
329.287	73.69
329.515	93.69
329.744	80.69
329.972	81.69
330.201	84.69
330.43	88.69
330.658	85.69
330.887	85.69
331.115	81.69
331.344	84.69
331.572	78.69
331.801	84.69
332.03	100.69
332.258	80.69
332.486	74.69
332.715	80.69
332.943	85.69
333.172	78.69
333.4	88.69
333.629	92.69
333.857	90.69
334.085	95.69
334.314	77.69
334.542	85.69
334.771	81.69
334.999	76.69
335.227	82.69
335.455	90.69
335.684	75.69
335.912	89.69
336.14	82.69
336.369	89.69
336.597	96.69
336.825	78.69
337.053	100.69
337.281	74.69
337.51	85.69
337.738	80.69
337.966	88.69
338.194	86.69
338.422	85.69
338.65	79.69
338.878	78.69
339.106	97.69
339.334	84.69
339.562	81.69
339.79	78.69
340.018	87.69
340.246	80.69
340.474	78.69
340.702	85.69
340.93	73.69
341.158	72.69
341.386	95.69
341.614	87.69
341.842	84.69
342.07	81.69
342.298	88.69
342.526	97.69
342.754	87.69
342.981	86.69
343.209	83.69
343.437	94.69
343.665	89.69
343.893	86.69
344.12	89.69
344.348	84.69
344.576	86.69
344.804	88.69
345.031	96.69
345.259	78.69
345.487	88.69
345.714	88.69
345.942	88.69
346.17	94.69
346.397	84.69
346.625	93.69
346.853	84.69
347.08	93.69
347.308	88.69
347.535	77.69
347.763	87.69
347.99	92.69
348.218	102.69
348.445	78.69
348.673	89.69
348.9	80.69
349.128	68.69
349.355	87.69
349.583	74.69
349.81	92.69
350.037	81.69
350.265	102.69
350.492	90.69
350.72	78.69
350.947	82.69
351.174	86.69
351.402	84.69
351.629	84.69
351.856	87.69
352.083	92.69
352.311	92.69
352.538	84.69
352.765	74.69
352.992	92.69
353.22	68.69
353.447	79.69
353.674	79.69
353.901	89.69
354.128	86.69
354.355	80.69
354.583	80.69
354.81	88.69
355.037	76.69
355.264	87.69
355.491	86.69
355.718	81.69
355.945	94.69
356.172	90.69
356.399	89.69
356.626	85.69
356.853	67.69
357.08	91.69
357.307	90.69
357.534	86.69
357.761	79.69
357.988	80.69
358.215	87.69
358.441	87.69
358.668	83.69
358.895	81.69
359.122	86.69
359.349	93.69
359.576	90.69
359.802	84.69
360.029	66.69
360.256	87.69
360.483	90.69
360.709	87.69
360.936	74.69
361.163	82.69
361.39	82.69
361.616	78.69
361.843	70.69
362.07	83.69
362.296	92.69
362.523	79.69
362.749	88.69
362.976	92.69
363.203	87.69
363.429	78.69
363.656	82.69
363.882	80.69
364.109	86.69
364.335	73.69
364.562	84.69
364.788	97.69
365.015	89.69
365.241	84.69
365.468	84.69
365.694	96.69
365.92	81.69
366.147	86.69
366.373	87.69
366.599	88.69
366.826	86.69
367.052	88.69
367.278	97.69
367.505	94.69
367.731	85.69
367.957	81.69
368.184	83.69
368.41	90.69
368.636	93.69
368.862	90.69
369.089	78.69
369.315	84.69
369.541	97.69
369.767	94.69
369.993	78.69
370.219	85.69
370.445	86.69
370.672	81.69
370.898	84.69
371.124	66.69
371.35	72.69
371.576	74.69
371.802	96.69
372.028	84.69
372.254	82.69
372.48	73.69
372.706	99.69
372.932	77.69
373.158	92.69
373.384	91.69
373.61	84.69
373.835	91.69
374.061	81.69
374.287	97.69
374.513	82.69
374.739	96.69
374.965	78.69
375.191	84.69
375.416	86.69
375.642	87.69
375.868	81.69
376.094	85.69
376.319	85.69
376.545	86.69
376.771	94.69
376.997	92.69
377.222	81.69
377.448	91.69
377.674	85.69
377.899	69.69
378.125	85.69
378.35	85.69
378.576	80.69
378.802	92.69
379.027	84.69
379.253	99.69
379.478	96.69
379.704	86.69
379.929	91.69
380.155	78.69
380.38	85.69
380.606	92.69
380.831	91.69
381.057	98.69
381.282	93.69
381.507	73.69
381.733	87.69
381.958	96.69
382.184	92.69
382.409	86.69
382.634	74.69
382.86	84.69
383.085	95.69
383.31	90.69
383.535	91.69
383.761	90.69
383.986	88.69
384.211	89.69
384.436	76.69
384.662	92.69
384.887	82.69
385.112	82.69
385.337	81.69
385.562	84.69
385.787	83.69
386.013	102.69
386.238	93.69
386.463	73.69
386.688	87.69
386.913	91.69
387.138	99.69
387.363	91.69
387.588	91.69
387.813	79.69
388.038	106.69
388.263	85.69
388.488	86.69
388.713	89.69
388.938	84.69
389.163	69.69
389.387	102.69
389.612	83.69
389.837	94.69
390.062	99.69
390.287	90.69
390.512	86.69
390.736	90.69
390.961	84.69
391.186	86.69
391.411	94.69
391.636	90.69
391.86	78.69
392.085	84.69
392.31	91.69
392.534	92.69
392.759	99.69
392.984	88.69
393.208	82.69
393.433	90.69
393.658	84.69
393.882	93.69
394.107	102.69
394.331	94.69
394.556	80.69
394.78	93.69
395.005	93.69
395.229	87.69
395.454	80.69
395.678	90.69
395.903	89.69
396.127	91.69
396.352	94.69
396.576	89.69
396.801	91.69
397.025	77.69
397.249	100.69
397.474	83.69
397.698	97.69
397.922	84.69
398.147	96.69
398.371	87.69
398.595	89.69
398.82	95.69
399.044	81.69
399.268	101.69
399.492	98.69
399.717	104.69
399.941	95.69
400.165	75.69
400.389	97.69
400.613	88.69
400.837	80.69
401.062	90.69
401.286	86.69
401.51	92.69
401.734	95.69
401.958	100.69
402.182	83.69
402.406	83.69
402.63	77.69
402.854	84.69
403.078	93.69
403.302	90.69
403.526	88.69
403.75	93.69
403.974	97.69
404.198	90.69
404.422	89.69
404.645	82.69
404.869	98.69
405.093	93.69
405.317	90.69
405.541	89.69
405.765	95.69
405.988	94.69
406.212	88.69
406.436	85.69
406.66	85.69
406.883	77.69
407.107	96.69
407.331	93.69
407.555	98.69
407.778	85.69
408.002	94.69
408.226	93.69
408.449	81.69
408.673	88.69
408.896	64.69
409.12	83.69
409.344	76.69
409.567	86.69
409.791	105.69
410.014	84.69
410.238	88.69
410.461	93.69
410.685	100.69
410.908	99.69
411.132	76.69
411.355	97.69
411.578	98.69
411.802	84.69
412.025	87.69
412.249	93.69
412.472	87.69
412.695	81.69
412.919	84.69
413.142	82.69
413.365	91.69
413.589	101.69
413.812	95.69
414.035	98.69
414.258	93.69
414.482	104.69
414.705	92.69
414.928	81.69
415.151	92.69
415.374	97.69
415.597	98.69
415.821	91.69
416.044	100.69
416.267	99.69
416.49	92.69
416.713	95.69
416.936	89.69
417.159	94.69
417.382	82.69
417.605	82.69
417.828	84.69
418.051	92.69
418.274	89.69
418.497	94.69
418.72	98.69
418.943	90.69
419.166	101.69
419.389	93.69
419.611	95.69
419.834	109.69
420.057	99.69
420.28	91.69
420.503	88.69
420.726	93.69
420.948	82.69
421.171	98.69
421.394	98.69
421.617	100.69
421.839	98.69
422.062	92.69
422.285	87.69
422.507	87.69
422.73	87.69
422.953	81.69
423.175	102.69
423.398	101.69
423.621	87.69
423.843	81.69
424.066	90.69
424.288	103.69
424.511	97.69
424.733	104.69
424.956	89.69
425.178	92.69
425.401	87.69
425.623	101.69
425.846	87.69
426.068	86.69
426.291	104.69
426.513	83.69
426.735	90.69
426.958	105.69
427.18	86.69
427.402	92.69
427.625	97.69
427.847	86.69
428.069	104.69
428.292	109.69
428.514	99.69
428.736	100.69
428.958	103.69
429.181	101.69
429.403	88.69
429.625	88.69
429.847	88.69
430.069	99.69
430.292	107.69
430.514	94.69
430.736	97.69
430.958	88.69
431.18	98.69
431.402	100.69
431.624	84.69
431.846	89.69
432.068	113.69
432.29	85.69
432.512	94.69
432.734	100.69
432.956	95.69
433.178	99.69
433.4	96.69
433.622	96.69
433.844	101.69
434.066	85.69
434.287	93.69
434.509	69.69
434.731	90.69
434.953	89.69
435.175	96.69
435.397	94.69
435.618	93.69
435.84	93.69
436.062	93.69
436.284	85.69
436.505	93.69
436.727	99.69
436.949	96.69
437.17	83.69
437.392	92.69
437.614	98.69
437.835	89.69
438.057	90.69
438.278	101.69
438.5	105.69
438.721	90.69
438.943	97.69
439.165	74.69
439.386	87.69
439.608	99.69
439.829	91.69
440.05	87.69
440.272	99.69
440.493	87.69
440.715	95.69
440.936	101.69
441.158	101.69
441.379	100.69
441.6	97.69
441.822	91.69
442.043	99.69
442.264	84.69
442.486	105.69
442.707	106.69
442.928	108.69
443.149	102.69
443.371	106.69
443.592	98.69
443.813	93.69
444.034	107.69
444.255	94.69
444.476	97.69
444.698	80.69
444.919	102.69
445.14	177.69
445.361	140.69
445.582	100.69
445.803	86.69
446.024	88.69
446.245	86.69
446.466	93.69
446.687	94.69
446.908	107.69
447.129	104.69
447.35	105.69
447.571	104.69
447.792	104.69
448.013	98.69
448.234	94.69
448.455	71.69
448.675	99.69
448.896	102.69
449.117	107.69
449.338	102.69
449.559	99.69
449.779	98.69
450	100.69
450.221	77.69
450.442	102.69
450.662	87.69
450.883	103.69
451.104	97.69
451.324	97.69
451.545	113.69
451.766	102.69
451.986	96.69
452.207	85.69
452.428	93.69
452.648	92.69
452.869	89.69
453.089	90.69
453.31	84.69
453.53	87.69
453.751	100.69
453.971	91.69
454.192	87.69
454.412	74.69
454.633	87.69
454.853	102.69
455.073	107.69
455.294	99.69
455.514	102.69
455.734	96.69
455.955	83.69
456.175	81.69
456.395	103.69
456.616	91.69
456.836	93.69
457.056	86.69
457.276	82.69
457.497	91.69
457.717	81.69
457.937	88.69
458.157	76.69
458.377	69.69
458.598	90.69
458.818	97.69
459.038	87.69
459.258	83.69
459.478	92.69
459.698	88.69
459.918	94.69
460.138	89.69
460.358	85.69
460.578	95.69
460.798	85.69
461.018	98.69
461.238	102.69
461.458	90.69
461.678	94.69
461.898	89.69
462.118	97.69
462.338	93.69
462.558	86.69
462.777	92.69
462.997	85.69
463.217	74.69
463.437	99.69
463.657	103.69
463.876	98.69
464.096	88.69
464.316	96.69
464.536	85.69
464.755	89.69
464.975	77.69
465.195	85.69
465.414	77.69
465.634	94.69
465.854	77.69
466.073	92.69
466.293	105.69
466.512	105.69
466.732	108.69
466.951	95.69
467.171	103.69
467.391	105.69
467.61	92.69
467.829	94.69
468.049	91.69
468.268	102.69
468.488	112.69
468.707	101.69
468.927	92.69
469.146	89.69
469.365	106.69
469.585	97.69
469.804	112.69
470.023	95.69
470.243	114.69
470.462	97.69
470.681	104.69
470.901	101.69
471.12	112.69
471.339	113.69
471.558	107.69
471.777	112.69
471.997	91.69
472.216	89.69
472.435	98.69
472.654	88.69
472.873	85.69
473.092	90.69
473.311	96.69
473.53	86.69
473.749	92.69
473.968	93.69
474.187	93.69
474.406	86.69
474.625	103.69
474.844	92.69
475.063	90.69
475.282	92.69
475.501	99.69
475.72	81.69
475.939	83.69
476.158	98.69
476.377	104.69
476.596	96.69
476.814	85.69
477.033	82.69
477.252	81.69
477.471	95.69
477.69	109.69
477.908	108.69
478.127	117.69
478.346	109.69
478.564	99.69
478.783	97.69
479.002	92.69
479.22	86.69
479.439	109.69
479.658	92.69
479.876	97.69
480.095	85.69
480.313	98.69
480.532	89.69
480.751	86.69
480.969	71.69
481.188	88.69
481.406	98.69
481.624	97.69
481.843	98.69
482.061	90.69
482.28	92.69
482.498	101.69
482.717	80.69
482.935	97.69
483.153	102.69
483.372	98.69
483.59	99.69
483.808	106.69
484.027	100.69
484.245	84.69
484.463	91.69
484.681	99.69
484.9	108.69
485.118	104.69
485.336	104.69
485.554	85.69
485.772	85.69
485.99	103.69
486.209	102.69
486.427	84.69
486.645	100.69
486.863	102.69
487.081	103.69
487.299	91.69
487.517	106.69
487.735	114.69
487.953	119.69
488.171	116.69
488.389	100.69
488.607	106.69
488.825	106.69
489.043	102.69
489.261	108.69
489.479	110.69
489.696	90.69
489.914	90.69
490.132	94.69
490.35	98.69
490.568	106.69
490.786	105.69
491.003	115.69
491.221	100.69
491.439	95.69
491.657	109.69
491.874	120.69
492.092	102.69
492.31	109.69
492.527	131.69
492.745	113.69
492.963	121.69
493.18	118.69
493.398	108.69
493.615	124.69
493.833	106.69
494.05	108.69
494.268	106.69
494.485	113.69
494.703	100.69
494.92	96.69
495.138	121.69
495.355	114.69
495.573	114.69
495.79	102.69
496.008	107.69
496.225	102.69
496.442	97.69
496.66	111.69
496.877	98.69
497.094	104.69
497.312	108.69
497.529	118.69
497.746	106.69
497.963	91.69
498.181	89.69
498.398	102.69
498.615	90.69
498.832	82.69
499.049	101.69
499.267	98.69
499.484	89.69
499.701	103.69
499.918	105.69
500.135	78.69
500.352	93.69
500.569	92.69
500.786	106.69
501.003	90.69
501.22	115.69
501.437	102.69
501.654	108.69
501.871	104.69
502.088	81.69
502.305	99.69
502.522	101.69
502.739	89.69
502.956	104.69
503.172	100.69
503.389	96.69
503.606	102.69
503.823	96.69
504.04	98.69
504.256	89.69
504.473	101.69
504.69	89.69
504.907	101.69
505.123	101.69
505.34	98.69
505.557	108.69
505.773	92.69
505.99	85.69
506.207	112.69
506.423	92.69
506.64	88.69
506.856	105.69
507.073	98.69
507.289	91.69
507.506	88.69
507.722	103.69
507.939	95.69
508.155	93.69
508.372	88.69
508.588	109.69
508.805	113.69
509.021	88.69
509.238	101.69
509.454	91.69
509.67	89.69
509.887	84.69
510.103	87.69
510.319	81.69
510.536	87.69
510.752	93.69
510.968	80.69
511.184	77.69
511.401	86.69
511.617	85.69
511.833	83.69
512.049	98.69
512.265	94.69
512.481	102.69
512.698	93.69
512.914	91.69
513.13	99.69
513.346	88.69
513.562	97.69
513.778	89.69
513.994	82.69
514.21	103.69
514.426	98.69
514.642	83.69
514.858	90.69
515.074	102.69
515.29	97.69
515.506	90.69
515.721	88.69
515.937	97.69
516.153	80.69
516.369	89.69
516.585	102.69
516.801	87.69
517.016	81.69
