Data from Location5.07152019.Energy5.Lamp.07192019.3%Agarose_HRD10591_16-03-30-628.txt Node
Date: Fri Jul 19 16:03:30 EDT 2019
User: cochatt
Spectrometer: HR+D1059
Trigger mode: 1
Integration Time (sec): 1.000000E-1
Scans to average: 1
Electric dark correction enabled: true
Nonlinearity correction enabled: false
Boxcar width: 0
XAxis mode: Wavelengths
Number of Pixels in Spectrum: 2048
>>>>>Begin Spectral Data<<<<<
223.165	-18.5
223.4	-18.5
223.635	-18.5
223.869	-8.5
224.104	-0.5
224.338	-14.5
224.573	-27.5
224.808	-27.5
225.042	-17.5
225.277	9.5
225.511	4.5
225.746	13.5
225.98	5.5
226.215	4.5
226.449	10.5
226.683	24.5
226.918	21.5
227.152	20.5
227.387	21.5
227.621	25.5
227.856	33.5
228.09	39.5
228.324	49.5
228.559	53.5
228.793	54.5
229.027	56.5
229.262	57.5
229.496	65.5
229.73	73.5
229.964	78.5
230.199	73.5
230.433	68.5
230.667	75.5
230.901	81.5
231.136	76.5
231.37	70.5
231.604	83.5
231.838	82.5
232.072	62.5
232.306	70.5
232.541	85.5
232.775	79.5
233.009	70.5
233.243	66.5
233.477	79.5
233.711	84.5
233.945	88.5
234.179	68.5
234.413	71.5
234.647	71.5
234.881	73.5
235.115	82.5
235.349	67.5
235.583	91.5
235.817	73.5
236.051	75.5
236.285	79.5
236.519	84.5
236.753	77.5
236.987	64.5
237.221	79.5
237.455	62.5
237.689	80.5
237.922	70.5
238.156	82.5
238.39	73.5
238.624	65.5
238.858	77.5
239.091	67.5
239.325	61.5
239.559	66.5
239.793	84.5
240.027	65.5
240.26	72.5
240.494	82.5
240.728	66.5
240.961	74.5
241.195	78.5
241.429	76.5
241.662	72.5
241.896	57.5
242.13	68.5
242.363	63.5
242.597	77.5
242.83	82.5
243.064	65.5
243.298	65.5
243.531	79.5
243.765	86.5
243.998	70.5
244.232	73.5
244.465	66.5
244.699	67.5
244.932	74.5
245.166	65.5
245.399	78.5
245.633	77.5
245.866	84.5
246.099	63.5
246.333	86.5
246.566	75.5
246.8	66.5
247.033	83.5
247.266	89.5
247.5	70.5
247.733	75.5
247.966	59.5
248.2	72.5
248.433	63.5
248.666	77.5
248.899	73.5
249.133	75.5
249.366	96.5
249.599	78.5
249.832	76.5
250.066	93.5
250.299	81.5
250.532	83.5
250.765	75.5
250.998	81.5
251.231	71.5
251.465	101.5
251.698	84.5
251.931	80.5
252.164	77.5
252.397	81.5
252.63	76.5
252.863	74.5
253.096	82.5
253.329	87.5
253.562	83.5
253.795	87.5
254.028	74.5
254.261	76.5
254.494	89.5
254.727	88.5
254.96	82.5
255.193	81.5
255.426	83.5
255.659	74.5
255.892	78.5
256.124	64.5
256.357	72.5
256.59	68.5
256.823	80.5
257.056	75.5
257.289	81.5
257.521	81.5
257.754	84.5
257.987	74.5
258.22	70.5
258.452	74.5
258.685	87.5
258.918	83.5
259.151	85.5
259.383	75.5
259.616	83.5
259.849	82.5
260.081	75.5
260.314	75.5
260.547	78.5
260.779	73.5
261.012	76.5
261.244	75.5
261.477	79.5
261.71	84.5
261.942	83.5
262.175	89.5
262.407	82.5
262.64	76.5
262.872	80.5
263.105	79.5
263.337	78.5
263.57	70.5
263.802	63.5
264.035	74.5
264.267	86.5
264.499	83.5
264.732	75.5
264.964	77.5
265.197	89.5
265.429	65.5
265.661	84.5
265.894	68.5
266.126	80.5
266.358	83.5
266.591	72.5
266.823	91.5
267.055	73.5
267.287	79.5
267.52	77.5
267.752	82.5
267.984	86.5
268.216	75.5
268.448	89.5
268.681	82.5
268.913	78.5
269.145	76.5
269.377	83.5
269.609	71.5
269.841	82.5
270.073	77.5
270.306	93.5
270.538	78.5
270.77	82.5
271.002	81.5
271.234	94.5
271.466	86.5
271.698	64.5
271.93	69.5
272.162	85.5
272.394	88.5
272.626	86.5
272.858	93.5
273.09	83.5
273.322	85.5
273.553	88.5
273.785	94.5
274.017	80.5
274.249	79.5
274.481	85.5
274.713	89.5
274.945	83.5
275.176	79.5
275.408	87.5
275.64	88.5
275.872	75.5
276.104	82.5
276.335	71.5
276.567	83.5
276.799	59.5
277.031	70.5
277.262	73.5
277.494	79.5
277.726	80.5
277.957	87.5
278.189	83.5
278.421	90.5
278.652	85.5
278.884	82.5
279.115	95.5
279.347	87.5
279.579	98.5
279.81	92.5
280.042	80.5
280.273	75.5
280.505	89.5
280.736	76.5
280.968	81.5
281.199	83.5
281.431	80.5
281.662	82.5
281.894	79.5
282.125	84.5
282.356	91.5
282.588	99.5
282.819	95.5
283.051	96.5
283.282	88.5
283.513	76.5
283.745	84.5
283.976	90.5
284.207	84.5
284.439	82.5
284.67	100.5
284.901	82.5
285.132	85.5
285.364	88.5
285.595	92.5
285.826	98.5
286.057	79.5
286.288	83.5
286.52	70.5
286.751	87.5
286.982	84.5
287.213	73.5
287.444	91.5
287.675	73.5
287.906	89.5
288.138	76.5
288.369	85.5
288.6	79.5
288.831	77.5
289.062	97.5
289.293	96.5
289.524	94.5
289.755	98.5
289.986	87.5
290.217	85.5
290.448	98.5
290.679	83.5
290.91	87.5
291.141	82.5
291.371	103.5
291.602	75.5
291.833	89.5
292.064	86.5
292.295	86.5
292.526	84.5
292.757	76.5
292.987	86.5
293.218	69.5
293.449	90.5
293.68	89.5
293.91	80.5
294.141	95.5
294.372	75.5
294.603	88.5
294.833	96.5
295.064	88.5
295.295	83.5
295.525	84.5
295.756	94.5
295.987	74.5
296.217	86.5
296.448	92.5
296.679	80.5
296.909	83.5
297.14	92.5
297.37	83.5
297.601	80.5
297.831	78.5
298.062	96.5
298.292	97.5
298.523	78.5
298.753	85.5
298.984	88.5
299.214	80.5
299.445	86.5
299.675	98.5
299.905	96.5
300.136	81.5
300.366	88.5
300.597	96.5
300.827	91.5
301.057	88.5
301.288	84.5
301.518	83.5
301.748	85.5
301.979	70.5
302.209	93.5
302.439	81.5
302.669	85.5
302.9	101.5
303.13	91.5
303.36	73.5
303.59	85.5
303.82	69.5
304.051	101.5
304.281	80.5
304.511	102.5
304.741	94.5
304.971	92.5
305.201	88.5
305.431	83.5
305.661	94.5
305.891	90.5
306.121	89.5
306.352	94.5
306.582	83.5
306.812	83.5
307.042	86.5
307.272	81.5
307.502	84.5
307.731	88.5
307.961	83.5
308.191	87.5
308.421	89.5
308.651	76.5
308.881	73.5
309.111	84.5
309.341	114.5
309.571	73.5
309.8	86.5
310.03	78.5
310.26	80.5
310.49	74.5
310.72	82.5
310.949	95.5
311.179	77.5
311.409	88.5
311.639	94.5
311.868	88.5
312.098	98.5
312.328	95.5
312.557	89.5
312.787	93.5
313.017	88.5
313.246	80.5
313.476	93.5
313.706	88.5
313.935	100.5
314.165	84.5
314.394	96.5
314.624	93.5
314.853	85.5
315.083	100.5
315.312	81.5
315.542	80.5
315.771	85.5
316.001	78.5
316.23	98.5
316.46	83.5
316.689	88.5
316.919	83.5
317.148	82.5
317.377	76.5
317.607	92.5
317.836	96.5
318.065	91.5
318.295	91.5
318.524	97.5
318.753	102.5
318.983	90.5
319.212	90.5
319.441	85.5
319.67	95.5
319.9	101.5
320.129	100.5
320.358	88.5
320.587	76.5
320.816	90.5
321.046	95.5
321.275	90.5
321.504	86.5
321.733	90.5
321.962	90.5
322.191	88.5
322.42	88.5
322.649	87.5
322.878	77.5
323.108	87.5
323.337	92.5
323.566	107.5
323.795	96.5
324.024	92.5
324.253	93.5
324.482	94.5
324.71	85.5
324.939	82.5
325.168	95.5
325.397	76.5
325.626	95.5
325.855	85.5
326.084	90.5
326.313	87.5
326.542	88.5
326.77	88.5
326.999	81.5
327.228	86.5
327.457	83.5
327.686	94.5
327.914	90.5
328.143	92.5
328.372	100.5
328.6	84.5
328.829	88.5
329.058	89.5
329.287	83.5
329.515	94.5
329.744	78.5
329.972	91.5
330.201	94.5
330.43	97.5
330.658	80.5
330.887	64.5
331.115	79.5
331.344	103.5
331.572	91.5
331.801	82.5
332.03	93.5
332.258	102.5
332.486	85.5
332.715	80.5
332.943	85.5
333.172	99.5
333.4	85.5
333.629	82.5
333.857	87.5
334.085	94.5
334.314	94.5
334.542	90.5
334.771	88.5
334.999	91.5
335.227	98.5
335.455	94.5
335.684	101.5
335.912	86.5
336.14	95.5
336.369	89.5
336.597	100.5
336.825	84.5
337.053	96.5
337.281	114.5
337.51	96.5
337.738	86.5
337.966	93.5
338.194	81.5
338.422	85.5
338.65	81.5
338.878	89.5
339.106	101.5
339.334	96.5
339.562	104.5
339.79	109.5
340.018	108.5
340.246	101.5
340.474	91.5
340.702	95.5
340.93	84.5
341.158	87.5
341.386	79.5
341.614	87.5
341.842	91.5
342.07	91.5
342.298	94.5
342.526	86.5
342.754	94.5
342.981	80.5
343.209	75.5
343.437	72.5
343.665	87.5
343.893	91.5
344.12	84.5
344.348	92.5
344.576	105.5
344.804	72.5
345.031	93.5
345.259	98.5
345.487	84.5
345.714	85.5
345.942	92.5
346.17	97.5
346.397	93.5
346.625	86.5
346.853	77.5
347.08	83.5
347.308	88.5
347.535	79.5
347.763	100.5
347.99	83.5
348.218	92.5
348.445	95.5
348.673	84.5
348.9	88.5
349.128	94.5
349.355	90.5
349.583	92.5
349.81	78.5
350.037	85.5
350.265	91.5
350.492	87.5
350.72	82.5
350.947	77.5
351.174	84.5
351.402	81.5
351.629	97.5
351.856	67.5
352.083	93.5
352.311	88.5
352.538	77.5
352.765	77.5
352.992	85.5
353.22	82.5
353.447	91.5
353.674	107.5
353.901	90.5
354.128	93.5
354.355	89.5
354.583	83.5
354.81	92.5
355.037	94.5
355.264	89.5
355.491	78.5
355.718	98.5
355.945	87.5
356.172	81.5
356.399	94.5
356.626	86.5
356.853	84.5
357.08	83.5
357.307	85.5
357.534	84.5
357.761	83.5
357.988	92.5
358.215	105.5
358.441	86.5
358.668	77.5
358.895	79.5
359.122	86.5
359.349	89.5
359.576	103.5
359.802	90.5
360.029	85.5
360.256	86.5
360.483	94.5
360.709	88.5
360.936	91.5
361.163	91.5
361.39	91.5
361.616	77.5
361.843	84.5
362.07	88.5
362.296	93.5
362.523	95.5
362.749	98.5
362.976	81.5
363.203	96.5
363.429	86.5
363.656	91.5
363.882	89.5
364.109	84.5
364.335	93.5
364.562	86.5
364.788	89.5
365.015	87.5
365.241	89.5
365.468	98.5
365.694	82.5
365.92	86.5
366.147	102.5
366.373	78.5
366.599	82.5
366.826	80.5
367.052	84.5
367.278	80.5
367.505	88.5
367.731	85.5
367.957	75.5
368.184	69.5
368.41	85.5
368.636	78.5
368.862	92.5
369.089	85.5
369.315	91.5
369.541	88.5
369.767	81.5
369.993	94.5
370.219	89.5
370.445	99.5
370.672	88.5
370.898	92.5
371.124	88.5
371.35	86.5
371.576	88.5
371.802	87.5
372.028	92.5
372.254	82.5
372.48	81.5
372.706	77.5
372.932	94.5
373.158	92.5
373.384	99.5
373.61	86.5
373.835	85.5
374.061	94.5
374.287	90.5
374.513	93.5
374.739	100.5
374.965	86.5
375.191	94.5
375.416	84.5
375.642	96.5
375.868	80.5
376.094	78.5
376.319	86.5
376.545	95.5
376.771	87.5
376.997	91.5
377.222	82.5
377.448	83.5
377.674	78.5
377.899	87.5
378.125	75.5
378.35	91.5
378.576	88.5
378.802	100.5
379.027	73.5
379.253	94.5
379.478	88.5
379.704	87.5
379.929	75.5
380.155	80.5
380.38	83.5
380.606	92.5
380.831	89.5
381.057	96.5
381.282	84.5
381.507	70.5
381.733	89.5
381.958	78.5
382.184	95.5
382.409	80.5
382.634	71.5
382.86	94.5
383.085	67.5
383.31	82.5
383.535	87.5
383.761	86.5
383.986	96.5
384.211	91.5
384.436	91.5
384.662	91.5
384.887	84.5
385.112	80.5
385.337	91.5
385.562	95.5
385.787	87.5
386.013	88.5
386.238	82.5
386.463	91.5
386.688	111.5
386.913	82.5
387.138	85.5
387.363	96.5
387.588	77.5
387.813	96.5
388.038	110.5
388.263	90.5
388.488	85.5
388.713	106.5
388.938	95.5
389.163	81.5
389.387	88.5
389.612	85.5
389.837	92.5
390.062	98.5
390.287	78.5
390.512	88.5
390.736	77.5
390.961	72.5
391.186	69.5
391.411	84.5
391.636	95.5
391.86	89.5
392.085	103.5
392.31	88.5
392.534	82.5
392.759	93.5
392.984	92.5
393.208	87.5
393.433	86.5
393.658	88.5
393.882	87.5
394.107	79.5
394.331	80.5
394.556	93.5
394.78	89.5
395.005	91.5
395.229	102.5
395.454	95.5
395.678	102.5
395.903	85.5
396.127	88.5
396.352	74.5
396.576	95.5
396.801	94.5
397.025	98.5
397.249	91.5
397.474	104.5
397.698	97.5
397.922	99.5
398.147	105.5
398.371	86.5
398.595	89.5
398.82	92.5
399.044	107.5
399.268	104.5
399.492	115.5
399.717	119.5
399.941	92.5
400.165	105.5
400.389	94.5
400.613	91.5
400.837	98.5
401.062	92.5
401.286	94.5
401.51	71.5
401.734	80.5
401.958	101.5
402.182	85.5
402.406	84.5
402.63	81.5
402.854	100.5
403.078	86.5
403.302	101.5
403.526	96.5
403.75	90.5
403.974	98.5
404.198	99.5
404.422	82.5
404.645	107.5
404.869	100.5
405.093	78.5
405.317	98.5
405.541	91.5
405.765	95.5
405.988	91.5
406.212	105.5
406.436	91.5
406.66	109.5
406.883	93.5
407.107	87.5
407.331	110.5
407.555	103.5
407.778	94.5
408.002	97.5
408.226	87.5
408.449	86.5
408.673	100.5
408.896	83.5
409.12	90.5
409.344	106.5
409.567	91.5
409.791	112.5
410.014	99.5
410.238	97.5
410.461	102.5
410.685	107.5
410.908	90.5
411.132	97.5
411.355	110.5
411.578	94.5
411.802	87.5
412.025	97.5
412.249	88.5
412.472	92.5
412.695	75.5
412.919	83.5
413.142	96.5
413.365	87.5
413.589	93.5
413.812	96.5
414.035	78.5
414.258	96.5
414.482	73.5
414.705	81.5
414.928	96.5
415.151	96.5
415.374	93.5
415.597	99.5
415.821	91.5
416.044	113.5
416.267	103.5
416.49	92.5
416.713	97.5
416.936	93.5
417.159	85.5
417.382	93.5
417.605	112.5
417.828	94.5
418.051	96.5
418.274	88.5
418.497	94.5
418.72	96.5
418.943	87.5
419.166	85.5
419.389	93.5
419.611	88.5
419.834	105.5
420.057	93.5
420.28	80.5
420.503	84.5
420.726	88.5
420.948	91.5
421.171	84.5
421.394	89.5
421.617	94.5
421.839	87.5
422.062	96.5
422.285	93.5
422.507	89.5
422.73	77.5
422.953	88.5
423.175	92.5
423.398	105.5
423.621	92.5
423.843	93.5
424.066	84.5
424.288	98.5
424.511	89.5
424.733	79.5
424.956	102.5
425.178	86.5
425.401	104.5
425.623	94.5
425.846	94.5
426.068	88.5
426.291	97.5
426.513	86.5
426.735	90.5
426.958	84.5
427.18	88.5
427.402	83.5
427.625	77.5
427.847	99.5
428.069	79.5
428.292	89.5
428.514	103.5
428.736	91.5
428.958	96.5
429.181	95.5
429.403	83.5
429.625	87.5
429.847	87.5
430.069	94.5
430.292	97.5
430.514	90.5
430.736	95.5
430.958	96.5
431.18	88.5
431.402	99.5
431.624	90.5
431.846	88.5
432.068	93.5
432.29	84.5
432.512	102.5
432.734	90.5
432.956	84.5
433.178	94.5
433.4	88.5
433.622	92.5
433.844	80.5
434.066	96.5
434.287	100.5
434.509	95.5
434.731	93.5
434.953	97.5
435.175	90.5
435.397	102.5
435.618	96.5
435.84	89.5
436.062	92.5
436.284	91.5
436.505	91.5
436.727	88.5
436.949	91.5
437.17	85.5
437.392	105.5
437.614	89.5
437.835	73.5
438.057	98.5
438.278	92.5
438.5	96.5
438.721	94.5
438.943	92.5
439.165	92.5
439.386	96.5
439.608	100.5
439.829	98.5
440.05	105.5
440.272	78.5
440.493	88.5
440.715	86.5
440.936	82.5
441.158	96.5
441.379	90.5
441.6	98.5
441.822	98.5
442.043	85.5
442.264	91.5
442.486	85.5
442.707	89.5
442.928	87.5
443.149	74.5
443.371	97.5
443.592	90.5
443.813	98.5
444.034	93.5
444.255	91.5
444.476	80.5
444.698	96.5
444.919	97.5
445.14	214.5
445.361	145.5
445.582	81.5
445.803	94.5
446.024	94.5
446.245	92.5
446.466	80.5
446.687	92.5
446.908	88.5
447.129	83.5
447.35	98.5
447.571	102.5
447.792	94.5
448.013	106.5
448.234	100.5
448.455	95.5
448.675	83.5
448.896	90.5
449.117	85.5
449.338	92.5
449.559	89.5
449.779	88.5
450	82.5
450.221	90.5
450.442	84.5
450.662	95.5
450.883	91.5
451.104	93.5
451.324	89.5
451.545	84.5
451.766	90.5
451.986	80.5
452.207	90.5
452.428	96.5
452.648	87.5
452.869	87.5
453.089	102.5
453.31	85.5
453.53	87.5
453.751	86.5
453.971	91.5
454.192	87.5
454.412	96.5
454.633	83.5
454.853	101.5
455.073	80.5
455.294	99.5
455.514	91.5
455.734	87.5
455.955	85.5
456.175	83.5
456.395	88.5
456.616	82.5
456.836	73.5
457.056	79.5
457.276	75.5
457.497	75.5
457.717	92.5
457.937	78.5
458.157	79.5
458.377	91.5
458.598	101.5
458.818	90.5
459.038	85.5
459.258	76.5
459.478	99.5
459.698	99.5
459.918	91.5
460.138	109.5
460.358	91.5
460.578	87.5
460.798	106.5
461.018	100.5
461.238	100.5
461.458	104.5
461.678	83.5
461.898	93.5
462.118	105.5
462.338	85.5
462.558	103.5
462.777	94.5
462.997	112.5
463.217	99.5
463.437	109.5
463.657	98.5
463.876	88.5
464.096	99.5
464.316	86.5
464.536	99.5
464.755	104.5
464.975	94.5
465.195	103.5
465.414	91.5
465.634	93.5
465.854	82.5
466.073	76.5
466.293	95.5
466.512	102.5
466.732	90.5
466.951	97.5
467.171	92.5
467.391	94.5
467.61	93.5
467.829	110.5
468.049	96.5
468.268	85.5
468.488	85.5
468.707	91.5
468.927	88.5
469.146	96.5
469.365	79.5
469.585	107.5
469.804	83.5
470.023	89.5
470.243	109.5
470.462	88.5
470.681	107.5
470.901	95.5
471.12	92.5
471.339	93.5
471.558	96.5
471.777	87.5
471.997	89.5
472.216	98.5
472.435	85.5
472.654	96.5
472.873	92.5
473.092	92.5
473.311	92.5
473.53	96.5
473.749	96.5
473.968	88.5
474.187	98.5
474.406	91.5
474.625	106.5
474.844	95.5
475.063	100.5
475.282	101.5
475.501	86.5
475.72	96.5
475.939	91.5
476.158	79.5
476.377	100.5
476.596	110.5
476.814	103.5
477.033	88.5
477.252	89.5
477.471	93.5
477.69	107.5
477.908	103.5
478.127	101.5
478.346	88.5
478.564	100.5
478.783	107.5
479.002	104.5
479.22	109.5
479.439	100.5
479.658	96.5
479.876	97.5
480.095	94.5
480.313	113.5
480.532	111.5
480.751	112.5
480.969	87.5
481.188	102.5
481.406	94.5
481.624	97.5
481.843	97.5
482.061	86.5
482.28	99.5
482.498	95.5
482.717	91.5
482.935	97.5
483.153	92.5
483.372	105.5
483.59	108.5
483.808	103.5
484.027	96.5
484.245	98.5
484.463	95.5
484.681	115.5
484.9	87.5
485.118	93.5
485.336	99.5
485.554	109.5
485.772	102.5
485.99	100.5
486.209	95.5
486.427	96.5
486.645	96.5
486.863	109.5
487.081	111.5
487.299	96.5
487.517	103.5
487.735	87.5
487.953	112.5
488.171	113.5
488.389	108.5
488.607	102.5
488.825	103.5
489.043	112.5
489.261	79.5
489.479	108.5
489.696	109.5
489.914	80.5
490.132	105.5
490.35	127.5
490.568	93.5
490.786	111.5
491.003	102.5
491.221	104.5
491.439	119.5
491.657	92.5
491.874	103.5
492.092	128.5
492.31	115.5
492.527	102.5
492.745	101.5
492.963	109.5
493.18	119.5
493.398	114.5
493.615	111.5
493.833	100.5
494.05	103.5
494.268	100.5
494.485	107.5
494.703	118.5
494.92	107.5
495.138	96.5
495.355	115.5
495.573	126.5
495.79	111.5
496.008	116.5
496.225	102.5
496.442	95.5
496.66	119.5
496.877	89.5
497.094	96.5
497.312	106.5
497.529	113.5
497.746	119.5
497.963	118.5
498.181	125.5
498.398	120.5
498.615	113.5
498.832	115.5
499.049	121.5
499.267	117.5
499.484	142.5
499.701	126.5
499.918	129.5
500.135	133.5
500.352	166.5
500.569	171.5
500.786	153.5
501.003	163.5
501.22	138.5
501.437	134.5
501.654	117.5
501.871	102.5
502.088	123.5
502.305	117.5
502.522	121.5
502.739	103.5
502.956	111.5
503.172	104.5
503.389	111.5
503.606	100.5
503.823	104.5
504.04	104.5
504.256	113.5
504.473	116.5
504.69	110.5
504.907	106.5
505.123	120.5
505.34	104.5
505.557	106.5
505.773	100.5
505.99	114.5
506.207	100.5
506.423	94.5
506.64	111.5
506.856	94.5
507.073	97.5
507.289	111.5
507.506	97.5
507.722	95.5
507.939	91.5
508.155	83.5
508.372	106.5
508.588	113.5
508.805	102.5
509.021	95.5
509.238	95.5
509.454	112.5
509.67	109.5
509.887	92.5
510.103	94.5
510.319	106.5
510.536	96.5
510.752	91.5
510.968	95.5
511.184	83.5
511.401	100.5
511.617	96.5
511.833	82.5
512.049	101.5
512.265	103.5
512.481	110.5
512.698	102.5
512.914	100.5
513.13	90.5
513.346	89.5
513.562	109.5
513.778	95.5
513.994	95.5
514.21	87.5
514.426	117.5
514.642	109.5
514.858	94.5
515.074	102.5
515.29	93.5
515.506	88.5
515.721	92.5
515.937	95.5
516.153	87.5
516.369	96.5
516.585	103.5
516.801	101.5
517.016	109.5
517.232	105.5
517.448	107.5
517.664	107.5
517.879	103.5
518.095	112.5
518.311	121.5
518.527	105.5
518.742	99.5
518.958	111.5
519.173	104.5
519.389	112.5
519.605	99.5
519.82	108.5
520.036	107.5
520.251	104.5
520.467	91.5
520.682	103.5
520.898	99.5
521.113	95.5
521.329	105.5
521.544	104.5
521.76	93.5
521.975	118.5
522.19	89.5
522.406	93.5
522.621	105.5
522.836	102.5
523.052	106.5
523.267	85.5
523.482	95.5
523.698	92.5
523.913	103.5
524.128	95.5
524.343	110.5
524.559	113.5
524.774	99.5
524.989	100.5
525.204	102.5
525.419	107.5
525.634	111.5
525.849	91.5
526.064	83.5
526.28	103.5
526.495	100.5
526.71	89.5
526.925	109.5
527.14	95.5
527.355	82.5
527.57	99.5
527.785	105.5
527.999	109.5
528.214	96.5
528.429	89.5
528.644	90.5
528.859	101.5
529.074	100.5
529.289	95.5
529.503	109.5
529.718	116.5
529.933	92.5
530.148	97.5
530.363	93.5
530.577	89.5
530.792	91.5
531.007	87.5
531.221	88.5
531.436	88.5
531.651	108.5
531.865	98.5
532.08	101.5
532.295	97.5
532.509	95.5
532.724	88.5
532.938	79.5
533.153	106.5
533.367	89.5
533.582	93.5
533.796	103.5
534.011	106.5
534.225	96.5
534.44	89.5
534.654	96.5
534.868	89.5
535.083	88.5
535.297	84.5
535.511	96.5
535.726	94.5
535.94	108.5
