Data from Location5.07152019.Energy5.Lamp.07192019.3%Agarose_HRD10591_16-02-29-649.txt Node
Date: Fri Jul 19 16:02:29 EDT 2019
User: cochatt
Spectrometer: HR+D1059
Trigger mode: 1
Integration Time (sec): 1.000000E-1
Scans to average: 1
Electric dark correction enabled: true
Nonlinearity correction enabled: false
Boxcar width: 0
XAxis mode: Wavelengths
Number of Pixels in Spectrum: 2048
>>>>>Begin Spectral Data<<<<<
223.165	-3.62
223.4	-3.62
223.635	-3.62
223.869	-16.62
224.104	-6.62
224.338	-7.62
224.573	-10.62
224.808	-13.62
225.042	-16.62
225.277	-6.62
225.511	-5.62
225.746	-0.62
225.98	-0.62
226.215	5.38
226.449	17.38
226.683	17.38
226.918	15.38
227.152	33.38
227.387	32.38
227.621	45.38
227.856	35.38
228.09	29.38
228.324	42.38
228.559	49.38
228.793	48.38
229.027	63.38
229.262	54.38
229.496	51.38
229.73	56.38
229.964	82.38
230.199	72.38
230.433	67.38
230.667	86.38
230.901	75.38
231.136	73.38
231.37	70.38
231.604	86.38
231.838	91.38
232.072	83.38
232.306	59.38
232.541	86.38
232.775	73.38
233.009	75.38
233.243	80.38
233.477	83.38
233.711	101.38
233.945	77.38
234.179	93.38
234.413	73.38
234.647	82.38
234.881	86.38
235.115	77.38
235.349	70.38
235.583	85.38
235.817	72.38
236.051	59.38
236.285	71.38
236.519	79.38
236.753	81.38
236.987	82.38
237.221	76.38
237.455	81.38
237.689	83.38
237.922	73.38
238.156	78.38
238.39	66.38
238.624	76.38
238.858	68.38
239.091	63.38
239.325	79.38
239.559	75.38
239.793	91.38
240.027	86.38
240.26	72.38
240.494	82.38
240.728	81.38
240.961	78.38
241.195	88.38
241.429	77.38
241.662	79.38
241.896	90.38
242.13	82.38
242.363	92.38
242.597	88.38
242.83	69.38
243.064	75.38
243.298	77.38
243.531	88.38
243.765	72.38
243.998	84.38
244.232	74.38
244.465	93.38
244.699	78.38
244.932	74.38
245.166	89.38
245.399	72.38
245.633	70.38
245.866	75.38
246.099	88.38
246.333	95.38
246.566	94.38
246.8	82.38
247.033	86.38
247.266	100.38
247.5	76.38
247.733	87.38
247.966	81.38
248.2	62.38
248.433	81.38
248.666	63.38
248.899	84.38
249.133	76.38
249.366	94.38
249.599	80.38
249.832	75.38
250.066	64.38
250.299	75.38
250.532	88.38
250.765	84.38
250.998	91.38
251.231	83.38
251.465	82.38
251.698	73.38
251.931	76.38
252.164	63.38
252.397	78.38
252.63	76.38
252.863	74.38
253.096	80.38
253.329	67.38
253.562	78.38
253.795	77.38
254.028	91.38
254.261	105.38
254.494	80.38
254.727	84.38
254.96	100.38
255.193	79.38
255.426	90.38
255.659	91.38
255.892	88.38
256.124	79.38
256.357	88.38
256.59	94.38
256.823	78.38
257.056	95.38
257.289	81.38
257.521	76.38
257.754	82.38
257.987	95.38
258.22	101.38
258.452	78.38
258.685	75.38
258.918	71.38
259.151	82.38
259.383	81.38
259.616	71.38
259.849	77.38
260.081	74.38
260.314	93.38
260.547	66.38
260.779	86.38
261.012	68.38
261.244	70.38
261.477	86.38
261.71	81.38
261.942	87.38
262.175	80.38
262.407	89.38
262.64	75.38
262.872	88.38
263.105	75.38
263.337	84.38
263.57	75.38
263.802	77.38
264.035	83.38
264.267	82.38
264.499	89.38
264.732	77.38
264.964	91.38
265.197	78.38
265.429	86.38
265.661	85.38
265.894	92.38
266.126	79.38
266.358	80.38
266.591	78.38
266.823	94.38
267.055	85.38
267.287	87.38
267.52	87.38
267.752	79.38
267.984	78.38
268.216	85.38
268.448	93.38
268.681	92.38
268.913	88.38
269.145	84.38
269.377	72.38
269.609	69.38
269.841	73.38
270.073	92.38
270.306	80.38
270.538	82.38
270.77	78.38
271.002	92.38
271.234	89.38
271.466	88.38
271.698	78.38
271.93	90.38
272.162	82.38
272.394	102.38
272.626	85.38
272.858	90.38
273.09	88.38
273.322	85.38
273.553	79.38
273.785	94.38
274.017	95.38
274.249	88.38
274.481	97.38
274.713	80.38
274.945	87.38
275.176	73.38
275.408	91.38
275.64	82.38
275.872	75.38
276.104	82.38
276.335	83.38
276.567	90.38
276.799	75.38
277.031	95.38
277.262	71.38
277.494	85.38
277.726	73.38
277.957	74.38
278.189	80.38
278.421	78.38
278.652	84.38
278.884	82.38
279.115	82.38
279.347	88.38
279.579	80.38
279.81	85.38
280.042	94.38
280.273	82.38
280.505	93.38
280.736	90.38
280.968	81.38
281.199	75.38
281.431	83.38
281.662	87.38
281.894	87.38
282.125	90.38
282.356	91.38
282.588	87.38
282.819	91.38
283.051	81.38
283.282	81.38
283.513	86.38
283.745	81.38
283.976	83.38
284.207	80.38
284.439	82.38
284.67	92.38
284.901	85.38
285.132	98.38
285.364	90.38
285.595	79.38
285.826	89.38
286.057	89.38
286.288	88.38
286.52	69.38
286.751	91.38
286.982	94.38
287.213	79.38
287.444	86.38
287.675	82.38
287.906	95.38
288.138	77.38
288.369	89.38
288.6	77.38
288.831	84.38
289.062	79.38
289.293	92.38
289.524	83.38
289.755	84.38
289.986	83.38
290.217	95.38
290.448	88.38
290.679	80.38
290.91	91.38
291.141	93.38
291.371	84.38
291.602	103.38
291.833	87.38
292.064	95.38
292.295	83.38
292.526	74.38
292.757	89.38
292.987	86.38
293.218	81.38
293.449	83.38
293.68	91.38
293.91	88.38
294.141	77.38
294.372	93.38
294.603	103.38
294.833	110.38
295.064	89.38
295.295	77.38
295.525	85.38
295.756	98.38
295.987	92.38
296.217	90.38
296.448	76.38
296.679	79.38
296.909	86.38
297.14	80.38
297.37	92.38
297.601	87.38
297.831	103.38
298.062	81.38
298.292	80.38
298.523	94.38
298.753	95.38
298.984	75.38
299.214	88.38
299.445	95.38
299.675	105.38
299.905	103.38
300.136	94.38
300.366	93.38
300.597	82.38
300.827	95.38
301.057	82.38
301.288	80.38
301.518	96.38
301.748	94.38
301.979	89.38
302.209	102.38
302.439	91.38
302.669	83.38
302.9	89.38
303.13	97.38
303.36	91.38
303.59	91.38
303.82	89.38
304.051	86.38
304.281	94.38
304.511	92.38
304.741	87.38
304.971	83.38
305.201	89.38
305.431	81.38
305.661	104.38
305.891	97.38
306.121	84.38
306.352	82.38
306.582	94.38
306.812	83.38
307.042	94.38
307.272	81.38
307.502	93.38
307.731	101.38
307.961	79.38
308.191	93.38
308.421	84.38
308.651	103.38
308.881	88.38
309.111	106.38
309.341	85.38
309.571	80.38
309.8	90.38
310.03	80.38
310.26	93.38
310.49	94.38
310.72	102.38
310.949	95.38
311.179	96.38
311.409	92.38
311.639	99.38
311.868	79.38
312.098	88.38
312.328	103.38
312.557	96.38
312.787	87.38
313.017	106.38
313.246	99.38
313.476	75.38
313.706	96.38
313.935	76.38
314.165	96.38
314.394	93.38
314.624	84.38
314.853	83.38
315.083	81.38
315.312	89.38
315.542	87.38
315.771	96.38
316.001	82.38
316.23	97.38
316.46	94.38
316.689	79.38
316.919	89.38
317.148	89.38
317.377	87.38
317.607	98.38
317.836	99.38
318.065	76.38
318.295	96.38
318.524	99.38
318.753	103.38
318.983	102.38
319.212	104.38
319.441	103.38
319.67	93.38
319.9	81.38
320.129	83.38
320.358	101.38
320.587	87.38
320.816	93.38
321.046	96.38
321.275	98.38
321.504	86.38
321.733	94.38
321.962	102.38
322.191	86.38
322.42	85.38
322.649	94.38
322.878	86.38
323.108	99.38
323.337	74.38
323.566	90.38
323.795	97.38
324.024	96.38
324.253	91.38
324.482	93.38
324.71	96.38
324.939	97.38
325.168	85.38
325.397	102.38
325.626	86.38
325.855	89.38
326.084	86.38
326.313	92.38
326.542	102.38
326.77	106.38
326.999	93.38
327.228	83.38
327.457	83.38
327.686	108.38
327.914	82.38
328.143	102.38
328.372	92.38
328.6	96.38
328.829	89.38
329.058	84.38
329.287	91.38
329.515	86.38
329.744	95.38
329.972	89.38
330.201	93.38
330.43	96.38
330.658	104.38
330.887	91.38
331.115	89.38
331.344	98.38
331.572	103.38
331.801	99.38
332.03	86.38
332.258	89.38
332.486	93.38
332.715	97.38
332.943	90.38
333.172	103.38
333.4	113.38
333.629	102.38
333.857	97.38
334.085	111.38
334.314	97.38
334.542	77.38
334.771	96.38
334.999	100.38
335.227	99.38
335.455	99.38
335.684	102.38
335.912	104.38
336.14	84.38
336.369	94.38
336.597	106.38
336.825	82.38
337.053	82.38
337.281	94.38
337.51	91.38
337.738	104.38
337.966	84.38
338.194	89.38
338.422	87.38
338.65	89.38
338.878	89.38
339.106	94.38
339.334	94.38
339.562	99.38
339.79	77.38
340.018	84.38
340.246	106.38
340.474	97.38
340.702	101.38
340.93	86.38
341.158	99.38
341.386	95.38
341.614	99.38
341.842	85.38
342.07	97.38
342.298	91.38
342.526	97.38
342.754	86.38
342.981	83.38
343.209	100.38
343.437	96.38
343.665	97.38
343.893	80.38
344.12	89.38
344.348	97.38
344.576	114.38
344.804	87.38
345.031	98.38
345.259	97.38
345.487	105.38
345.714	103.38
345.942	95.38
346.17	98.38
346.397	85.38
346.625	91.38
346.853	104.38
347.08	87.38
347.308	87.38
347.535	89.38
347.763	97.38
347.99	92.38
348.218	80.38
348.445	98.38
348.673	91.38
348.9	88.38
349.128	102.38
349.355	86.38
349.583	91.38
349.81	94.38
350.037	77.38
350.265	86.38
350.492	93.38
350.72	97.38
350.947	84.38
351.174	79.38
351.402	83.38
351.629	82.38
351.856	79.38
352.083	82.38
352.311	84.38
352.538	75.38
352.765	77.38
352.992	97.38
353.22	85.38
353.447	94.38
353.674	98.38
353.901	89.38
354.128	87.38
354.355	94.38
354.583	93.38
354.81	79.38
355.037	86.38
355.264	84.38
355.491	89.38
355.718	81.38
355.945	85.38
356.172	90.38
356.399	100.38
356.626	79.38
356.853	97.38
357.08	90.38
357.307	110.38
357.534	99.38
357.761	94.38
357.988	92.38
358.215	100.38
358.441	96.38
358.668	89.38
358.895	91.38
359.122	87.38
359.349	86.38
359.576	106.38
359.802	89.38
360.029	96.38
360.256	88.38
360.483	78.38
360.709	89.38
360.936	86.38
361.163	90.38
361.39	84.38
361.616	91.38
361.843	104.38
362.07	96.38
362.296	102.38
362.523	94.38
362.749	97.38
362.976	96.38
363.203	97.38
363.429	89.38
363.656	81.38
363.882	92.38
364.109	96.38
364.335	82.38
364.562	78.38
364.788	76.38
365.015	90.38
365.241	89.38
365.468	85.38
365.694	78.38
365.92	85.38
366.147	101.38
366.373	81.38
366.599	93.38
366.826	113.38
367.052	81.38
367.278	85.38
367.505	88.38
367.731	91.38
367.957	98.38
368.184	103.38
368.41	93.38
368.636	94.38
368.862	96.38
369.089	82.38
369.315	81.38
369.541	87.38
369.767	90.38
369.993	89.38
370.219	99.38
370.445	93.38
370.672	89.38
370.898	92.38
371.124	89.38
371.35	87.38
371.576	86.38
371.802	87.38
372.028	90.38
372.254	94.38
372.48	81.38
372.706	84.38
372.932	84.38
373.158	97.38
373.384	91.38
373.61	99.38
373.835	83.38
374.061	90.38
374.287	86.38
374.513	111.38
374.739	81.38
374.965	87.38
375.191	93.38
375.416	104.38
375.642	95.38
375.868	90.38
376.094	121.38
376.319	102.38
376.545	90.38
376.771	86.38
376.997	85.38
377.222	77.38
377.448	85.38
377.674	95.38
377.899	87.38
378.125	90.38
378.35	94.38
378.576	104.38
378.802	103.38
379.027	83.38
379.253	91.38
379.478	87.38
379.704	97.38
379.929	80.38
380.155	92.38
380.38	99.38
380.606	94.38
380.831	92.38
381.057	82.38
381.282	85.38
381.507	91.38
381.733	95.38
381.958	87.38
382.184	103.38
382.409	93.38
382.634	86.38
382.86	98.38
383.085	102.38
383.31	91.38
383.535	102.38
383.761	97.38
383.986	86.38
384.211	103.38
384.436	97.38
384.662	96.38
384.887	83.38
385.112	97.38
385.337	91.38
385.562	94.38
385.787	97.38
386.013	93.38
386.238	103.38
386.463	96.38
386.688	96.38
386.913	97.38
387.138	88.38
387.363	100.38
387.588	102.38
387.813	89.38
388.038	114.38
388.263	88.38
388.488	98.38
388.713	102.38
388.938	97.38
389.163	97.38
389.387	101.38
389.612	87.38
389.837	83.38
390.062	79.38
390.287	81.38
390.512	87.38
390.736	91.38
390.961	81.38
391.186	94.38
391.411	90.38
391.636	92.38
391.86	105.38
392.085	96.38
392.31	96.38
392.534	104.38
392.759	102.38
392.984	86.38
393.208	93.38
393.433	83.38
393.658	115.38
393.882	84.38
394.107	91.38
394.331	86.38
394.556	102.38
394.78	83.38
395.005	101.38
395.229	97.38
395.454	83.38
395.678	97.38
395.903	88.38
396.127	94.38
396.352	95.38
396.576	92.38
396.801	84.38
397.025	90.38
397.249	89.38
397.474	98.38
397.698	110.38
397.922	98.38
398.147	91.38
398.371	103.38
398.595	92.38
398.82	100.38
399.044	111.38
399.268	91.38
399.492	99.38
399.717	94.38
399.941	109.38
400.165	99.38
400.389	98.38
400.613	98.38
400.837	85.38
401.062	95.38
401.286	94.38
401.51	100.38
401.734	112.38
401.958	97.38
402.182	111.38
402.406	109.38
402.63	102.38
402.854	104.38
403.078	83.38
403.302	95.38
403.526	86.38
403.75	93.38
403.974	95.38
404.198	97.38
404.422	89.38
404.645	93.38
404.869	94.38
405.093	103.38
405.317	89.38
405.541	107.38
405.765	101.38
405.988	93.38
406.212	107.38
406.436	90.38
406.66	105.38
406.883	103.38
407.107	104.38
407.331	101.38
407.555	100.38
407.778	109.38
408.002	109.38
408.226	89.38
408.449	115.38
408.673	111.38
408.896	115.38
409.12	105.38
409.344	113.38
409.567	95.38
409.791	98.38
410.014	114.38
410.238	105.38
410.461	112.38
410.685	111.38
410.908	99.38
411.132	95.38
411.355	106.38
411.578	103.38
411.802	93.38
412.025	79.38
412.249	89.38
412.472	99.38
412.695	87.38
412.919	110.38
413.142	98.38
413.365	96.38
413.589	95.38
413.812	89.38
414.035	93.38
414.258	112.38
414.482	100.38
414.705	89.38
414.928	103.38
415.151	100.38
415.374	94.38
415.597	101.38
415.821	103.38
416.044	96.38
416.267	92.38
416.49	86.38
416.713	90.38
416.936	107.38
417.159	108.38
417.382	106.38
417.605	102.38
417.828	99.38
418.051	111.38
418.274	93.38
418.497	107.38
418.72	96.38
418.943	102.38
419.166	80.38
419.389	102.38
419.611	82.38
419.834	102.38
420.057	110.38
420.28	94.38
420.503	93.38
420.726	92.38
420.948	104.38
421.171	80.38
421.394	95.38
421.617	94.38
421.839	112.38
422.062	94.38
422.285	96.38
422.507	97.38
422.73	102.38
422.953	100.38
423.175	91.38
423.398	81.38
423.621	106.38
423.843	104.38
424.066	95.38
424.288	104.38
424.511	104.38
424.733	95.38
424.956	90.38
425.178	93.38
425.401	100.38
425.623	111.38
425.846	88.38
426.068	99.38
426.291	89.38
426.513	109.38
426.735	95.38
426.958	96.38
427.18	100.38
427.402	90.38
427.625	92.38
427.847	89.38
428.069	99.38
428.292	87.38
428.514	91.38
428.736	99.38
428.958	93.38
429.181	93.38
429.403	97.38
429.625	102.38
429.847	96.38
430.069	83.38
430.292	97.38
430.514	102.38
430.736	91.38
430.958	99.38
431.18	81.38
431.402	93.38
431.624	99.38
431.846	84.38
432.068	81.38
432.29	97.38
432.512	93.38
432.734	89.38
432.956	103.38
433.178	115.38
433.4	103.38
433.622	90.38
433.844	94.38
434.066	102.38
434.287	88.38
434.509	105.38
434.731	102.38
434.953	97.38
435.175	95.38
435.397	101.38
435.618	95.38
435.84	93.38
436.062	105.38
436.284	101.38
436.505	88.38
436.727	91.38
436.949	99.38
437.17	90.38
437.392	104.38
437.614	95.38
437.835	92.38
438.057	90.38
438.278	87.38
438.5	86.38
438.721	109.38
438.943	97.38
439.165	79.38
439.386	83.38
439.608	92.38
439.829	99.38
440.05	113.38
440.272	102.38
440.493	105.38
440.715	106.38
440.936	101.38
441.158	103.38
441.379	92.38
441.6	94.38
441.822	101.38
442.043	98.38
442.264	104.38
442.486	110.38
442.707	108.38
442.928	95.38
443.149	100.38
443.371	89.38
443.592	97.38
443.813	95.38
444.034	109.38
444.255	96.38
444.476	116.38
444.698	112.38
444.919	111.38
445.14	218.38
445.361	143.38
445.582	95.38
445.803	105.38
446.024	96.38
446.245	106.38
446.466	89.38
446.687	92.38
446.908	93.38
447.129	104.38
447.35	97.38
447.571	102.38
447.792	93.38
448.013	97.38
448.234	80.38
448.455	96.38
448.675	99.38
448.896	93.38
449.117	89.38
449.338	87.38
449.559	106.38
449.779	100.38
450	81.38
450.221	88.38
450.442	91.38
450.662	84.38
450.883	93.38
451.104	86.38
451.324	98.38
451.545	96.38
451.766	79.38
451.986	90.38
452.207	104.38
452.428	95.38
452.648	99.38
452.869	93.38
453.089	86.38
453.31	101.38
453.53	89.38
453.751	97.38
453.971	100.38
454.192	92.38
454.412	86.38
454.633	88.38
454.853	93.38
455.073	98.38
455.294	84.38
455.514	86.38
455.734	91.38
455.955	109.38
456.175	100.38
456.395	79.38
456.616	101.38
456.836	94.38
457.056	94.38
457.276	98.38
457.497	90.38
457.717	103.38
457.937	105.38
458.157	82.38
458.377	82.38
458.598	95.38
458.818	100.38
459.038	99.38
459.258	93.38
459.478	104.38
459.698	86.38
459.918	94.38
460.138	83.38
460.358	103.38
460.578	94.38
460.798	106.38
461.018	105.38
461.238	97.38
461.458	96.38
461.678	103.38
461.898	91.38
462.118	96.38
462.338	107.38
462.558	103.38
462.777	104.38
462.997	110.38
463.217	95.38
463.437	99.38
463.657	114.38
463.876	104.38
464.096	116.38
464.316	99.38
464.536	100.38
464.755	106.38
464.975	107.38
465.195	109.38
465.414	102.38
465.634	108.38
465.854	93.38
466.073	106.38
466.293	99.38
466.512	97.38
466.732	106.38
466.951	102.38
467.171	110.38
467.391	95.38
467.61	99.38
467.829	88.38
468.049	101.38
468.268	81.38
468.488	95.38
468.707	87.38
468.927	101.38
469.146	103.38
469.365	101.38
469.585	111.38
469.804	104.38
470.023	101.38
470.243	98.38
470.462	102.38
470.681	99.38
470.901	94.38
471.12	93.38
471.339	110.38
471.558	103.38
471.777	100.38
471.997	94.38
472.216	110.38
472.435	99.38
472.654	106.38
472.873	91.38
473.092	94.38
473.311	95.38
473.53	95.38
473.749	110.38
473.968	101.38
474.187	91.38
474.406	95.38
474.625	106.38
474.844	115.38
475.063	96.38
475.282	102.38
475.501	95.38
475.72	110.38
475.939	96.38
476.158	97.38
476.377	102.38
476.596	94.38
476.814	98.38
477.033	84.38
477.252	87.38
477.471	102.38
477.69	100.38
477.908	109.38
478.127	100.38
478.346	93.38
478.564	124.38
478.783	110.38
479.002	110.38
479.22	104.38
479.439	109.38
479.658	105.38
479.876	104.38
480.095	105.38
480.313	105.38
480.532	105.38
480.751	113.38
480.969	105.38
481.188	121.38
481.406	96.38
481.624	98.38
481.843	89.38
482.061	94.38
482.28	98.38
482.498	97.38
482.717	102.38
482.935	115.38
483.153	101.38
483.372	92.38
483.59	106.38
483.808	101.38
484.027	97.38
484.245	112.38
484.463	95.38
484.681	119.38
484.9	112.38
485.118	112.38
485.336	117.38
485.554	99.38
485.772	114.38
485.99	97.38
486.209	101.38
486.427	97.38
486.645	94.38
486.863	109.38
487.081	94.38
487.299	110.38
487.517	119.38
487.735	109.38
487.953	121.38
488.171	123.38
488.389	101.38
488.607	105.38
488.825	105.38
489.043	99.38
489.261	101.38
489.479	110.38
489.696	96.38
489.914	109.38
490.132	97.38
490.35	103.38
490.568	108.38
490.786	103.38
491.003	114.38
491.221	118.38
491.439	116.38
491.657	113.38
491.874	122.38
492.092	112.38
492.31	103.38
492.527	113.38
492.745	116.38
492.963	127.38
493.18	113.38
493.398	114.38
493.615	97.38
493.833	115.38
494.05	111.38
494.268	117.38
494.485	113.38
494.703	119.38
494.92	120.38
495.138	102.38
495.355	118.38
495.573	111.38
495.79	105.38
496.008	119.38
496.225	109.38
496.442	119.38
496.66	111.38
496.877	120.38
497.094	124.38
497.312	121.38
497.529	104.38
497.746	106.38
497.963	120.38
498.181	122.38
498.398	129.38
498.615	125.38
498.832	126.38
499.049	120.38
499.267	127.38
499.484	119.38
499.701	138.38
499.918	158.38
500.135	148.38
500.352	161.38
500.569	181.38
500.786	171.38
501.003	146.38
501.22	138.38
501.437	143.38
501.654	130.38
501.871	131.38
502.088	110.38
502.305	123.38
502.522	125.38
502.739	123.38
502.956	113.38
503.172	105.38
503.389	119.38
503.606	103.38
503.823	114.38
504.04	115.38
504.256	125.38
504.473	101.38
504.69	116.38
504.907	110.38
505.123	116.38
505.34	119.38
505.557	121.38
505.773	95.38
505.99	100.38
506.207	100.38
506.423	113.38
506.64	111.38
506.856	111.38
507.073	119.38
507.289	94.38
507.506	104.38
507.722	111.38
507.939	110.38
508.155	122.38
508.372	112.38
508.588	117.38
508.805	105.38
509.021	109.38
509.238	85.38
509.454	95.38
509.67	101.38
509.887	100.38
510.103	102.38
510.319	98.38
510.536	102.38
510.752	109.38
510.968	113.38
511.184	112.38
511.401	97.38
511.617	84.38
511.833	117.38
512.049	96.38
512.265	105.38
512.481	92.38
512.698	113.38
512.914	92.38
513.13	87.38
513.346	91.38
513.562	115.38
513.778	117.38
513.994	105.38
514.21	105.38
