Data from Location5.07152019.Energy5.Lamp.07192019.3%Agarose_HRD10591_15-36-25-387.txt Node
Date: Fri Jul 19 15:36:25 EDT 2019
User: cochatt
Spectrometer: HR+D1059
Trigger mode: 1
Integration Time (sec): 1.000000E-1
Scans to average: 1
Electric dark correction enabled: true
Nonlinearity correction enabled: false
Boxcar width: 0
XAxis mode: Wavelengths
Number of Pixels in Spectrum: 2048
>>>>>Begin Spectral Data<<<<<
223.165	-12.56
223.4	-12.56
223.635	-12.56
223.869	-34.56
224.104	-4.56
224.338	-0.56
224.573	-6.56
224.808	-14.56
225.042	-10.56
225.277	2.44
225.511	-13.56
225.746	2.44
225.98	1.44
226.215	2.44
226.449	11.44
226.683	29.44
226.918	25.44
227.152	22.44
227.387	30.44
227.621	37.44
227.856	26.44
228.09	51.44
228.324	53.44
228.559	60.44
228.793	64.44
229.027	73.44
229.262	72.44
229.496	78.44
229.73	70.44
229.964	70.44
230.199	67.44
230.433	74.44
230.667	72.44
230.901	71.44
231.136	88.44
231.37	73.44
231.604	58.44
231.838	81.44
232.072	67.44
232.306	79.44
232.541	82.44
232.775	65.44
233.009	89.44
233.243	81.44
233.477	82.44
233.711	81.44
233.945	75.44
234.179	79.44
234.413	74.44
234.647	74.44
234.881	75.44
235.115	89.44
235.349	71.44
235.583	75.44
235.817	61.44
236.051	65.44
236.285	90.44
236.519	94.44
236.753	79.44
236.987	80.44
237.221	65.44
237.455	74.44
237.689	69.44
237.922	65.44
238.156	82.44
238.39	82.44
238.624	76.44
238.858	89.44
239.091	68.44
239.325	82.44
239.559	76.44
239.793	81.44
240.027	79.44
240.26	74.44
240.494	91.44
240.728	75.44
240.961	75.44
241.195	74.44
241.429	78.44
241.662	76.44
241.896	71.44
242.13	73.44
242.363	77.44
242.597	82.44
242.83	83.44
243.064	70.44
243.298	80.44
243.531	56.44
243.765	71.44
243.998	65.44
244.232	81.44
244.465	89.44
244.699	67.44
244.932	74.44
245.166	83.44
245.399	75.44
245.633	65.44
245.866	63.44
246.099	89.44
246.333	74.44
246.566	62.44
246.8	74.44
247.033	72.44
247.266	79.44
247.5	91.44
247.733	78.44
247.966	73.44
248.2	58.44
248.433	68.44
248.666	67.44
248.899	74.44
249.133	73.44
249.366	79.44
249.599	74.44
249.832	80.44
250.066	84.44
250.299	81.44
250.532	70.44
250.765	67.44
250.998	65.44
251.231	77.44
251.465	80.44
251.698	69.44
251.931	68.44
252.164	85.44
252.397	86.44
252.63	68.44
252.863	77.44
253.096	74.44
253.329	72.44
253.562	81.44
253.795	84.44
254.028	82.44
254.261	87.44
254.494	79.44
254.727	86.44
254.96	80.44
255.193	74.44
255.426	89.44
255.659	98.44
255.892	72.44
256.124	83.44
256.357	69.44
256.59	90.44
256.823	89.44
257.056	82.44
257.289	86.44
257.521	81.44
257.754	65.44
257.987	70.44
258.22	80.44
258.452	90.44
258.685	85.44
258.918	78.44
259.151	80.44
259.383	78.44
259.616	90.44
259.849	81.44
260.081	96.44
260.314	91.44
260.547	83.44
260.779	76.44
261.012	72.44
261.244	94.44
261.477	76.44
261.71	81.44
261.942	86.44
262.175	94.44
262.407	82.44
262.64	84.44
262.872	87.44
263.105	72.44
263.337	70.44
263.57	87.44
263.802	81.44
264.035	77.44
264.267	81.44
264.499	80.44
264.732	83.44
264.964	87.44
265.197	86.44
265.429	72.44
265.661	77.44
265.894	69.44
266.126	95.44
266.358	95.44
266.591	82.44
266.823	79.44
267.055	75.44
267.287	81.44
267.52	89.44
267.752	81.44
267.984	72.44
268.216	76.44
268.448	86.44
268.681	86.44
268.913	84.44
269.145	66.44
269.377	75.44
269.609	81.44
269.841	88.44
270.073	78.44
270.306	70.44
270.538	80.44
270.77	82.44
271.002	82.44
271.234	76.44
271.466	77.44
271.698	81.44
271.93	91.44
272.162	91.44
272.394	74.44
272.626	83.44
272.858	90.44
273.09	71.44
273.322	69.44
273.553	80.44
273.785	80.44
274.017	83.44
274.249	90.44
274.481	81.44
274.713	79.44
274.945	72.44
275.176	68.44
275.408	98.44
275.64	83.44
275.872	82.44
276.104	72.44
276.335	78.44
276.567	77.44
276.799	82.44
277.031	80.44
277.262	72.44
277.494	90.44
277.726	88.44
277.957	86.44
278.189	86.44
278.421	79.44
278.652	70.44
278.884	72.44
279.115	81.44
279.347	92.44
279.579	76.44
279.81	74.44
280.042	84.44
280.273	77.44
280.505	81.44
280.736	79.44
280.968	85.44
281.199	76.44
281.431	88.44
281.662	71.44
281.894	93.44
282.125	82.44
282.356	68.44
282.588	83.44
282.819	81.44
283.051	72.44
283.282	90.44
283.513	85.44
283.745	73.44
283.976	74.44
284.207	86.44
284.439	89.44
284.67	78.44
284.901	74.44
285.132	88.44
285.364	83.44
285.595	69.44
285.826	82.44
286.057	84.44
286.288	81.44
286.52	96.44
286.751	93.44
286.982	75.44
287.213	82.44
287.444	72.44
287.675	73.44
287.906	84.44
288.138	82.44
288.369	100.44
288.6	79.44
288.831	80.44
289.062	78.44
289.293	78.44
289.524	89.44
289.755	67.44
289.986	75.44
290.217	83.44
290.448	84.44
290.679	75.44
290.91	83.44
291.141	79.44
291.371	85.44
291.602	90.44
291.833	79.44
292.064	90.44
292.295	80.44
292.526	76.44
292.757	80.44
292.987	87.44
293.218	93.44
293.449	85.44
293.68	93.44
293.91	90.44
294.141	81.44
294.372	80.44
294.603	74.44
294.833	71.44
295.064	82.44
295.295	92.44
295.525	85.44
295.756	74.44
295.987	83.44
296.217	86.44
296.448	81.44
296.679	94.44
296.909	86.44
297.14	91.44
297.37	88.44
297.601	79.44
297.831	89.44
298.062	79.44
298.292	66.44
298.523	73.44
298.753	72.44
298.984	89.44
299.214	72.44
299.445	90.44
299.675	82.44
299.905	85.44
300.136	91.44
300.366	92.44
300.597	83.44
300.827	67.44
301.057	89.44
301.288	68.44
301.518	82.44
301.748	72.44
301.979	101.44
302.209	79.44
302.439	85.44
302.669	74.44
302.9	81.44
303.13	72.44
303.36	84.44
303.59	82.44
303.82	87.44
304.051	97.44
304.281	90.44
304.511	79.44
304.741	104.44
304.971	77.44
305.201	76.44
305.431	84.44
305.661	91.44
305.891	101.44
306.121	81.44
306.352	74.44
306.582	71.44
306.812	97.44
307.042	89.44
307.272	77.44
307.502	82.44
307.731	88.44
307.961	81.44
308.191	82.44
308.421	78.44
308.651	82.44
308.881	79.44
309.111	78.44
309.341	98.44
309.571	71.44
309.8	81.44
310.03	74.44
310.26	77.44
310.49	74.44
310.72	81.44
310.949	89.44
311.179	85.44
311.409	80.44
311.639	83.44
311.868	77.44
312.098	90.44
312.328	83.44
312.557	71.44
312.787	81.44
313.017	80.44
313.246	97.44
313.476	84.44
313.706	74.44
313.935	84.44
314.165	82.44
314.394	80.44
314.624	88.44
314.853	79.44
315.083	87.44
315.312	85.44
315.542	87.44
315.771	81.44
316.001	81.44
316.23	81.44
316.46	83.44
316.689	69.44
316.919	88.44
317.148	77.44
317.377	82.44
317.607	82.44
317.836	76.44
318.065	72.44
318.295	78.44
318.524	77.44
318.753	85.44
318.983	82.44
319.212	75.44
319.441	78.44
319.67	79.44
319.9	85.44
320.129	93.44
320.358	84.44
320.587	85.44
320.816	79.44
321.046	78.44
321.275	72.44
321.504	83.44
321.733	87.44
321.962	81.44
322.191	83.44
322.42	88.44
322.649	84.44
322.878	101.44
323.108	86.44
323.337	80.44
323.566	65.44
323.795	68.44
324.024	90.44
324.253	79.44
324.482	91.44
324.71	90.44
324.939	88.44
325.168	88.44
325.397	76.44
325.626	87.44
325.855	81.44
326.084	92.44
326.313	87.44
326.542	91.44
326.77	90.44
326.999	97.44
327.228	83.44
327.457	75.44
327.686	77.44
327.914	76.44
328.143	83.44
328.372	70.44
328.6	63.44
328.829	84.44
329.058	96.44
329.287	88.44
329.515	89.44
329.744	89.44
329.972	77.44
330.201	75.44
330.43	102.44
330.658	87.44
330.887	82.44
331.115	88.44
331.344	66.44
331.572	84.44
331.801	90.44
332.03	80.44
332.258	85.44
332.486	86.44
332.715	72.44
332.943	83.44
333.172	74.44
333.4	86.44
333.629	87.44
333.857	66.44
334.085	85.44
334.314	81.44
334.542	84.44
334.771	73.44
334.999	94.44
335.227	79.44
335.455	73.44
335.684	75.44
335.912	85.44
336.14	86.44
336.369	82.44
336.597	83.44
336.825	73.44
337.053	86.44
337.281	65.44
337.51	87.44
337.738	91.44
337.966	79.44
338.194	78.44
338.422	80.44
338.65	93.44
338.878	84.44
339.106	80.44
339.334	79.44
339.562	82.44
339.79	78.44
340.018	89.44
340.246	74.44
340.474	83.44
340.702	78.44
340.93	88.44
341.158	79.44
341.386	78.44
341.614	81.44
341.842	94.44
342.07	79.44
342.298	75.44
342.526	74.44
342.754	84.44
342.981	89.44
343.209	98.44
343.437	88.44
343.665	76.44
343.893	86.44
344.12	89.44
344.348	75.44
344.576	85.44
344.804	86.44
345.031	74.44
345.259	87.44
345.487	87.44
345.714	76.44
345.942	74.44
346.17	73.44
346.397	68.44
346.625	87.44
346.853	83.44
347.08	83.44
347.308	72.44
347.535	79.44
347.763	84.44
347.99	84.44
348.218	77.44
348.445	96.44
348.673	90.44
348.9	95.44
349.128	83.44
349.355	87.44
349.583	81.44
349.81	80.44
350.037	90.44
350.265	82.44
350.492	100.44
350.72	83.44
350.947	82.44
351.174	81.44
351.402	93.44
351.629	89.44
351.856	90.44
352.083	79.44
352.311	71.44
352.538	84.44
352.765	82.44
352.992	82.44
353.22	93.44
353.447	78.44
353.674	78.44
353.901	84.44
354.128	87.44
354.355	82.44
354.583	86.44
354.81	75.44
355.037	74.44
355.264	82.44
355.491	83.44
355.718	71.44
355.945	89.44
356.172	67.44
356.399	79.44
356.626	86.44
356.853	96.44
357.08	77.44
357.307	81.44
357.534	92.44
357.761	94.44
357.988	97.44
358.215	83.44
358.441	68.44
358.668	74.44
358.895	90.44
359.122	83.44
359.349	101.44
359.576	82.44
359.802	77.44
360.029	90.44
360.256	76.44
360.483	78.44
360.709	96.44
360.936	93.44
361.163	86.44
361.39	73.44
361.616	85.44
361.843	74.44
362.07	81.44
362.296	73.44
362.523	74.44
362.749	86.44
362.976	81.44
363.203	72.44
363.429	81.44
363.656	89.44
363.882	86.44
364.109	96.44
364.335	79.44
364.562	78.44
364.788	72.44
365.015	78.44
365.241	84.44
365.468	72.44
365.694	77.44
365.92	87.44
366.147	81.44
366.373	89.44
366.599	70.44
366.826	71.44
367.052	85.44
367.278	76.44
367.505	88.44
367.731	94.44
367.957	80.44
368.184	74.44
368.41	83.44
368.636	78.44
368.862	94.44
369.089	90.44
369.315	76.44
369.541	84.44
369.767	78.44
369.993	87.44
370.219	75.44
370.445	91.44
370.672	97.44
370.898	73.44
371.124	68.44
371.35	80.44
371.576	88.44
371.802	75.44
372.028	76.44
372.254	73.44
372.48	95.44
372.706	90.44
372.932	96.44
373.158	72.44
373.384	94.44
373.61	77.44
373.835	80.44
374.061	73.44
374.287	74.44
374.513	79.44
374.739	85.44
374.965	88.44
375.191	72.44
375.416	69.44
375.642	93.44
375.868	75.44
376.094	89.44
376.319	75.44
376.545	59.44
376.771	77.44
376.997	81.44
377.222	86.44
377.448	76.44
377.674	88.44
377.899	84.44
378.125	92.44
378.35	88.44
378.576	82.44
378.802	81.44
379.027	82.44
379.253	82.44
379.478	94.44
379.704	65.44
379.929	92.44
380.155	73.44
380.38	97.44
380.606	99.44
380.831	75.44
381.057	82.44
381.282	85.44
381.507	78.44
381.733	85.44
381.958	82.44
382.184	81.44
382.409	95.44
382.634	103.44
382.86	85.44
383.085	81.44
383.31	89.44
383.535	80.44
383.761	83.44
383.986	77.44
384.211	82.44
384.436	75.44
384.662	83.44
384.887	80.44
385.112	72.44
385.337	69.44
385.562	91.44
385.787	94.44
386.013	93.44
386.238	65.44
386.463	84.44
386.688	65.44
386.913	80.44
387.138	78.44
387.363	87.44
387.588	82.44
387.813	102.44
388.038	96.44
388.263	93.44
388.488	79.44
388.713	67.44
388.938	73.44
389.163	81.44
389.387	87.44
389.612	90.44
389.837	73.44
390.062	97.44
390.287	88.44
390.512	81.44
390.736	98.44
390.961	69.44
391.186	82.44
391.411	82.44
391.636	86.44
391.86	80.44
392.085	80.44
392.31	76.44
392.534	89.44
392.759	89.44
392.984	83.44
393.208	75.44
393.433	80.44
393.658	76.44
393.882	88.44
394.107	88.44
394.331	90.44
394.556	101.44
394.78	89.44
395.005	84.44
395.229	71.44
395.454	89.44
395.678	94.44
395.903	84.44
396.127	75.44
396.352	96.44
396.576	87.44
396.801	83.44
397.025	95.44
397.249	98.44
397.474	98.44
397.698	88.44
397.922	103.44
398.147	89.44
398.371	75.44
398.595	86.44
398.82	79.44
399.044	79.44
399.268	79.44
399.492	70.44
399.717	83.44
399.941	88.44
400.165	115.44
400.389	85.44
400.613	77.44
400.837	85.44
401.062	92.44
401.286	86.44
401.51	75.44
401.734	81.44
401.958	86.44
402.182	74.44
402.406	91.44
402.63	86.44
402.854	95.44
403.078	85.44
403.302	78.44
403.526	89.44
403.75	83.44
403.974	90.44
404.198	80.44
404.422	92.44
404.645	84.44
404.869	96.44
405.093	81.44
405.317	88.44
405.541	89.44
405.765	96.44
405.988	87.44
406.212	76.44
406.436	74.44
406.66	86.44
406.883	97.44
407.107	87.44
407.331	82.44
407.555	98.44
407.778	78.44
408.002	93.44
408.226	85.44
408.449	93.44
408.673	87.44
408.896	83.44
409.12	94.44
409.344	87.44
409.567	77.44
409.791	82.44
410.014	86.44
410.238	85.44
410.461	85.44
410.685	82.44
410.908	90.44
411.132	85.44
411.355	85.44
411.578	71.44
411.802	78.44
412.025	91.44
412.249	96.44
412.472	93.44
412.695	79.44
412.919	74.44
413.142	94.44
413.365	80.44
413.589	80.44
413.812	82.44
414.035	96.44
414.258	111.44
414.482	96.44
414.705	93.44
414.928	89.44
415.151	94.44
415.374	77.44
415.597	78.44
415.821	80.44
416.044	79.44
416.267	89.44
416.49	90.44
416.713	87.44
416.936	93.44
417.159	93.44
417.382	82.44
417.605	89.44
417.828	97.44
418.051	94.44
418.274	96.44
418.497	85.44
418.72	79.44
418.943	70.44
419.166	80.44
419.389	96.44
419.611	83.44
419.834	93.44
420.057	91.44
420.28	87.44
420.503	89.44
420.726	90.44
420.948	79.44
421.171	97.44
421.394	95.44
421.617	94.44
421.839	97.44
422.062	94.44
422.285	83.44
422.507	91.44
422.73	83.44
422.953	87.44
423.175	86.44
423.398	98.44
423.621	85.44
423.843	86.44
424.066	75.44
424.288	92.44
424.511	86.44
424.733	97.44
424.956	83.44
425.178	103.44
425.401	91.44
425.623	83.44
425.846	93.44
426.068	90.44
426.291	83.44
426.513	85.44
426.735	91.44
426.958	83.44
427.18	91.44
427.402	81.44
427.625	87.44
427.847	82.44
428.069	93.44
428.292	92.44
428.514	83.44
428.736	100.44
428.958	92.44
429.181	97.44
429.403	92.44
429.625	97.44
429.847	87.44
430.069	89.44
430.292	88.44
430.514	90.44
430.736	93.44
430.958	95.44
431.18	84.44
431.402	93.44
431.624	86.44
431.846	87.44
432.068	93.44
432.29	80.44
432.512	97.44
432.734	95.44
432.956	96.44
433.178	99.44
433.4	102.44
433.622	87.44
433.844	80.44
434.066	87.44
434.287	87.44
434.509	74.44
434.731	83.44
434.953	74.44
435.175	72.44
435.397	74.44
435.618	77.44
435.84	81.44
436.062	97.44
436.284	84.44
436.505	102.44
436.727	85.44
436.949	84.44
437.17	83.44
437.392	84.44
437.614	88.44
437.835	86.44
438.057	90.44
438.278	70.44
438.5	88.44
438.721	87.44
438.943	96.44
439.165	99.44
439.386	82.44
439.608	97.44
439.829	87.44
440.05	109.44
440.272	87.44
440.493	99.44
440.715	103.44
440.936	91.44
441.158	97.44
441.379	83.44
441.6	106.44
441.822	92.44
442.043	81.44
442.264	88.44
442.486	93.44
442.707	87.44
442.928	101.44
443.149	88.44
443.371	96.44
443.592	91.44
443.813	83.44
444.034	103.44
444.255	99.44
444.476	100.44
444.698	75.44
444.919	111.44
445.14	228.44
445.361	141.44
445.582	107.44
445.803	96.44
446.024	88.44
446.245	92.44
446.466	91.44
446.687	93.44
446.908	96.44
447.129	98.44
447.35	100.44
447.571	97.44
447.792	80.44
448.013	85.44
448.234	105.44
448.455	88.44
448.675	114.44
448.896	95.44
449.117	87.44
449.338	111.44
449.559	103.44
449.779	87.44
450	80.44
450.221	73.44
450.442	87.44
450.662	95.44
450.883	84.44
451.104	87.44
451.324	94.44
451.545	72.44
451.766	87.44
451.986	82.44
452.207	98.44
452.428	80.44
452.648	91.44
452.869	97.44
453.089	89.44
453.31	89.44
453.53	76.44
453.751	86.44
453.971	73.44
454.192	84.44
454.412	86.44
454.633	93.44
454.853	91.44
455.073	92.44
455.294	80.44
455.514	71.44
455.734	87.44
455.955	68.44
456.175	86.44
456.395	94.44
456.616	83.44
456.836	86.44
457.056	89.44
457.276	89.44
457.497	75.44
457.717	86.44
457.937	90.44
458.157	81.44
458.377	89.44
458.598	83.44
458.818	85.44
459.038	91.44
459.258	75.44
459.478	83.44
459.698	69.44
459.918	80.44
460.138	90.44
460.358	97.44
460.578	99.44
460.798	87.44
461.018	84.44
461.238	81.44
461.458	107.44
461.678	93.44
461.898	90.44
462.118	81.44
462.338	94.44
462.558	94.44
462.777	96.44
462.997	88.44
463.217	81.44
463.437	69.44
463.657	82.44
463.876	81.44
464.096	81.44
464.316	83.44
464.536	92.44
464.755	75.44
464.975	71.44
465.195	93.44
465.414	82.44
465.634	80.44
465.854	87.44
466.073	93.44
466.293	82.44
466.512	81.44
466.732	93.44
466.951	94.44
467.171	87.44
467.391	84.44
467.61	93.44
467.829	84.44
468.049	89.44
468.268	97.44
468.488	90.44
468.707	100.44
468.927	91.44
469.146	105.44
469.365	88.44
469.585	100.44
469.804	93.44
470.023	93.44
470.243	87.44
470.462	94.44
470.681	98.44
470.901	72.44
471.12	96.44
471.339	88.44
471.558	106.44
471.777	83.44
471.997	89.44
472.216	90.44
472.435	90.44
472.654	84.44
472.873	75.44
473.092	73.44
473.311	97.44
473.53	96.44
473.749	90.44
473.968	100.44
474.187	102.44
474.406	99.44
474.625	88.44
474.844	87.44
475.063	91.44
475.282	90.44
475.501	81.44
475.72	83.44
475.939	94.44
476.158	96.44
476.377	83.44
476.596	102.44
476.814	100.44
477.033	94.44
477.252	87.44
477.471	88.44
477.69	96.44
477.908	102.44
478.127	85.44
478.346	101.44
478.564	99.44
478.783	78.44
479.002	87.44
479.22	94.44
479.439	96.44
479.658	84.44
479.876	83.44
480.095	87.44
480.313	101.44
480.532	98.44
480.751	75.44
480.969	73.44
481.188	81.44
481.406	79.44
481.624	91.44
481.843	73.44
482.061	90.44
482.28	86.44
482.498	94.44
482.717	82.44
482.935	84.44
483.153	96.44
483.372	107.44
483.59	98.44
483.808	89.44
484.027	97.44
484.245	97.44
484.463	102.44
484.681	107.44
484.9	91.44
485.118	89.44
485.336	105.44
485.554	83.44
485.772	75.44
485.99	88.44
486.209	75.44
486.427	101.44
486.645	101.44
486.863	94.44
487.081	103.44
487.299	104.44
487.517	101.44
487.735	90.44
487.953	105.44
488.171	99.44
488.389	117.44
488.607	100.44
488.825	88.44
489.043	72.44
489.261	78.44
489.479	104.44
489.696	73.44
489.914	83.44
490.132	96.44
490.35	90.44
490.568	94.44
490.786	104.44
491.003	107.44
491.221	104.44
491.439	106.44
491.657	104.44
491.874	122.44
492.092	133.44
492.31	121.44
492.527	116.44
492.745	118.44
492.963	105.44
493.18	106.44
493.398	101.44
493.615	101.44
493.833	115.44
494.05	102.44
494.268	109.44
494.485	106.44
494.703	109.44
494.92	110.44
495.138	93.44
495.355	101.44
495.573	102.44
495.79	94.44
496.008	98.44
496.225	112.44
496.442	109.44
496.66	94.44
496.877	104.44
497.094	110.44
497.312	102.44
497.529	107.44
497.746	101.44
497.963	87.44
498.181	88.44
498.398	87.44
498.615	98.44
498.832	96.44
499.049	94.44
499.267	97.44
499.484	97.44
499.701	93.44
499.918	78.44
500.135	109.44
500.352	98.44
500.569	86.44
500.786	96.44
501.003	97.44
501.22	101.44
501.437	100.44
501.654	78.44
501.871	104.44
502.088	102.44
502.305	96.44
502.522	87.44
502.739	93.44
502.956	91.44
503.172	94.44
503.389	100.44
503.606	87.44
503.823	105.44
504.04	101.44
504.256	87.44
504.473	94.44
504.69	86.44
504.907	98.44
505.123	98.44
505.34	102.44
505.557	90.44
505.773	90.44
505.99	82.44
506.207	85.44
506.423	89.44
506.64	102.44
506.856	93.44
507.073	98.44
507.289	80.44
507.506	91.44
507.722	79.44
507.939	84.44
508.155	71.44
508.372	82.44
508.588	84.44
508.805	89.44
509.021	86.44
509.238	77.44
509.454	92.44
509.67	91.44
509.887	83.44
510.103	84.44
510.319	94.44
510.536	92.44
510.752	86.44
510.968	89.44
511.184	66.44
511.401	94.44
511.617	89.44
511.833	84.44
512.049	82.44
512.265	87.44
512.481	103.44
512.698	97.44
512.914	93.44
513.13	90.44
513.346	89.44
513.562	78.44
513.778	74.44
513.994	77.44
514.21	83.44
514.426	90.44
514.642	82.44
514.858	78.44
515.074	87.44
515.29	90.44
515.506	81.44
515.721	72.44
515.937	76.44
516.153	90.44
516.369	85.44
516.585	96.44
516.801	84.44
517.016	86.44
517.232	70.44
517.448	99.44
517.664	89.44
517.879	85.44
518.095	81.44
