Data from Location5.07152019.Energy5.Lamp.07192019.3%Agarose_HRD10591_15-36-59-386.txt Node
Date: Fri Jul 19 15:36:59 EDT 2019
User: cochatt
Spectrometer: HR+D1059
Trigger mode: 1
Integration Time (sec): 1.000000E-1
Scans to average: 1
Electric dark correction enabled: true
Nonlinearity correction enabled: false
Boxcar width: 0
XAxis mode: Wavelengths
Number of Pixels in Spectrum: 2048
>>>>>Begin Spectral Data<<<<<
223.165	-20.06
223.4	-20.06
223.635	-20.06
223.869	-21.06
224.104	-21.06
224.338	-5.06
224.573	-21.06
224.808	-16.06
225.042	-9.06
225.277	-2.06
225.511	-2.06
225.746	4.94
225.98	9.94
226.215	1.94
226.449	9.94
226.683	32.94
226.918	26.94
227.152	30.94
227.387	29.94
227.621	34.94
227.856	45.94
228.09	33.94
228.324	49.94
228.559	59.94
228.793	64.94
229.027	57.94
229.262	61.94
229.496	64.94
229.73	73.94
229.964	64.94
230.199	68.94
230.433	87.94
230.667	54.94
230.901	75.94
231.136	84.94
231.37	85.94
231.604	73.94
231.838	86.94
232.072	95.94
232.306	81.94
232.541	75.94
232.775	72.94
233.009	69.94
233.243	78.94
233.477	73.94
233.711	67.94
233.945	85.94
234.179	79.94
234.413	67.94
234.647	80.94
234.881	81.94
235.115	88.94
235.349	83.94
235.583	88.94
235.817	76.94
236.051	74.94
236.285	83.94
236.519	84.94
236.753	67.94
236.987	83.94
237.221	71.94
237.455	79.94
237.689	80.94
237.922	83.94
238.156	75.94
238.39	76.94
238.624	90.94
238.858	91.94
239.091	75.94
239.325	87.94
239.559	57.94
239.793	65.94
240.027	69.94
240.26	79.94
240.494	77.94
240.728	78.94
240.961	80.94
241.195	66.94
241.429	75.94
241.662	81.94
241.896	86.94
242.13	68.94
242.363	73.94
242.597	67.94
242.83	72.94
243.064	79.94
243.298	67.94
243.531	91.94
243.765	86.94
243.998	84.94
244.232	65.94
244.465	69.94
244.699	83.94
244.932	72.94
245.166	87.94
245.399	80.94
245.633	83.94
245.866	81.94
246.099	71.94
246.333	71.94
246.566	83.94
246.8	69.94
247.033	74.94
247.266	77.94
247.5	67.94
247.733	75.94
247.966	76.94
248.2	79.94
248.433	62.94
248.666	77.94
248.899	70.94
249.133	85.94
249.366	90.94
249.599	93.94
249.832	79.94
250.066	75.94
250.299	77.94
250.532	81.94
250.765	81.94
250.998	83.94
251.231	89.94
251.465	86.94
251.698	84.94
251.931	68.94
252.164	78.94
252.397	73.94
252.63	85.94
252.863	89.94
253.096	75.94
253.329	61.94
253.562	85.94
253.795	78.94
254.028	85.94
254.261	87.94
254.494	86.94
254.727	81.94
254.96	78.94
255.193	77.94
255.426	76.94
255.659	89.94
255.892	71.94
256.124	82.94
256.357	97.94
256.59	87.94
256.823	78.94
257.056	79.94
257.289	86.94
257.521	83.94
257.754	75.94
257.987	85.94
258.22	81.94
258.452	78.94
258.685	73.94
258.918	88.94
259.151	85.94
259.383	91.94
259.616	86.94
259.849	88.94
260.081	84.94
260.314	79.94
260.547	82.94
260.779	79.94
261.012	86.94
261.244	83.94
261.477	77.94
261.71	96.94
261.942	87.94
262.175	81.94
262.407	75.94
262.64	98.94
262.872	92.94
263.105	79.94
263.337	75.94
263.57	67.94
263.802	77.94
264.035	75.94
264.267	90.94
264.499	73.94
264.732	90.94
264.964	68.94
265.197	72.94
265.429	84.94
265.661	90.94
265.894	81.94
266.126	76.94
266.358	88.94
266.591	89.94
266.823	79.94
267.055	74.94
267.287	81.94
267.52	74.94
267.752	78.94
267.984	81.94
268.216	75.94
268.448	83.94
268.681	85.94
268.913	82.94
269.145	79.94
269.377	66.94
269.609	79.94
269.841	79.94
270.073	69.94
270.306	94.94
270.538	80.94
270.77	77.94
271.002	93.94
271.234	81.94
271.466	74.94
271.698	85.94
271.93	73.94
272.162	75.94
272.394	92.94
272.626	75.94
272.858	78.94
273.09	74.94
273.322	84.94
273.553	76.94
273.785	64.94
274.017	79.94
274.249	71.94
274.481	69.94
274.713	80.94
274.945	76.94
275.176	74.94
275.408	69.94
275.64	71.94
275.872	85.94
276.104	65.94
276.335	79.94
276.567	77.94
276.799	87.94
277.031	91.94
277.262	85.94
277.494	92.94
277.726	82.94
277.957	86.94
278.189	77.94
278.421	79.94
278.652	81.94
278.884	71.94
279.115	79.94
279.347	90.94
279.579	71.94
279.81	88.94
280.042	77.94
280.273	85.94
280.505	97.94
280.736	81.94
280.968	66.94
281.199	84.94
281.431	91.94
281.662	90.94
281.894	86.94
282.125	73.94
282.356	85.94
282.588	102.94
282.819	86.94
283.051	89.94
283.282	100.94
283.513	92.94
283.745	89.94
283.976	84.94
284.207	85.94
284.439	86.94
284.67	86.94
284.901	98.94
285.132	81.94
285.364	76.94
285.595	75.94
285.826	90.94
286.057	90.94
286.288	78.94
286.52	97.94
286.751	88.94
286.982	84.94
287.213	93.94
287.444	81.94
287.675	65.94
287.906	94.94
288.138	75.94
288.369	87.94
288.6	80.94
288.831	76.94
289.062	82.94
289.293	63.94
289.524	86.94
289.755	81.94
289.986	83.94
290.217	79.94
290.448	87.94
290.679	82.94
290.91	79.94
291.141	70.94
291.371	85.94
291.602	83.94
291.833	88.94
292.064	93.94
292.295	71.94
292.526	90.94
292.757	81.94
292.987	85.94
293.218	81.94
293.449	69.94
293.68	87.94
293.91	92.94
294.141	79.94
294.372	82.94
294.603	81.94
294.833	80.94
295.064	74.94
295.295	76.94
295.525	71.94
295.756	89.94
295.987	93.94
296.217	78.94
296.448	85.94
296.679	82.94
296.909	67.94
297.14	70.94
297.37	77.94
297.601	93.94
297.831	87.94
298.062	61.94
298.292	90.94
298.523	81.94
298.753	95.94
298.984	85.94
299.214	95.94
299.445	91.94
299.675	81.94
299.905	60.94
300.136	84.94
300.366	86.94
300.597	79.94
300.827	91.94
301.057	76.94
301.288	85.94
301.518	87.94
301.748	83.94
301.979	88.94
302.209	89.94
302.439	82.94
302.669	93.94
302.9	79.94
303.13	95.94
303.36	75.94
303.59	83.94
303.82	81.94
304.051	76.94
304.281	78.94
304.511	89.94
304.741	83.94
304.971	73.94
305.201	77.94
305.431	81.94
305.661	75.94
305.891	89.94
306.121	78.94
306.352	82.94
306.582	80.94
306.812	82.94
307.042	75.94
307.272	60.94
307.502	73.94
307.731	80.94
307.961	88.94
308.191	84.94
308.421	75.94
308.651	89.94
308.881	75.94
309.111	88.94
309.341	87.94
309.571	93.94
309.8	74.94
310.03	94.94
310.26	86.94
310.49	86.94
310.72	89.94
310.949	86.94
311.179	85.94
311.409	86.94
311.639	95.94
311.868	88.94
312.098	77.94
312.328	89.94
312.557	79.94
312.787	80.94
313.017	83.94
313.246	74.94
313.476	75.94
313.706	86.94
313.935	72.94
314.165	78.94
314.394	77.94
314.624	85.94
314.853	80.94
315.083	105.94
315.312	91.94
315.542	81.94
315.771	89.94
316.001	84.94
316.23	82.94
316.46	89.94
316.689	97.94
316.919	88.94
317.148	88.94
317.377	82.94
317.607	95.94
317.836	85.94
318.065	103.94
318.295	74.94
318.524	87.94
318.753	79.94
318.983	93.94
319.212	85.94
319.441	83.94
319.67	82.94
319.9	79.94
320.129	75.94
320.358	84.94
320.587	86.94
320.816	92.94
321.046	76.94
321.275	89.94
321.504	90.94
321.733	81.94
321.962	65.94
322.191	73.94
322.42	83.94
322.649	83.94
322.878	89.94
323.108	82.94
323.337	78.94
323.566	101.94
323.795	83.94
324.024	72.94
324.253	80.94
324.482	88.94
324.71	85.94
324.939	85.94
325.168	71.94
325.397	90.94
325.626	88.94
325.855	87.94
326.084	89.94
326.313	89.94
326.542	97.94
326.77	82.94
326.999	94.94
327.228	86.94
327.457	83.94
327.686	78.94
327.914	74.94
328.143	85.94
328.372	71.94
328.6	82.94
328.829	82.94
329.058	89.94
329.287	80.94
329.515	84.94
329.744	81.94
329.972	85.94
330.201	73.94
330.43	71.94
330.658	85.94
330.887	81.94
331.115	75.94
331.344	74.94
331.572	84.94
331.801	83.94
332.03	95.94
332.258	79.94
332.486	85.94
332.715	78.94
332.943	90.94
333.172	86.94
333.4	80.94
333.629	85.94
333.857	82.94
334.085	82.94
334.314	81.94
334.542	90.94
334.771	75.94
334.999	77.94
335.227	88.94
335.455	90.94
335.684	76.94
335.912	99.94
336.14	83.94
336.369	82.94
336.597	86.94
336.825	88.94
337.053	97.94
337.281	95.94
337.51	83.94
337.738	71.94
337.966	58.94
338.194	89.94
338.422	81.94
338.65	93.94
338.878	80.94
339.106	71.94
339.334	83.94
339.562	87.94
339.79	82.94
340.018	87.94
340.246	88.94
340.474	82.94
340.702	60.94
340.93	89.94
341.158	86.94
341.386	92.94
341.614	65.94
341.842	80.94
342.07	71.94
342.298	77.94
342.526	77.94
342.754	75.94
342.981	80.94
343.209	94.94
343.437	80.94
343.665	88.94
343.893	87.94
344.12	104.94
344.348	91.94
344.576	81.94
344.804	71.94
345.031	81.94
345.259	87.94
345.487	79.94
345.714	83.94
345.942	89.94
346.17	87.94
346.397	86.94
346.625	80.94
346.853	76.94
347.08	81.94
347.308	91.94
347.535	95.94
347.763	95.94
347.99	86.94
348.218	64.94
348.445	79.94
348.673	89.94
348.9	89.94
349.128	81.94
349.355	79.94
349.583	81.94
349.81	89.94
350.037	78.94
350.265	87.94
350.492	89.94
350.72	84.94
350.947	74.94
351.174	91.94
351.402	86.94
351.629	94.94
351.856	76.94
352.083	84.94
352.311	90.94
352.538	73.94
352.765	76.94
352.992	94.94
353.22	96.94
353.447	84.94
353.674	80.94
353.901	85.94
354.128	77.94
354.355	82.94
354.583	88.94
354.81	81.94
355.037	76.94
355.264	89.94
355.491	69.94
355.718	71.94
355.945	83.94
356.172	89.94
356.399	74.94
356.626	102.94
356.853	93.94
357.08	84.94
357.307	84.94
357.534	93.94
357.761	82.94
357.988	89.94
358.215	81.94
358.441	81.94
358.668	86.94
358.895	75.94
359.122	82.94
359.349	93.94
359.576	80.94
359.802	75.94
360.029	82.94
360.256	87.94
360.483	76.94
360.709	67.94
360.936	91.94
361.163	74.94
361.39	94.94
361.616	88.94
361.843	79.94
362.07	87.94
362.296	91.94
362.523	73.94
362.749	83.94
362.976	73.94
363.203	81.94
363.429	84.94
363.656	97.94
363.882	85.94
364.109	73.94
364.335	88.94
364.562	68.94
364.788	89.94
365.015	71.94
365.241	86.94
365.468	93.94
365.694	74.94
365.92	83.94
366.147	63.94
366.373	67.94
366.599	97.94
366.826	92.94
367.052	74.94
367.278	89.94
367.505	84.94
367.731	84.94
367.957	89.94
368.184	84.94
368.41	79.94
368.636	79.94
368.862	97.94
369.089	96.94
369.315	84.94
369.541	82.94
369.767	88.94
369.993	94.94
370.219	67.94
370.445	88.94
370.672	81.94
370.898	78.94
371.124	94.94
371.35	81.94
371.576	76.94
371.802	82.94
372.028	80.94
372.254	92.94
372.48	81.94
372.706	81.94
372.932	89.94
373.158	86.94
373.384	81.94
373.61	81.94
373.835	88.94
374.061	90.94
374.287	84.94
374.513	100.94
374.739	85.94
374.965	88.94
375.191	88.94
375.416	94.94
375.642	79.94
375.868	86.94
376.094	81.94
376.319	84.94
376.545	93.94
376.771	83.94
376.997	83.94
377.222	85.94
377.448	94.94
377.674	90.94
377.899	81.94
378.125	78.94
378.35	85.94
378.576	92.94
378.802	89.94
379.027	83.94
379.253	71.94
379.478	80.94
379.704	98.94
379.929	102.94
380.155	79.94
380.38	89.94
380.606	96.94
380.831	85.94
381.057	89.94
381.282	76.94
381.507	86.94
381.733	82.94
381.958	82.94
382.184	81.94
382.409	94.94
382.634	84.94
382.86	73.94
383.085	78.94
383.31	89.94
383.535	93.94
383.761	104.94
383.986	79.94
384.211	96.94
384.436	72.94
384.662	96.94
384.887	85.94
385.112	74.94
385.337	75.94
385.562	81.94
385.787	71.94
386.013	82.94
386.238	85.94
386.463	88.94
386.688	101.94
386.913	80.94
387.138	91.94
387.363	96.94
387.588	96.94
387.813	80.94
388.038	79.94
388.263	71.94
388.488	88.94
388.713	96.94
388.938	76.94
389.163	79.94
389.387	91.94
389.612	83.94
389.837	89.94
390.062	85.94
390.287	77.94
390.512	90.94
390.736	90.94
390.961	87.94
391.186	73.94
391.411	99.94
391.636	89.94
391.86	77.94
392.085	82.94
392.31	87.94
392.534	75.94
392.759	84.94
392.984	79.94
393.208	82.94
393.433	98.94
393.658	87.94
393.882	74.94
394.107	80.94
394.331	93.94
394.556	84.94
394.78	83.94
395.005	92.94
395.229	85.94
395.454	78.94
395.678	77.94
395.903	75.94
396.127	83.94
396.352	84.94
396.576	91.94
396.801	86.94
397.025	99.94
397.249	89.94
397.474	87.94
397.698	87.94
397.922	90.94
398.147	96.94
398.371	62.94
398.595	93.94
398.82	93.94
399.044	78.94
399.268	98.94
399.492	94.94
399.717	92.94
399.941	95.94
400.165	83.94
400.389	77.94
400.613	85.94
400.837	94.94
401.062	101.94
401.286	103.94
401.51	86.94
401.734	95.94
401.958	81.94
402.182	85.94
402.406	90.94
402.63	91.94
402.854	89.94
403.078	85.94
403.302	82.94
403.526	96.94
403.75	87.94
403.974	83.94
404.198	77.94
404.422	77.94
404.645	92.94
404.869	101.94
405.093	87.94
405.317	93.94
405.541	76.94
405.765	94.94
405.988	84.94
406.212	93.94
406.436	86.94
406.66	85.94
406.883	94.94
407.107	89.94
407.331	97.94
407.555	86.94
407.778	105.94
408.002	87.94
408.226	88.94
408.449	81.94
408.673	88.94
408.896	75.94
409.12	75.94
409.344	101.94
409.567	90.94
409.791	96.94
410.014	112.94
410.238	93.94
410.461	93.94
410.685	94.94
410.908	82.94
411.132	97.94
411.355	82.94
411.578	95.94
411.802	100.94
412.025	85.94
412.249	90.94
412.472	98.94
412.695	93.94
412.919	100.94
413.142	85.94
413.365	93.94
413.589	89.94
413.812	96.94
414.035	91.94
414.258	84.94
414.482	83.94
414.705	91.94
414.928	90.94
415.151	87.94
415.374	85.94
415.597	82.94
415.821	97.94
416.044	86.94
416.267	71.94
416.49	89.94
416.713	93.94
416.936	91.94
417.159	89.94
417.382	78.94
417.605	75.94
417.828	101.94
418.051	93.94
418.274	96.94
418.497	105.94
418.72	96.94
418.943	96.94
419.166	90.94
419.389	90.94
419.611	84.94
419.834	86.94
420.057	96.94
420.28	85.94
420.503	94.94
420.726	89.94
420.948	101.94
421.171	90.94
421.394	89.94
421.617	89.94
421.839	98.94
422.062	83.94
422.285	80.94
422.507	115.94
422.73	87.94
422.953	91.94
423.175	97.94
423.398	81.94
423.621	98.94
423.843	106.94
424.066	93.94
424.288	99.94
424.511	90.94
424.733	93.94
424.956	93.94
425.178	85.94
425.401	84.94
425.623	87.94
425.846	101.94
426.068	88.94
426.291	104.94
426.513	98.94
426.735	92.94
426.958	92.94
427.18	76.94
427.402	87.94
427.625	103.94
427.847	95.94
428.069	85.94
428.292	99.94
428.514	99.94
428.736	97.94
428.958	79.94
429.181	101.94
429.403	85.94
429.625	82.94
429.847	90.94
430.069	96.94
430.292	93.94
430.514	95.94
430.736	94.94
430.958	89.94
431.18	95.94
431.402	81.94
431.624	97.94
431.846	98.94
432.068	86.94
432.29	98.94
432.512	94.94
432.734	87.94
432.956	97.94
433.178	105.94
433.4	92.94
433.622	97.94
433.844	95.94
434.066	99.94
434.287	69.94
434.509	69.94
434.731	89.94
434.953	94.94
435.175	100.94
435.397	86.94
435.618	85.94
435.84	81.94
436.062	91.94
436.284	93.94
436.505	92.94
436.727	95.94
436.949	88.94
437.17	78.94
437.392	94.94
437.614	94.94
437.835	84.94
438.057	81.94
438.278	92.94
438.5	93.94
438.721	93.94
438.943	89.94
439.165	82.94
439.386	90.94
439.608	86.94
439.829	86.94
440.05	94.94
440.272	103.94
440.493	100.94
440.715	106.94
440.936	94.94
441.158	110.94
441.379	94.94
441.6	90.94
441.822	110.94
442.043	98.94
442.264	98.94
442.486	90.94
442.707	88.94
442.928	107.94
443.149	94.94
443.371	96.94
443.592	76.94
443.813	75.94
444.034	93.94
444.255	89.94
444.476	87.94
444.698	85.94
444.919	98.94
445.14	184.94
445.361	143.94
445.582	93.94
445.803	97.94
446.024	99.94
446.245	93.94
446.466	89.94
446.687	103.94
446.908	92.94
447.129	103.94
447.35	103.94
447.571	97.94
447.792	105.94
448.013	96.94
448.234	84.94
448.455	111.94
448.675	87.94
448.896	97.94
449.117	78.94
449.338	96.94
449.559	95.94
449.779	101.94
450	94.94
450.221	106.94
450.442	97.94
450.662	100.94
450.883	103.94
451.104	95.94
451.324	74.94
451.545	86.94
451.766	91.94
451.986	93.94
452.207	94.94
452.428	86.94
452.648	78.94
452.869	83.94
453.089	94.94
453.31	85.94
453.53	86.94
453.751	76.94
453.971	94.94
454.192	82.94
454.412	79.94
454.633	89.94
454.853	89.94
455.073	80.94
455.294	105.94
455.514	95.94
455.734	89.94
455.955	87.94
456.175	77.94
456.395	88.94
456.616	79.94
456.836	93.94
457.056	81.94
457.276	76.94
457.497	70.94
457.717	79.94
457.937	66.94
458.157	84.94
458.377	83.94
458.598	91.94
458.818	90.94
459.038	71.94
459.258	79.94
459.478	87.94
459.698	89.94
459.918	81.94
460.138	81.94
460.358	90.94
460.578	92.94
460.798	100.94
461.018	92.94
461.238	77.94
461.458	98.94
461.678	90.94
461.898	87.94
462.118	95.94
462.338	92.94
462.558	89.94
462.777	92.94
462.997	89.94
463.217	86.94
463.437	71.94
463.657	91.94
463.876	83.94
464.096	97.94
464.316	76.94
464.536	90.94
464.755	97.94
464.975	83.94
465.195	86.94
465.414	99.94
465.634	87.94
465.854	97.94
466.073	89.94
466.293	98.94
466.512	101.94
466.732	106.94
466.951	89.94
467.171	80.94
467.391	87.94
467.61	89.94
467.829	96.94
468.049	102.94
468.268	95.94
468.488	93.94
468.707	98.94
468.927	78.94
469.146	104.94
469.365	95.94
469.585	98.94
469.804	86.94
470.023	102.94
470.243	91.94
470.462	87.94
470.681	95.94
470.901	100.94
471.12	91.94
471.339	93.94
471.558	99.94
471.777	92.94
471.997	92.94
472.216	98.94
472.435	98.94
472.654	81.94
472.873	89.94
473.092	87.94
473.311	84.94
473.53	95.94
473.749	79.94
473.968	85.94
474.187	86.94
474.406	90.94
474.625	103.94
474.844	104.94
475.063	87.94
475.282	92.94
475.501	87.94
475.72	80.94
475.939	100.94
476.158	105.94
476.377	103.94
476.596	86.94
476.814	86.94
477.033	89.94
477.252	102.94
477.471	95.94
477.69	85.94
477.908	96.94
478.127	116.94
478.346	87.94
478.564	99.94
478.783	85.94
479.002	83.94
479.22	91.94
479.439	100.94
479.658	109.94
479.876	86.94
480.095	85.94
480.313	83.94
480.532	86.94
480.751	79.94
480.969	94.94
481.188	88.94
481.406	74.94
481.624	76.94
481.843	113.94
482.061	96.94
482.28	94.94
482.498	101.94
482.717	90.94
482.935	76.94
483.153	105.94
483.372	100.94
483.59	108.94
483.808	112.94
484.027	104.94
484.245	85.94
484.463	89.94
484.681	100.94
484.9	98.94
485.118	107.94
485.336	89.94
485.554	102.94
485.772	89.94
485.99	95.94
486.209	105.94
486.427	82.94
486.645	93.94
486.863	93.94
487.081	90.94
487.299	87.94
487.517	102.94
487.735	102.94
487.953	103.94
488.171	120.94
488.389	120.94
488.607	106.94
488.825	99.94
489.043	80.94
489.261	98.94
489.479	93.94
489.696	101.94
489.914	98.94
490.132	95.94
490.35	85.94
490.568	102.94
490.786	104.94
491.003	111.94
491.221	117.94
491.439	113.94
491.657	103.94
491.874	112.94
492.092	117.94
492.31	124.94
492.527	119.94
492.745	105.94
492.963	104.94
493.18	118.94
493.398	106.94
493.615	105.94
493.833	103.94
494.05	91.94
494.268	106.94
494.485	115.94
494.703	101.94
494.92	111.94
495.138	93.94
495.355	110.94
495.573	98.94
495.79	109.94
496.008	113.94
496.225	88.94
496.442	98.94
496.66	111.94
496.877	101.94
497.094	100.94
497.312	110.94
497.529	97.94
497.746	96.94
497.963	95.94
498.181	99.94
498.398	114.94
498.615	100.94
498.832	81.94
499.049	88.94
499.267	96.94
499.484	90.94
499.701	84.94
499.918	102.94
500.135	92.94
500.352	95.94
500.569	89.94
500.786	95.94
501.003	92.94
501.22	86.94
501.437	88.94
501.654	88.94
501.871	106.94
502.088	77.94
502.305	87.94
502.522	86.94
502.739	90.94
502.956	86.94
503.172	101.94
503.389	89.94
503.606	83.94
503.823	87.94
504.04	84.94
504.256	97.94
504.473	94.94
504.69	84.94
504.907	105.94
505.123	97.94
505.34	101.94
505.557	84.94
505.773	94.94
505.99	106.94
506.207	114.94
506.423	98.94
506.64	98.94
506.856	95.94
507.073	87.94
507.289	107.94
507.506	103.94
507.722	91.94
507.939	90.94
508.155	96.94
508.372	79.94
508.588	93.94
508.805	92.94
509.021	93.94
509.238	78.94
509.454	75.94
509.67	90.94
509.887	86.94
510.103	82.94
510.319	69.94
510.536	81.94
510.752	83.94
510.968	81.94
511.184	89.94
511.401	95.94
511.617	83.94
511.833	88.94
512.049	93.94
512.265	84.94
512.481	74.94
512.698	74.94
512.914	91.94
513.13	82.94
513.346	89.94
513.562	83.94
513.778	97.94
513.994	96.94
514.21	80.94
514.426	83.94
514.642	85.94
514.858	72.94
515.074	90.94
515.29	89.94
515.506	101.94
515.721	70.94
515.937	85.94
516.153	86.94
516.369	85.94
516.585	81.94
516.801	81.94
517.016	84.94
517.232	85.94
517.448	82.94
517.664	85.94
517.879	90.94
