Data from Location5.07152019.Energy5.Lamp.07192019.3%Agarose_HRD10591_15-38-22-387.txt Node
Date: Fri Jul 19 15:38:22 EDT 2019
User: cochatt
Spectrometer: HR+D1059
Trigger mode: 1
Integration Time (sec): 1.000000E-1
Scans to average: 1
Electric dark correction enabled: true
Nonlinearity correction enabled: false
Boxcar width: 0
XAxis mode: Wavelengths
Number of Pixels in Spectrum: 2048
>>>>>Begin Spectral Data<<<<<
223.165	-14.38
223.4	-14.38
223.635	-14.38
223.869	-16.38
224.104	-20.38
224.338	-26.38
224.573	-20.38
224.808	-15.38
225.042	-10.38
225.277	7.62
225.511	-4.38
225.746	10.62
225.98	8.62
226.215	15.62
226.449	12.62
226.683	20.62
226.918	19.62
227.152	32.62
227.387	32.62
227.621	36.62
227.856	48.62
228.09	35.62
228.324	39.62
228.559	54.62
228.793	54.62
229.027	50.62
229.262	53.62
229.496	67.62
229.73	78.62
229.964	72.62
230.199	71.62
230.433	76.62
230.667	79.62
230.901	84.62
231.136	79.62
231.37	74.62
231.604	83.62
231.838	75.62
232.072	73.62
232.306	68.62
232.541	84.62
232.775	85.62
233.009	86.62
233.243	92.62
233.477	90.62
233.711	84.62
233.945	87.62
234.179	87.62
234.413	81.62
234.647	87.62
234.881	71.62
235.115	83.62
235.349	97.62
235.583	72.62
235.817	94.62
236.051	81.62
236.285	82.62
236.519	84.62
236.753	68.62
236.987	82.62
237.221	71.62
237.455	77.62
237.689	81.62
237.922	74.62
238.156	69.62
238.39	69.62
238.624	56.62
238.858	84.62
239.091	75.62
239.325	97.62
239.559	61.62
239.793	86.62
240.027	69.62
240.26	76.62
240.494	75.62
240.728	70.62
240.961	75.62
241.195	87.62
241.429	85.62
241.662	67.62
241.896	68.62
242.13	79.62
242.363	88.62
242.597	74.62
242.83	81.62
243.064	81.62
243.298	84.62
243.531	78.62
243.765	80.62
243.998	73.62
244.232	80.62
244.465	76.62
244.699	86.62
244.932	87.62
245.166	80.62
245.399	82.62
245.633	85.62
245.866	74.62
246.099	88.62
246.333	83.62
246.566	70.62
246.8	71.62
247.033	69.62
247.266	73.62
247.5	76.62
247.733	74.62
247.966	84.62
248.2	93.62
248.433	76.62
248.666	80.62
248.899	70.62
249.133	59.62
249.366	80.62
249.599	70.62
249.832	66.62
250.066	95.62
250.299	87.62
250.532	89.62
250.765	81.62
250.998	88.62
251.231	68.62
251.465	80.62
251.698	75.62
251.931	70.62
252.164	81.62
252.397	90.62
252.63	82.62
252.863	70.62
253.096	90.62
253.329	83.62
253.562	75.62
253.795	78.62
254.028	86.62
254.261	93.62
254.494	90.62
254.727	72.62
254.96	63.62
255.193	84.62
255.426	81.62
255.659	60.62
255.892	78.62
256.124	76.62
256.357	78.62
256.59	94.62
256.823	80.62
257.056	75.62
257.289	77.62
257.521	85.62
257.754	86.62
257.987	78.62
258.22	77.62
258.452	79.62
258.685	76.62
258.918	71.62
259.151	82.62
259.383	78.62
259.616	81.62
259.849	87.62
260.081	77.62
260.314	81.62
260.547	79.62
260.779	90.62
261.012	81.62
261.244	76.62
261.477	90.62
261.71	95.62
261.942	86.62
262.175	79.62
262.407	80.62
262.64	83.62
262.872	67.62
263.105	68.62
263.337	86.62
263.57	90.62
263.802	91.62
264.035	87.62
264.267	69.62
264.499	87.62
264.732	81.62
264.964	62.62
265.197	88.62
265.429	87.62
265.661	80.62
265.894	78.62
266.126	71.62
266.358	72.62
266.591	76.62
266.823	72.62
267.055	81.62
267.287	78.62
267.52	74.62
267.752	92.62
267.984	86.62
268.216	82.62
268.448	92.62
268.681	91.62
268.913	80.62
269.145	71.62
269.377	83.62
269.609	83.62
269.841	77.62
270.073	86.62
270.306	70.62
270.538	75.62
270.77	77.62
271.002	71.62
271.234	77.62
271.466	101.62
271.698	81.62
271.93	83.62
272.162	82.62
272.394	83.62
272.626	82.62
272.858	86.62
273.09	83.62
273.322	85.62
273.553	77.62
273.785	73.62
274.017	86.62
274.249	83.62
274.481	85.62
274.713	79.62
274.945	91.62
275.176	88.62
275.408	94.62
275.64	95.62
275.872	81.62
276.104	97.62
276.335	82.62
276.567	92.62
276.799	82.62
277.031	87.62
277.262	82.62
277.494	86.62
277.726	90.62
277.957	83.62
278.189	93.62
278.421	87.62
278.652	74.62
278.884	91.62
279.115	91.62
279.347	81.62
279.579	101.62
279.81	79.62
280.042	88.62
280.273	77.62
280.505	77.62
280.736	82.62
280.968	86.62
281.199	87.62
281.431	92.62
281.662	91.62
281.894	88.62
282.125	86.62
282.356	68.62
282.588	84.62
282.819	81.62
283.051	84.62
283.282	76.62
283.513	74.62
283.745	94.62
283.976	90.62
284.207	91.62
284.439	82.62
284.67	84.62
284.901	87.62
285.132	72.62
285.364	81.62
285.595	86.62
285.826	87.62
286.057	73.62
286.288	91.62
286.52	90.62
286.751	85.62
286.982	80.62
287.213	72.62
287.444	91.62
287.675	76.62
287.906	82.62
288.138	90.62
288.369	86.62
288.6	87.62
288.831	84.62
289.062	87.62
289.293	85.62
289.524	94.62
289.755	82.62
289.986	77.62
290.217	81.62
290.448	86.62
290.679	82.62
290.91	92.62
291.141	82.62
291.371	72.62
291.602	86.62
291.833	90.62
292.064	77.62
292.295	84.62
292.526	87.62
292.757	82.62
292.987	81.62
293.218	86.62
293.449	79.62
293.68	88.62
293.91	95.62
294.141	86.62
294.372	83.62
294.603	78.62
294.833	67.62
295.064	91.62
295.295	91.62
295.525	83.62
295.756	79.62
295.987	83.62
296.217	97.62
296.448	81.62
296.679	80.62
296.909	80.62
297.14	73.62
297.37	76.62
297.601	94.62
297.831	88.62
298.062	94.62
298.292	81.62
298.523	84.62
298.753	86.62
298.984	83.62
299.214	89.62
299.445	88.62
299.675	95.62
299.905	101.62
300.136	85.62
300.366	76.62
300.597	90.62
300.827	82.62
301.057	83.62
301.288	78.62
301.518	81.62
301.748	83.62
301.979	88.62
302.209	89.62
302.439	79.62
302.669	76.62
302.9	98.62
303.13	70.62
303.36	82.62
303.59	77.62
303.82	90.62
304.051	80.62
304.281	79.62
304.511	96.62
304.741	82.62
304.971	90.62
305.201	94.62
305.431	75.62
305.661	78.62
305.891	91.62
306.121	77.62
306.352	75.62
306.582	85.62
306.812	93.62
307.042	98.62
307.272	83.62
307.502	85.62
307.731	99.62
307.961	90.62
308.191	84.62
308.421	87.62
308.651	89.62
308.881	84.62
309.111	83.62
309.341	75.62
309.571	100.62
309.8	95.62
310.03	79.62
310.26	73.62
310.49	86.62
310.72	85.62
310.949	92.62
311.179	75.62
311.409	96.62
311.639	96.62
311.868	85.62
312.098	87.62
312.328	86.62
312.557	85.62
312.787	84.62
313.017	83.62
313.246	73.62
313.476	86.62
313.706	94.62
313.935	85.62
314.165	82.62
314.394	82.62
314.624	86.62
314.853	84.62
315.083	80.62
315.312	91.62
315.542	96.62
315.771	94.62
316.001	90.62
316.23	102.62
316.46	96.62
316.689	83.62
316.919	95.62
317.148	85.62
317.377	82.62
317.607	87.62
317.836	97.62
318.065	82.62
318.295	83.62
318.524	82.62
318.753	91.62
318.983	87.62
319.212	88.62
319.441	77.62
319.67	98.62
319.9	80.62
320.129	87.62
320.358	89.62
320.587	73.62
320.816	87.62
321.046	87.62
321.275	90.62
321.504	96.62
321.733	79.62
321.962	67.62
322.191	91.62
322.42	92.62
322.649	84.62
322.878	84.62
323.108	96.62
323.337	81.62
323.566	86.62
323.795	89.62
324.024	85.62
324.253	85.62
324.482	86.62
324.71	77.62
324.939	88.62
325.168	84.62
325.397	93.62
325.626	93.62
325.855	86.62
326.084	78.62
326.313	77.62
326.542	69.62
326.77	83.62
326.999	83.62
327.228	83.62
327.457	76.62
327.686	99.62
327.914	81.62
328.143	82.62
328.372	75.62
328.6	71.62
328.829	77.62
329.058	76.62
329.287	87.62
329.515	94.62
329.744	94.62
329.972	89.62
330.201	87.62
330.43	83.62
330.658	91.62
330.887	85.62
331.115	83.62
331.344	78.62
331.572	95.62
331.801	81.62
332.03	86.62
332.258	95.62
332.486	83.62
332.715	84.62
332.943	87.62
333.172	83.62
333.4	83.62
333.629	81.62
333.857	91.62
334.085	79.62
334.314	72.62
334.542	78.62
334.771	89.62
334.999	77.62
335.227	80.62
335.455	71.62
335.684	81.62
335.912	80.62
336.14	80.62
336.369	87.62
336.597	83.62
336.825	81.62
337.053	65.62
337.281	84.62
337.51	78.62
337.738	85.62
337.966	86.62
338.194	94.62
338.422	84.62
338.65	82.62
338.878	80.62
339.106	84.62
339.334	84.62
339.562	89.62
339.79	74.62
340.018	96.62
340.246	81.62
340.474	70.62
340.702	78.62
340.93	103.62
341.158	86.62
341.386	90.62
341.614	77.62
341.842	77.62
342.07	89.62
342.298	82.62
342.526	79.62
342.754	70.62
342.981	85.62
343.209	72.62
343.437	76.62
343.665	95.62
343.893	75.62
344.12	84.62
344.348	76.62
344.576	81.62
344.804	70.62
345.031	90.62
345.259	89.62
345.487	73.62
345.714	76.62
345.942	84.62
346.17	79.62
346.397	83.62
346.625	79.62
346.853	79.62
347.08	80.62
347.308	96.62
347.535	81.62
347.763	79.62
347.99	87.62
348.218	96.62
348.445	76.62
348.673	74.62
348.9	86.62
349.128	88.62
349.355	87.62
349.583	77.62
349.81	96.62
350.037	82.62
350.265	83.62
350.492	81.62
350.72	67.62
350.947	67.62
351.174	84.62
351.402	89.62
351.629	80.62
351.856	80.62
352.083	76.62
352.311	77.62
352.538	79.62
352.765	75.62
352.992	72.62
353.22	89.62
353.447	91.62
353.674	80.62
353.901	84.62
354.128	85.62
354.355	82.62
354.583	80.62
354.81	88.62
355.037	79.62
355.264	87.62
355.491	74.62
355.718	87.62
355.945	82.62
356.172	76.62
356.399	75.62
356.626	86.62
356.853	101.62
357.08	85.62
357.307	81.62
357.534	88.62
357.761	80.62
357.988	84.62
358.215	77.62
358.441	90.62
358.668	79.62
358.895	97.62
359.122	86.62
359.349	84.62
359.576	88.62
359.802	63.62
360.029	75.62
360.256	80.62
360.483	75.62
360.709	68.62
360.936	73.62
361.163	87.62
361.39	95.62
361.616	97.62
361.843	76.62
362.07	81.62
362.296	68.62
362.523	75.62
362.749	82.62
362.976	75.62
363.203	83.62
363.429	86.62
363.656	89.62
363.882	83.62
364.109	82.62
364.335	93.62
364.562	81.62
364.788	98.62
365.015	93.62
365.241	89.62
365.468	89.62
365.694	76.62
365.92	87.62
366.147	84.62
366.373	90.62
366.599	76.62
366.826	91.62
367.052	88.62
367.278	85.62
367.505	86.62
367.731	88.62
367.957	81.62
368.184	81.62
368.41	79.62
368.636	82.62
368.862	94.62
369.089	70.62
369.315	79.62
369.541	81.62
369.767	87.62
369.993	102.62
370.219	81.62
370.445	79.62
370.672	70.62
370.898	76.62
371.124	89.62
371.35	65.62
371.576	97.62
371.802	86.62
372.028	99.62
372.254	86.62
372.48	83.62
372.706	77.62
372.932	95.62
373.158	77.62
373.384	100.62
373.61	99.62
373.835	99.62
374.061	91.62
374.287	78.62
374.513	75.62
374.739	68.62
374.965	101.62
375.191	83.62
375.416	91.62
375.642	85.62
375.868	86.62
376.094	75.62
376.319	90.62
376.545	82.62
376.771	86.62
376.997	86.62
377.222	83.62
377.448	83.62
377.674	91.62
377.899	82.62
378.125	78.62
378.35	85.62
378.576	90.62
378.802	76.62
379.027	75.62
379.253	87.62
379.478	72.62
379.704	91.62
379.929	71.62
380.155	77.62
380.38	96.62
380.606	81.62
380.831	79.62
381.057	91.62
381.282	79.62
381.507	79.62
381.733	100.62
381.958	87.62
382.184	84.62
382.409	95.62
382.634	85.62
382.86	99.62
383.085	84.62
383.31	89.62
383.535	80.62
383.761	83.62
383.986	84.62
384.211	90.62
384.436	80.62
384.662	101.62
384.887	95.62
385.112	78.62
385.337	75.62
385.562	76.62
385.787	97.62
386.013	91.62
386.238	99.62
386.463	81.62
386.688	84.62
386.913	94.62
387.138	90.62
387.363	72.62
387.588	84.62
387.813	91.62
388.038	93.62
388.263	90.62
388.488	98.62
388.713	78.62
388.938	96.62
389.163	76.62
389.387	88.62
389.612	81.62
389.837	86.62
390.062	90.62
390.287	75.62
390.512	90.62
390.736	77.62
390.961	88.62
391.186	74.62
391.411	86.62
391.636	83.62
391.86	89.62
392.085	96.62
392.31	88.62
392.534	81.62
392.759	101.62
392.984	87.62
393.208	91.62
393.433	84.62
393.658	94.62
393.882	89.62
394.107	83.62
394.331	80.62
394.556	80.62
394.78	87.62
395.005	86.62
395.229	82.62
395.454	96.62
395.678	87.62
395.903	91.62
396.127	81.62
396.352	96.62
396.576	102.62
396.801	93.62
397.025	86.62
397.249	88.62
397.474	90.62
397.698	80.62
397.922	95.62
398.147	73.62
398.371	93.62
398.595	84.62
398.82	83.62
399.044	67.62
399.268	91.62
399.492	90.62
399.717	82.62
399.941	93.62
400.165	89.62
400.389	92.62
400.613	91.62
400.837	92.62
401.062	90.62
401.286	89.62
401.51	88.62
401.734	74.62
401.958	88.62
402.182	99.62
402.406	112.62
402.63	103.62
402.854	80.62
403.078	107.62
403.302	101.62
403.526	74.62
403.75	82.62
403.974	88.62
404.198	97.62
404.422	83.62
404.645	86.62
404.869	106.62
405.093	99.62
405.317	77.62
405.541	86.62
405.765	112.62
405.988	96.62
406.212	86.62
406.436	79.62
406.66	79.62
406.883	87.62
407.107	91.62
407.331	87.62
407.555	82.62
407.778	91.62
408.002	99.62
408.226	99.62
408.449	82.62
408.673	89.62
408.896	89.62
409.12	94.62
409.344	110.62
409.567	82.62
409.791	98.62
410.014	81.62
410.238	101.62
410.461	75.62
410.685	93.62
410.908	90.62
411.132	91.62
411.355	87.62
411.578	88.62
411.802	85.62
412.025	87.62
412.249	83.62
412.472	89.62
412.695	91.62
412.919	89.62
413.142	88.62
413.365	78.62
413.589	88.62
413.812	88.62
414.035	103.62
414.258	99.62
414.482	99.62
414.705	92.62
414.928	89.62
415.151	86.62
415.374	90.62
415.597	82.62
415.821	85.62
416.044	84.62
416.267	97.62
416.49	95.62
416.713	97.62
416.936	87.62
417.159	90.62
417.382	93.62
417.605	97.62
417.828	89.62
418.051	88.62
418.274	93.62
418.497	94.62
418.72	96.62
418.943	90.62
419.166	87.62
419.389	76.62
419.611	98.62
419.834	86.62
420.057	78.62
420.28	83.62
420.503	101.62
420.726	91.62
420.948	97.62
421.171	99.62
421.394	96.62
421.617	95.62
421.839	96.62
422.062	88.62
422.285	79.62
422.507	104.62
422.73	97.62
422.953	94.62
423.175	85.62
423.398	107.62
423.621	97.62
423.843	92.62
424.066	97.62
424.288	94.62
424.511	100.62
424.733	95.62
424.956	75.62
425.178	103.62
425.401	102.62
425.623	109.62
425.846	97.62
426.068	93.62
426.291	93.62
426.513	93.62
426.735	92.62
426.958	95.62
427.18	85.62
427.402	93.62
427.625	86.62
427.847	103.62
428.069	101.62
428.292	94.62
428.514	80.62
428.736	101.62
428.958	89.62
429.181	87.62
429.403	89.62
429.625	95.62
429.847	93.62
430.069	95.62
430.292	104.62
430.514	94.62
430.736	90.62
430.958	75.62
431.18	104.62
431.402	100.62
431.624	93.62
431.846	83.62
432.068	76.62
432.29	77.62
432.512	92.62
432.734	83.62
432.956	84.62
433.178	115.62
433.4	96.62
433.622	98.62
433.844	96.62
434.066	90.62
434.287	92.62
434.509	90.62
434.731	88.62
434.953	92.62
435.175	76.62
435.397	93.62
435.618	87.62
435.84	90.62
436.062	88.62
436.284	84.62
436.505	87.62
436.727	102.62
436.949	83.62
437.17	95.62
437.392	90.62
437.614	95.62
437.835	91.62
438.057	74.62
438.278	82.62
438.5	89.62
438.721	92.62
438.943	92.62
439.165	98.62
439.386	79.62
439.608	87.62
439.829	88.62
440.05	83.62
440.272	97.62
440.493	100.62
440.715	105.62
440.936	97.62
441.158	88.62
441.379	103.62
441.6	86.62
441.822	95.62
442.043	104.62
442.264	103.62
442.486	90.62
442.707	88.62
442.928	103.62
443.149	95.62
443.371	83.62
443.592	92.62
443.813	89.62
444.034	91.62
444.255	96.62
444.476	95.62
444.698	103.62
444.919	102.62
445.14	203.62
445.361	164.62
445.582	107.62
445.803	94.62
446.024	86.62
446.245	97.62
446.466	98.62
446.687	101.62
446.908	102.62
447.129	91.62
447.35	89.62
447.571	94.62
447.792	90.62
448.013	104.62
448.234	96.62
448.455	97.62
448.675	91.62
448.896	96.62
449.117	105.62
449.338	90.62
449.559	97.62
449.779	103.62
450	89.62
450.221	93.62
450.442	104.62
450.662	98.62
450.883	91.62
451.104	95.62
451.324	99.62
451.545	98.62
451.766	99.62
451.986	91.62
452.207	92.62
452.428	102.62
452.648	86.62
452.869	95.62
453.089	80.62
453.31	74.62
453.53	86.62
453.751	67.62
453.971	96.62
454.192	65.62
454.412	94.62
454.633	97.62
454.853	99.62
455.073	95.62
455.294	80.62
455.514	86.62
455.734	85.62
455.955	105.62
456.175	85.62
456.395	91.62
456.616	80.62
456.836	91.62
457.056	82.62
457.276	80.62
457.497	83.62
457.717	96.62
457.937	83.62
458.157	90.62
458.377	92.62
458.598	96.62
458.818	91.62
459.038	84.62
459.258	84.62
459.478	68.62
459.698	80.62
459.918	90.62
460.138	81.62
460.358	95.62
460.578	92.62
460.798	101.62
461.018	91.62
461.238	82.62
461.458	85.62
461.678	80.62
461.898	86.62
462.118	101.62
462.338	82.62
462.558	93.62
462.777	100.62
462.997	78.62
463.217	92.62
463.437	83.62
463.657	106.62
463.876	95.62
464.096	75.62
464.316	90.62
464.536	96.62
464.755	90.62
464.975	96.62
465.195	85.62
465.414	82.62
465.634	85.62
465.854	76.62
466.073	76.62
466.293	94.62
466.512	97.62
466.732	93.62
466.951	78.62
467.171	89.62
467.391	96.62
467.61	95.62
467.829	85.62
468.049	94.62
468.268	83.62
468.488	110.62
468.707	91.62
468.927	86.62
469.146	90.62
469.365	101.62
469.585	96.62
469.804	112.62
470.023	104.62
470.243	103.62
470.462	83.62
470.681	83.62
470.901	93.62
471.12	88.62
471.339	104.62
471.558	85.62
471.777	85.62
471.997	96.62
472.216	89.62
472.435	87.62
472.654	91.62
472.873	81.62
473.092	94.62
473.311	93.62
473.53	99.62
473.749	104.62
473.968	103.62
474.187	94.62
474.406	82.62
474.625	96.62
474.844	98.62
475.063	98.62
475.282	97.62
475.501	87.62
475.72	93.62
475.939	95.62
476.158	107.62
476.377	100.62
476.596	88.62
476.814	79.62
477.033	76.62
477.252	97.62
477.471	86.62
477.69	84.62
477.908	94.62
478.127	101.62
478.346	100.62
478.564	96.62
478.783	94.62
479.002	81.62
479.22	98.62
479.439	97.62
479.658	92.62
479.876	87.62
480.095	93.62
480.313	82.62
480.532	87.62
480.751	87.62
480.969	80.62
481.188	97.62
481.406	88.62
481.624	94.62
481.843	73.62
482.061	85.62
482.28	105.62
482.498	83.62
482.717	101.62
482.935	100.62
483.153	115.62
483.372	104.62
483.59	96.62
483.808	101.62
484.027	87.62
484.245	95.62
484.463	112.62
484.681	104.62
484.9	96.62
485.118	90.62
485.336	89.62
485.554	99.62
485.772	73.62
485.99	79.62
486.209	92.62
486.427	97.62
486.645	88.62
486.863	97.62
487.081	95.62
487.299	97.62
487.517	104.62
487.735	120.62
487.953	110.62
488.171	111.62
488.389	114.62
488.607	114.62
488.825	98.62
489.043	88.62
489.261	96.62
489.479	77.62
489.696	90.62
489.914	99.62
490.132	105.62
490.35	95.62
490.568	95.62
490.786	105.62
491.003	118.62
491.221	108.62
491.439	106.62
491.657	96.62
491.874	122.62
492.092	97.62
492.31	115.62
492.527	122.62
492.745	128.62
492.963	118.62
493.18	114.62
493.398	113.62
493.615	94.62
493.833	104.62
494.05	87.62
494.268	118.62
494.485	104.62
494.703	114.62
494.92	97.62
495.138	107.62
495.355	93.62
495.573	94.62
495.79	100.62
496.008	110.62
496.225	106.62
496.442	113.62
496.66	107.62
496.877	100.62
497.094	107.62
497.312	97.62
497.529	109.62
497.746	103.62
497.963	106.62
498.181	103.62
498.398	95.62
498.615	86.62
498.832	96.62
499.049	85.62
499.267	95.62
499.484	91.62
499.701	85.62
499.918	103.62
500.135	100.62
500.352	91.62
500.569	92.62
500.786	88.62
501.003	98.62
501.22	98.62
501.437	97.62
501.654	96.62
501.871	90.62
502.088	100.62
502.305	87.62
502.522	99.62
502.739	86.62
502.956	99.62
503.172	101.62
503.389	90.62
503.606	100.62
503.823	86.62
504.04	101.62
504.256	101.62
504.473	79.62
504.69	93.62
504.907	90.62
505.123	99.62
505.34	96.62
505.557	95.62
505.773	88.62
505.99	90.62
506.207	87.62
506.423	76.62
506.64	78.62
506.856	96.62
507.073	86.62
507.289	107.62
507.506	91.62
507.722	101.62
507.939	90.62
508.155	98.62
508.372	94.62
508.588	81.62
508.805	104.62
509.021	96.62
509.238	92.62
509.454	91.62
509.67	82.62
509.887	87.62
510.103	83.62
510.319	74.62
510.536	75.62
510.752	94.62
510.968	89.62
511.184	89.62
511.401	89.62
511.617	86.62
511.833	75.62
512.049	97.62
512.265	76.62
512.481	85.62
512.698	84.62
512.914	79.62
513.13	85.62
513.346	80.62
513.562	81.62
513.778	85.62
513.994	86.62
514.21	85.62
514.426	83.62
514.642	81.62
514.858	70.62
515.074	96.62
515.29	80.62
515.506	79.62
515.721	96.62
515.937	88.62
516.153	92.62
516.369	84.62
516.585	85.62
516.801	81.62
517.016	81.62
517.232	87.62
517.448	85.62
517.664	84.62
