Data from Location5.07152019.Energy5.Lamp.07192019.3%Agarose_HRD10591_16-04-00-630.txt Node
Date: Fri Jul 19 16:04:00 EDT 2019
User: cochatt
Spectrometer: HR+D1059
Trigger mode: 1
Integration Time (sec): 1.000000E-1
Scans to average: 1
Electric dark correction enabled: true
Nonlinearity correction enabled: false
Boxcar width: 0
XAxis mode: Wavelengths
Number of Pixels in Spectrum: 2048
>>>>>Begin Spectral Data<<<<<
223.165	-21.25
223.4	-21.25
223.635	-21.25
223.869	-26.25
224.104	-9.25
224.338	-5.25
224.573	-8.25
224.808	-1.25
225.042	-5.25
225.277	-16.25
225.511	-13.25
225.746	5.75
225.98	-8.25
226.215	13.75
226.449	9.75
226.683	26.75
226.918	30.75
227.152	27.75
227.387	42.75
227.621	53.75
227.856	31.75
228.09	45.75
228.324	54.75
228.559	50.75
228.793	58.75
229.027	67.75
229.262	70.75
229.496	67.75
229.73	67.75
229.964	66.75
230.199	62.75
230.433	72.75
230.667	73.75
230.901	78.75
231.136	79.75
231.37	81.75
231.604	62.75
231.838	98.75
232.072	67.75
232.306	84.75
232.541	93.75
232.775	74.75
233.009	70.75
233.243	77.75
233.477	70.75
233.711	89.75
233.945	88.75
234.179	63.75
234.413	77.75
234.647	78.75
234.881	80.75
235.115	75.75
235.349	85.75
235.583	75.75
235.817	70.75
236.051	90.75
236.285	81.75
236.519	81.75
236.753	78.75
236.987	68.75
237.221	80.75
237.455	68.75
237.689	72.75
237.922	74.75
238.156	81.75
238.39	83.75
238.624	52.75
238.858	76.75
239.091	72.75
239.325	72.75
239.559	70.75
239.793	73.75
240.027	70.75
240.26	80.75
240.494	77.75
240.728	67.75
240.961	84.75
241.195	68.75
241.429	59.75
241.662	69.75
241.896	75.75
242.13	86.75
242.363	85.75
242.597	77.75
242.83	68.75
243.064	81.75
243.298	67.75
243.531	65.75
243.765	79.75
243.998	74.75
244.232	72.75
244.465	71.75
244.699	84.75
244.932	75.75
245.166	85.75
245.399	78.75
245.633	71.75
245.866	69.75
246.099	101.75
246.333	74.75
246.566	70.75
246.8	84.75
247.033	70.75
247.266	67.75
247.5	74.75
247.733	95.75
247.966	75.75
248.2	68.75
248.433	92.75
248.666	85.75
248.899	81.75
249.133	78.75
249.366	82.75
249.599	96.75
249.832	86.75
250.066	88.75
250.299	93.75
250.532	74.75
250.765	84.75
250.998	82.75
251.231	78.75
251.465	81.75
251.698	76.75
251.931	65.75
252.164	84.75
252.397	74.75
252.63	79.75
252.863	83.75
253.096	79.75
253.329	75.75
253.562	80.75
253.795	82.75
254.028	83.75
254.261	102.75
254.494	87.75
254.727	81.75
254.96	87.75
255.193	86.75
255.426	78.75
255.659	71.75
255.892	88.75
256.124	81.75
256.357	90.75
256.59	97.75
256.823	83.75
257.056	85.75
257.289	96.75
257.521	79.75
257.754	70.75
257.987	76.75
258.22	86.75
258.452	74.75
258.685	83.75
258.918	90.75
259.151	96.75
259.383	80.75
259.616	82.75
259.849	78.75
260.081	78.75
260.314	79.75
260.547	82.75
260.779	84.75
261.012	69.75
261.244	84.75
261.477	75.75
261.71	88.75
261.942	90.75
262.175	83.75
262.407	86.75
262.64	81.75
262.872	89.75
263.105	83.75
263.337	82.75
263.57	80.75
263.802	89.75
264.035	96.75
264.267	85.75
264.499	94.75
264.732	76.75
264.964	91.75
265.197	91.75
265.429	88.75
265.661	83.75
265.894	97.75
266.126	82.75
266.358	80.75
266.591	81.75
266.823	86.75
267.055	86.75
267.287	96.75
267.52	79.75
267.752	77.75
267.984	87.75
268.216	72.75
268.448	80.75
268.681	74.75
268.913	80.75
269.145	86.75
269.377	93.75
269.609	78.75
269.841	85.75
270.073	77.75
270.306	85.75
270.538	105.75
270.77	78.75
271.002	77.75
271.234	71.75
271.466	79.75
271.698	97.75
271.93	83.75
272.162	81.75
272.394	97.75
272.626	87.75
272.858	93.75
273.09	93.75
273.322	95.75
273.553	86.75
273.785	91.75
274.017	108.75
274.249	75.75
274.481	89.75
274.713	97.75
274.945	82.75
275.176	78.75
275.408	86.75
275.64	74.75
275.872	87.75
276.104	80.75
276.335	80.75
276.567	93.75
276.799	86.75
277.031	87.75
277.262	87.75
277.494	92.75
277.726	97.75
277.957	87.75
278.189	83.75
278.421	82.75
278.652	85.75
278.884	90.75
279.115	101.75
279.347	100.75
279.579	103.75
279.81	91.75
280.042	95.75
280.273	74.75
280.505	86.75
280.736	87.75
280.968	88.75
281.199	83.75
281.431	98.75
281.662	91.75
281.894	64.75
282.125	85.75
282.356	81.75
282.588	84.75
282.819	79.75
283.051	83.75
283.282	93.75
283.513	86.75
283.745	98.75
283.976	90.75
284.207	96.75
284.439	96.75
284.67	82.75
284.901	94.75
285.132	85.75
285.364	81.75
285.595	79.75
285.826	85.75
286.057	92.75
286.288	85.75
286.52	90.75
286.751	74.75
286.982	93.75
287.213	97.75
287.444	95.75
287.675	93.75
287.906	96.75
288.138	98.75
288.369	79.75
288.6	95.75
288.831	96.75
289.062	90.75
289.293	83.75
289.524	96.75
289.755	83.75
289.986	88.75
290.217	87.75
290.448	81.75
290.679	88.75
290.91	94.75
291.141	87.75
291.371	91.75
291.602	78.75
291.833	85.75
292.064	86.75
292.295	79.75
292.526	82.75
292.757	93.75
292.987	78.75
293.218	93.75
293.449	74.75
293.68	88.75
293.91	93.75
294.141	89.75
294.372	101.75
294.603	95.75
294.833	87.75
295.064	98.75
295.295	91.75
295.525	74.75
295.756	101.75
295.987	84.75
296.217	87.75
296.448	97.75
296.679	84.75
296.909	87.75
297.14	106.75
297.37	84.75
297.601	78.75
297.831	82.75
298.062	79.75
298.292	92.75
298.523	95.75
298.753	96.75
298.984	92.75
299.214	90.75
299.445	98.75
299.675	90.75
299.905	79.75
300.136	81.75
300.366	82.75
300.597	89.75
300.827	112.75
301.057	109.75
301.288	86.75
301.518	91.75
301.748	80.75
301.979	94.75
302.209	86.75
302.439	90.75
302.669	82.75
302.9	97.75
303.13	100.75
303.36	87.75
303.59	94.75
303.82	88.75
304.051	105.75
304.281	93.75
304.511	101.75
304.741	89.75
304.971	90.75
305.201	94.75
305.431	79.75
305.661	92.75
305.891	88.75
306.121	81.75
306.352	107.75
306.582	95.75
306.812	85.75
307.042	97.75
307.272	77.75
307.502	83.75
307.731	95.75
307.961	72.75
308.191	83.75
308.421	102.75
308.651	97.75
308.881	97.75
309.111	88.75
309.341	93.75
309.571	89.75
309.8	83.75
310.03	71.75
310.26	86.75
310.49	87.75
310.72	101.75
310.949	99.75
311.179	87.75
311.409	78.75
311.639	93.75
311.868	87.75
312.098	106.75
312.328	80.75
312.557	89.75
312.787	89.75
313.017	91.75
313.246	87.75
313.476	98.75
313.706	94.75
313.935	95.75
314.165	82.75
314.394	80.75
314.624	102.75
314.853	97.75
315.083	96.75
315.312	91.75
315.542	99.75
315.771	97.75
316.001	99.75
316.23	94.75
316.46	94.75
316.689	89.75
316.919	85.75
317.148	91.75
317.377	98.75
317.607	93.75
317.836	86.75
318.065	79.75
318.295	88.75
318.524	83.75
318.753	93.75
318.983	85.75
319.212	87.75
319.441	81.75
319.67	79.75
319.9	78.75
320.129	93.75
320.358	83.75
320.587	97.75
320.816	101.75
321.046	83.75
321.275	87.75
321.504	85.75
321.733	88.75
321.962	95.75
322.191	96.75
322.42	89.75
322.649	105.75
322.878	104.75
323.108	102.75
323.337	88.75
323.566	95.75
323.795	91.75
324.024	102.75
324.253	93.75
324.482	88.75
324.71	95.75
324.939	103.75
325.168	88.75
325.397	85.75
325.626	93.75
325.855	81.75
326.084	79.75
326.313	94.75
326.542	90.75
326.77	101.75
326.999	94.75
327.228	92.75
327.457	84.75
327.686	78.75
327.914	95.75
328.143	96.75
328.372	89.75
328.6	94.75
328.829	92.75
329.058	87.75
329.287	85.75
329.515	85.75
329.744	96.75
329.972	87.75
330.201	81.75
330.43	77.75
330.658	78.75
330.887	97.75
331.115	96.75
331.344	98.75
331.572	91.75
331.801	99.75
332.03	98.75
332.258	96.75
332.486	94.75
332.715	95.75
332.943	93.75
333.172	90.75
333.4	104.75
333.629	102.75
333.857	91.75
334.085	93.75
334.314	93.75
334.542	98.75
334.771	97.75
334.999	85.75
335.227	92.75
335.455	100.75
335.684	81.75
335.912	95.75
336.14	103.75
336.369	102.75
336.597	100.75
336.825	80.75
337.053	100.75
337.281	89.75
337.51	94.75
337.738	98.75
337.966	98.75
338.194	94.75
338.422	89.75
338.65	91.75
338.878	94.75
339.106	105.75
339.334	110.75
339.562	85.75
339.79	100.75
340.018	98.75
340.246	91.75
340.474	90.75
340.702	101.75
340.93	97.75
341.158	85.75
341.386	90.75
341.614	83.75
341.842	98.75
342.07	88.75
342.298	88.75
342.526	86.75
342.754	93.75
342.981	79.75
343.209	89.75
343.437	94.75
343.665	91.75
343.893	90.75
344.12	109.75
344.348	82.75
344.576	83.75
344.804	91.75
345.031	86.75
345.259	93.75
345.487	94.75
345.714	90.75
345.942	79.75
346.17	89.75
346.397	82.75
346.625	87.75
346.853	106.75
347.08	98.75
347.308	92.75
347.535	101.75
347.763	101.75
347.99	88.75
348.218	88.75
348.445	89.75
348.673	100.75
348.9	96.75
349.128	93.75
349.355	71.75
349.583	91.75
349.81	101.75
350.037	92.75
350.265	93.75
350.492	99.75
350.72	88.75
350.947	87.75
351.174	90.75
351.402	78.75
351.629	96.75
351.856	82.75
352.083	79.75
352.311	96.75
352.538	96.75
352.765	91.75
352.992	100.75
353.22	86.75
353.447	96.75
353.674	82.75
353.901	106.75
354.128	94.75
354.355	93.75
354.583	82.75
354.81	90.75
355.037	92.75
355.264	98.75
355.491	88.75
355.718	100.75
355.945	80.75
356.172	94.75
356.399	91.75
356.626	88.75
356.853	86.75
357.08	98.75
357.307	103.75
357.534	93.75
357.761	94.75
357.988	98.75
358.215	93.75
358.441	105.75
358.668	94.75
358.895	104.75
359.122	89.75
359.349	82.75
359.576	91.75
359.802	77.75
360.029	90.75
360.256	93.75
360.483	104.75
360.709	90.75
360.936	105.75
361.163	99.75
361.39	94.75
361.616	93.75
361.843	103.75
362.07	91.75
362.296	81.75
362.523	87.75
362.749	102.75
362.976	94.75
363.203	103.75
363.429	87.75
363.656	89.75
363.882	92.75
364.109	94.75
364.335	94.75
364.562	91.75
364.788	95.75
365.015	107.75
365.241	94.75
365.468	101.75
365.694	89.75
365.92	95.75
366.147	93.75
366.373	75.75
366.599	94.75
366.826	89.75
367.052	87.75
367.278	94.75
367.505	88.75
367.731	99.75
367.957	93.75
368.184	87.75
368.41	89.75
368.636	101.75
368.862	85.75
369.089	93.75
369.315	98.75
369.541	94.75
369.767	102.75
369.993	90.75
370.219	79.75
370.445	105.75
370.672	92.75
370.898	93.75
371.124	84.75
371.35	89.75
371.576	101.75
371.802	83.75
372.028	95.75
372.254	95.75
372.48	100.75
372.706	89.75
372.932	84.75
373.158	109.75
373.384	87.75
373.61	98.75
373.835	91.75
374.061	90.75
374.287	98.75
374.513	87.75
374.739	82.75
374.965	100.75
375.191	90.75
375.416	98.75
375.642	80.75
375.868	89.75
376.094	104.75
376.319	93.75
376.545	92.75
376.771	101.75
376.997	89.75
377.222	104.75
377.448	93.75
377.674	77.75
377.899	86.75
378.125	82.75
378.35	79.75
378.576	89.75
378.802	100.75
379.027	85.75
379.253	86.75
379.478	95.75
379.704	87.75
379.929	86.75
380.155	89.75
380.38	101.75
380.606	87.75
380.831	90.75
381.057	109.75
381.282	92.75
381.507	95.75
381.733	90.75
381.958	87.75
382.184	81.75
382.409	85.75
382.634	93.75
382.86	94.75
383.085	94.75
383.31	80.75
383.535	101.75
383.761	98.75
383.986	94.75
384.211	88.75
384.436	86.75
384.662	91.75
384.887	89.75
385.112	99.75
385.337	90.75
385.562	116.75
385.787	90.75
386.013	112.75
386.238	98.75
386.463	91.75
386.688	99.75
386.913	105.75
387.138	106.75
387.363	101.75
387.588	94.75
387.813	96.75
388.038	106.75
388.263	99.75
388.488	88.75
388.713	88.75
388.938	99.75
389.163	88.75
389.387	87.75
389.612	91.75
389.837	86.75
390.062	91.75
390.287	94.75
390.512	82.75
390.736	86.75
390.961	92.75
391.186	88.75
391.411	87.75
391.636	88.75
391.86	93.75
392.085	102.75
392.31	92.75
392.534	95.75
392.759	82.75
392.984	106.75
393.208	97.75
393.433	97.75
393.658	95.75
393.882	92.75
394.107	94.75
394.331	97.75
394.556	95.75
394.78	94.75
395.005	101.75
395.229	105.75
395.454	110.75
395.678	89.75
395.903	103.75
396.127	103.75
396.352	100.75
396.576	98.75
396.801	118.75
397.025	110.75
397.249	97.75
397.474	104.75
397.698	109.75
397.922	85.75
398.147	95.75
398.371	92.75
398.595	99.75
398.82	96.75
399.044	110.75
399.268	99.75
399.492	95.75
399.717	105.75
399.941	103.75
400.165	106.75
400.389	92.75
400.613	93.75
400.837	114.75
401.062	97.75
401.286	93.75
401.51	93.75
401.734	87.75
401.958	101.75
402.182	111.75
402.406	101.75
402.63	106.75
402.854	93.75
403.078	104.75
403.302	89.75
403.526	100.75
403.75	92.75
403.974	103.75
404.198	97.75
404.422	111.75
404.645	88.75
404.869	111.75
405.093	75.75
405.317	102.75
405.541	118.75
405.765	105.75
405.988	98.75
406.212	81.75
406.436	93.75
406.66	102.75
406.883	93.75
407.107	99.75
407.331	93.75
407.555	102.75
407.778	97.75
408.002	93.75
408.226	101.75
408.449	107.75
408.673	101.75
408.896	110.75
409.12	91.75
409.344	99.75
409.567	106.75
409.791	113.75
410.014	101.75
410.238	93.75
410.461	102.75
410.685	94.75
410.908	103.75
411.132	115.75
411.355	105.75
411.578	103.75
411.802	92.75
412.025	98.75
412.249	94.75
412.472	88.75
412.695	84.75
412.919	92.75
413.142	97.75
413.365	87.75
413.589	90.75
413.812	102.75
414.035	83.75
414.258	83.75
414.482	92.75
414.705	104.75
414.928	104.75
415.151	90.75
415.374	95.75
415.597	90.75
415.821	95.75
416.044	91.75
416.267	91.75
416.49	85.75
416.713	96.75
416.936	98.75
417.159	94.75
417.382	97.75
417.605	93.75
417.828	103.75
418.051	99.75
418.274	93.75
418.497	113.75
418.72	109.75
418.943	107.75
419.166	101.75
419.389	97.75
419.611	92.75
419.834	95.75
420.057	94.75
420.28	118.75
420.503	96.75
420.726	101.75
420.948	88.75
421.171	110.75
421.394	97.75
421.617	100.75
421.839	86.75
422.062	83.75
422.285	94.75
422.507	89.75
422.73	105.75
422.953	93.75
423.175	96.75
423.398	98.75
423.621	104.75
423.843	89.75
424.066	95.75
424.288	90.75
424.511	99.75
424.733	98.75
424.956	86.75
425.178	93.75
425.401	97.75
425.623	93.75
425.846	94.75
426.068	84.75
426.291	104.75
426.513	101.75
426.735	88.75
426.958	106.75
427.18	102.75
427.402	96.75
427.625	83.75
427.847	87.75
428.069	103.75
428.292	103.75
428.514	89.75
428.736	88.75
428.958	88.75
429.181	105.75
429.403	101.75
429.625	90.75
429.847	86.75
430.069	98.75
430.292	86.75
430.514	90.75
430.736	94.75
430.958	96.75
431.18	102.75
431.402	98.75
431.624	94.75
431.846	90.75
432.068	94.75
432.29	91.75
432.512	94.75
432.734	94.75
432.956	90.75
433.178	91.75
433.4	99.75
433.622	101.75
433.844	94.75
434.066	99.75
434.287	105.75
434.509	83.75
434.731	90.75
434.953	91.75
435.175	100.75
435.397	102.75
435.618	104.75
435.84	97.75
436.062	84.75
436.284	90.75
436.505	93.75
436.727	100.75
436.949	98.75
437.17	115.75
437.392	90.75
437.614	102.75
437.835	85.75
438.057	96.75
438.278	100.75
438.5	98.75
438.721	105.75
438.943	97.75
439.165	105.75
439.386	102.75
439.608	104.75
439.829	105.75
440.05	82.75
440.272	101.75
440.493	88.75
440.715	85.75
440.936	89.75
441.158	103.75
441.379	89.75
441.6	100.75
441.822	99.75
442.043	99.75
442.264	89.75
442.486	95.75
442.707	83.75
442.928	100.75
443.149	91.75
443.371	110.75
443.592	100.75
443.813	85.75
444.034	110.75
444.255	97.75
444.476	103.75
444.698	102.75
444.919	101.75
445.14	177.75
445.361	137.75
445.582	118.75
445.803	93.75
446.024	81.75
446.245	105.75
446.466	94.75
446.687	96.75
446.908	95.75
447.129	111.75
447.35	106.75
447.571	90.75
447.792	86.75
448.013	102.75
448.234	92.75
448.455	115.75
448.675	90.75
448.896	92.75
449.117	98.75
449.338	94.75
449.559	99.75
449.779	76.75
450	83.75
450.221	97.75
450.442	81.75
450.662	93.75
450.883	92.75
451.104	95.75
451.324	96.75
451.545	93.75
451.766	83.75
451.986	107.75
452.207	98.75
452.428	89.75
452.648	90.75
452.869	89.75
453.089	98.75
453.31	87.75
453.53	92.75
453.751	97.75
453.971	99.75
454.192	98.75
454.412	99.75
454.633	94.75
454.853	79.75
455.073	87.75
455.294	86.75
455.514	79.75
455.734	103.75
455.955	88.75
456.175	71.75
456.395	90.75
456.616	98.75
456.836	91.75
457.056	94.75
457.276	92.75
457.497	89.75
457.717	98.75
457.937	97.75
458.157	98.75
458.377	91.75
458.598	90.75
458.818	93.75
459.038	75.75
459.258	74.75
459.478	86.75
459.698	94.75
459.918	99.75
460.138	95.75
460.358	97.75
460.578	109.75
460.798	102.75
461.018	100.75
461.238	120.75
461.458	83.75
461.678	98.75
461.898	113.75
462.118	95.75
462.338	104.75
462.558	107.75
462.777	102.75
462.997	106.75
463.217	107.75
463.437	97.75
463.657	95.75
463.876	104.75
464.096	96.75
464.316	92.75
464.536	93.75
464.755	104.75
464.975	96.75
465.195	97.75
465.414	110.75
465.634	96.75
465.854	95.75
466.073	106.75
466.293	99.75
466.512	91.75
466.732	94.75
466.951	90.75
467.171	101.75
467.391	85.75
467.61	99.75
467.829	106.75
468.049	97.75
468.268	86.75
468.488	86.75
468.707	89.75
468.927	78.75
469.146	102.75
469.365	90.75
469.585	94.75
469.804	109.75
470.023	99.75
470.243	86.75
470.462	93.75
470.681	102.75
470.901	105.75
471.12	106.75
471.339	99.75
471.558	122.75
471.777	111.75
471.997	98.75
472.216	85.75
472.435	97.75
472.654	90.75
472.873	82.75
473.092	102.75
473.311	96.75
473.53	79.75
473.749	99.75
473.968	95.75
474.187	94.75
474.406	98.75
474.625	112.75
474.844	96.75
475.063	103.75
475.282	78.75
475.501	101.75
475.72	93.75
475.939	96.75
476.158	106.75
476.377	81.75
476.596	110.75
476.814	90.75
477.033	96.75
477.252	108.75
477.471	94.75
477.69	91.75
477.908	100.75
478.127	96.75
478.346	102.75
478.564	87.75
478.783	84.75
479.002	99.75
479.22	98.75
479.439	114.75
479.658	104.75
479.876	106.75
480.095	103.75
480.313	113.75
480.532	117.75
480.751	112.75
480.969	96.75
481.188	102.75
481.406	94.75
481.624	97.75
481.843	91.75
482.061	111.75
482.28	103.75
482.498	99.75
482.717	94.75
482.935	110.75
483.153	109.75
483.372	102.75
483.59	107.75
483.808	104.75
484.027	104.75
484.245	101.75
484.463	102.75
484.681	105.75
484.9	106.75
485.118	109.75
485.336	97.75
485.554	112.75
485.772	104.75
485.99	86.75
486.209	95.75
486.427	104.75
486.645	102.75
486.863	109.75
487.081	108.75
487.299	110.75
487.517	105.75
487.735	107.75
487.953	97.75
488.171	107.75
488.389	111.75
488.607	104.75
488.825	93.75
489.043	95.75
489.261	111.75
489.479	113.75
489.696	118.75
489.914	98.75
490.132	89.75
490.35	115.75
490.568	110.75
490.786	112.75
491.003	104.75
491.221	95.75
491.439	117.75
491.657	99.75
491.874	108.75
492.092	119.75
492.31	99.75
492.527	106.75
492.745	112.75
492.963	110.75
493.18	104.75
493.398	117.75
493.615	123.75
493.833	101.75
494.05	114.75
494.268	119.75
494.485	131.75
494.703	104.75
494.92	118.75
495.138	120.75
495.355	115.75
495.573	114.75
495.79	109.75
496.008	116.75
496.225	105.75
496.442	113.75
496.66	112.75
496.877	120.75
497.094	113.75
497.312	117.75
497.529	97.75
497.746	109.75
497.963	112.75
498.181	115.75
498.398	128.75
498.615	119.75
498.832	115.75
499.049	128.75
499.267	127.75
499.484	135.75
499.701	150.75
499.918	145.75
500.135	150.75
500.352	154.75
500.569	161.75
500.786	157.75
501.003	162.75
501.22	144.75
501.437	138.75
501.654	129.75
501.871	137.75
502.088	117.75
502.305	125.75
502.522	106.75
502.739	117.75
502.956	115.75
503.172	109.75
503.389	101.75
503.606	113.75
503.823	97.75
504.04	114.75
504.256	114.75
504.473	120.75
504.69	106.75
504.907	106.75
505.123	100.75
505.34	103.75
505.557	94.75
505.773	100.75
505.99	112.75
506.207	102.75
506.423	109.75
506.64	105.75
506.856	106.75
507.073	104.75
507.289	113.75
507.506	88.75
507.722	94.75
507.939	94.75
508.155	96.75
508.372	105.75
508.588	91.75
508.805	105.75
509.021	96.75
509.238	98.75
509.454	106.75
509.67	100.75
509.887	96.75
510.103	109.75
510.319	114.75
510.536	102.75
510.752	91.75
510.968	106.75
511.184	97.75
511.401	99.75
511.617	96.75
511.833	107.75
512.049	91.75
512.265	95.75
512.481	102.75
512.698	106.75
512.914	109.75
513.13	97.75
513.346	113.75
513.562	89.75
513.778	109.75
513.994	114.75
514.21	97.75
514.426	119.75
514.642	101.75
