Data from Location5.07152019.Energy5.Lamp.07192019.3%Agarose_HRD10591_16-03-53-628.txt Node
Date: Fri Jul 19 16:03:53 EDT 2019
User: cochatt
Spectrometer: HR+D1059
Trigger mode: 1
Integration Time (sec): 1.000000E-1
Scans to average: 1
Electric dark correction enabled: true
Nonlinearity correction enabled: false
Boxcar width: 0
XAxis mode: Wavelengths
Number of Pixels in Spectrum: 2048
>>>>>Begin Spectral Data<<<<<
223.165	-17.56
223.4	-17.56
223.635	-17.56
223.869	-22.56
224.104	-13.56
224.338	-11.56
224.573	-12.56
224.808	-8.56
225.042	-0.56
225.277	-7.56
225.511	-2.56
225.746	-2.56
225.98	6.44
226.215	-8.56
226.449	14.44
226.683	17.44
226.918	32.44
227.152	37.44
227.387	41.44
227.621	23.44
227.856	49.44
228.09	34.44
228.324	36.44
228.559	48.44
228.793	64.44
229.027	38.44
229.262	48.44
229.496	57.44
229.73	69.44
229.964	73.44
230.199	64.44
230.433	68.44
230.667	82.44
230.901	70.44
231.136	79.44
231.37	89.44
231.604	92.44
231.838	82.44
232.072	90.44
232.306	82.44
232.541	75.44
232.775	62.44
233.009	60.44
233.243	79.44
233.477	91.44
233.711	97.44
233.945	81.44
234.179	97.44
234.413	78.44
234.647	75.44
234.881	85.44
235.115	73.44
235.349	86.44
235.583	69.44
235.817	60.44
236.051	85.44
236.285	76.44
236.519	76.44
236.753	85.44
236.987	73.44
237.221	78.44
237.455	82.44
237.689	86.44
237.922	78.44
238.156	71.44
238.39	73.44
238.624	73.44
238.858	82.44
239.091	69.44
239.325	70.44
239.559	77.44
239.793	74.44
240.027	86.44
240.26	75.44
240.494	74.44
240.728	72.44
240.961	74.44
241.195	74.44
241.429	69.44
241.662	69.44
241.896	68.44
242.13	78.44
242.363	65.44
242.597	80.44
242.83	78.44
243.064	75.44
243.298	79.44
243.531	78.44
243.765	68.44
243.998	73.44
244.232	86.44
244.465	83.44
244.699	83.44
244.932	87.44
245.166	69.44
245.399	87.44
245.633	80.44
245.866	66.44
246.099	84.44
246.333	80.44
246.566	85.44
246.8	78.44
247.033	73.44
247.266	86.44
247.5	74.44
247.733	77.44
247.966	76.44
248.2	74.44
248.433	75.44
248.666	92.44
248.899	86.44
249.133	88.44
249.366	80.44
249.599	90.44
249.832	70.44
250.066	89.44
250.299	79.44
250.532	74.44
250.765	69.44
250.998	81.44
251.231	74.44
251.465	85.44
251.698	81.44
251.931	83.44
252.164	77.44
252.397	79.44
252.63	81.44
252.863	77.44
253.096	104.44
253.329	79.44
253.562	66.44
253.795	76.44
254.028	80.44
254.261	79.44
254.494	66.44
254.727	64.44
254.96	83.44
255.193	79.44
255.426	72.44
255.659	78.44
255.892	82.44
256.124	78.44
256.357	89.44
256.59	60.44
256.823	85.44
257.056	74.44
257.289	86.44
257.521	85.44
257.754	77.44
257.987	84.44
258.22	83.44
258.452	82.44
258.685	93.44
258.918	79.44
259.151	82.44
259.383	85.44
259.616	74.44
259.849	88.44
260.081	80.44
260.314	90.44
260.547	77.44
260.779	79.44
261.012	77.44
261.244	73.44
261.477	93.44
261.71	75.44
261.942	84.44
262.175	68.44
262.407	87.44
262.64	76.44
262.872	95.44
263.105	87.44
263.337	79.44
263.57	77.44
263.802	69.44
264.035	89.44
264.267	77.44
264.499	72.44
264.732	92.44
264.964	73.44
265.197	84.44
265.429	82.44
265.661	92.44
265.894	93.44
266.126	92.44
266.358	80.44
266.591	78.44
266.823	81.44
267.055	73.44
267.287	68.44
267.52	81.44
267.752	72.44
267.984	84.44
268.216	72.44
268.448	87.44
268.681	73.44
268.913	80.44
269.145	93.44
269.377	78.44
269.609	83.44
269.841	74.44
270.073	76.44
270.306	80.44
270.538	81.44
270.77	73.44
271.002	85.44
271.234	85.44
271.466	81.44
271.698	83.44
271.93	84.44
272.162	84.44
272.394	81.44
272.626	93.44
272.858	82.44
273.09	83.44
273.322	87.44
273.553	97.44
273.785	80.44
274.017	78.44
274.249	81.44
274.481	82.44
274.713	77.44
274.945	79.44
275.176	84.44
275.408	96.44
275.64	87.44
275.872	86.44
276.104	92.44
276.335	89.44
276.567	106.44
276.799	89.44
277.031	84.44
277.262	94.44
277.494	88.44
277.726	84.44
277.957	85.44
278.189	83.44
278.421	84.44
278.652	92.44
278.884	79.44
279.115	81.44
279.347	99.44
279.579	82.44
279.81	81.44
280.042	95.44
280.273	88.44
280.505	75.44
280.736	84.44
280.968	81.44
281.199	89.44
281.431	99.44
281.662	86.44
281.894	94.44
282.125	93.44
282.356	88.44
282.588	85.44
282.819	83.44
283.051	78.44
283.282	73.44
283.513	75.44
283.745	82.44
283.976	98.44
284.207	81.44
284.439	79.44
284.67	84.44
284.901	83.44
285.132	84.44
285.364	81.44
285.595	83.44
285.826	90.44
286.057	86.44
286.288	78.44
286.52	82.44
286.751	85.44
286.982	95.44
287.213	90.44
287.444	84.44
287.675	85.44
287.906	89.44
288.138	93.44
288.369	93.44
288.6	81.44
288.831	89.44
289.062	84.44
289.293	85.44
289.524	96.44
289.755	78.44
289.986	77.44
290.217	101.44
290.448	74.44
290.679	92.44
290.91	94.44
291.141	95.44
291.371	95.44
291.602	75.44
291.833	73.44
292.064	84.44
292.295	85.44
292.526	98.44
292.757	86.44
292.987	88.44
293.218	81.44
293.449	82.44
293.68	92.44
293.91	88.44
294.141	81.44
294.372	87.44
294.603	86.44
294.833	90.44
295.064	83.44
295.295	115.44
295.525	96.44
295.756	89.44
295.987	102.44
296.217	82.44
296.448	86.44
296.679	89.44
296.909	90.44
297.14	97.44
297.37	89.44
297.601	94.44
297.831	89.44
298.062	93.44
298.292	104.44
298.523	86.44
298.753	88.44
298.984	91.44
299.214	85.44
299.445	94.44
299.675	84.44
299.905	80.44
300.136	88.44
300.366	83.44
300.597	94.44
300.827	84.44
301.057	91.44
301.288	91.44
301.518	97.44
301.748	102.44
301.979	96.44
302.209	90.44
302.439	73.44
302.669	89.44
302.9	80.44
303.13	89.44
303.36	89.44
303.59	85.44
303.82	99.44
304.051	92.44
304.281	95.44
304.511	95.44
304.741	98.44
304.971	79.44
305.201	100.44
305.431	88.44
305.661	79.44
305.891	85.44
306.121	90.44
306.352	85.44
306.582	97.44
306.812	97.44
307.042	92.44
307.272	97.44
307.502	104.44
307.731	88.44
307.961	89.44
308.191	83.44
308.421	91.44
308.651	95.44
308.881	80.44
309.111	81.44
309.341	79.44
309.571	82.44
309.8	90.44
310.03	87.44
310.26	73.44
310.49	81.44
310.72	88.44
310.949	88.44
311.179	82.44
311.409	85.44
311.639	85.44
311.868	88.44
312.098	98.44
312.328	99.44
312.557	95.44
312.787	93.44
313.017	91.44
313.246	92.44
313.476	79.44
313.706	93.44
313.935	77.44
314.165	92.44
314.394	106.44
314.624	88.44
314.853	88.44
315.083	89.44
315.312	84.44
315.542	96.44
315.771	89.44
316.001	92.44
316.23	99.44
316.46	84.44
316.689	84.44
316.919	85.44
317.148	104.44
317.377	87.44
317.607	89.44
317.836	72.44
318.065	92.44
318.295	85.44
318.524	90.44
318.753	80.44
318.983	87.44
319.212	91.44
319.441	84.44
319.67	79.44
319.9	72.44
320.129	93.44
320.358	88.44
320.587	94.44
320.816	92.44
321.046	96.44
321.275	80.44
321.504	101.44
321.733	96.44
321.962	92.44
322.191	96.44
322.42	98.44
322.649	96.44
322.878	96.44
323.108	101.44
323.337	95.44
323.566	98.44
323.795	78.44
324.024	81.44
324.253	93.44
324.482	85.44
324.71	89.44
324.939	91.44
325.168	84.44
325.397	88.44
325.626	68.44
325.855	75.44
326.084	97.44
326.313	89.44
326.542	92.44
326.77	94.44
326.999	89.44
327.228	99.44
327.457	96.44
327.686	88.44
327.914	88.44
328.143	88.44
328.372	95.44
328.6	85.44
328.829	82.44
329.058	76.44
329.287	96.44
329.515	89.44
329.744	92.44
329.972	87.44
330.201	86.44
330.43	101.44
330.658	80.44
330.887	104.44
331.115	82.44
331.344	94.44
331.572	89.44
331.801	87.44
332.03	101.44
332.258	103.44
332.486	96.44
332.715	81.44
332.943	98.44
333.172	94.44
333.4	100.44
333.629	93.44
333.857	94.44
334.085	85.44
334.314	95.44
334.542	100.44
334.771	83.44
334.999	100.44
335.227	73.44
335.455	101.44
335.684	112.44
335.912	76.44
336.14	89.44
336.369	82.44
336.597	81.44
336.825	90.44
337.053	100.44
337.281	88.44
337.51	80.44
337.738	88.44
337.966	85.44
338.194	92.44
338.422	90.44
338.65	87.44
338.878	98.44
339.106	103.44
339.334	99.44
339.562	91.44
339.79	90.44
340.018	96.44
340.246	81.44
340.474	85.44
340.702	80.44
340.93	102.44
341.158	92.44
341.386	102.44
341.614	84.44
341.842	89.44
342.07	91.44
342.298	81.44
342.526	92.44
342.754	94.44
342.981	90.44
343.209	89.44
343.437	95.44
343.665	95.44
343.893	89.44
344.12	90.44
344.348	94.44
344.576	79.44
344.804	112.44
345.031	97.44
345.259	104.44
345.487	95.44
345.714	74.44
345.942	88.44
346.17	86.44
346.397	90.44
346.625	83.44
346.853	90.44
347.08	99.44
347.308	102.44
347.535	98.44
347.763	89.44
347.99	100.44
348.218	91.44
348.445	98.44
348.673	97.44
348.9	85.44
349.128	106.44
349.355	101.44
349.583	91.44
349.81	83.44
350.037	102.44
350.265	79.44
350.492	88.44
350.72	93.44
350.947	99.44
351.174	97.44
351.402	86.44
351.629	108.44
351.856	84.44
352.083	94.44
352.311	94.44
352.538	87.44
352.765	89.44
352.992	94.44
353.22	84.44
353.447	92.44
353.674	94.44
353.901	95.44
354.128	88.44
354.355	89.44
354.583	96.44
354.81	98.44
355.037	82.44
355.264	94.44
355.491	83.44
355.718	89.44
355.945	90.44
356.172	93.44
356.399	85.44
356.626	92.44
356.853	86.44
357.08	90.44
357.307	90.44
357.534	93.44
357.761	101.44
357.988	96.44
358.215	101.44
358.441	87.44
358.668	81.44
358.895	97.44
359.122	97.44
359.349	90.44
359.576	86.44
359.802	89.44
360.029	87.44
360.256	87.44
360.483	91.44
360.709	100.44
360.936	92.44
361.163	99.44
361.39	79.44
361.616	81.44
361.843	85.44
362.07	88.44
362.296	95.44
362.523	86.44
362.749	82.44
362.976	82.44
363.203	87.44
363.429	92.44
363.656	100.44
363.882	93.44
364.109	94.44
364.335	92.44
364.562	92.44
364.788	80.44
365.015	93.44
365.241	79.44
365.468	94.44
365.694	84.44
365.92	89.44
366.147	90.44
366.373	88.44
366.599	80.44
366.826	94.44
367.052	90.44
367.278	87.44
367.505	81.44
367.731	96.44
367.957	85.44
368.184	88.44
368.41	89.44
368.636	96.44
368.862	88.44
369.089	75.44
369.315	72.44
369.541	90.44
369.767	79.44
369.993	74.44
370.219	75.44
370.445	86.44
370.672	92.44
370.898	84.44
371.124	86.44
371.35	85.44
371.576	87.44
371.802	98.44
372.028	90.44
372.254	92.44
372.48	84.44
372.706	97.44
372.932	96.44
373.158	84.44
373.384	89.44
373.61	94.44
373.835	98.44
374.061	94.44
374.287	97.44
374.513	93.44
374.739	96.44
374.965	80.44
375.191	96.44
375.416	81.44
375.642	101.44
375.868	92.44
376.094	94.44
376.319	85.44
376.545	99.44
376.771	102.44
376.997	100.44
377.222	85.44
377.448	87.44
377.674	90.44
377.899	101.44
378.125	83.44
378.35	83.44
378.576	103.44
378.802	92.44
379.027	83.44
379.253	102.44
379.478	102.44
379.704	94.44
379.929	93.44
380.155	75.44
380.38	91.44
380.606	96.44
380.831	98.44
381.057	94.44
381.282	91.44
381.507	97.44
381.733	86.44
381.958	76.44
382.184	94.44
382.409	97.44
382.634	102.44
382.86	93.44
383.085	98.44
383.31	101.44
383.535	93.44
383.761	90.44
383.986	84.44
384.211	102.44
384.436	102.44
384.662	93.44
384.887	85.44
385.112	89.44
385.337	82.44
385.562	97.44
385.787	97.44
386.013	86.44
386.238	102.44
386.463	93.44
386.688	88.44
386.913	102.44
387.138	94.44
387.363	90.44
387.588	95.44
387.813	85.44
388.038	78.44
388.263	77.44
388.488	80.44
388.713	86.44
388.938	88.44
389.163	100.44
389.387	97.44
389.612	101.44
389.837	89.44
390.062	87.44
390.287	93.44
390.512	79.44
390.736	78.44
390.961	84.44
391.186	82.44
391.411	89.44
391.636	93.44
391.86	102.44
392.085	102.44
392.31	108.44
392.534	76.44
392.759	91.44
392.984	95.44
393.208	94.44
393.433	97.44
393.658	95.44
393.882	98.44
394.107	95.44
394.331	93.44
394.556	99.44
394.78	99.44
395.005	96.44
395.229	88.44
395.454	96.44
395.678	104.44
395.903	101.44
396.127	78.44
396.352	87.44
396.576	91.44
396.801	81.44
397.025	95.44
397.249	85.44
397.474	84.44
397.698	87.44
397.922	101.44
398.147	89.44
398.371	88.44
398.595	105.44
398.82	96.44
399.044	91.44
399.268	91.44
399.492	97.44
399.717	106.44
399.941	102.44
400.165	97.44
400.389	94.44
400.613	96.44
400.837	98.44
401.062	100.44
401.286	91.44
401.51	90.44
401.734	86.44
401.958	95.44
402.182	97.44
402.406	97.44
402.63	96.44
402.854	88.44
403.078	89.44
403.302	101.44
403.526	90.44
403.75	108.44
403.974	94.44
404.198	108.44
404.422	96.44
404.645	108.44
404.869	98.44
405.093	102.44
405.317	96.44
405.541	111.44
405.765	113.44
405.988	94.44
406.212	86.44
406.436	94.44
406.66	93.44
406.883	94.44
407.107	112.44
407.331	105.44
407.555	111.44
407.778	106.44
408.002	107.44
408.226	86.44
408.449	101.44
408.673	101.44
408.896	107.44
409.12	103.44
409.344	99.44
409.567	94.44
409.791	101.44
410.014	94.44
410.238	111.44
410.461	77.44
410.685	88.44
410.908	98.44
411.132	105.44
411.355	102.44
411.578	106.44
411.802	93.44
412.025	89.44
412.249	98.44
412.472	95.44
412.695	96.44
412.919	103.44
413.142	83.44
413.365	95.44
413.589	89.44
413.812	101.44
414.035	98.44
414.258	102.44
414.482	96.44
414.705	81.44
414.928	84.44
415.151	89.44
415.374	93.44
415.597	98.44
415.821	112.44
416.044	105.44
416.267	95.44
416.49	91.44
416.713	97.44
416.936	101.44
417.159	77.44
417.382	88.44
417.605	83.44
417.828	99.44
418.051	82.44
418.274	105.44
418.497	95.44
418.72	104.44
418.943	79.44
419.166	92.44
419.389	88.44
419.611	93.44
419.834	88.44
420.057	95.44
420.28	102.44
420.503	107.44
420.726	93.44
420.948	90.44
421.171	94.44
421.394	91.44
421.617	92.44
421.839	105.44
422.062	106.44
422.285	98.44
422.507	82.44
422.73	95.44
422.953	96.44
423.175	99.44
423.398	86.44
423.621	105.44
423.843	86.44
424.066	82.44
424.288	94.44
424.511	97.44
424.733	101.44
424.956	85.44
425.178	101.44
425.401	101.44
425.623	95.44
425.846	81.44
426.068	95.44
426.291	81.44
426.513	89.44
426.735	97.44
426.958	96.44
427.18	79.44
427.402	96.44
427.625	87.44
427.847	96.44
428.069	94.44
428.292	89.44
428.514	93.44
428.736	93.44
428.958	95.44
429.181	104.44
429.403	92.44
429.625	90.44
429.847	70.44
430.069	89.44
430.292	89.44
430.514	106.44
430.736	96.44
430.958	89.44
431.18	93.44
431.402	94.44
431.624	92.44
431.846	88.44
432.068	91.44
432.29	104.44
432.512	80.44
432.734	84.44
432.956	82.44
433.178	91.44
433.4	93.44
433.622	84.44
433.844	102.44
434.066	81.44
434.287	88.44
434.509	104.44
434.731	82.44
434.953	90.44
435.175	104.44
435.397	97.44
435.618	92.44
435.84	91.44
436.062	102.44
436.284	100.44
436.505	89.44
436.727	100.44
436.949	93.44
437.17	102.44
437.392	95.44
437.614	93.44
437.835	90.44
438.057	96.44
438.278	84.44
438.5	90.44
438.721	90.44
438.943	105.44
439.165	81.44
439.386	89.44
439.608	95.44
439.829	83.44
440.05	85.44
440.272	103.44
440.493	91.44
440.715	102.44
440.936	93.44
441.158	100.44
441.379	89.44
441.6	87.44
441.822	98.44
442.043	101.44
442.264	102.44
442.486	89.44
442.707	101.44
442.928	94.44
443.149	105.44
443.371	101.44
443.592	107.44
443.813	85.44
444.034	82.44
444.255	92.44
444.476	103.44
444.698	90.44
444.919	83.44
445.14	199.44
445.361	148.44
445.582	101.44
445.803	98.44
446.024	99.44
446.245	101.44
446.466	93.44
446.687	98.44
446.908	95.44
447.129	96.44
447.35	94.44
447.571	82.44
447.792	99.44
448.013	92.44
448.234	91.44
448.455	85.44
448.675	96.44
448.896	88.44
449.117	84.44
449.338	85.44
449.559	106.44
449.779	86.44
450	77.44
450.221	99.44
450.442	108.44
450.662	85.44
450.883	94.44
451.104	94.44
451.324	100.44
451.545	83.44
451.766	97.44
451.986	78.44
452.207	85.44
452.428	92.44
452.648	96.44
452.869	100.44
453.089	93.44
453.31	95.44
453.53	92.44
453.751	80.44
453.971	97.44
454.192	93.44
454.412	79.44
454.633	83.44
454.853	80.44
455.073	93.44
455.294	89.44
455.514	94.44
455.734	98.44
455.955	95.44
456.175	85.44
456.395	81.44
456.616	92.44
456.836	84.44
457.056	90.44
457.276	87.44
457.497	95.44
457.717	91.44
457.937	91.44
458.157	100.44
458.377	78.44
458.598	97.44
458.818	73.44
459.038	105.44
459.258	95.44
459.478	74.44
459.698	92.44
459.918	87.44
460.138	81.44
460.358	96.44
460.578	95.44
460.798	103.44
461.018	114.44
461.238	89.44
461.458	98.44
461.678	96.44
461.898	118.44
462.118	93.44
462.338	101.44
462.558	91.44
462.777	92.44
462.997	113.44
463.217	88.44
463.437	110.44
463.657	96.44
463.876	112.44
464.096	102.44
464.316	102.44
464.536	113.44
464.755	109.44
464.975	94.44
465.195	97.44
465.414	89.44
465.634	85.44
465.854	98.44
466.073	81.44
466.293	102.44
466.512	93.44
466.732	92.44
466.951	109.44
467.171	101.44
467.391	94.44
467.61	99.44
467.829	94.44
468.049	100.44
468.268	89.44
468.488	84.44
468.707	97.44
468.927	88.44
469.146	97.44
469.365	89.44
469.585	100.44
469.804	111.44
470.023	93.44
470.243	98.44
470.462	113.44
470.681	109.44
470.901	101.44
471.12	110.44
471.339	91.44
471.558	103.44
471.777	93.44
471.997	109.44
472.216	101.44
472.435	93.44
472.654	95.44
472.873	105.44
473.092	97.44
473.311	106.44
473.53	97.44
473.749	100.44
473.968	95.44
474.187	96.44
474.406	105.44
474.625	98.44
474.844	96.44
475.063	98.44
475.282	79.44
475.501	92.44
475.72	103.44
475.939	112.44
476.158	99.44
476.377	87.44
476.596	93.44
476.814	93.44
477.033	102.44
477.252	95.44
477.471	98.44
477.69	92.44
477.908	98.44
478.127	100.44
478.346	99.44
478.564	103.44
478.783	99.44
479.002	90.44
479.22	98.44
479.439	116.44
479.658	98.44
479.876	110.44
480.095	104.44
480.313	100.44
480.532	100.44
480.751	102.44
480.969	105.44
481.188	116.44
481.406	110.44
481.624	84.44
481.843	113.44
482.061	102.44
482.28	104.44
482.498	101.44
482.717	89.44
482.935	99.44
483.153	108.44
483.372	102.44
483.59	107.44
483.808	102.44
484.027	94.44
484.245	101.44
484.463	97.44
484.681	117.44
484.9	118.44
485.118	104.44
485.336	98.44
485.554	98.44
485.772	94.44
485.99	99.44
486.209	118.44
486.427	94.44
486.645	102.44
486.863	111.44
487.081	108.44
487.299	114.44
487.517	113.44
487.735	103.44
487.953	98.44
488.171	103.44
488.389	116.44
488.607	88.44
488.825	93.44
489.043	109.44
489.261	116.44
489.479	102.44
489.696	103.44
489.914	92.44
490.132	96.44
490.35	106.44
490.568	96.44
490.786	112.44
491.003	122.44
491.221	104.44
491.439	103.44
491.657	106.44
491.874	114.44
492.092	110.44
492.31	122.44
492.527	118.44
492.745	114.44
492.963	105.44
493.18	107.44
493.398	107.44
493.615	104.44
493.833	116.44
494.05	95.44
494.268	117.44
494.485	118.44
494.703	110.44
494.92	103.44
495.138	93.44
495.355	96.44
495.573	113.44
495.79	98.44
496.008	116.44
496.225	109.44
496.442	112.44
496.66	116.44
496.877	124.44
497.094	108.44
497.312	111.44
497.529	104.44
497.746	93.44
497.963	101.44
498.181	111.44
498.398	114.44
498.615	108.44
498.832	111.44
499.049	111.44
499.267	119.44
499.484	121.44
499.701	135.44
499.918	120.44
500.135	150.44
500.352	173.44
500.569	164.44
500.786	166.44
501.003	157.44
501.22	134.44
501.437	145.44
501.654	122.44
501.871	122.44
502.088	113.44
502.305	113.44
502.522	118.44
502.739	116.44
502.956	104.44
503.172	104.44
503.389	106.44
503.606	114.44
503.823	111.44
504.04	95.44
504.256	92.44
504.473	111.44
504.69	118.44
504.907	110.44
505.123	108.44
505.34	103.44
505.557	100.44
505.773	108.44
505.99	109.44
506.207	98.44
506.423	98.44
506.64	90.44
506.856	101.44
507.073	116.44
507.289	107.44
507.506	96.44
507.722	110.44
507.939	112.44
508.155	102.44
508.372	101.44
508.588	75.44
508.805	93.44
509.021	95.44
509.238	105.44
509.454	101.44
509.67	96.44
509.887	103.44
510.103	105.44
510.319	78.44
510.536	87.44
510.752	98.44
510.968	103.44
511.184	101.44
511.401	97.44
511.617	99.44
511.833	93.44
512.049	103.44
512.265	112.44
512.481	107.44
512.698	95.44
512.914	111.44
513.13	108.44
513.346	90.44
513.562	97.44
513.778	98.44
513.994	90.44
514.21	99.44
514.426	94.44
514.642	89.44
514.858	103.44
515.074	93.44
515.29	107.44
515.506	114.44
