Data from Location5.07152019.Energy5.Lamp.07192019.3%Agarose_HRD10591_15-36-52-387.txt Node
Date: Fri Jul 19 15:36:52 EDT 2019
User: cochatt
Spectrometer: HR+D1059
Trigger mode: 1
Integration Time (sec): 1.000000E-1
Scans to average: 1
Electric dark correction enabled: true
Nonlinearity correction enabled: false
Boxcar width: 0
XAxis mode: Wavelengths
Number of Pixels in Spectrum: 2048
>>>>>Begin Spectral Data<<<<<
223.165	-9.81
223.4	-9.81
223.635	-9.81
223.869	-14.81
224.104	-17.81
224.338	-14.81
224.573	-14.81
224.808	-27.81
225.042	2.19
225.277	-11.81
225.511	-3.81
225.746	11.19
225.98	1.19
226.215	19.19
226.449	10.19
226.683	20.19
226.918	22.19
227.152	29.19
227.387	36.19
227.621	33.19
227.856	38.19
228.09	48.19
228.324	51.19
228.559	58.19
228.793	53.19
229.027	42.19
229.262	57.19
229.496	58.19
229.73	69.19
229.964	74.19
230.199	64.19
230.433	74.19
230.667	85.19
230.901	93.19
231.136	76.19
231.37	81.19
231.604	72.19
231.838	89.19
232.072	84.19
232.306	81.19
232.541	80.19
232.775	94.19
233.009	86.19
233.243	80.19
233.477	90.19
233.711	81.19
233.945	101.19
234.179	83.19
234.413	80.19
234.647	82.19
234.881	81.19
235.115	84.19
235.349	70.19
235.583	79.19
235.817	76.19
236.051	68.19
236.285	86.19
236.519	79.19
236.753	86.19
236.987	74.19
237.221	73.19
237.455	87.19
237.689	88.19
237.922	79.19
238.156	68.19
238.39	66.19
238.624	86.19
238.858	77.19
239.091	79.19
239.325	90.19
239.559	81.19
239.793	73.19
240.027	82.19
240.26	80.19
240.494	70.19
240.728	73.19
240.961	77.19
241.195	81.19
241.429	82.19
241.662	76.19
241.896	99.19
242.13	88.19
242.363	71.19
242.597	79.19
242.83	74.19
243.064	63.19
243.298	75.19
243.531	77.19
243.765	69.19
243.998	80.19
244.232	67.19
244.465	74.19
244.699	79.19
244.932	83.19
245.166	59.19
245.399	72.19
245.633	74.19
245.866	73.19
246.099	82.19
246.333	76.19
246.566	62.19
246.8	85.19
247.033	76.19
247.266	75.19
247.5	68.19
247.733	73.19
247.966	67.19
248.2	73.19
248.433	88.19
248.666	76.19
248.899	88.19
249.133	73.19
249.366	72.19
249.599	84.19
249.832	72.19
250.066	77.19
250.299	70.19
250.532	81.19
250.765	80.19
250.998	81.19
251.231	78.19
251.465	80.19
251.698	71.19
251.931	87.19
252.164	67.19
252.397	81.19
252.63	77.19
252.863	80.19
253.096	78.19
253.329	71.19
253.562	71.19
253.795	77.19
254.028	75.19
254.261	67.19
254.494	69.19
254.727	69.19
254.96	89.19
255.193	86.19
255.426	82.19
255.659	52.19
255.892	82.19
256.124	89.19
256.357	88.19
256.59	75.19
256.823	73.19
257.056	78.19
257.289	73.19
257.521	82.19
257.754	75.19
257.987	79.19
258.22	82.19
258.452	65.19
258.685	75.19
258.918	64.19
259.151	66.19
259.383	90.19
259.616	83.19
259.849	70.19
260.081	84.19
260.314	85.19
260.547	92.19
260.779	82.19
261.012	68.19
261.244	81.19
261.477	74.19
261.71	75.19
261.942	82.19
262.175	76.19
262.407	74.19
262.64	66.19
262.872	77.19
263.105	77.19
263.337	97.19
263.57	88.19
263.802	70.19
264.035	72.19
264.267	63.19
264.499	68.19
264.732	76.19
264.964	86.19
265.197	78.19
265.429	71.19
265.661	80.19
265.894	85.19
266.126	74.19
266.358	78.19
266.591	69.19
266.823	88.19
267.055	78.19
267.287	87.19
267.52	91.19
267.752	80.19
267.984	70.19
268.216	82.19
268.448	82.19
268.681	82.19
268.913	75.19
269.145	79.19
269.377	77.19
269.609	76.19
269.841	85.19
270.073	76.19
270.306	83.19
270.538	77.19
270.77	82.19
271.002	85.19
271.234	68.19
271.466	89.19
271.698	74.19
271.93	82.19
272.162	78.19
272.394	81.19
272.626	71.19
272.858	82.19
273.09	76.19
273.322	72.19
273.553	91.19
273.785	74.19
274.017	84.19
274.249	70.19
274.481	74.19
274.713	76.19
274.945	81.19
275.176	93.19
275.408	77.19
275.64	74.19
275.872	76.19
276.104	74.19
276.335	81.19
276.567	66.19
276.799	84.19
277.031	88.19
277.262	83.19
277.494	75.19
277.726	78.19
277.957	72.19
278.189	74.19
278.421	83.19
278.652	78.19
278.884	78.19
279.115	83.19
279.347	77.19
279.579	87.19
279.81	81.19
280.042	78.19
280.273	76.19
280.505	71.19
280.736	86.19
280.968	81.19
281.199	94.19
281.431	74.19
281.662	82.19
281.894	80.19
282.125	91.19
282.356	81.19
282.588	96.19
282.819	76.19
283.051	85.19
283.282	69.19
283.513	90.19
283.745	80.19
283.976	86.19
284.207	84.19
284.439	84.19
284.67	82.19
284.901	80.19
285.132	86.19
285.364	74.19
285.595	77.19
285.826	85.19
286.057	73.19
286.288	78.19
286.52	69.19
286.751	82.19
286.982	70.19
287.213	74.19
287.444	96.19
287.675	71.19
287.906	81.19
288.138	82.19
288.369	79.19
288.6	81.19
288.831	86.19
289.062	95.19
289.293	89.19
289.524	85.19
289.755	89.19
289.986	89.19
290.217	89.19
290.448	72.19
290.679	72.19
290.91	77.19
291.141	79.19
291.371	81.19
291.602	86.19
291.833	86.19
292.064	72.19
292.295	84.19
292.526	78.19
292.757	88.19
292.987	95.19
293.218	74.19
293.449	78.19
293.68	86.19
293.91	72.19
294.141	80.19
294.372	69.19
294.603	75.19
294.833	101.19
295.064	93.19
295.295	88.19
295.525	73.19
295.756	84.19
295.987	78.19
296.217	73.19
296.448	73.19
296.679	77.19
296.909	77.19
297.14	80.19
297.37	80.19
297.601	100.19
297.831	89.19
298.062	87.19
298.292	87.19
298.523	91.19
298.753	84.19
298.984	98.19
299.214	84.19
299.445	92.19
299.675	82.19
299.905	81.19
300.136	84.19
300.366	81.19
300.597	82.19
300.827	96.19
301.057	92.19
301.288	69.19
301.518	91.19
301.748	79.19
301.979	78.19
302.209	65.19
302.439	62.19
302.669	76.19
302.9	85.19
303.13	86.19
303.36	83.19
303.59	101.19
303.82	89.19
304.051	84.19
304.281	66.19
304.511	90.19
304.741	72.19
304.971	98.19
305.201	87.19
305.431	78.19
305.661	73.19
305.891	76.19
306.121	85.19
306.352	93.19
306.582	86.19
306.812	80.19
307.042	87.19
307.272	92.19
307.502	101.19
307.731	86.19
307.961	85.19
308.191	82.19
308.421	88.19
308.651	83.19
308.881	72.19
309.111	80.19
309.341	74.19
309.571	81.19
309.8	84.19
310.03	83.19
310.26	88.19
310.49	71.19
310.72	73.19
310.949	100.19
311.179	92.19
311.409	80.19
311.639	88.19
311.868	89.19
312.098	82.19
312.328	74.19
312.557	95.19
312.787	90.19
313.017	73.19
313.246	99.19
313.476	90.19
313.706	69.19
313.935	82.19
314.165	80.19
314.394	90.19
314.624	91.19
314.853	78.19
315.083	88.19
315.312	90.19
315.542	75.19
315.771	75.19
316.001	73.19
316.23	85.19
316.46	91.19
316.689	68.19
316.919	77.19
317.148	83.19
317.377	85.19
317.607	88.19
317.836	80.19
318.065	84.19
318.295	70.19
318.524	83.19
318.753	93.19
318.983	86.19
319.212	96.19
319.441	77.19
319.67	76.19
319.9	78.19
320.129	73.19
320.358	89.19
320.587	84.19
320.816	78.19
321.046	85.19
321.275	78.19
321.504	78.19
321.733	83.19
321.962	86.19
322.191	86.19
322.42	79.19
322.649	82.19
322.878	72.19
323.108	101.19
323.337	84.19
323.566	76.19
323.795	86.19
324.024	97.19
324.253	107.19
324.482	68.19
324.71	95.19
324.939	74.19
325.168	88.19
325.397	87.19
325.626	85.19
325.855	78.19
326.084	92.19
326.313	72.19
326.542	84.19
326.77	84.19
326.999	84.19
327.228	87.19
327.457	88.19
327.686	86.19
327.914	84.19
328.143	90.19
328.372	82.19
328.6	88.19
328.829	77.19
329.058	83.19
329.287	78.19
329.515	77.19
329.744	73.19
329.972	75.19
330.201	69.19
330.43	79.19
330.658	92.19
330.887	85.19
331.115	87.19
331.344	89.19
331.572	86.19
331.801	84.19
332.03	80.19
332.258	75.19
332.486	84.19
332.715	78.19
332.943	78.19
333.172	81.19
333.4	90.19
333.629	80.19
333.857	73.19
334.085	85.19
334.314	77.19
334.542	66.19
334.771	89.19
334.999	80.19
335.227	82.19
335.455	86.19
335.684	86.19
335.912	72.19
336.14	82.19
336.369	83.19
336.597	92.19
336.825	85.19
337.053	86.19
337.281	94.19
337.51	82.19
337.738	88.19
337.966	80.19
338.194	88.19
338.422	82.19
338.65	82.19
338.878	103.19
339.106	77.19
339.334	69.19
339.562	89.19
339.79	90.19
340.018	74.19
340.246	84.19
340.474	94.19
340.702	82.19
340.93	82.19
341.158	84.19
341.386	86.19
341.614	98.19
341.842	83.19
342.07	79.19
342.298	101.19
342.526	86.19
342.754	70.19
342.981	89.19
343.209	80.19
343.437	88.19
343.665	73.19
343.893	72.19
344.12	86.19
344.348	68.19
344.576	82.19
344.804	79.19
345.031	94.19
345.259	87.19
345.487	68.19
345.714	73.19
345.942	76.19
346.17	71.19
346.397	86.19
346.625	90.19
346.853	69.19
347.08	87.19
347.308	77.19
347.535	97.19
347.763	79.19
347.99	73.19
348.218	86.19
348.445	74.19
348.673	81.19
348.9	85.19
349.128	74.19
349.355	77.19
349.583	94.19
349.81	73.19
350.037	76.19
350.265	88.19
350.492	93.19
350.72	98.19
350.947	85.19
351.174	72.19
351.402	86.19
351.629	93.19
351.856	80.19
352.083	76.19
352.311	80.19
352.538	76.19
352.765	68.19
352.992	78.19
353.22	86.19
353.447	71.19
353.674	69.19
353.901	85.19
354.128	74.19
354.355	88.19
354.583	84.19
354.81	78.19
355.037	88.19
355.264	89.19
355.491	84.19
355.718	79.19
355.945	82.19
356.172	79.19
356.399	71.19
356.626	70.19
356.853	81.19
357.08	84.19
357.307	93.19
357.534	92.19
357.761	73.19
357.988	92.19
358.215	88.19
358.441	81.19
358.668	86.19
358.895	74.19
359.122	73.19
359.349	81.19
359.576	88.19
359.802	84.19
360.029	80.19
360.256	78.19
360.483	79.19
360.709	77.19
360.936	87.19
361.163	90.19
361.39	72.19
361.616	88.19
361.843	78.19
362.07	82.19
362.296	79.19
362.523	82.19
362.749	85.19
362.976	68.19
363.203	92.19
363.429	74.19
363.656	85.19
363.882	80.19
364.109	77.19
364.335	93.19
364.562	79.19
364.788	79.19
365.015	75.19
365.241	90.19
365.468	73.19
365.694	86.19
365.92	87.19
366.147	70.19
366.373	95.19
366.599	79.19
366.826	74.19
367.052	85.19
367.278	78.19
367.505	73.19
367.731	94.19
367.957	75.19
368.184	85.19
368.41	80.19
368.636	82.19
368.862	75.19
369.089	94.19
369.315	83.19
369.541	95.19
369.767	92.19
369.993	83.19
370.219	88.19
370.445	82.19
370.672	102.19
370.898	91.19
371.124	79.19
371.35	85.19
371.576	101.19
371.802	84.19
372.028	75.19
372.254	97.19
372.48	87.19
372.706	81.19
372.932	77.19
373.158	92.19
373.384	84.19
373.61	83.19
373.835	82.19
374.061	69.19
374.287	89.19
374.513	74.19
374.739	81.19
374.965	87.19
375.191	92.19
375.416	69.19
375.642	89.19
375.868	70.19
376.094	93.19
376.319	71.19
376.545	82.19
376.771	82.19
376.997	74.19
377.222	80.19
377.448	93.19
377.674	82.19
377.899	74.19
378.125	88.19
378.35	81.19
378.576	91.19
378.802	84.19
379.027	83.19
379.253	93.19
379.478	93.19
379.704	80.19
379.929	68.19
380.155	92.19
380.38	84.19
380.606	85.19
380.831	89.19
381.057	93.19
381.282	81.19
381.507	89.19
381.733	88.19
381.958	73.19
382.184	99.19
382.409	72.19
382.634	76.19
382.86	77.19
383.085	78.19
383.31	81.19
383.535	91.19
383.761	76.19
383.986	81.19
384.211	78.19
384.436	78.19
384.662	82.19
384.887	94.19
385.112	85.19
385.337	85.19
385.562	80.19
385.787	69.19
386.013	87.19
386.238	85.19
386.463	85.19
386.688	93.19
386.913	78.19
387.138	86.19
387.363	67.19
387.588	89.19
387.813	82.19
388.038	90.19
388.263	88.19
388.488	88.19
388.713	81.19
388.938	90.19
389.163	79.19
389.387	79.19
389.612	105.19
389.837	90.19
390.062	77.19
390.287	87.19
390.512	97.19
390.736	80.19
390.961	88.19
391.186	97.19
391.411	80.19
391.636	87.19
391.86	84.19
392.085	93.19
392.31	89.19
392.534	97.19
392.759	82.19
392.984	82.19
393.208	94.19
393.433	90.19
393.658	78.19
393.882	86.19
394.107	89.19
394.331	77.19
394.556	94.19
394.78	78.19
395.005	95.19
395.229	79.19
395.454	94.19
395.678	77.19
395.903	69.19
396.127	86.19
396.352	94.19
396.576	86.19
396.801	72.19
397.025	74.19
397.249	91.19
397.474	79.19
397.698	83.19
397.922	90.19
398.147	80.19
398.371	96.19
398.595	82.19
398.82	86.19
399.044	75.19
399.268	83.19
399.492	87.19
399.717	95.19
399.941	87.19
400.165	78.19
400.389	88.19
400.613	96.19
400.837	95.19
401.062	91.19
401.286	87.19
401.51	89.19
401.734	95.19
401.958	80.19
402.182	92.19
402.406	96.19
402.63	82.19
402.854	92.19
403.078	78.19
403.302	78.19
403.526	92.19
403.75	82.19
403.974	88.19
404.198	92.19
404.422	81.19
404.645	89.19
404.869	81.19
405.093	96.19
405.317	80.19
405.541	72.19
405.765	93.19
405.988	88.19
406.212	87.19
406.436	80.19
406.66	100.19
406.883	73.19
407.107	89.19
407.331	86.19
407.555	73.19
407.778	90.19
408.002	84.19
408.226	84.19
408.449	79.19
408.673	94.19
408.896	82.19
409.12	87.19
409.344	76.19
409.567	77.19
409.791	87.19
410.014	92.19
410.238	88.19
410.461	90.19
410.685	77.19
410.908	91.19
411.132	92.19
411.355	80.19
411.578	73.19
411.802	88.19
412.025	77.19
412.249	89.19
412.472	88.19
412.695	75.19
412.919	92.19
413.142	82.19
413.365	96.19
413.589	89.19
413.812	83.19
414.035	89.19
414.258	94.19
414.482	78.19
414.705	101.19
414.928	93.19
415.151	90.19
415.374	81.19
415.597	95.19
415.821	83.19
416.044	74.19
416.267	89.19
416.49	78.19
416.713	82.19
416.936	90.19
417.159	108.19
417.382	93.19
417.605	79.19
417.828	99.19
418.051	88.19
418.274	98.19
418.497	90.19
418.72	87.19
418.943	90.19
419.166	94.19
419.389	94.19
419.611	89.19
419.834	87.19
420.057	108.19
420.28	93.19
420.503	86.19
420.726	104.19
420.948	88.19
421.171	83.19
421.394	92.19
421.617	96.19
421.839	87.19
422.062	83.19
422.285	79.19
422.507	86.19
422.73	83.19
422.953	85.19
423.175	91.19
423.398	85.19
423.621	96.19
423.843	89.19
424.066	96.19
424.288	92.19
424.511	103.19
424.733	97.19
424.956	93.19
425.178	102.19
425.401	89.19
425.623	97.19
425.846	92.19
426.068	100.19
426.291	96.19
426.513	92.19
426.735	102.19
426.958	86.19
427.18	76.19
427.402	91.19
427.625	86.19
427.847	88.19
428.069	87.19
428.292	88.19
428.514	81.19
428.736	92.19
428.958	85.19
429.181	93.19
429.403	98.19
429.625	90.19
429.847	91.19
430.069	78.19
430.292	91.19
430.514	93.19
430.736	89.19
430.958	95.19
431.18	84.19
431.402	94.19
431.624	100.19
431.846	82.19
432.068	93.19
432.29	101.19
432.512	87.19
432.734	85.19
432.956	89.19
433.178	92.19
433.4	85.19
433.622	99.19
433.844	79.19
434.066	77.19
434.287	97.19
434.509	91.19
434.731	97.19
434.953	85.19
435.175	90.19
435.397	96.19
435.618	93.19
435.84	88.19
436.062	83.19
436.284	74.19
436.505	89.19
436.727	87.19
436.949	67.19
437.17	93.19
437.392	83.19
437.614	70.19
437.835	89.19
438.057	82.19
438.278	89.19
438.5	101.19
438.721	95.19
438.943	100.19
439.165	86.19
439.386	85.19
439.608	86.19
439.829	91.19
440.05	101.19
440.272	91.19
440.493	88.19
440.715	98.19
440.936	115.19
441.158	102.19
441.379	91.19
441.6	98.19
441.822	98.19
442.043	85.19
442.264	93.19
442.486	103.19
442.707	80.19
442.928	93.19
443.149	97.19
443.371	99.19
443.592	96.19
443.813	98.19
444.034	93.19
444.255	100.19
444.476	82.19
444.698	93.19
444.919	98.19
445.14	170.19
445.361	137.19
445.582	97.19
445.803	94.19
446.024	101.19
446.245	99.19
446.466	86.19
446.687	83.19
446.908	100.19
447.129	90.19
447.35	85.19
447.571	92.19
447.792	92.19
448.013	74.19
448.234	98.19
448.455	100.19
448.675	100.19
448.896	80.19
449.117	92.19
449.338	83.19
449.559	85.19
449.779	87.19
450	91.19
450.221	92.19
450.442	94.19
450.662	106.19
450.883	106.19
451.104	95.19
451.324	99.19
451.545	90.19
451.766	91.19
451.986	108.19
452.207	90.19
452.428	82.19
452.648	100.19
452.869	94.19
453.089	83.19
453.31	76.19
453.53	78.19
453.751	81.19
453.971	88.19
454.192	74.19
454.412	77.19
454.633	85.19
454.853	84.19
455.073	89.19
455.294	93.19
455.514	90.19
455.734	79.19
455.955	88.19
456.175	87.19
456.395	75.19
456.616	76.19
456.836	109.19
457.056	77.19
457.276	99.19
457.497	92.19
457.717	95.19
457.937	93.19
458.157	73.19
458.377	73.19
458.598	76.19
458.818	76.19
459.038	83.19
459.258	92.19
459.478	91.19
459.698	105.19
459.918	88.19
460.138	90.19
460.358	65.19
460.578	85.19
460.798	95.19
461.018	80.19
461.238	89.19
461.458	81.19
461.678	88.19
461.898	83.19
462.118	89.19
462.338	82.19
462.558	81.19
462.777	82.19
462.997	85.19
463.217	80.19
463.437	74.19
463.657	90.19
463.876	89.19
464.096	85.19
464.316	84.19
464.536	87.19
464.755	78.19
464.975	84.19
465.195	80.19
465.414	84.19
465.634	92.19
465.854	91.19
466.073	86.19
466.293	101.19
466.512	88.19
466.732	93.19
466.951	93.19
467.171	103.19
467.391	89.19
467.61	97.19
467.829	88.19
468.049	100.19
468.268	92.19
468.488	90.19
468.707	77.19
468.927	101.19
469.146	95.19
469.365	99.19
469.585	90.19
469.804	97.19
470.023	103.19
470.243	89.19
470.462	100.19
470.681	86.19
470.901	84.19
471.12	87.19
471.339	106.19
471.558	89.19
471.777	97.19
471.997	79.19
472.216	86.19
472.435	84.19
472.654	84.19
472.873	101.19
473.092	102.19
473.311	93.19
473.53	107.19
473.749	87.19
473.968	90.19
474.187	84.19
474.406	80.19
474.625	88.19
474.844	96.19
475.063	86.19
475.282	99.19
475.501	90.19
475.72	101.19
475.939	81.19
476.158	78.19
476.377	96.19
476.596	81.19
476.814	71.19
477.033	87.19
477.252	78.19
477.471	90.19
477.69	101.19
477.908	89.19
478.127	97.19
478.346	86.19
478.564	86.19
478.783	92.19
479.002	101.19
479.22	82.19
479.439	98.19
479.658	104.19
479.876	100.19
480.095	93.19
480.313	94.19
480.532	78.19
480.751	102.19
480.969	85.19
481.188	81.19
481.406	78.19
481.624	72.19
481.843	77.19
482.061	83.19
482.28	89.19
482.498	82.19
482.717	85.19
482.935	73.19
483.153	89.19
483.372	102.19
483.59	92.19
483.808	99.19
484.027	94.19
484.245	67.19
484.463	93.19
484.681	106.19
484.9	91.19
485.118	82.19
485.336	85.19
485.554	73.19
485.772	95.19
485.99	77.19
486.209	80.19
486.427	93.19
486.645	86.19
486.863	85.19
487.081	95.19
487.299	94.19
487.517	88.19
487.735	90.19
487.953	100.19
488.171	114.19
488.389	100.19
488.607	93.19
488.825	97.19
489.043	87.19
489.261	92.19
489.479	87.19
489.696	97.19
489.914	113.19
490.132	84.19
490.35	108.19
490.568	117.19
490.786	95.19
491.003	104.19
491.221	109.19
491.439	110.19
491.657	115.19
491.874	105.19
492.092	116.19
492.31	128.19
492.527	114.19
492.745	104.19
492.963	108.19
493.18	110.19
493.398	107.19
493.615	105.19
493.833	109.19
494.05	104.19
494.268	102.19
494.485	103.19
494.703	95.19
494.92	105.19
495.138	97.19
495.355	103.19
495.573	105.19
495.79	97.19
496.008	102.19
496.225	96.19
496.442	103.19
496.66	98.19
496.877	98.19
497.094	93.19
497.312	95.19
497.529	99.19
497.746	99.19
497.963	85.19
498.181	97.19
498.398	95.19
498.615	104.19
498.832	89.19
499.049	88.19
499.267	85.19
499.484	84.19
499.701	105.19
499.918	109.19
500.135	97.19
500.352	85.19
500.569	94.19
500.786	106.19
501.003	81.19
501.22	88.19
501.437	97.19
501.654	93.19
501.871	88.19
502.088	77.19
502.305	93.19
502.522	99.19
502.739	85.19
502.956	93.19
503.172	84.19
503.389	108.19
503.606	80.19
503.823	100.19
504.04	83.19
504.256	86.19
504.473	74.19
504.69	74.19
504.907	99.19
505.123	99.19
505.34	88.19
505.557	87.19
505.773	85.19
505.99	83.19
506.207	86.19
506.423	82.19
506.64	76.19
506.856	83.19
507.073	88.19
507.289	93.19
507.506	100.19
507.722	97.19
507.939	85.19
508.155	88.19
508.372	88.19
508.588	98.19
508.805	83.19
509.021	82.19
509.238	82.19
509.454	78.19
509.67	86.19
509.887	85.19
510.103	64.19
510.319	87.19
510.536	84.19
510.752	103.19
510.968	77.19
511.184	85.19
511.401	89.19
511.617	86.19
511.833	86.19
512.049	85.19
512.265	88.19
512.481	87.19
512.698	81.19
512.914	92.19
513.13	70.19
513.346	87.19
513.562	82.19
513.778	83.19
513.994	81.19
514.21	73.19
514.426	77.19
514.642	89.19
514.858	82.19
515.074	90.19
515.29	82.19
515.506	92.19
515.721	87.19
515.937	80.19
516.153	78.19
516.369	94.19
516.585	93.19
516.801	90.19
517.016	86.19
517.232	98.19
517.448	81.19
517.664	94.19
517.879	79.19
518.095	87.19
