Data from Location5.07152019.Energy5.Lamp.07192019.3%Agarose_HRD10591_15-37-49-387.txt Node
Date: Fri Jul 19 15:37:49 EDT 2019
User: cochatt
Spectrometer: HR+D1059
Trigger mode: 1
Integration Time (sec): 1.000000E-1
Scans to average: 1
Electric dark correction enabled: true
Nonlinearity correction enabled: false
Boxcar width: 0
XAxis mode: Wavelengths
Number of Pixels in Spectrum: 2048
>>>>>Begin Spectral Data<<<<<
223.165	-19.44
223.4	-19.44
223.635	-19.44
223.869	-7.44
224.104	-26.44
224.338	-9.44
224.573	-9.44
224.808	-14.44
225.042	-2.44
225.277	-4.44
225.511	0.56
225.746	5.56
225.98	15.56
226.215	-3.44
226.449	12.56
226.683	10.56
226.918	21.56
227.152	30.56
227.387	31.56
227.621	37.56
227.856	33.56
228.09	36.56
228.324	56.56
228.559	58.56
228.793	45.56
229.027	68.56
229.262	55.56
229.496	70.56
229.73	58.56
229.964	73.56
230.199	67.56
230.433	74.56
230.667	74.56
230.901	78.56
231.136	79.56
231.37	81.56
231.604	65.56
231.838	80.56
232.072	70.56
232.306	79.56
232.541	91.56
232.775	86.56
233.009	85.56
233.243	96.56
233.477	78.56
233.711	69.56
233.945	82.56
234.179	68.56
234.413	71.56
234.647	87.56
234.881	76.56
235.115	74.56
235.349	72.56
235.583	68.56
235.817	65.56
236.051	79.56
236.285	61.56
236.519	86.56
236.753	77.56
236.987	78.56
237.221	75.56
237.455	70.56
237.689	63.56
237.922	69.56
238.156	76.56
238.39	84.56
238.624	75.56
238.858	62.56
239.091	73.56
239.325	75.56
239.559	64.56
239.793	80.56
240.027	60.56
240.26	76.56
240.494	79.56
240.728	72.56
240.961	69.56
241.195	64.56
241.429	82.56
241.662	73.56
241.896	70.56
242.13	77.56
242.363	72.56
242.597	79.56
242.83	71.56
243.064	68.56
243.298	76.56
243.531	65.56
243.765	71.56
243.998	63.56
244.232	70.56
244.465	55.56
244.699	75.56
244.932	68.56
245.166	72.56
245.399	70.56
245.633	75.56
245.866	79.56
246.099	76.56
246.333	87.56
246.566	66.56
246.8	66.56
247.033	62.56
247.266	76.56
247.5	78.56
247.733	71.56
247.966	85.56
248.2	79.56
248.433	85.56
248.666	76.56
248.899	80.56
249.133	65.56
249.366	72.56
249.599	70.56
249.832	69.56
250.066	83.56
250.299	63.56
250.532	72.56
250.765	84.56
250.998	85.56
251.231	62.56
251.465	78.56
251.698	70.56
251.931	70.56
252.164	76.56
252.397	93.56
252.63	82.56
252.863	86.56
253.096	65.56
253.329	81.56
253.562	84.56
253.795	77.56
254.028	95.56
254.261	64.56
254.494	78.56
254.727	68.56
254.96	76.56
255.193	62.56
255.426	80.56
255.659	69.56
255.892	96.56
256.124	71.56
256.357	87.56
256.59	83.56
256.823	78.56
257.056	66.56
257.289	74.56
257.521	81.56
257.754	89.56
257.987	78.56
258.22	89.56
258.452	85.56
258.685	85.56
258.918	68.56
259.151	75.56
259.383	64.56
259.616	66.56
259.849	69.56
260.081	83.56
260.314	70.56
260.547	78.56
260.779	72.56
261.012	78.56
261.244	68.56
261.477	67.56
261.71	79.56
261.942	91.56
262.175	71.56
262.407	89.56
262.64	86.56
262.872	78.56
263.105	84.56
263.337	89.56
263.57	84.56
263.802	85.56
264.035	74.56
264.267	64.56
264.499	78.56
264.732	84.56
264.964	80.56
265.197	73.56
265.429	78.56
265.661	88.56
265.894	98.56
266.126	82.56
266.358	79.56
266.591	78.56
266.823	76.56
267.055	83.56
267.287	82.56
267.52	72.56
267.752	75.56
267.984	74.56
268.216	70.56
268.448	80.56
268.681	81.56
268.913	59.56
269.145	74.56
269.377	80.56
269.609	88.56
269.841	94.56
270.073	78.56
270.306	74.56
270.538	82.56
270.77	66.56
271.002	75.56
271.234	89.56
271.466	70.56
271.698	76.56
271.93	83.56
272.162	80.56
272.394	82.56
272.626	81.56
272.858	88.56
273.09	85.56
273.322	73.56
273.553	71.56
273.785	90.56
274.017	82.56
274.249	76.56
274.481	78.56
274.713	70.56
274.945	79.56
275.176	88.56
275.408	85.56
275.64	72.56
275.872	75.56
276.104	74.56
276.335	61.56
276.567	78.56
276.799	84.56
277.031	71.56
277.262	93.56
277.494	95.56
277.726	72.56
277.957	80.56
278.189	85.56
278.421	87.56
278.652	78.56
278.884	78.56
279.115	69.56
279.347	75.56
279.579	82.56
279.81	67.56
280.042	94.56
280.273	89.56
280.505	75.56
280.736	75.56
280.968	77.56
281.199	86.56
281.431	78.56
281.662	81.56
281.894	84.56
282.125	71.56
282.356	72.56
282.588	83.56
282.819	54.56
283.051	90.56
283.282	79.56
283.513	86.56
283.745	90.56
283.976	82.56
284.207	76.56
284.439	84.56
284.67	85.56
284.901	66.56
285.132	89.56
285.364	76.56
285.595	68.56
285.826	82.56
286.057	91.56
286.288	84.56
286.52	91.56
286.751	84.56
286.982	66.56
287.213	93.56
287.444	77.56
287.675	71.56
287.906	78.56
288.138	84.56
288.369	76.56
288.6	91.56
288.831	60.56
289.062	92.56
289.293	88.56
289.524	81.56
289.755	76.56
289.986	81.56
290.217	83.56
290.448	78.56
290.679	76.56
290.91	85.56
291.141	67.56
291.371	83.56
291.602	72.56
291.833	77.56
292.064	87.56
292.295	81.56
292.526	86.56
292.757	92.56
292.987	63.56
293.218	76.56
293.449	86.56
293.68	75.56
293.91	78.56
294.141	70.56
294.372	83.56
294.603	90.56
294.833	80.56
295.064	88.56
295.295	72.56
295.525	70.56
295.756	83.56
295.987	86.56
296.217	94.56
296.448	91.56
296.679	90.56
296.909	87.56
297.14	90.56
297.37	79.56
297.601	81.56
297.831	75.56
298.062	76.56
298.292	82.56
298.523	80.56
298.753	70.56
298.984	73.56
299.214	74.56
299.445	63.56
299.675	70.56
299.905	90.56
300.136	86.56
300.366	71.56
300.597	81.56
300.827	75.56
301.057	68.56
301.288	89.56
301.518	76.56
301.748	80.56
301.979	94.56
302.209	76.56
302.439	82.56
302.669	83.56
302.9	84.56
303.13	87.56
303.36	87.56
303.59	92.56
303.82	83.56
304.051	75.56
304.281	73.56
304.511	81.56
304.741	86.56
304.971	81.56
305.201	85.56
305.431	85.56
305.661	90.56
305.891	72.56
306.121	77.56
306.352	84.56
306.582	87.56
306.812	90.56
307.042	83.56
307.272	94.56
307.502	64.56
307.731	78.56
307.961	70.56
308.191	69.56
308.421	89.56
308.651	83.56
308.881	83.56
309.111	88.56
309.341	79.56
309.571	80.56
309.8	76.56
310.03	73.56
310.26	79.56
310.49	86.56
310.72	85.56
310.949	66.56
311.179	93.56
311.409	70.56
311.639	82.56
311.868	86.56
312.098	80.56
312.328	96.56
312.557	82.56
312.787	72.56
313.017	70.56
313.246	85.56
313.476	80.56
313.706	82.56
313.935	84.56
314.165	88.56
314.394	92.56
314.624	93.56
314.853	79.56
315.083	78.56
315.312	58.56
315.542	81.56
315.771	77.56
316.001	93.56
316.23	92.56
316.46	80.56
316.689	83.56
316.919	77.56
317.148	86.56
317.377	84.56
317.607	78.56
317.836	95.56
318.065	87.56
318.295	92.56
318.524	75.56
318.753	80.56
318.983	88.56
319.212	92.56
319.441	78.56
319.67	85.56
319.9	85.56
320.129	91.56
320.358	86.56
320.587	82.56
320.816	87.56
321.046	83.56
321.275	83.56
321.504	76.56
321.733	90.56
321.962	73.56
322.191	77.56
322.42	83.56
322.649	88.56
322.878	90.56
323.108	82.56
323.337	74.56
323.566	83.56
323.795	74.56
324.024	64.56
324.253	76.56
324.482	92.56
324.71	85.56
324.939	81.56
325.168	90.56
325.397	93.56
325.626	95.56
325.855	76.56
326.084	78.56
326.313	80.56
326.542	88.56
326.77	79.56
326.999	68.56
327.228	83.56
327.457	81.56
327.686	85.56
327.914	87.56
328.143	87.56
328.372	76.56
328.6	87.56
328.829	74.56
329.058	80.56
329.287	90.56
329.515	79.56
329.744	71.56
329.972	82.56
330.201	79.56
330.43	72.56
330.658	93.56
330.887	84.56
331.115	76.56
331.344	80.56
331.572	80.56
331.801	79.56
332.03	88.56
332.258	85.56
332.486	76.56
332.715	85.56
332.943	79.56
333.172	87.56
333.4	90.56
333.629	77.56
333.857	71.56
334.085	80.56
334.314	76.56
334.542	84.56
334.771	72.56
334.999	80.56
335.227	78.56
335.455	67.56
335.684	82.56
335.912	82.56
336.14	90.56
336.369	73.56
336.597	72.56
336.825	91.56
337.053	62.56
337.281	81.56
337.51	80.56
337.738	72.56
337.966	75.56
338.194	84.56
338.422	96.56
338.65	84.56
338.878	95.56
339.106	76.56
339.334	79.56
339.562	81.56
339.79	71.56
340.018	94.56
340.246	83.56
340.474	81.56
340.702	70.56
340.93	82.56
341.158	72.56
341.386	83.56
341.614	75.56
341.842	67.56
342.07	73.56
342.298	91.56
342.526	69.56
342.754	94.56
342.981	80.56
343.209	83.56
343.437	77.56
343.665	82.56
343.893	81.56
344.12	82.56
344.348	76.56
344.576	79.56
344.804	88.56
345.031	82.56
345.259	83.56
345.487	84.56
345.714	87.56
345.942	78.56
346.17	83.56
346.397	71.56
346.625	85.56
346.853	91.56
347.08	84.56
347.308	86.56
347.535	96.56
347.763	80.56
347.99	78.56
348.218	84.56
348.445	84.56
348.673	87.56
348.9	72.56
349.128	83.56
349.355	73.56
349.583	77.56
349.81	89.56
350.037	70.56
350.265	85.56
350.492	83.56
350.72	80.56
350.947	77.56
351.174	78.56
351.402	82.56
351.629	68.56
351.856	72.56
352.083	87.56
352.311	72.56
352.538	83.56
352.765	70.56
352.992	80.56
353.22	80.56
353.447	85.56
353.674	82.56
353.901	82.56
354.128	88.56
354.355	73.56
354.583	79.56
354.81	81.56
355.037	61.56
355.264	75.56
355.491	78.56
355.718	76.56
355.945	89.56
356.172	83.56
356.399	94.56
356.626	76.56
356.853	76.56
357.08	95.56
357.307	93.56
357.534	77.56
357.761	82.56
357.988	84.56
358.215	84.56
358.441	85.56
358.668	77.56
358.895	79.56
359.122	95.56
359.349	82.56
359.576	84.56
359.802	91.56
360.029	70.56
360.256	79.56
360.483	75.56
360.709	69.56
360.936	95.56
361.163	76.56
361.39	70.56
361.616	72.56
361.843	67.56
362.07	83.56
362.296	76.56
362.523	63.56
362.749	72.56
362.976	80.56
363.203	88.56
363.429	88.56
363.656	79.56
363.882	54.56
364.109	77.56
364.335	83.56
364.562	78.56
364.788	91.56
365.015	85.56
365.241	72.56
365.468	84.56
365.694	84.56
365.92	87.56
366.147	102.56
366.373	72.56
366.599	75.56
366.826	90.56
367.052	88.56
367.278	81.56
367.505	90.56
367.731	77.56
367.957	83.56
368.184	86.56
368.41	77.56
368.636	68.56
368.862	87.56
369.089	84.56
369.315	67.56
369.541	82.56
369.767	82.56
369.993	77.56
370.219	80.56
370.445	75.56
370.672	79.56
370.898	76.56
371.124	78.56
371.35	87.56
371.576	85.56
371.802	93.56
372.028	87.56
372.254	78.56
372.48	79.56
372.706	80.56
372.932	88.56
373.158	83.56
373.384	79.56
373.61	91.56
373.835	79.56
374.061	81.56
374.287	69.56
374.513	88.56
374.739	76.56
374.965	78.56
375.191	75.56
375.416	78.56
375.642	69.56
375.868	91.56
376.094	80.56
376.319	81.56
376.545	85.56
376.771	67.56
376.997	76.56
377.222	82.56
377.448	99.56
377.674	76.56
377.899	94.56
378.125	81.56
378.35	84.56
378.576	88.56
378.802	79.56
379.027	92.56
379.253	84.56
379.478	81.56
379.704	80.56
379.929	73.56
380.155	87.56
380.38	90.56
380.606	87.56
380.831	84.56
381.057	85.56
381.282	87.56
381.507	83.56
381.733	81.56
381.958	71.56
382.184	89.56
382.409	79.56
382.634	80.56
382.86	69.56
383.085	78.56
383.31	78.56
383.535	88.56
383.761	79.56
383.986	95.56
384.211	71.56
384.436	89.56
384.662	76.56
384.887	86.56
385.112	78.56
385.337	71.56
385.562	86.56
385.787	75.56
386.013	94.56
386.238	77.56
386.463	81.56
386.688	86.56
386.913	75.56
387.138	74.56
387.363	84.56
387.588	79.56
387.813	82.56
388.038	93.56
388.263	66.56
388.488	77.56
388.713	90.56
388.938	71.56
389.163	91.56
389.387	82.56
389.612	85.56
389.837	86.56
390.062	84.56
390.287	80.56
390.512	73.56
390.736	84.56
390.961	76.56
391.186	83.56
391.411	87.56
391.636	78.56
391.86	81.56
392.085	87.56
392.31	84.56
392.534	90.56
392.759	87.56
392.984	69.56
393.208	91.56
393.433	78.56
393.658	88.56
393.882	76.56
394.107	88.56
394.331	88.56
394.556	97.56
394.78	69.56
395.005	80.56
395.229	85.56
395.454	76.56
395.678	68.56
395.903	86.56
396.127	95.56
396.352	86.56
396.576	98.56
396.801	73.56
397.025	87.56
397.249	72.56
397.474	80.56
397.698	78.56
397.922	79.56
398.147	81.56
398.371	78.56
398.595	88.56
398.82	84.56
399.044	90.56
399.268	81.56
399.492	82.56
399.717	110.56
399.941	102.56
400.165	72.56
400.389	86.56
400.613	77.56
400.837	83.56
401.062	88.56
401.286	82.56
401.51	94.56
401.734	88.56
401.958	82.56
402.182	83.56
402.406	91.56
402.63	98.56
402.854	81.56
403.078	94.56
403.302	97.56
403.526	89.56
403.75	85.56
403.974	75.56
404.198	77.56
404.422	75.56
404.645	90.56
404.869	81.56
405.093	75.56
405.317	80.56
405.541	82.56
405.765	82.56
405.988	89.56
406.212	79.56
406.436	82.56
406.66	92.56
406.883	85.56
407.107	82.56
407.331	81.56
407.555	78.56
407.778	94.56
408.002	82.56
408.226	92.56
408.449	84.56
408.673	86.56
408.896	95.56
409.12	90.56
409.344	82.56
409.567	84.56
409.791	91.56
410.014	91.56
410.238	78.56
410.461	76.56
410.685	83.56
410.908	87.56
411.132	81.56
411.355	92.56
411.578	82.56
411.802	80.56
412.025	78.56
412.249	85.56
412.472	86.56
412.695	88.56
412.919	92.56
413.142	80.56
413.365	82.56
413.589	90.56
413.812	72.56
414.035	96.56
414.258	97.56
414.482	76.56
414.705	81.56
414.928	88.56
415.151	79.56
415.374	99.56
415.597	80.56
415.821	99.56
416.044	76.56
416.267	80.56
416.49	116.56
416.713	87.56
416.936	87.56
417.159	86.56
417.382	83.56
417.605	94.56
417.828	102.56
418.051	84.56
418.274	85.56
418.497	94.56
418.72	80.56
418.943	86.56
419.166	102.56
419.389	95.56
419.611	86.56
419.834	94.56
420.057	91.56
420.28	87.56
420.503	95.56
420.726	103.56
420.948	92.56
421.171	89.56
421.394	87.56
421.617	97.56
421.839	79.56
422.062	99.56
422.285	92.56
422.507	94.56
422.73	92.56
422.953	88.56
423.175	92.56
423.398	79.56
423.621	83.56
423.843	66.56
424.066	90.56
424.288	96.56
424.511	95.56
424.733	87.56
424.956	87.56
425.178	84.56
425.401	95.56
425.623	80.56
425.846	63.56
426.068	90.56
426.291	87.56
426.513	92.56
426.735	90.56
426.958	91.56
427.18	89.56
427.402	97.56
427.625	94.56
427.847	91.56
428.069	92.56
428.292	85.56
428.514	82.56
428.736	93.56
428.958	70.56
429.181	100.56
429.403	89.56
429.625	82.56
429.847	81.56
430.069	82.56
430.292	85.56
430.514	89.56
430.736	94.56
430.958	91.56
431.18	95.56
431.402	94.56
431.624	85.56
431.846	87.56
432.068	94.56
432.29	95.56
432.512	78.56
432.734	81.56
432.956	98.56
433.178	92.56
433.4	98.56
433.622	85.56
433.844	85.56
434.066	84.56
434.287	98.56
434.509	91.56
434.731	90.56
434.953	98.56
435.175	94.56
435.397	79.56
435.618	82.56
435.84	78.56
436.062	88.56
436.284	90.56
436.505	96.56
436.727	70.56
436.949	94.56
437.17	86.56
437.392	87.56
437.614	86.56
437.835	72.56
438.057	83.56
438.278	78.56
438.5	92.56
438.721	78.56
438.943	78.56
439.165	91.56
439.386	81.56
439.608	97.56
439.829	95.56
440.05	104.56
440.272	97.56
440.493	84.56
440.715	84.56
440.936	93.56
441.158	71.56
441.379	90.56
441.6	96.56
441.822	84.56
442.043	92.56
442.264	99.56
442.486	83.56
442.707	96.56
442.928	84.56
443.149	86.56
443.371	93.56
443.592	92.56
443.813	99.56
444.034	94.56
444.255	92.56
444.476	83.56
444.698	91.56
444.919	76.56
445.14	204.56
445.361	140.56
445.582	85.56
445.803	95.56
446.024	89.56
446.245	87.56
446.466	105.56
446.687	100.56
446.908	103.56
447.129	107.56
447.35	100.56
447.571	94.56
447.792	99.56
448.013	87.56
448.234	90.56
448.455	98.56
448.675	69.56
448.896	81.56
449.117	92.56
449.338	104.56
449.559	88.56
449.779	90.56
450	82.56
450.221	101.56
450.442	91.56
450.662	92.56
450.883	83.56
451.104	93.56
451.324	90.56
451.545	89.56
451.766	86.56
451.986	82.56
452.207	80.56
452.428	87.56
452.648	87.56
452.869	88.56
453.089	75.56
453.31	87.56
453.53	81.56
453.751	67.56
453.971	71.56
454.192	79.56
454.412	83.56
454.633	86.56
454.853	91.56
455.073	97.56
455.294	104.56
455.514	77.56
455.734	80.56
455.955	83.56
456.175	84.56
456.395	78.56
456.616	76.56
456.836	76.56
457.056	100.56
457.276	87.56
457.497	81.56
457.717	77.56
457.937	78.56
458.157	78.56
458.377	86.56
458.598	89.56
458.818	83.56
459.038	82.56
459.258	83.56
459.478	73.56
459.698	86.56
459.918	80.56
460.138	76.56
460.358	79.56
460.578	89.56
460.798	76.56
461.018	95.56
461.238	79.56
461.458	93.56
461.678	95.56
461.898	99.56
462.118	89.56
462.338	109.56
462.558	87.56
462.777	78.56
462.997	81.56
463.217	80.56
463.437	82.56
463.657	79.56
463.876	79.56
464.096	85.56
464.316	71.56
464.536	83.56
464.755	82.56
464.975	95.56
465.195	88.56
465.414	86.56
465.634	89.56
465.854	84.56
466.073	91.56
466.293	70.56
466.512	85.56
466.732	92.56
466.951	90.56
467.171	77.56
467.391	91.56
467.61	87.56
467.829	91.56
468.049	80.56
468.268	91.56
468.488	76.56
468.707	99.56
468.927	81.56
469.146	84.56
469.365	83.56
469.585	75.56
469.804	86.56
470.023	102.56
470.243	96.56
470.462	81.56
470.681	93.56
470.901	87.56
471.12	98.56
471.339	84.56
471.558	95.56
471.777	86.56
471.997	96.56
472.216	93.56
472.435	82.56
472.654	79.56
472.873	78.56
473.092	84.56
473.311	92.56
473.53	94.56
473.749	91.56
473.968	107.56
474.187	96.56
474.406	89.56
474.625	93.56
474.844	98.56
475.063	95.56
475.282	78.56
475.501	75.56
475.72	93.56
475.939	84.56
476.158	95.56
476.377	93.56
476.596	81.56
476.814	85.56
477.033	96.56
477.252	86.56
477.471	89.56
477.69	93.56
477.908	97.56
478.127	91.56
478.346	110.56
478.564	98.56
478.783	99.56
479.002	101.56
479.22	94.56
479.439	107.56
479.658	90.56
479.876	90.56
480.095	99.56
480.313	74.56
480.532	83.56
480.751	90.56
480.969	81.56
481.188	83.56
481.406	86.56
481.624	92.56
481.843	69.56
482.061	90.56
482.28	80.56
482.498	81.56
482.717	80.56
482.935	78.56
483.153	93.56
483.372	107.56
483.59	100.56
483.808	89.56
484.027	93.56
484.245	99.56
484.463	100.56
484.681	103.56
484.9	98.56
485.118	99.56
485.336	75.56
485.554	76.56
485.772	93.56
485.99	92.56
486.209	71.56
486.427	84.56
486.645	89.56
486.863	92.56
487.081	95.56
487.299	92.56
487.517	108.56
487.735	87.56
487.953	97.56
488.171	99.56
488.389	106.56
488.607	87.56
488.825	91.56
489.043	86.56
489.261	93.56
489.479	82.56
489.696	95.56
489.914	85.56
490.132	103.56
490.35	97.56
490.568	108.56
490.786	103.56
491.003	110.56
491.221	110.56
491.439	107.56
491.657	119.56
491.874	112.56
492.092	112.56
492.31	121.56
492.527	109.56
492.745	116.56
492.963	111.56
493.18	110.56
493.398	114.56
493.615	114.56
493.833	86.56
494.05	104.56
494.268	94.56
494.485	91.56
494.703	96.56
494.92	81.56
495.138	102.56
495.355	86.56
495.573	103.56
495.79	111.56
496.008	99.56
496.225	118.56
496.442	103.56
496.66	108.56
496.877	94.56
497.094	104.56
497.312	106.56
497.529	94.56
497.746	95.56
497.963	92.56
498.181	86.56
498.398	81.56
498.615	89.56
498.832	82.56
499.049	94.56
499.267	87.56
499.484	84.56
499.701	79.56
499.918	97.56
500.135	110.56
500.352	95.56
500.569	112.56
500.786	103.56
501.003	81.56
501.22	90.56
501.437	85.56
501.654	84.56
501.871	88.56
502.088	92.56
502.305	94.56
502.522	88.56
502.739	76.56
502.956	86.56
503.172	88.56
503.389	91.56
503.606	76.56
503.823	81.56
504.04	79.56
504.256	76.56
504.473	76.56
504.69	73.56
504.907	85.56
505.123	91.56
505.34	92.56
505.557	90.56
505.773	97.56
505.99	98.56
506.207	102.56
506.423	74.56
506.64	68.56
506.856	83.56
507.073	86.56
507.289	88.56
507.506	101.56
507.722	78.56
507.939	82.56
508.155	88.56
508.372	88.56
508.588	86.56
508.805	90.56
509.021	82.56
509.238	90.56
509.454	106.56
509.67	75.56
509.887	73.56
510.103	65.56
510.319	52.56
510.536	97.56
510.752	95.56
510.968	77.56
511.184	94.56
511.401	81.56
511.617	79.56
511.833	83.56
512.049	90.56
512.265	92.56
512.481	72.56
512.698	63.56
512.914	69.56
513.13	88.56
513.346	82.56
513.562	87.56
513.778	81.56
513.994	84.56
514.21	75.56
514.426	69.56
514.642	72.56
514.858	85.56
515.074	66.56
515.29	78.56
515.506	85.56
515.721	79.56
515.937	87.56
516.153	95.56
516.369	79.56
516.585	99.56
516.801	83.56
517.016	77.56
517.232	82.56
517.448	87.56
517.664	100.56
517.879	81.56
518.095	100.56
518.311	87.56
518.527	80.56
518.742	82.56
