Data from Location5.07152019.Energy5.Lamp.07192019.3%Agarose_HRD10591_16-04-16-629.txt Node
Date: Fri Jul 19 16:04:16 EDT 2019
User: cochatt
Spectrometer: HR+D1059
Trigger mode: 1
Integration Time (sec): 1.000000E-1
Scans to average: 1
Electric dark correction enabled: true
Nonlinearity correction enabled: false
Boxcar width: 0
XAxis mode: Wavelengths
Number of Pixels in Spectrum: 2048
>>>>>Begin Spectral Data<<<<<
223.165	-20.38
223.4	-20.38
223.635	-20.38
223.869	-27.38
224.104	-14.38
224.338	-22.38
224.573	-11.38
224.808	-10.38
225.042	-4.38
225.277	-3.38
225.511	4.62
225.746	-3.38
225.98	19.62
226.215	8.62
226.449	19.62
226.683	19.62
226.918	27.62
227.152	17.62
227.387	48.62
227.621	41.62
227.856	39.62
228.09	63.62
228.324	50.62
228.559	59.62
228.793	39.62
229.027	57.62
229.262	72.62
229.496	72.62
229.73	65.62
229.964	71.62
230.199	70.62
230.433	67.62
230.667	72.62
230.901	75.62
231.136	74.62
231.37	96.62
231.604	88.62
231.838	73.62
232.072	86.62
232.306	70.62
232.541	84.62
232.775	84.62
233.009	83.62
233.243	89.62
233.477	71.62
233.711	75.62
233.945	79.62
234.179	73.62
234.413	81.62
234.647	82.62
234.881	85.62
235.115	90.62
235.349	94.62
235.583	80.62
235.817	83.62
236.051	91.62
236.285	91.62
236.519	73.62
236.753	88.62
236.987	79.62
237.221	79.62
237.455	83.62
237.689	69.62
237.922	75.62
238.156	85.62
238.39	76.62
238.624	73.62
238.858	70.62
239.091	81.62
239.325	80.62
239.559	71.62
239.793	77.62
240.027	86.62
240.26	89.62
240.494	67.62
240.728	78.62
240.961	73.62
241.195	86.62
241.429	85.62
241.662	88.62
241.896	74.62
242.13	90.62
242.363	72.62
242.597	80.62
242.83	86.62
243.064	72.62
243.298	89.62
243.531	80.62
243.765	74.62
243.998	72.62
244.232	84.62
244.465	73.62
244.699	83.62
244.932	71.62
245.166	55.62
245.399	83.62
245.633	91.62
245.866	79.62
246.099	81.62
246.333	76.62
246.566	79.62
246.8	90.62
247.033	71.62
247.266	58.62
247.5	77.62
247.733	92.62
247.966	76.62
248.2	84.62
248.433	85.62
248.666	79.62
248.899	85.62
249.133	87.62
249.366	87.62
249.599	82.62
249.832	77.62
250.066	87.62
250.299	88.62
250.532	76.62
250.765	81.62
250.998	97.62
251.231	84.62
251.465	89.62
251.698	96.62
251.931	82.62
252.164	77.62
252.397	90.62
252.63	71.62
252.863	75.62
253.096	73.62
253.329	74.62
253.562	90.62
253.795	90.62
254.028	85.62
254.261	81.62
254.494	77.62
254.727	83.62
254.96	87.62
255.193	87.62
255.426	80.62
255.659	82.62
255.892	87.62
256.124	79.62
256.357	74.62
256.59	79.62
256.823	82.62
257.056	96.62
257.289	74.62
257.521	87.62
257.754	83.62
257.987	92.62
258.22	89.62
258.452	82.62
258.685	80.62
258.918	87.62
259.151	71.62
259.383	82.62
259.616	64.62
259.849	63.62
260.081	89.62
260.314	68.62
260.547	87.62
260.779	93.62
261.012	85.62
261.244	97.62
261.477	79.62
261.71	77.62
261.942	89.62
262.175	87.62
262.407	72.62
262.64	64.62
262.872	93.62
263.105	86.62
263.337	84.62
263.57	82.62
263.802	83.62
264.035	97.62
264.267	81.62
264.499	91.62
264.732	82.62
264.964	83.62
265.197	92.62
265.429	92.62
265.661	91.62
265.894	75.62
266.126	87.62
266.358	95.62
266.591	88.62
266.823	96.62
267.055	94.62
267.287	79.62
267.52	100.62
267.752	81.62
267.984	87.62
268.216	98.62
268.448	76.62
268.681	82.62
268.913	73.62
269.145	77.62
269.377	83.62
269.609	91.62
269.841	95.62
270.073	87.62
270.306	85.62
270.538	75.62
270.77	85.62
271.002	85.62
271.234	82.62
271.466	82.62
271.698	73.62
271.93	87.62
272.162	84.62
272.394	86.62
272.626	84.62
272.858	84.62
273.09	77.62
273.322	75.62
273.553	79.62
273.785	86.62
274.017	90.62
274.249	83.62
274.481	78.62
274.713	74.62
274.945	91.62
275.176	86.62
275.408	84.62
275.64	83.62
275.872	96.62
276.104	81.62
276.335	83.62
276.567	103.62
276.799	95.62
277.031	85.62
277.262	93.62
277.494	92.62
277.726	78.62
277.957	92.62
278.189	88.62
278.421	95.62
278.652	70.62
278.884	90.62
279.115	103.62
279.347	100.62
279.579	74.62
279.81	92.62
280.042	96.62
280.273	86.62
280.505	86.62
280.736	93.62
280.968	90.62
281.199	86.62
281.431	84.62
281.662	92.62
281.894	91.62
282.125	83.62
282.356	79.62
282.588	73.62
282.819	92.62
283.051	86.62
283.282	92.62
283.513	98.62
283.745	86.62
283.976	89.62
284.207	76.62
284.439	89.62
284.67	84.62
284.901	83.62
285.132	76.62
285.364	84.62
285.595	99.62
285.826	97.62
286.057	90.62
286.288	89.62
286.52	76.62
286.751	86.62
286.982	82.62
287.213	84.62
287.444	81.62
287.675	101.62
287.906	90.62
288.138	101.62
288.369	88.62
288.6	82.62
288.831	78.62
289.062	94.62
289.293	91.62
289.524	88.62
289.755	94.62
289.986	87.62
290.217	83.62
290.448	84.62
290.679	85.62
290.91	102.62
291.141	82.62
291.371	89.62
291.602	99.62
291.833	72.62
292.064	76.62
292.295	83.62
292.526	82.62
292.757	85.62
292.987	81.62
293.218	85.62
293.449	104.62
293.68	84.62
293.91	89.62
294.141	98.62
294.372	91.62
294.603	92.62
294.833	80.62
295.064	92.62
295.295	93.62
295.525	92.62
295.756	89.62
295.987	103.62
296.217	84.62
296.448	95.62
296.679	89.62
296.909	78.62
297.14	90.62
297.37	95.62
297.601	94.62
297.831	72.62
298.062	96.62
298.292	95.62
298.523	79.62
298.753	73.62
298.984	89.62
299.214	86.62
299.445	95.62
299.675	86.62
299.905	87.62
300.136	92.62
300.366	84.62
300.597	84.62
300.827	92.62
301.057	82.62
301.288	95.62
301.518	87.62
301.748	90.62
301.979	93.62
302.209	84.62
302.439	76.62
302.669	99.62
302.9	102.62
303.13	89.62
303.36	99.62
303.59	86.62
303.82	88.62
304.051	88.62
304.281	98.62
304.511	90.62
304.741	83.62
304.971	84.62
305.201	94.62
305.431	88.62
305.661	78.62
305.891	96.62
306.121	83.62
306.352	98.62
306.582	89.62
306.812	99.62
307.042	98.62
307.272	99.62
307.502	86.62
307.731	81.62
307.961	103.62
308.191	97.62
308.421	88.62
308.651	99.62
308.881	91.62
309.111	84.62
309.341	76.62
309.571	97.62
309.8	83.62
310.03	91.62
310.26	89.62
310.49	79.62
310.72	83.62
310.949	92.62
311.179	85.62
311.409	84.62
311.639	74.62
311.868	99.62
312.098	98.62
312.328	87.62
312.557	102.62
312.787	83.62
313.017	91.62
313.246	77.62
313.476	93.62
313.706	101.62
313.935	86.62
314.165	79.62
314.394	87.62
314.624	103.62
314.853	85.62
315.083	95.62
315.312	83.62
315.542	83.62
315.771	78.62
316.001	88.62
316.23	88.62
316.46	71.62
316.689	90.62
316.919	93.62
317.148	82.62
317.377	91.62
317.607	90.62
317.836	95.62
318.065	97.62
318.295	106.62
318.524	86.62
318.753	97.62
318.983	90.62
319.212	88.62
319.441	100.62
319.67	89.62
319.9	92.62
320.129	103.62
320.358	91.62
320.587	83.62
320.816	90.62
321.046	103.62
321.275	86.62
321.504	85.62
321.733	87.62
321.962	83.62
322.191	86.62
322.42	77.62
322.649	104.62
322.878	94.62
323.108	90.62
323.337	102.62
323.566	82.62
323.795	92.62
324.024	92.62
324.253	102.62
324.482	90.62
324.71	84.62
324.939	94.62
325.168	84.62
325.397	87.62
325.626	77.62
325.855	95.62
326.084	90.62
326.313	96.62
326.542	96.62
326.77	77.62
326.999	87.62
327.228	107.62
327.457	78.62
327.686	70.62
327.914	83.62
328.143	103.62
328.372	95.62
328.6	91.62
328.829	89.62
329.058	86.62
329.287	94.62
329.515	86.62
329.744	77.62
329.972	92.62
330.201	91.62
330.43	99.62
330.658	102.62
330.887	102.62
331.115	95.62
331.344	96.62
331.572	96.62
331.801	98.62
332.03	84.62
332.258	95.62
332.486	95.62
332.715	80.62
332.943	99.62
333.172	94.62
333.4	99.62
333.629	91.62
333.857	101.62
334.085	88.62
334.314	97.62
334.542	95.62
334.771	97.62
334.999	91.62
335.227	92.62
335.455	108.62
335.684	94.62
335.912	100.62
336.14	92.62
336.369	91.62
336.597	85.62
336.825	93.62
337.053	88.62
337.281	73.62
337.51	91.62
337.738	86.62
337.966	87.62
338.194	102.62
338.422	99.62
338.65	92.62
338.878	92.62
339.106	97.62
339.334	85.62
339.562	103.62
339.79	87.62
340.018	97.62
340.246	82.62
340.474	81.62
340.702	94.62
340.93	98.62
341.158	83.62
341.386	91.62
341.614	97.62
341.842	87.62
342.07	86.62
342.298	83.62
342.526	85.62
342.754	90.62
342.981	97.62
343.209	80.62
343.437	103.62
343.665	90.62
343.893	88.62
344.12	100.62
344.348	101.62
344.576	105.62
344.804	85.62
345.031	82.62
345.259	89.62
345.487	90.62
345.714	90.62
345.942	87.62
346.17	93.62
346.397	95.62
346.625	76.62
346.853	112.62
347.08	86.62
347.308	89.62
347.535	86.62
347.763	83.62
347.99	96.62
348.218	80.62
348.445	96.62
348.673	87.62
348.9	84.62
349.128	96.62
349.355	93.62
349.583	90.62
349.81	101.62
350.037	95.62
350.265	96.62
350.492	85.62
350.72	92.62
350.947	85.62
351.174	101.62
351.402	90.62
351.629	96.62
351.856	90.62
352.083	75.62
352.311	90.62
352.538	96.62
352.765	87.62
352.992	91.62
353.22	104.62
353.447	98.62
353.674	91.62
353.901	100.62
354.128	89.62
354.355	76.62
354.583	102.62
354.81	90.62
355.037	92.62
355.264	94.62
355.491	84.62
355.718	74.62
355.945	82.62
356.172	89.62
356.399	100.62
356.626	91.62
356.853	98.62
357.08	80.62
357.307	98.62
357.534	82.62
357.761	91.62
357.988	94.62
358.215	94.62
358.441	91.62
358.668	81.62
358.895	85.62
359.122	87.62
359.349	87.62
359.576	90.62
359.802	94.62
360.029	108.62
360.256	105.62
360.483	85.62
360.709	97.62
360.936	82.62
361.163	87.62
361.39	85.62
361.616	91.62
361.843	90.62
362.07	86.62
362.296	95.62
362.523	86.62
362.749	88.62
362.976	85.62
363.203	98.62
363.429	89.62
363.656	92.62
363.882	90.62
364.109	101.62
364.335	96.62
364.562	86.62
364.788	92.62
365.015	91.62
365.241	102.62
365.468	99.62
365.694	89.62
365.92	102.62
366.147	86.62
366.373	88.62
366.599	93.62
366.826	87.62
367.052	82.62
367.278	67.62
367.505	95.62
367.731	99.62
367.957	73.62
368.184	81.62
368.41	100.62
368.636	93.62
368.862	82.62
369.089	82.62
369.315	96.62
369.541	100.62
369.767	113.62
369.993	89.62
370.219	94.62
370.445	89.62
370.672	94.62
370.898	96.62
371.124	93.62
371.35	86.62
371.576	87.62
371.802	86.62
372.028	94.62
372.254	99.62
372.48	94.62
372.706	97.62
372.932	96.62
373.158	106.62
373.384	100.62
373.61	98.62
373.835	86.62
374.061	95.62
374.287	83.62
374.513	99.62
374.739	100.62
374.965	86.62
375.191	87.62
375.416	91.62
375.642	100.62
375.868	90.62
376.094	94.62
376.319	91.62
376.545	97.62
376.771	99.62
376.997	93.62
377.222	74.62
377.448	81.62
377.674	81.62
377.899	97.62
378.125	90.62
378.35	95.62
378.576	82.62
378.802	83.62
379.027	79.62
379.253	89.62
379.478	88.62
379.704	89.62
379.929	83.62
380.155	80.62
380.38	88.62
380.606	90.62
380.831	95.62
381.057	112.62
381.282	100.62
381.507	105.62
381.733	102.62
381.958	88.62
382.184	98.62
382.409	98.62
382.634	95.62
382.86	101.62
383.085	91.62
383.31	85.62
383.535	88.62
383.761	93.62
383.986	88.62
384.211	88.62
384.436	96.62
384.662	101.62
384.887	92.62
385.112	97.62
385.337	86.62
385.562	81.62
385.787	101.62
386.013	97.62
386.238	91.62
386.463	97.62
386.688	96.62
386.913	82.62
387.138	97.62
387.363	91.62
387.588	95.62
387.813	97.62
388.038	100.62
388.263	93.62
388.488	95.62
388.713	100.62
388.938	95.62
389.163	102.62
389.387	88.62
389.612	89.62
389.837	88.62
390.062	82.62
390.287	95.62
390.512	91.62
390.736	86.62
390.961	96.62
391.186	105.62
391.411	78.62
391.636	76.62
391.86	106.62
392.085	87.62
392.31	101.62
392.534	87.62
392.759	107.62
392.984	97.62
393.208	81.62
393.433	81.62
393.658	91.62
393.882	108.62
394.107	91.62
394.331	94.62
394.556	76.62
394.78	103.62
395.005	87.62
395.229	91.62
395.454	84.62
395.678	95.62
395.903	98.62
396.127	97.62
396.352	81.62
396.576	95.62
396.801	100.62
397.025	87.62
397.249	110.62
397.474	98.62
397.698	92.62
397.922	93.62
398.147	96.62
398.371	103.62
398.595	113.62
398.82	90.62
399.044	97.62
399.268	90.62
399.492	104.62
399.717	109.62
399.941	98.62
400.165	106.62
400.389	108.62
400.613	97.62
400.837	100.62
401.062	93.62
401.286	95.62
401.51	101.62
401.734	98.62
401.958	87.62
402.182	87.62
402.406	106.62
402.63	107.62
402.854	92.62
403.078	95.62
403.302	99.62
403.526	112.62
403.75	113.62
403.974	96.62
404.198	89.62
404.422	104.62
404.645	102.62
404.869	103.62
405.093	104.62
405.317	99.62
405.541	99.62
405.765	95.62
405.988	115.62
406.212	117.62
406.436	90.62
406.66	100.62
406.883	99.62
407.107	107.62
407.331	91.62
407.555	106.62
407.778	100.62
408.002	86.62
408.226	91.62
408.449	114.62
408.673	109.62
408.896	98.62
409.12	94.62
409.344	106.62
409.567	101.62
409.791	90.62
410.014	97.62
410.238	98.62
410.461	70.62
410.685	95.62
410.908	96.62
411.132	94.62
411.355	94.62
411.578	97.62
411.802	98.62
412.025	89.62
412.249	93.62
412.472	95.62
412.695	102.62
412.919	88.62
413.142	93.62
413.365	97.62
413.589	97.62
413.812	106.62
414.035	108.62
414.258	96.62
414.482	77.62
414.705	88.62
414.928	101.62
415.151	94.62
415.374	106.62
415.597	105.62
415.821	92.62
416.044	99.62
416.267	97.62
416.49	83.62
416.713	95.62
416.936	106.62
417.159	102.62
417.382	98.62
417.605	113.62
417.828	102.62
418.051	94.62
418.274	107.62
418.497	91.62
418.72	91.62
418.943	95.62
419.166	98.62
419.389	100.62
419.611	88.62
419.834	111.62
420.057	100.62
420.28	105.62
420.503	104.62
420.726	90.62
420.948	100.62
421.171	102.62
421.394	90.62
421.617	98.62
421.839	87.62
422.062	97.62
422.285	101.62
422.507	108.62
422.73	91.62
422.953	96.62
423.175	88.62
423.398	90.62
423.621	84.62
423.843	89.62
424.066	106.62
424.288	108.62
424.511	91.62
424.733	86.62
424.956	103.62
425.178	86.62
425.401	97.62
425.623	90.62
425.846	78.62
426.068	89.62
426.291	88.62
426.513	88.62
426.735	101.62
426.958	86.62
427.18	104.62
427.402	94.62
427.625	92.62
427.847	98.62
428.069	96.62
428.292	87.62
428.514	96.62
428.736	97.62
428.958	82.62
429.181	95.62
429.403	105.62
429.625	89.62
429.847	79.62
430.069	109.62
430.292	105.62
430.514	108.62
430.736	91.62
430.958	106.62
431.18	98.62
431.402	86.62
431.624	85.62
431.846	83.62
432.068	105.62
432.29	98.62
432.512	94.62
432.734	98.62
432.956	85.62
433.178	90.62
433.4	88.62
433.622	103.62
433.844	95.62
434.066	95.62
434.287	87.62
434.509	97.62
434.731	88.62
434.953	95.62
435.175	95.62
435.397	90.62
435.618	83.62
435.84	80.62
436.062	88.62
436.284	89.62
436.505	88.62
436.727	91.62
436.949	115.62
437.17	99.62
437.392	90.62
437.614	92.62
437.835	95.62
438.057	102.62
438.278	95.62
438.5	90.62
438.721	94.62
438.943	103.62
439.165	97.62
439.386	100.62
439.608	97.62
439.829	92.62
440.05	95.62
440.272	104.62
440.493	95.62
440.715	97.62
440.936	88.62
441.158	105.62
441.379	98.62
441.6	88.62
441.822	84.62
442.043	95.62
442.264	106.62
442.486	95.62
442.707	97.62
442.928	88.62
443.149	94.62
443.371	83.62
443.592	95.62
443.813	100.62
444.034	99.62
444.255	99.62
444.476	96.62
444.698	105.62
444.919	94.62
445.14	222.62
445.361	158.62
445.582	94.62
445.803	78.62
446.024	97.62
446.245	90.62
446.466	101.62
446.687	85.62
446.908	92.62
447.129	86.62
447.35	86.62
447.571	87.62
447.792	92.62
448.013	94.62
448.234	91.62
448.455	90.62
448.675	92.62
448.896	89.62
449.117	91.62
449.338	106.62
449.559	105.62
449.779	91.62
450	111.62
450.221	94.62
450.442	94.62
450.662	99.62
450.883	108.62
451.104	93.62
451.324	100.62
451.545	87.62
451.766	103.62
451.986	99.62
452.207	101.62
452.428	93.62
452.648	90.62
452.869	91.62
453.089	94.62
453.31	79.62
453.53	90.62
453.751	86.62
453.971	95.62
454.192	95.62
454.412	89.62
454.633	73.62
454.853	97.62
455.073	89.62
455.294	85.62
455.514	96.62
455.734	89.62
455.955	96.62
456.175	95.62
456.395	93.62
456.616	81.62
456.836	78.62
457.056	100.62
457.276	102.62
457.497	87.62
457.717	99.62
457.937	95.62
458.157	83.62
458.377	98.62
458.598	88.62
458.818	94.62
459.038	89.62
459.258	86.62
459.478	102.62
459.698	94.62
459.918	100.62
460.138	91.62
460.358	90.62
460.578	102.62
460.798	84.62
461.018	99.62
461.238	91.62
461.458	86.62
461.678	95.62
461.898	108.62
462.118	102.62
462.338	97.62
462.558	111.62
462.777	105.62
462.997	108.62
463.217	99.62
463.437	100.62
463.657	95.62
463.876	105.62
464.096	99.62
464.316	88.62
464.536	110.62
464.755	91.62
464.975	98.62
465.195	98.62
465.414	90.62
465.634	98.62
465.854	98.62
466.073	89.62
466.293	96.62
466.512	87.62
466.732	96.62
466.951	95.62
467.171	74.62
467.391	86.62
467.61	84.62
467.829	101.62
468.049	96.62
468.268	75.62
468.488	87.62
468.707	102.62
468.927	87.62
469.146	93.62
469.365	102.62
469.585	92.62
469.804	101.62
470.023	100.62
470.243	89.62
470.462	113.62
470.681	95.62
470.901	102.62
471.12	99.62
471.339	90.62
471.558	103.62
471.777	81.62
471.997	89.62
472.216	88.62
472.435	108.62
472.654	101.62
472.873	93.62
473.092	94.62
473.311	102.62
473.53	92.62
473.749	95.62
473.968	99.62
474.187	97.62
474.406	98.62
474.625	99.62
474.844	99.62
475.063	108.62
475.282	95.62
475.501	88.62
475.72	104.62
475.939	93.62
476.158	99.62
476.377	107.62
476.596	103.62
476.814	103.62
477.033	112.62
477.252	98.62
477.471	101.62
477.69	106.62
477.908	91.62
478.127	100.62
478.346	112.62
478.564	99.62
478.783	110.62
479.002	112.62
479.22	103.62
479.439	120.62
479.658	92.62
479.876	109.62
480.095	87.62
480.313	108.62
480.532	110.62
480.751	104.62
480.969	98.62
481.188	102.62
481.406	98.62
481.624	90.62
481.843	101.62
482.061	103.62
482.28	83.62
482.498	95.62
482.717	96.62
482.935	88.62
483.153	106.62
483.372	107.62
483.59	89.62
483.808	112.62
484.027	105.62
484.245	99.62
484.463	107.62
484.681	111.62
484.9	109.62
485.118	101.62
485.336	114.62
485.554	114.62
485.772	111.62
485.99	110.62
486.209	116.62
486.427	96.62
486.645	96.62
486.863	114.62
487.081	110.62
487.299	102.62
487.517	93.62
487.735	103.62
487.953	99.62
488.171	123.62
488.389	96.62
488.607	108.62
488.825	98.62
489.043	97.62
489.261	103.62
489.479	110.62
489.696	105.62
489.914	96.62
490.132	104.62
490.35	103.62
490.568	119.62
490.786	105.62
491.003	100.62
491.221	95.62
491.439	107.62
491.657	95.62
491.874	99.62
492.092	115.62
492.31	114.62
492.527	116.62
492.745	98.62
492.963	106.62
493.18	123.62
493.398	99.62
493.615	116.62
493.833	122.62
494.05	108.62
494.268	104.62
494.485	122.62
494.703	100.62
494.92	124.62
495.138	111.62
495.355	116.62
495.573	118.62
495.79	104.62
496.008	118.62
496.225	123.62
496.442	112.62
496.66	107.62
496.877	114.62
497.094	118.62
497.312	108.62
497.529	116.62
497.746	112.62
497.963	100.62
498.181	100.62
498.398	111.62
498.615	122.62
498.832	117.62
499.049	100.62
499.267	108.62
499.484	123.62
499.701	125.62
499.918	138.62
500.135	136.62
500.352	141.62
500.569	146.62
500.786	139.62
501.003	148.62
501.22	142.62
501.437	146.62
501.654	113.62
501.871	124.62
502.088	118.62
502.305	116.62
502.522	122.62
502.739	118.62
502.956	108.62
503.172	106.62
503.389	117.62
503.606	88.62
503.823	107.62
504.04	112.62
504.256	114.62
504.473	102.62
504.69	112.62
504.907	107.62
505.123	122.62
505.34	102.62
505.557	100.62
505.773	120.62
505.99	112.62
506.207	105.62
506.423	101.62
506.64	88.62
506.856	99.62
507.073	95.62
507.289	101.62
507.506	97.62
507.722	102.62
507.939	103.62
508.155	91.62
508.372	87.62
508.588	99.62
508.805	106.62
509.021	98.62
509.238	107.62
509.454	107.62
509.67	102.62
509.887	101.62
510.103	110.62
510.319	93.62
510.536	101.62
510.752	111.62
510.968	87.62
511.184	93.62
511.401	118.62
511.617	104.62
511.833	101.62
512.049	115.62
512.265	89.62
512.481	86.62
512.698	92.62
512.914	101.62
513.13	98.62
513.346	110.62
513.562	102.62
513.778	103.62
513.994	103.62
514.21	86.62
514.426	100.62
514.642	108.62
514.858	102.62
515.074	96.62
