Data from Location5.07152019.Energy5.Lamp.07192019.3%Agarose_HRD10591_16-03-10-628.txt Node
Date: Fri Jul 19 16:03:10 EDT 2019
User: cochatt
Spectrometer: HR+D1059
Trigger mode: 1
Integration Time (sec): 1.000000E-1
Scans to average: 1
Electric dark correction enabled: true
Nonlinearity correction enabled: false
Boxcar width: 0
XAxis mode: Wavelengths
Number of Pixels in Spectrum: 2048
>>>>>Begin Spectral Data<<<<<
223.165	-1.38
223.4	-1.38
223.635	-1.38
223.869	-9.38
224.104	-32.38
224.338	-13.38
224.573	4.62
224.808	-7.38
225.042	-11.38
225.277	-8.38
225.511	-3.38
225.746	3.62
225.98	7.62
226.215	-0.38
226.449	3.62
226.683	19.62
226.918	18.62
227.152	29.62
227.387	39.62
227.621	38.62
227.856	41.62
228.09	39.62
228.324	30.62
228.559	58.62
228.793	70.62
229.027	78.62
229.262	72.62
229.496	68.62
229.73	54.62
229.964	71.62
230.199	65.62
230.433	72.62
230.667	84.62
230.901	67.62
231.136	85.62
231.37	75.62
231.604	87.62
231.838	75.62
232.072	90.62
232.306	77.62
232.541	84.62
232.775	85.62
233.009	90.62
233.243	89.62
233.477	86.62
233.711	77.62
233.945	84.62
234.179	76.62
234.413	79.62
234.647	72.62
234.881	65.62
235.115	76.62
235.349	76.62
235.583	78.62
235.817	74.62
236.051	83.62
236.285	62.62
236.519	80.62
236.753	78.62
236.987	92.62
237.221	73.62
237.455	69.62
237.689	84.62
237.922	81.62
238.156	85.62
238.39	77.62
238.624	78.62
238.858	80.62
239.091	84.62
239.325	73.62
239.559	90.62
239.793	83.62
240.027	95.62
240.26	85.62
240.494	82.62
240.728	80.62
240.961	68.62
241.195	79.62
241.429	70.62
241.662	80.62
241.896	78.62
242.13	71.62
242.363	69.62
242.597	93.62
242.83	86.62
243.064	80.62
243.298	80.62
243.531	86.62
243.765	72.62
243.998	75.62
244.232	63.62
244.465	71.62
244.699	81.62
244.932	83.62
245.166	77.62
245.399	91.62
245.633	82.62
245.866	78.62
246.099	70.62
246.333	80.62
246.566	76.62
246.8	68.62
247.033	85.62
247.266	67.62
247.5	72.62
247.733	70.62
247.966	89.62
248.2	74.62
248.433	78.62
248.666	69.62
248.899	75.62
249.133	72.62
249.366	83.62
249.599	82.62
249.832	76.62
250.066	84.62
250.299	75.62
250.532	66.62
250.765	76.62
250.998	68.62
251.231	73.62
251.465	79.62
251.698	92.62
251.931	85.62
252.164	83.62
252.397	90.62
252.63	91.62
252.863	89.62
253.096	88.62
253.329	84.62
253.562	62.62
253.795	86.62
254.028	69.62
254.261	90.62
254.494	84.62
254.727	80.62
254.96	84.62
255.193	78.62
255.426	77.62
255.659	84.62
255.892	74.62
256.124	69.62
256.357	86.62
256.59	77.62
256.823	83.62
257.056	83.62
257.289	75.62
257.521	83.62
257.754	80.62
257.987	81.62
258.22	101.62
258.452	80.62
258.685	75.62
258.918	74.62
259.151	106.62
259.383	88.62
259.616	79.62
259.849	86.62
260.081	82.62
260.314	72.62
260.547	86.62
260.779	88.62
261.012	85.62
261.244	70.62
261.477	86.62
261.71	87.62
261.942	84.62
262.175	88.62
262.407	87.62
262.64	88.62
262.872	76.62
263.105	88.62
263.337	73.62
263.57	85.62
263.802	72.62
264.035	82.62
264.267	88.62
264.499	80.62
264.732	82.62
264.964	83.62
265.197	82.62
265.429	81.62
265.661	90.62
265.894	86.62
266.126	86.62
266.358	82.62
266.591	72.62
266.823	78.62
267.055	82.62
267.287	86.62
267.52	78.62
267.752	95.62
267.984	78.62
268.216	82.62
268.448	88.62
268.681	93.62
268.913	92.62
269.145	80.62
269.377	85.62
269.609	83.62
269.841	98.62
270.073	86.62
270.306	88.62
270.538	73.62
270.77	87.62
271.002	78.62
271.234	87.62
271.466	81.62
271.698	89.62
271.93	77.62
272.162	79.62
272.394	79.62
272.626	89.62
272.858	95.62
273.09	73.62
273.322	88.62
273.553	80.62
273.785	81.62
274.017	91.62
274.249	83.62
274.481	85.62
274.713	62.62
274.945	87.62
275.176	83.62
275.408	99.62
275.64	95.62
275.872	78.62
276.104	101.62
276.335	84.62
276.567	92.62
276.799	87.62
277.031	96.62
277.262	90.62
277.494	95.62
277.726	82.62
277.957	93.62
278.189	90.62
278.421	95.62
278.652	91.62
278.884	82.62
279.115	78.62
279.347	80.62
279.579	72.62
279.81	73.62
280.042	91.62
280.273	87.62
280.505	91.62
280.736	104.62
280.968	85.62
281.199	77.62
281.431	81.62
281.662	89.62
281.894	85.62
282.125	100.62
282.356	98.62
282.588	87.62
282.819	85.62
283.051	85.62
283.282	98.62
283.513	77.62
283.745	81.62
283.976	78.62
284.207	88.62
284.439	90.62
284.67	81.62
284.901	93.62
285.132	89.62
285.364	86.62
285.595	92.62
285.826	97.62
286.057	81.62
286.288	73.62
286.52	94.62
286.751	102.62
286.982	87.62
287.213	90.62
287.444	84.62
287.675	86.62
287.906	73.62
288.138	85.62
288.369	87.62
288.6	97.62
288.831	86.62
289.062	96.62
289.293	87.62
289.524	86.62
289.755	82.62
289.986	90.62
290.217	80.62
290.448	97.62
290.679	97.62
290.91	114.62
291.141	84.62
291.371	94.62
291.602	96.62
291.833	87.62
292.064	102.62
292.295	90.62
292.526	80.62
292.757	91.62
292.987	93.62
293.218	98.62
293.449	101.62
293.68	86.62
293.91	84.62
294.141	85.62
294.372	96.62
294.603	91.62
294.833	87.62
295.064	93.62
295.295	83.62
295.525	92.62
295.756	102.62
295.987	103.62
296.217	88.62
296.448	88.62
296.679	89.62
296.909	96.62
297.14	76.62
297.37	88.62
297.601	94.62
297.831	89.62
298.062	94.62
298.292	91.62
298.523	93.62
298.753	79.62
298.984	89.62
299.214	86.62
299.445	98.62
299.675	98.62
299.905	90.62
300.136	96.62
300.366	78.62
300.597	96.62
300.827	86.62
301.057	92.62
301.288	92.62
301.518	94.62
301.748	106.62
301.979	92.62
302.209	87.62
302.439	89.62
302.669	79.62
302.9	82.62
303.13	96.62
303.36	84.62
303.59	84.62
303.82	90.62
304.051	78.62
304.281	93.62
304.511	101.62
304.741	92.62
304.971	84.62
305.201	97.62
305.431	90.62
305.661	102.62
305.891	89.62
306.121	93.62
306.352	97.62
306.582	100.62
306.812	83.62
307.042	91.62
307.272	92.62
307.502	89.62
307.731	87.62
307.961	92.62
308.191	83.62
308.421	95.62
308.651	95.62
308.881	80.62
309.111	91.62
309.341	88.62
309.571	83.62
309.8	70.62
310.03	86.62
310.26	101.62
310.49	88.62
310.72	92.62
310.949	104.62
311.179	86.62
311.409	97.62
311.639	99.62
311.868	96.62
312.098	92.62
312.328	88.62
312.557	92.62
312.787	100.62
313.017	104.62
313.246	99.62
313.476	78.62
313.706	79.62
313.935	97.62
314.165	92.62
314.394	87.62
314.624	90.62
314.853	82.62
315.083	110.62
315.312	81.62
315.542	78.62
315.771	92.62
316.001	90.62
316.23	87.62
316.46	105.62
316.689	92.62
316.919	98.62
317.148	88.62
317.377	90.62
317.607	102.62
317.836	87.62
318.065	86.62
318.295	85.62
318.524	81.62
318.753	85.62
318.983	98.62
319.212	110.62
319.441	90.62
319.67	101.62
319.9	97.62
320.129	103.62
320.358	85.62
320.587	107.62
320.816	96.62
321.046	81.62
321.275	89.62
321.504	82.62
321.733	88.62
321.962	87.62
322.191	86.62
322.42	78.62
322.649	95.62
322.878	89.62
323.108	92.62
323.337	96.62
323.566	84.62
323.795	88.62
324.024	80.62
324.253	90.62
324.482	100.62
324.71	96.62
324.939	81.62
325.168	95.62
325.397	96.62
325.626	93.62
325.855	112.62
326.084	84.62
326.313	102.62
326.542	89.62
326.77	98.62
326.999	87.62
327.228	94.62
327.457	111.62
327.686	81.62
327.914	81.62
328.143	108.62
328.372	85.62
328.6	85.62
328.829	81.62
329.058	87.62
329.287	100.62
329.515	87.62
329.744	92.62
329.972	96.62
330.201	108.62
330.43	80.62
330.658	98.62
330.887	83.62
331.115	87.62
331.344	101.62
331.572	89.62
331.801	84.62
332.03	89.62
332.258	90.62
332.486	82.62
332.715	77.62
332.943	97.62
333.172	100.62
333.4	89.62
333.629	94.62
333.857	98.62
334.085	105.62
334.314	81.62
334.542	90.62
334.771	86.62
334.999	90.62
335.227	96.62
335.455	108.62
335.684	93.62
335.912	104.62
336.14	104.62
336.369	89.62
336.597	74.62
336.825	92.62
337.053	81.62
337.281	100.62
337.51	112.62
337.738	86.62
337.966	88.62
338.194	101.62
338.422	82.62
338.65	93.62
338.878	95.62
339.106	99.62
339.334	100.62
339.562	83.62
339.79	92.62
340.018	86.62
340.246	88.62
340.474	99.62
340.702	75.62
340.93	95.62
341.158	104.62
341.386	93.62
341.614	93.62
341.842	92.62
342.07	88.62
342.298	94.62
342.526	84.62
342.754	95.62
342.981	99.62
343.209	98.62
343.437	94.62
343.665	99.62
343.893	107.62
344.12	103.62
344.348	95.62
344.576	82.62
344.804	84.62
345.031	89.62
345.259	97.62
345.487	94.62
345.714	95.62
345.942	90.62
346.17	96.62
346.397	104.62
346.625	100.62
346.853	91.62
347.08	76.62
347.308	97.62
347.535	99.62
347.763	86.62
347.99	89.62
348.218	88.62
348.445	93.62
348.673	90.62
348.9	86.62
349.128	94.62
349.355	87.62
349.583	81.62
349.81	88.62
350.037	85.62
350.265	93.62
350.492	94.62
350.72	89.62
350.947	87.62
351.174	85.62
351.402	85.62
351.629	97.62
351.856	79.62
352.083	86.62
352.311	88.62
352.538	79.62
352.765	77.62
352.992	96.62
353.22	86.62
353.447	103.62
353.674	97.62
353.901	76.62
354.128	86.62
354.355	79.62
354.583	76.62
354.81	89.62
355.037	84.62
355.264	84.62
355.491	95.62
355.718	86.62
355.945	83.62
356.172	94.62
356.399	91.62
356.626	81.62
356.853	90.62
357.08	89.62
357.307	91.62
357.534	83.62
357.761	78.62
357.988	98.62
358.215	95.62
358.441	74.62
358.668	89.62
358.895	93.62
359.122	83.62
359.349	90.62
359.576	94.62
359.802	103.62
360.029	90.62
360.256	86.62
360.483	86.62
360.709	86.62
360.936	88.62
361.163	109.62
361.39	81.62
361.616	87.62
361.843	83.62
362.07	83.62
362.296	95.62
362.523	96.62
362.749	88.62
362.976	82.62
363.203	87.62
363.429	101.62
363.656	87.62
363.882	90.62
364.109	96.62
364.335	89.62
364.562	96.62
364.788	100.62
365.015	98.62
365.241	94.62
365.468	93.62
365.694	84.62
365.92	81.62
366.147	93.62
366.373	90.62
366.599	102.62
366.826	113.62
367.052	92.62
367.278	90.62
367.505	99.62
367.731	97.62
367.957	97.62
368.184	92.62
368.41	87.62
368.636	91.62
368.862	106.62
369.089	86.62
369.315	96.62
369.541	82.62
369.767	86.62
369.993	102.62
370.219	89.62
370.445	103.62
370.672	85.62
370.898	99.62
371.124	83.62
371.35	91.62
371.576	88.62
371.802	103.62
372.028	90.62
372.254	84.62
372.48	76.62
372.706	88.62
372.932	94.62
373.158	95.62
373.384	80.62
373.61	104.62
373.835	72.62
374.061	86.62
374.287	102.62
374.513	111.62
374.739	101.62
374.965	91.62
375.191	100.62
375.416	95.62
375.642	84.62
375.868	93.62
376.094	92.62
376.319	83.62
376.545	96.62
376.771	92.62
376.997	102.62
377.222	100.62
377.448	94.62
377.674	90.62
377.899	98.62
378.125	82.62
378.35	91.62
378.576	88.62
378.802	94.62
379.027	92.62
379.253	94.62
379.478	87.62
379.704	107.62
379.929	94.62
380.155	89.62
380.38	96.62
380.606	99.62
380.831	92.62
381.057	102.62
381.282	81.62
381.507	80.62
381.733	94.62
381.958	100.62
382.184	96.62
382.409	95.62
382.634	96.62
382.86	90.62
383.085	98.62
383.31	78.62
383.535	102.62
383.761	97.62
383.986	85.62
384.211	95.62
384.436	100.62
384.662	86.62
384.887	83.62
385.112	71.62
385.337	92.62
385.562	81.62
385.787	104.62
386.013	102.62
386.238	84.62
386.463	84.62
386.688	94.62
386.913	92.62
387.138	99.62
387.363	87.62
387.588	99.62
387.813	97.62
388.038	101.62
388.263	93.62
388.488	88.62
388.713	106.62
388.938	97.62
389.163	84.62
389.387	92.62
389.612	86.62
389.837	94.62
390.062	90.62
390.287	102.62
390.512	96.62
390.736	101.62
390.961	83.62
391.186	116.62
391.411	92.62
391.636	93.62
391.86	96.62
392.085	88.62
392.31	100.62
392.534	95.62
392.759	108.62
392.984	92.62
393.208	109.62
393.433	96.62
393.658	108.62
393.882	87.62
394.107	99.62
394.331	97.62
394.556	96.62
394.78	96.62
395.005	98.62
395.229	87.62
395.454	88.62
395.678	98.62
395.903	97.62
396.127	94.62
396.352	98.62
396.576	87.62
396.801	84.62
397.025	92.62
397.249	85.62
397.474	108.62
397.698	101.62
397.922	93.62
398.147	88.62
398.371	90.62
398.595	111.62
398.82	94.62
399.044	84.62
399.268	88.62
399.492	111.62
399.717	110.62
399.941	104.62
400.165	116.62
400.389	96.62
400.613	82.62
400.837	100.62
401.062	104.62
401.286	86.62
401.51	97.62
401.734	88.62
401.958	97.62
402.182	97.62
402.406	97.62
402.63	85.62
402.854	103.62
403.078	101.62
403.302	112.62
403.526	104.62
403.75	102.62
403.974	104.62
404.198	120.62
404.422	100.62
404.645	112.62
404.869	121.62
405.093	97.62
405.317	100.62
405.541	93.62
405.765	105.62
405.988	117.62
406.212	110.62
406.436	104.62
406.66	94.62
406.883	94.62
407.107	108.62
407.331	116.62
407.555	118.62
407.778	99.62
408.002	105.62
408.226	93.62
408.449	110.62
408.673	114.62
408.896	99.62
409.12	98.62
409.344	96.62
409.567	97.62
409.791	101.62
410.014	94.62
410.238	88.62
410.461	81.62
410.685	99.62
410.908	87.62
411.132	99.62
411.355	86.62
411.578	105.62
411.802	99.62
412.025	97.62
412.249	102.62
412.472	106.62
412.695	101.62
412.919	88.62
413.142	97.62
413.365	87.62
413.589	89.62
413.812	95.62
414.035	99.62
414.258	96.62
414.482	104.62
414.705	100.62
414.928	83.62
415.151	100.62
415.374	93.62
415.597	95.62
415.821	96.62
416.044	100.62
416.267	94.62
416.49	79.62
416.713	94.62
416.936	96.62
417.159	78.62
417.382	97.62
417.605	95.62
417.828	104.62
418.051	108.62
418.274	84.62
418.497	97.62
418.72	99.62
418.943	112.62
419.166	97.62
419.389	101.62
419.611	96.62
419.834	99.62
420.057	89.62
420.28	89.62
420.503	99.62
420.726	112.62
420.948	97.62
421.171	94.62
421.394	95.62
421.617	98.62
421.839	84.62
422.062	101.62
422.285	108.62
422.507	92.62
422.73	106.62
422.953	90.62
423.175	96.62
423.398	94.62
423.621	100.62
423.843	97.62
424.066	86.62
424.288	100.62
424.511	96.62
424.733	100.62
424.956	92.62
425.178	81.62
425.401	94.62
425.623	109.62
425.846	100.62
426.068	99.62
426.291	92.62
426.513	87.62
426.735	104.62
426.958	92.62
427.18	80.62
427.402	108.62
427.625	95.62
427.847	97.62
428.069	88.62
428.292	89.62
428.514	96.62
428.736	95.62
428.958	106.62
429.181	97.62
429.403	94.62
429.625	83.62
429.847	82.62
430.069	84.62
430.292	100.62
430.514	93.62
430.736	90.62
430.958	105.62
431.18	90.62
431.402	83.62
431.624	95.62
431.846	91.62
432.068	84.62
432.29	92.62
432.512	96.62
432.734	97.62
432.956	100.62
433.178	88.62
433.4	84.62
433.622	100.62
433.844	98.62
434.066	85.62
434.287	86.62
434.509	94.62
434.731	105.62
434.953	103.62
435.175	93.62
435.397	88.62
435.618	101.62
435.84	79.62
436.062	78.62
436.284	104.62
436.505	93.62
436.727	103.62
436.949	87.62
437.17	96.62
437.392	111.62
437.614	90.62
437.835	102.62
438.057	99.62
438.278	74.62
438.5	101.62
438.721	98.62
438.943	92.62
439.165	92.62
439.386	92.62
439.608	89.62
439.829	113.62
440.05	99.62
440.272	73.62
440.493	92.62
440.715	93.62
440.936	98.62
441.158	106.62
441.379	101.62
441.6	92.62
441.822	94.62
442.043	102.62
442.264	92.62
442.486	92.62
442.707	96.62
442.928	105.62
443.149	83.62
443.371	88.62
443.592	87.62
443.813	93.62
444.034	101.62
444.255	93.62
444.476	94.62
444.698	95.62
444.919	112.62
445.14	212.62
445.361	148.62
445.582	100.62
445.803	87.62
446.024	93.62
446.245	106.62
446.466	93.62
446.687	91.62
446.908	93.62
447.129	85.62
447.35	102.62
447.571	95.62
447.792	95.62
448.013	88.62
448.234	103.62
448.455	82.62
448.675	89.62
448.896	90.62
449.117	85.62
449.338	94.62
449.559	104.62
449.779	104.62
450	81.62
450.221	92.62
450.442	92.62
450.662	98.62
450.883	117.62
451.104	80.62
451.324	96.62
451.545	89.62
451.766	102.62
451.986	89.62
452.207	93.62
452.428	91.62
452.648	96.62
452.869	90.62
453.089	98.62
453.31	90.62
453.53	91.62
453.751	108.62
453.971	80.62
454.192	89.62
454.412	97.62
454.633	88.62
454.853	98.62
455.073	89.62
455.294	93.62
455.514	84.62
455.734	111.62
455.955	96.62
456.175	92.62
456.395	101.62
456.616	103.62
456.836	100.62
457.056	108.62
457.276	81.62
457.497	85.62
457.717	95.62
457.937	89.62
458.157	102.62
458.377	95.62
458.598	94.62
458.818	92.62
459.038	104.62
459.258	98.62
459.478	104.62
459.698	97.62
459.918	92.62
460.138	97.62
460.358	98.62
460.578	99.62
460.798	131.62
461.018	99.62
461.238	109.62
461.458	106.62
461.678	97.62
461.898	99.62
462.118	103.62
462.338	101.62
462.558	113.62
462.777	115.62
462.997	92.62
463.217	93.62
463.437	102.62
463.657	105.62
463.876	92.62
464.096	108.62
464.316	101.62
464.536	90.62
464.755	97.62
464.975	101.62
465.195	100.62
465.414	95.62
465.634	112.62
465.854	110.62
466.073	95.62
466.293	97.62
466.512	100.62
466.732	98.62
466.951	104.62
467.171	103.62
467.391	89.62
467.61	86.62
467.829	111.62
468.049	97.62
468.268	93.62
468.488	86.62
468.707	94.62
468.927	93.62
469.146	86.62
469.365	98.62
469.585	103.62
469.804	95.62
470.023	93.62
470.243	105.62
470.462	92.62
470.681	90.62
470.901	97.62
471.12	89.62
471.339	97.62
471.558	99.62
471.777	104.62
471.997	93.62
472.216	88.62
472.435	91.62
472.654	103.62
472.873	96.62
473.092	87.62
473.311	89.62
473.53	84.62
473.749	88.62
473.968	101.62
474.187	110.62
474.406	94.62
474.625	105.62
474.844	93.62
475.063	84.62
475.282	106.62
475.501	102.62
475.72	102.62
475.939	109.62
476.158	102.62
476.377	105.62
476.596	96.62
476.814	101.62
477.033	114.62
477.252	95.62
477.471	98.62
477.69	101.62
477.908	116.62
478.127	104.62
478.346	98.62
478.564	95.62
478.783	104.62
479.002	105.62
479.22	92.62
479.439	90.62
479.658	86.62
479.876	104.62
480.095	112.62
480.313	94.62
480.532	97.62
480.751	103.62
480.969	110.62
481.188	100.62
481.406	103.62
481.624	88.62
481.843	89.62
482.061	103.62
482.28	94.62
482.498	99.62
482.717	113.62
482.935	108.62
483.153	100.62
483.372	111.62
483.59	93.62
483.808	100.62
484.027	101.62
484.245	95.62
484.463	101.62
484.681	116.62
484.9	95.62
485.118	88.62
485.336	90.62
485.554	108.62
485.772	98.62
485.99	101.62
486.209	96.62
486.427	100.62
486.645	100.62
486.863	105.62
487.081	97.62
487.299	102.62
487.517	108.62
487.735	108.62
487.953	100.62
488.171	109.62
488.389	110.62
488.607	97.62
488.825	106.62
489.043	117.62
489.261	100.62
489.479	105.62
489.696	101.62
489.914	110.62
490.132	114.62
490.35	108.62
490.568	99.62
490.786	99.62
491.003	111.62
491.221	116.62
491.439	123.62
491.657	113.62
491.874	114.62
492.092	111.62
492.31	112.62
492.527	115.62
492.745	104.62
492.963	118.62
493.18	115.62
493.398	112.62
493.615	116.62
493.833	112.62
494.05	107.62
494.268	110.62
494.485	113.62
494.703	114.62
494.92	112.62
495.138	112.62
495.355	120.62
495.573	123.62
495.79	118.62
496.008	98.62
496.225	116.62
496.442	119.62
496.66	127.62
496.877	116.62
497.094	109.62
497.312	115.62
497.529	106.62
497.746	119.62
497.963	111.62
498.181	105.62
498.398	111.62
498.615	113.62
498.832	109.62
499.049	122.62
499.267	131.62
499.484	131.62
499.701	134.62
499.918	138.62
500.135	161.62
500.352	153.62
500.569	159.62
500.786	179.62
501.003	150.62
501.22	141.62
501.437	144.62
501.654	130.62
501.871	122.62
502.088	123.62
502.305	123.62
502.522	124.62
502.739	108.62
502.956	129.62
503.172	128.62
503.389	113.62
503.606	114.62
503.823	112.62
504.04	119.62
504.256	116.62
504.473	118.62
504.69	109.62
504.907	125.62
505.123	124.62
505.34	122.62
505.557	109.62
505.773	115.62
505.99	107.62
506.207	111.62
506.423	96.62
506.64	105.62
506.856	80.62
507.073	86.62
507.289	88.62
507.506	92.62
507.722	98.62
507.939	112.62
508.155	95.62
508.372	88.62
508.588	77.62
508.805	104.62
509.021	90.62
509.238	99.62
509.454	99.62
509.67	98.62
509.887	101.62
510.103	95.62
510.319	113.62
510.536	101.62
510.752	103.62
510.968	90.62
511.184	91.62
511.401	87.62
511.617	112.62
511.833	108.62
512.049	100.62
512.265	95.62
512.481	93.62
512.698	99.62
512.914	98.62
513.13	96.62
513.346	101.62
513.562	97.62
513.778	88.62
513.994	96.62
514.21	102.62
514.426	97.62
514.642	102.62
514.858	92.62
