Data from Location5.07152019.Energy5.Lamp.07192019.3%Agarose_HRD10591_15-38-04-387.txt Node
Date: Fri Jul 19 15:38:04 EDT 2019
User: cochatt
Spectrometer: HR+D1059
Trigger mode: 1
Integration Time (sec): 1.000000E-1
Scans to average: 1
Electric dark correction enabled: true
Nonlinearity correction enabled: false
Boxcar width: 0
XAxis mode: Wavelengths
Number of Pixels in Spectrum: 2048
>>>>>Begin Spectral Data<<<<<
223.165	-4.75
223.4	-4.75
223.635	-4.75
223.869	0.25
224.104	-25.75
224.338	-19.75
224.573	-13.75
224.808	-4.75
225.042	-3.75
225.277	-18.75
225.511	0.25
225.746	0.25
225.98	12.25
226.215	12.25
226.449	5.25
226.683	19.25
226.918	20.25
227.152	21.25
227.387	34.25
227.621	36.25
227.856	37.25
228.09	47.25
228.324	27.25
228.559	51.25
228.793	58.25
229.027	51.25
229.262	69.25
229.496	70.25
229.73	76.25
229.964	66.25
230.199	60.25
230.433	76.25
230.667	73.25
230.901	61.25
231.136	80.25
231.37	83.25
231.604	87.25
231.838	75.25
232.072	86.25
232.306	91.25
232.541	66.25
232.775	87.25
233.009	84.25
233.243	92.25
233.477	83.25
233.711	88.25
233.945	100.25
234.179	87.25
234.413	77.25
234.647	87.25
234.881	90.25
235.115	80.25
235.349	87.25
235.583	74.25
235.817	71.25
236.051	76.25
236.285	83.25
236.519	79.25
236.753	85.25
236.987	77.25
237.221	84.25
237.455	79.25
237.689	83.25
237.922	68.25
238.156	79.25
238.39	83.25
238.624	80.25
238.858	72.25
239.091	74.25
239.325	75.25
239.559	74.25
239.793	82.25
240.027	98.25
240.26	84.25
240.494	84.25
240.728	74.25
240.961	75.25
241.195	72.25
241.429	74.25
241.662	88.25
241.896	75.25
242.13	76.25
242.363	74.25
242.597	90.25
242.83	91.25
243.064	78.25
243.298	84.25
243.531	70.25
243.765	71.25
243.998	71.25
244.232	86.25
244.465	69.25
244.699	75.25
244.932	78.25
245.166	73.25
245.399	77.25
245.633	85.25
245.866	75.25
246.099	83.25
246.333	72.25
246.566	71.25
246.8	72.25
247.033	85.25
247.266	96.25
247.5	84.25
247.733	69.25
247.966	87.25
248.2	63.25
248.433	87.25
248.666	72.25
248.899	92.25
249.133	81.25
249.366	75.25
249.599	75.25
249.832	70.25
250.066	80.25
250.299	80.25
250.532	98.25
250.765	75.25
250.998	72.25
251.231	75.25
251.465	73.25
251.698	77.25
251.931	72.25
252.164	76.25
252.397	85.25
252.63	76.25
252.863	72.25
253.096	76.25
253.329	69.25
253.562	85.25
253.795	80.25
254.028	69.25
254.261	75.25
254.494	68.25
254.727	78.25
254.96	80.25
255.193	87.25
255.426	73.25
255.659	80.25
255.892	80.25
256.124	83.25
256.357	80.25
256.59	82.25
256.823	65.25
257.056	82.25
257.289	77.25
257.521	85.25
257.754	75.25
257.987	82.25
258.22	90.25
258.452	69.25
258.685	83.25
258.918	88.25
259.151	92.25
259.383	77.25
259.616	72.25
259.849	81.25
260.081	77.25
260.314	76.25
260.547	69.25
260.779	69.25
261.012	84.25
261.244	86.25
261.477	86.25
261.71	72.25
261.942	89.25
262.175	80.25
262.407	69.25
262.64	78.25
262.872	80.25
263.105	71.25
263.337	87.25
263.57	80.25
263.802	82.25
264.035	86.25
264.267	78.25
264.499	79.25
264.732	88.25
264.964	75.25
265.197	83.25
265.429	92.25
265.661	84.25
265.894	94.25
266.126	92.25
266.358	76.25
266.591	81.25
266.823	78.25
267.055	76.25
267.287	77.25
267.52	74.25
267.752	87.25
267.984	91.25
268.216	95.25
268.448	82.25
268.681	84.25
268.913	81.25
269.145	70.25
269.377	82.25
269.609	74.25
269.841	90.25
270.073	90.25
270.306	91.25
270.538	97.25
270.77	81.25
271.002	87.25
271.234	77.25
271.466	96.25
271.698	75.25
271.93	83.25
272.162	91.25
272.394	101.25
272.626	87.25
272.858	77.25
273.09	90.25
273.322	77.25
273.553	76.25
273.785	80.25
274.017	88.25
274.249	82.25
274.481	86.25
274.713	89.25
274.945	96.25
275.176	83.25
275.408	87.25
275.64	67.25
275.872	80.25
276.104	70.25
276.335	73.25
276.567	77.25
276.799	88.25
277.031	85.25
277.262	70.25
277.494	80.25
277.726	72.25
277.957	79.25
278.189	78.25
278.421	75.25
278.652	77.25
278.884	85.25
279.115	86.25
279.347	92.25
279.579	75.25
279.81	87.25
280.042	83.25
280.273	71.25
280.505	91.25
280.736	92.25
280.968	84.25
281.199	85.25
281.431	88.25
281.662	83.25
281.894	87.25
282.125	94.25
282.356	85.25
282.588	77.25
282.819	92.25
283.051	100.25
283.282	90.25
283.513	81.25
283.745	77.25
283.976	73.25
284.207	98.25
284.439	76.25
284.67	78.25
284.901	75.25
285.132	85.25
285.364	83.25
285.595	85.25
285.826	91.25
286.057	96.25
286.288	83.25
286.52	84.25
286.751	86.25
286.982	93.25
287.213	85.25
287.444	85.25
287.675	91.25
287.906	99.25
288.138	88.25
288.369	86.25
288.6	77.25
288.831	75.25
289.062	78.25
289.293	83.25
289.524	75.25
289.755	95.25
289.986	72.25
290.217	77.25
290.448	92.25
290.679	72.25
290.91	86.25
291.141	95.25
291.371	80.25
291.602	79.25
291.833	91.25
292.064	84.25
292.295	75.25
292.526	83.25
292.757	88.25
292.987	87.25
293.218	73.25
293.449	84.25
293.68	71.25
293.91	81.25
294.141	77.25
294.372	87.25
294.603	70.25
294.833	96.25
295.064	92.25
295.295	76.25
295.525	76.25
295.756	98.25
295.987	75.25
296.217	81.25
296.448	86.25
296.679	88.25
296.909	97.25
297.14	91.25
297.37	78.25
297.601	83.25
297.831	96.25
298.062	82.25
298.292	89.25
298.523	92.25
298.753	74.25
298.984	96.25
299.214	78.25
299.445	97.25
299.675	99.25
299.905	82.25
300.136	75.25
300.366	75.25
300.597	87.25
300.827	69.25
301.057	74.25
301.288	85.25
301.518	100.25
301.748	91.25
301.979	82.25
302.209	81.25
302.439	100.25
302.669	84.25
302.9	89.25
303.13	97.25
303.36	92.25
303.59	83.25
303.82	84.25
304.051	85.25
304.281	76.25
304.511	90.25
304.741	75.25
304.971	93.25
305.201	86.25
305.431	76.25
305.661	77.25
305.891	79.25
306.121	90.25
306.352	74.25
306.582	77.25
306.812	87.25
307.042	89.25
307.272	85.25
307.502	81.25
307.731	91.25
307.961	80.25
308.191	99.25
308.421	89.25
308.651	90.25
308.881	88.25
309.111	82.25
309.341	77.25
309.571	94.25
309.8	91.25
310.03	82.25
310.26	80.25
310.49	89.25
310.72	96.25
310.949	83.25
311.179	63.25
311.409	82.25
311.639	81.25
311.868	81.25
312.098	94.25
312.328	86.25
312.557	91.25
312.787	90.25
313.017	87.25
313.246	96.25
313.476	85.25
313.706	76.25
313.935	85.25
314.165	76.25
314.394	87.25
314.624	79.25
314.853	89.25
315.083	83.25
315.312	89.25
315.542	81.25
315.771	83.25
316.001	84.25
316.23	91.25
316.46	88.25
316.689	78.25
316.919	96.25
317.148	98.25
317.377	85.25
317.607	82.25
317.836	95.25
318.065	76.25
318.295	90.25
318.524	74.25
318.753	81.25
318.983	79.25
319.212	79.25
319.441	82.25
319.67	67.25
319.9	83.25
320.129	98.25
320.358	84.25
320.587	87.25
320.816	72.25
321.046	83.25
321.275	97.25
321.504	87.25
321.733	88.25
321.962	94.25
322.191	77.25
322.42	76.25
322.649	85.25
322.878	100.25
323.108	96.25
323.337	68.25
323.566	81.25
323.795	99.25
324.024	78.25
324.253	79.25
324.482	108.25
324.71	73.25
324.939	94.25
325.168	86.25
325.397	93.25
325.626	82.25
325.855	77.25
326.084	74.25
326.313	87.25
326.542	77.25
326.77	100.25
326.999	77.25
327.228	76.25
327.457	89.25
327.686	88.25
327.914	79.25
328.143	87.25
328.372	97.25
328.6	87.25
328.829	86.25
329.058	91.25
329.287	84.25
329.515	89.25
329.744	81.25
329.972	84.25
330.201	102.25
330.43	86.25
330.658	87.25
330.887	84.25
331.115	88.25
331.344	82.25
331.572	88.25
331.801	79.25
332.03	68.25
332.258	73.25
332.486	82.25
332.715	83.25
332.943	77.25
333.172	90.25
333.4	76.25
333.629	89.25
333.857	92.25
334.085	86.25
334.314	92.25
334.542	82.25
334.771	75.25
334.999	96.25
335.227	96.25
335.455	91.25
335.684	102.25
335.912	71.25
336.14	94.25
336.369	75.25
336.597	79.25
336.825	86.25
337.053	76.25
337.281	95.25
337.51	82.25
337.738	82.25
337.966	91.25
338.194	93.25
338.422	82.25
338.65	93.25
338.878	85.25
339.106	83.25
339.334	83.25
339.562	76.25
339.79	82.25
340.018	77.25
340.246	85.25
340.474	82.25
340.702	102.25
340.93	98.25
341.158	89.25
341.386	89.25
341.614	72.25
341.842	82.25
342.07	83.25
342.298	92.25
342.526	85.25
342.754	81.25
342.981	84.25
343.209	79.25
343.437	88.25
343.665	85.25
343.893	89.25
344.12	83.25
344.348	91.25
344.576	81.25
344.804	83.25
345.031	87.25
345.259	84.25
345.487	85.25
345.714	101.25
345.942	98.25
346.17	82.25
346.397	81.25
346.625	86.25
346.853	84.25
347.08	80.25
347.308	77.25
347.535	97.25
347.763	80.25
347.99	85.25
348.218	84.25
348.445	81.25
348.673	83.25
348.9	92.25
349.128	98.25
349.355	93.25
349.583	90.25
349.81	88.25
350.037	75.25
350.265	88.25
350.492	81.25
350.72	84.25
350.947	93.25
351.174	95.25
351.402	85.25
351.629	79.25
351.856	78.25
352.083	80.25
352.311	85.25
352.538	83.25
352.765	77.25
352.992	84.25
353.22	90.25
353.447	77.25
353.674	77.25
353.901	100.25
354.128	88.25
354.355	77.25
354.583	90.25
354.81	86.25
355.037	91.25
355.264	85.25
355.491	82.25
355.718	79.25
355.945	81.25
356.172	88.25
356.399	63.25
356.626	85.25
356.853	80.25
357.08	84.25
357.307	85.25
357.534	86.25
357.761	80.25
357.988	91.25
358.215	91.25
358.441	78.25
358.668	91.25
358.895	90.25
359.122	94.25
359.349	96.25
359.576	72.25
359.802	88.25
360.029	84.25
360.256	87.25
360.483	89.25
360.709	81.25
360.936	94.25
361.163	84.25
361.39	87.25
361.616	85.25
361.843	87.25
362.07	76.25
362.296	73.25
362.523	87.25
362.749	77.25
362.976	91.25
363.203	96.25
363.429	86.25
363.656	90.25
363.882	92.25
364.109	87.25
364.335	93.25
364.562	84.25
364.788	82.25
365.015	87.25
365.241	75.25
365.468	78.25
365.694	85.25
365.92	81.25
366.147	87.25
366.373	85.25
366.599	76.25
366.826	88.25
367.052	91.25
367.278	96.25
367.505	72.25
367.731	72.25
367.957	89.25
368.184	77.25
368.41	87.25
368.636	96.25
368.862	76.25
369.089	75.25
369.315	101.25
369.541	93.25
369.767	93.25
369.993	91.25
370.219	74.25
370.445	80.25
370.672	77.25
370.898	71.25
371.124	87.25
371.35	74.25
371.576	79.25
371.802	85.25
372.028	102.25
372.254	91.25
372.48	79.25
372.706	83.25
372.932	66.25
373.158	89.25
373.384	63.25
373.61	83.25
373.835	79.25
374.061	71.25
374.287	79.25
374.513	88.25
374.739	85.25
374.965	92.25
375.191	95.25
375.416	91.25
375.642	95.25
375.868	87.25
376.094	101.25
376.319	100.25
376.545	84.25
376.771	83.25
376.997	84.25
377.222	86.25
377.448	87.25
377.674	88.25
377.899	83.25
378.125	87.25
378.35	89.25
378.576	71.25
378.802	90.25
379.027	88.25
379.253	84.25
379.478	87.25
379.704	79.25
379.929	87.25
380.155	85.25
380.38	83.25
380.606	78.25
380.831	91.25
381.057	92.25
381.282	95.25
381.507	93.25
381.733	93.25
381.958	84.25
382.184	92.25
382.409	91.25
382.634	87.25
382.86	86.25
383.085	106.25
383.31	73.25
383.535	95.25
383.761	88.25
383.986	85.25
384.211	86.25
384.436	89.25
384.662	80.25
384.887	100.25
385.112	97.25
385.337	85.25
385.562	83.25
385.787	88.25
386.013	84.25
386.238	90.25
386.463	75.25
386.688	83.25
386.913	90.25
387.138	80.25
387.363	91.25
387.588	96.25
387.813	91.25
388.038	88.25
388.263	96.25
388.488	83.25
388.713	79.25
388.938	65.25
389.163	86.25
389.387	81.25
389.612	94.25
389.837	82.25
390.062	93.25
390.287	86.25
390.512	82.25
390.736	74.25
390.961	95.25
391.186	89.25
391.411	72.25
391.636	91.25
391.86	80.25
392.085	89.25
392.31	92.25
392.534	89.25
392.759	89.25
392.984	86.25
393.208	87.25
393.433	92.25
393.658	88.25
393.882	102.25
394.107	94.25
394.331	99.25
394.556	76.25
394.78	88.25
395.005	99.25
395.229	83.25
395.454	74.25
395.678	83.25
395.903	101.25
396.127	90.25
396.352	85.25
396.576	91.25
396.801	97.25
397.025	90.25
397.249	90.25
397.474	83.25
397.698	79.25
397.922	91.25
398.147	84.25
398.371	83.25
398.595	82.25
398.82	86.25
399.044	102.25
399.268	90.25
399.492	95.25
399.717	98.25
399.941	87.25
400.165	92.25
400.389	90.25
400.613	90.25
400.837	83.25
401.062	91.25
401.286	81.25
401.51	83.25
401.734	84.25
401.958	91.25
402.182	85.25
402.406	81.25
402.63	73.25
402.854	93.25
403.078	95.25
403.302	92.25
403.526	95.25
403.75	95.25
403.974	91.25
404.198	87.25
404.422	91.25
404.645	90.25
404.869	92.25
405.093	101.25
405.317	99.25
405.541	89.25
405.765	102.25
405.988	103.25
406.212	89.25
406.436	82.25
406.66	96.25
406.883	85.25
407.107	85.25
407.331	85.25
407.555	92.25
407.778	91.25
408.002	82.25
408.226	87.25
408.449	85.25
408.673	84.25
408.896	88.25
409.12	87.25
409.344	91.25
409.567	85.25
409.791	86.25
410.014	100.25
410.238	102.25
410.461	96.25
410.685	82.25
410.908	98.25
411.132	91.25
411.355	83.25
411.578	97.25
411.802	95.25
412.025	92.25
412.249	92.25
412.472	96.25
412.695	98.25
412.919	82.25
413.142	87.25
413.365	83.25
413.589	87.25
413.812	101.25
414.035	93.25
414.258	96.25
414.482	93.25
414.705	91.25
414.928	102.25
415.151	92.25
415.374	81.25
415.597	76.25
415.821	91.25
416.044	97.25
416.267	85.25
416.49	100.25
416.713	89.25
416.936	88.25
417.159	96.25
417.382	98.25
417.605	100.25
417.828	94.25
418.051	87.25
418.274	81.25
418.497	94.25
418.72	98.25
418.943	108.25
419.166	83.25
419.389	99.25
419.611	90.25
419.834	96.25
420.057	86.25
420.28	92.25
420.503	102.25
420.726	85.25
420.948	96.25
421.171	85.25
421.394	79.25
421.617	98.25
421.839	96.25
422.062	89.25
422.285	87.25
422.507	94.25
422.73	90.25
422.953	103.25
423.175	97.25
423.398	98.25
423.621	93.25
423.843	89.25
424.066	90.25
424.288	104.25
424.511	97.25
424.733	104.25
424.956	94.25
425.178	100.25
425.401	89.25
425.623	108.25
425.846	92.25
426.068	93.25
426.291	89.25
426.513	73.25
426.735	105.25
426.958	99.25
427.18	97.25
427.402	85.25
427.625	102.25
427.847	87.25
428.069	83.25
428.292	89.25
428.514	89.25
428.736	96.25
428.958	83.25
429.181	87.25
429.403	87.25
429.625	91.25
429.847	100.25
430.069	80.25
430.292	93.25
430.514	83.25
430.736	83.25
430.958	75.25
431.18	84.25
431.402	103.25
431.624	94.25
431.846	98.25
432.068	91.25
432.29	61.25
432.512	90.25
432.734	94.25
432.956	91.25
433.178	82.25
433.4	101.25
433.622	102.25
433.844	82.25
434.066	82.25
434.287	86.25
434.509	89.25
434.731	81.25
434.953	85.25
435.175	94.25
435.397	100.25
435.618	96.25
435.84	83.25
436.062	88.25
436.284	93.25
436.505	95.25
436.727	87.25
436.949	81.25
437.17	100.25
437.392	77.25
437.614	80.25
437.835	85.25
438.057	78.25
438.278	85.25
438.5	92.25
438.721	108.25
438.943	103.25
439.165	86.25
439.386	92.25
439.608	99.25
439.829	92.25
440.05	108.25
440.272	106.25
440.493	92.25
440.715	97.25
440.936	94.25
441.158	97.25
441.379	86.25
441.6	102.25
441.822	99.25
442.043	87.25
442.264	95.25
442.486	101.25
442.707	105.25
442.928	95.25
443.149	98.25
443.371	91.25
443.592	82.25
443.813	96.25
444.034	88.25
444.255	107.25
444.476	106.25
444.698	80.25
444.919	78.25
445.14	211.25
445.361	147.25
445.582	101.25
445.803	105.25
446.024	105.25
446.245	99.25
446.466	104.25
446.687	93.25
446.908	114.25
447.129	97.25
447.35	97.25
447.571	92.25
447.792	91.25
448.013	88.25
448.234	107.25
448.455	88.25
448.675	94.25
448.896	100.25
449.117	94.25
449.338	102.25
449.559	92.25
449.779	102.25
450	96.25
450.221	104.25
450.442	94.25
450.662	79.25
450.883	77.25
451.104	91.25
451.324	100.25
451.545	101.25
451.766	99.25
451.986	91.25
452.207	97.25
452.428	80.25
452.648	95.25
452.869	81.25
453.089	102.25
453.31	73.25
453.53	93.25
453.751	77.25
453.971	88.25
454.192	75.25
454.412	88.25
454.633	92.25
454.853	82.25
455.073	111.25
455.294	102.25
455.514	88.25
455.734	82.25
455.955	99.25
456.175	90.25
456.395	89.25
456.616	88.25
456.836	83.25
457.056	86.25
457.276	85.25
457.497	90.25
457.717	90.25
457.937	88.25
458.157	92.25
458.377	95.25
458.598	90.25
458.818	64.25
459.038	76.25
459.258	80.25
459.478	89.25
459.698	84.25
459.918	72.25
460.138	78.25
460.358	73.25
460.578	93.25
460.798	96.25
461.018	86.25
461.238	99.25
461.458	96.25
461.678	89.25
461.898	93.25
462.118	93.25
462.338	97.25
462.558	90.25
462.777	95.25
462.997	89.25
463.217	91.25
463.437	72.25
463.657	93.25
463.876	84.25
464.096	93.25
464.316	89.25
464.536	92.25
464.755	81.25
464.975	76.25
465.195	92.25
465.414	85.25
465.634	85.25
465.854	91.25
466.073	98.25
466.293	95.25
466.512	91.25
466.732	98.25
466.951	102.25
467.171	82.25
467.391	95.25
467.61	68.25
467.829	91.25
468.049	91.25
468.268	95.25
468.488	99.25
468.707	94.25
468.927	105.25
469.146	81.25
469.365	100.25
469.585	92.25
469.804	107.25
470.023	100.25
470.243	94.25
470.462	91.25
470.681	101.25
470.901	89.25
471.12	118.25
471.339	85.25
471.558	104.25
471.777	81.25
471.997	86.25
472.216	95.25
472.435	87.25
472.654	93.25
472.873	94.25
473.092	103.25
473.311	95.25
473.53	100.25
473.749	88.25
473.968	103.25
474.187	101.25
474.406	90.25
474.625	103.25
474.844	105.25
475.063	99.25
475.282	87.25
475.501	96.25
475.72	95.25
475.939	94.25
476.158	92.25
476.377	96.25
476.596	79.25
476.814	90.25
477.033	97.25
477.252	73.25
477.471	82.25
477.69	89.25
477.908	99.25
478.127	107.25
478.346	85.25
478.564	104.25
478.783	98.25
479.002	81.25
479.22	94.25
479.439	105.25
479.658	97.25
479.876	85.25
480.095	77.25
480.313	75.25
480.532	88.25
480.751	78.25
480.969	81.25
481.188	97.25
481.406	94.25
481.624	87.25
481.843	70.25
482.061	85.25
482.28	83.25
482.498	88.25
482.717	77.25
482.935	103.25
483.153	93.25
483.372	99.25
483.59	95.25
483.808	98.25
484.027	97.25
484.245	97.25
484.463	111.25
484.681	100.25
484.9	99.25
485.118	99.25
485.336	102.25
485.554	82.25
485.772	70.25
485.99	86.25
486.209	98.25
486.427	96.25
486.645	92.25
486.863	91.25
487.081	90.25
487.299	101.25
487.517	99.25
487.735	100.25
487.953	92.25
488.171	102.25
488.389	101.25
488.607	113.25
488.825	85.25
489.043	92.25
489.261	97.25
489.479	85.25
489.696	104.25
489.914	84.25
490.132	98.25
490.35	94.25
490.568	97.25
490.786	103.25
491.003	111.25
491.221	104.25
491.439	115.25
491.657	119.25
491.874	115.25
492.092	133.25
492.31	108.25
492.527	117.25
492.745	105.25
492.963	101.25
493.18	99.25
493.398	110.25
493.615	107.25
493.833	95.25
494.05	97.25
494.268	115.25
494.485	103.25
494.703	104.25
494.92	104.25
495.138	95.25
495.355	106.25
495.573	92.25
495.79	99.25
496.008	106.25
496.225	106.25
496.442	106.25
496.66	119.25
496.877	109.25
497.094	97.25
497.312	89.25
497.529	103.25
497.746	86.25
497.963	105.25
498.181	97.25
498.398	86.25
498.615	90.25
498.832	90.25
499.049	92.25
499.267	90.25
499.484	83.25
499.701	100.25
499.918	104.25
500.135	90.25
500.352	97.25
500.569	89.25
500.786	89.25
501.003	93.25
501.22	91.25
501.437	88.25
501.654	92.25
501.871	88.25
502.088	91.25
502.305	96.25
502.522	91.25
502.739	100.25
502.956	75.25
503.172	84.25
503.389	89.25
503.606	88.25
503.823	91.25
504.04	87.25
504.256	95.25
504.473	99.25
504.69	90.25
504.907	101.25
505.123	83.25
505.34	81.25
505.557	103.25
505.773	104.25
505.99	77.25
506.207	95.25
506.423	85.25
506.64	88.25
506.856	79.25
507.073	96.25
507.289	83.25
507.506	82.25
507.722	96.25
507.939	99.25
508.155	89.25
508.372	89.25
508.588	76.25
508.805	85.25
509.021	97.25
509.238	84.25
509.454	85.25
509.67	75.25
509.887	89.25
510.103	83.25
510.319	77.25
510.536	81.25
510.752	76.25
510.968	77.25
511.184	91.25
511.401	95.25
511.617	98.25
511.833	97.25
512.049	84.25
512.265	91.25
512.481	92.25
512.698	70.25
512.914	82.25
513.13	69.25
513.346	81.25
513.562	83.25
513.778	87.25
513.994	83.25
514.21	82.25
514.426	86.25
514.642	94.25
514.858	102.25
515.074	81.25
515.29	88.25
515.506	77.25
515.721	82.25
515.937	97.25
516.153	103.25
516.369	79.25
516.585	80.25
516.801	88.25
517.016	87.25
517.232	87.25
517.448	88.25
517.664	77.25
