Data from Location5.07152019.Energy5.Lamp.07192019.3%Agarose_HRD10591_16-04-06-628.txt Node
Date: Fri Jul 19 16:04:06 EDT 2019
User: cochatt
Spectrometer: HR+D1059
Trigger mode: 1
Integration Time (sec): 1.000000E-1
Scans to average: 1
Electric dark correction enabled: true
Nonlinearity correction enabled: false
Boxcar width: 0
XAxis mode: Wavelengths
Number of Pixels in Spectrum: 2048
>>>>>Begin Spectral Data<<<<<
223.165	-19.19
223.4	-19.19
223.635	-19.19
223.869	-13.19
224.104	-8.19
224.338	-7.19
224.573	-18.19
224.808	-4.19
225.042	-4.19
225.277	-1.19
225.511	-18.19
225.746	2.81
225.98	-1.19
226.215	9.81
226.449	9.81
226.683	9.81
226.918	27.81
227.152	34.81
227.387	33.81
227.621	11.81
227.856	26.81
228.09	53.81
228.324	42.81
228.559	48.81
228.793	53.81
229.027	51.81
229.262	59.81
229.496	66.81
229.73	65.81
229.964	56.81
230.199	84.81
230.433	66.81
230.667	80.81
230.901	83.81
231.136	61.81
231.37	77.81
231.604	81.81
231.838	76.81
232.072	84.81
232.306	75.81
232.541	82.81
232.775	83.81
233.009	67.81
233.243	81.81
233.477	82.81
233.711	83.81
233.945	75.81
234.179	71.81
234.413	78.81
234.647	70.81
234.881	78.81
235.115	81.81
235.349	84.81
235.583	83.81
235.817	69.81
236.051	81.81
236.285	87.81
236.519	82.81
236.753	83.81
236.987	74.81
237.221	76.81
237.455	78.81
237.689	78.81
237.922	79.81
238.156	67.81
238.39	68.81
238.624	83.81
238.858	66.81
239.091	66.81
239.325	93.81
239.559	85.81
239.793	69.81
240.027	81.81
240.26	71.81
240.494	71.81
240.728	73.81
240.961	82.81
241.195	78.81
241.429	84.81
241.662	81.81
241.896	77.81
242.13	79.81
242.363	77.81
242.597	87.81
242.83	74.81
243.064	66.81
243.298	72.81
243.531	82.81
243.765	72.81
243.998	86.81
244.232	76.81
244.465	82.81
244.699	77.81
244.932	66.81
245.166	55.81
245.399	77.81
245.633	85.81
245.866	67.81
246.099	83.81
246.333	71.81
246.566	82.81
246.8	73.81
247.033	84.81
247.266	80.81
247.5	89.81
247.733	68.81
247.966	59.81
248.2	85.81
248.433	72.81
248.666	72.81
248.899	63.81
249.133	78.81
249.366	75.81
249.599	79.81
249.832	79.81
250.066	83.81
250.299	91.81
250.532	77.81
250.765	82.81
250.998	77.81
251.231	75.81
251.465	76.81
251.698	73.81
251.931	63.81
252.164	72.81
252.397	77.81
252.63	72.81
252.863	68.81
253.096	86.81
253.329	91.81
253.562	78.81
253.795	71.81
254.028	92.81
254.261	86.81
254.494	70.81
254.727	77.81
254.96	74.81
255.193	60.81
255.426	76.81
255.659	81.81
255.892	81.81
256.124	58.81
256.357	86.81
256.59	74.81
256.823	82.81
257.056	77.81
257.289	71.81
257.521	77.81
257.754	93.81
257.987	73.81
258.22	78.81
258.452	71.81
258.685	76.81
258.918	78.81
259.151	81.81
259.383	85.81
259.616	74.81
259.849	76.81
260.081	64.81
260.314	76.81
260.547	89.81
260.779	77.81
261.012	71.81
261.244	66.81
261.477	71.81
261.71	73.81
261.942	73.81
262.175	70.81
262.407	84.81
262.64	80.81
262.872	88.81
263.105	94.81
263.337	85.81
263.57	77.81
263.802	73.81
264.035	71.81
264.267	71.81
264.499	88.81
264.732	72.81
264.964	82.81
265.197	85.81
265.429	83.81
265.661	85.81
265.894	75.81
266.126	79.81
266.358	82.81
266.591	86.81
266.823	74.81
267.055	80.81
267.287	69.81
267.52	67.81
267.752	96.81
267.984	83.81
268.216	81.81
268.448	82.81
268.681	80.81
268.913	97.81
269.145	86.81
269.377	69.81
269.609	80.81
269.841	82.81
270.073	84.81
270.306	82.81
270.538	80.81
270.77	79.81
271.002	87.81
271.234	84.81
271.466	85.81
271.698	71.81
271.93	82.81
272.162	70.81
272.394	74.81
272.626	93.81
272.858	84.81
273.09	82.81
273.322	87.81
273.553	74.81
273.785	80.81
274.017	80.81
274.249	85.81
274.481	69.81
274.713	76.81
274.945	78.81
275.176	78.81
275.408	74.81
275.64	92.81
275.872	84.81
276.104	94.81
276.335	81.81
276.567	74.81
276.799	75.81
277.031	81.81
277.262	79.81
277.494	84.81
277.726	84.81
277.957	80.81
278.189	77.81
278.421	90.81
278.652	91.81
278.884	84.81
279.115	84.81
279.347	76.81
279.579	86.81
279.81	80.81
280.042	87.81
280.273	77.81
280.505	92.81
280.736	77.81
280.968	94.81
281.199	78.81
281.431	80.81
281.662	68.81
281.894	83.81
282.125	79.81
282.356	81.81
282.588	97.81
282.819	87.81
283.051	77.81
283.282	79.81
283.513	98.81
283.745	89.81
283.976	75.81
284.207	80.81
284.439	70.81
284.67	91.81
284.901	75.81
285.132	97.81
285.364	91.81
285.595	100.81
285.826	75.81
286.057	77.81
286.288	67.81
286.52	72.81
286.751	86.81
286.982	83.81
287.213	78.81
287.444	93.81
287.675	87.81
287.906	87.81
288.138	97.81
288.369	78.81
288.6	84.81
288.831	95.81
289.062	76.81
289.293	77.81
289.524	88.81
289.755	69.81
289.986	89.81
290.217	94.81
290.448	72.81
290.679	61.81
290.91	94.81
291.141	78.81
291.371	101.81
291.602	91.81
291.833	79.81
292.064	92.81
292.295	80.81
292.526	83.81
292.757	106.81
292.987	92.81
293.218	69.81
293.449	76.81
293.68	82.81
293.91	76.81
294.141	77.81
294.372	86.81
294.603	89.81
294.833	78.81
295.064	72.81
295.295	85.81
295.525	74.81
295.756	79.81
295.987	80.81
296.217	88.81
296.448	88.81
296.679	78.81
296.909	77.81
297.14	92.81
297.37	90.81
297.601	94.81
297.831	70.81
298.062	70.81
298.292	82.81
298.523	96.81
298.753	73.81
298.984	74.81
299.214	93.81
299.445	94.81
299.675	86.81
299.905	70.81
300.136	80.81
300.366	80.81
300.597	77.81
300.827	90.81
301.057	81.81
301.288	75.81
301.518	94.81
301.748	99.81
301.979	83.81
302.209	79.81
302.439	77.81
302.669	93.81
302.9	87.81
303.13	99.81
303.36	95.81
303.59	96.81
303.82	80.81
304.051	92.81
304.281	85.81
304.511	90.81
304.741	99.81
304.971	80.81
305.201	92.81
305.431	93.81
305.661	79.81
305.891	100.81
306.121	92.81
306.352	69.81
306.582	91.81
306.812	96.81
307.042	102.81
307.272	97.81
307.502	84.81
307.731	82.81
307.961	95.81
308.191	97.81
308.421	79.81
308.651	85.81
308.881	85.81
309.111	69.81
309.341	79.81
309.571	81.81
309.8	88.81
310.03	90.81
310.26	83.81
310.49	88.81
310.72	90.81
310.949	92.81
311.179	86.81
311.409	91.81
311.639	81.81
311.868	75.81
312.098	82.81
312.328	78.81
312.557	87.81
312.787	93.81
313.017	83.81
313.246	91.81
313.476	92.81
313.706	84.81
313.935	84.81
314.165	90.81
314.394	77.81
314.624	77.81
314.853	72.81
315.083	104.81
315.312	107.81
315.542	86.81
315.771	86.81
316.001	92.81
316.23	80.81
316.46	95.81
316.689	82.81
316.919	88.81
317.148	90.81
317.377	94.81
317.607	90.81
317.836	94.81
318.065	107.81
318.295	93.81
318.524	92.81
318.753	78.81
318.983	73.81
319.212	69.81
319.441	85.81
319.67	86.81
319.9	93.81
320.129	78.81
320.358	97.81
320.587	86.81
320.816	96.81
321.046	79.81
321.275	91.81
321.504	91.81
321.733	78.81
321.962	81.81
322.191	88.81
322.42	93.81
322.649	100.81
322.878	87.81
323.108	95.81
323.337	75.81
323.566	76.81
323.795	93.81
324.024	84.81
324.253	81.81
324.482	83.81
324.71	90.81
324.939	83.81
325.168	87.81
325.397	72.81
325.626	83.81
325.855	83.81
326.084	89.81
326.313	99.81
326.542	91.81
326.77	83.81
326.999	96.81
327.228	95.81
327.457	80.81
327.686	88.81
327.914	91.81
328.143	89.81
328.372	90.81
328.6	73.81
328.829	83.81
329.058	94.81
329.287	93.81
329.515	85.81
329.744	89.81
329.972	86.81
330.201	88.81
330.43	87.81
330.658	87.81
330.887	78.81
331.115	82.81
331.344	94.81
331.572	83.81
331.801	79.81
332.03	90.81
332.258	87.81
332.486	100.81
332.715	95.81
332.943	88.81
333.172	102.81
333.4	91.81
333.629	89.81
333.857	99.81
334.085	81.81
334.314	99.81
334.542	89.81
334.771	105.81
334.999	77.81
335.227	87.81
335.455	93.81
335.684	75.81
335.912	87.81
336.14	75.81
336.369	84.81
336.597	87.81
336.825	91.81
337.053	86.81
337.281	93.81
337.51	83.81
337.738	74.81
337.966	92.81
338.194	74.81
338.422	81.81
338.65	85.81
338.878	105.81
339.106	98.81
339.334	96.81
339.562	87.81
339.79	76.81
340.018	90.81
340.246	87.81
340.474	74.81
340.702	91.81
340.93	89.81
341.158	81.81
341.386	98.81
341.614	89.81
341.842	85.81
342.07	84.81
342.298	95.81
342.526	77.81
342.754	83.81
342.981	96.81
343.209	90.81
343.437	87.81
343.665	97.81
343.893	94.81
344.12	98.81
344.348	88.81
344.576	86.81
344.804	91.81
345.031	82.81
345.259	94.81
345.487	102.81
345.714	68.81
345.942	91.81
346.17	90.81
346.397	94.81
346.625	92.81
346.853	99.81
347.08	92.81
347.308	93.81
347.535	95.81
347.763	91.81
347.99	101.81
348.218	80.81
348.445	99.81
348.673	91.81
348.9	90.81
349.128	86.81
349.355	91.81
349.583	89.81
349.81	76.81
350.037	94.81
350.265	88.81
350.492	82.81
350.72	94.81
350.947	86.81
351.174	89.81
351.402	81.81
351.629	91.81
351.856	82.81
352.083	90.81
352.311	76.81
352.538	98.81
352.765	80.81
352.992	89.81
353.22	90.81
353.447	91.81
353.674	90.81
353.901	95.81
354.128	93.81
354.355	78.81
354.583	81.81
354.81	86.81
355.037	85.81
355.264	83.81
355.491	79.81
355.718	86.81
355.945	101.81
356.172	89.81
356.399	91.81
356.626	88.81
356.853	86.81
357.08	76.81
357.307	89.81
357.534	82.81
357.761	76.81
357.988	86.81
358.215	83.81
358.441	89.81
358.668	94.81
358.895	80.81
359.122	73.81
359.349	84.81
359.576	84.81
359.802	77.81
360.029	90.81
360.256	86.81
360.483	93.81
360.709	81.81
360.936	98.81
361.163	84.81
361.39	91.81
361.616	93.81
361.843	85.81
362.07	76.81
362.296	83.81
362.523	95.81
362.749	68.81
362.976	81.81
363.203	84.81
363.429	91.81
363.656	90.81
363.882	97.81
364.109	75.81
364.335	95.81
364.562	83.81
364.788	90.81
365.015	91.81
365.241	87.81
365.468	97.81
365.694	80.81
365.92	84.81
366.147	94.81
366.373	99.81
366.599	92.81
366.826	81.81
367.052	84.81
367.278	85.81
367.505	78.81
367.731	80.81
367.957	80.81
368.184	92.81
368.41	85.81
368.636	105.81
368.862	87.81
369.089	90.81
369.315	77.81
369.541	82.81
369.767	94.81
369.993	95.81
370.219	75.81
370.445	76.81
370.672	79.81
370.898	71.81
371.124	84.81
371.35	88.81
371.576	94.81
371.802	86.81
372.028	89.81
372.254	83.81
372.48	85.81
372.706	105.81
372.932	86.81
373.158	85.81
373.384	93.81
373.61	90.81
373.835	81.81
374.061	88.81
374.287	92.81
374.513	78.81
374.739	87.81
374.965	100.81
375.191	88.81
375.416	92.81
375.642	97.81
375.868	105.81
376.094	105.81
376.319	80.81
376.545	88.81
376.771	96.81
376.997	75.81
377.222	88.81
377.448	70.81
377.674	80.81
377.899	95.81
378.125	85.81
378.35	92.81
378.576	80.81
378.802	92.81
379.027	82.81
379.253	81.81
379.478	86.81
379.704	100.81
379.929	94.81
380.155	83.81
380.38	70.81
380.606	87.81
380.831	91.81
381.057	87.81
381.282	102.81
381.507	85.81
381.733	75.81
381.958	84.81
382.184	75.81
382.409	87.81
382.634	86.81
382.86	83.81
383.085	93.81
383.31	90.81
383.535	86.81
383.761	82.81
383.986	95.81
384.211	108.81
384.436	102.81
384.662	99.81
384.887	89.81
385.112	94.81
385.337	83.81
385.562	93.81
385.787	94.81
386.013	96.81
386.238	83.81
386.463	84.81
386.688	86.81
386.913	89.81
387.138	104.81
387.363	91.81
387.588	98.81
387.813	82.81
388.038	92.81
388.263	94.81
388.488	83.81
388.713	87.81
388.938	82.81
389.163	83.81
389.387	77.81
389.612	82.81
389.837	80.81
390.062	93.81
390.287	83.81
390.512	75.81
390.736	85.81
390.961	86.81
391.186	86.81
391.411	94.81
391.636	83.81
391.86	83.81
392.085	68.81
392.31	89.81
392.534	89.81
392.759	86.81
392.984	92.81
393.208	94.81
393.433	93.81
393.658	97.81
393.882	92.81
394.107	80.81
394.331	88.81
394.556	90.81
394.78	88.81
395.005	94.81
395.229	94.81
395.454	82.81
395.678	94.81
395.903	100.81
396.127	96.81
396.352	97.81
396.576	76.81
396.801	105.81
397.025	95.81
397.249	78.81
397.474	111.81
397.698	76.81
397.922	96.81
398.147	86.81
398.371	109.81
398.595	110.81
398.82	85.81
399.044	96.81
399.268	83.81
399.492	100.81
399.717	106.81
399.941	112.81
400.165	95.81
400.389	92.81
400.613	86.81
400.837	95.81
401.062	87.81
401.286	102.81
401.51	94.81
401.734	85.81
401.958	98.81
402.182	85.81
402.406	92.81
402.63	89.81
402.854	96.81
403.078	98.81
403.302	94.81
403.526	97.81
403.75	101.81
403.974	86.81
404.198	89.81
404.422	96.81
404.645	106.81
404.869	90.81
405.093	98.81
405.317	82.81
405.541	82.81
405.765	84.81
405.988	88.81
406.212	102.81
406.436	98.81
406.66	92.81
406.883	97.81
407.107	106.81
407.331	95.81
407.555	87.81
407.778	106.81
408.002	85.81
408.226	95.81
408.449	102.81
408.673	92.81
408.896	76.81
409.12	91.81
409.344	94.81
409.567	89.81
409.791	109.81
410.014	93.81
410.238	109.81
410.461	83.81
410.685	85.81
410.908	98.81
411.132	89.81
411.355	102.81
411.578	91.81
411.802	90.81
412.025	99.81
412.249	95.81
412.472	86.81
412.695	80.81
412.919	86.81
413.142	97.81
413.365	90.81
413.589	90.81
413.812	76.81
414.035	105.81
414.258	91.81
414.482	78.81
414.705	91.81
414.928	95.81
415.151	88.81
415.374	81.81
415.597	98.81
415.821	88.81
416.044	96.81
416.267	86.81
416.49	87.81
416.713	89.81
416.936	76.81
417.159	83.81
417.382	93.81
417.605	99.81
417.828	99.81
418.051	98.81
418.274	93.81
418.497	95.81
418.72	99.81
418.943	94.81
419.166	93.81
419.389	90.81
419.611	102.81
419.834	99.81
420.057	95.81
420.28	87.81
420.503	101.81
420.726	92.81
420.948	87.81
421.171	94.81
421.394	96.81
421.617	100.81
421.839	94.81
422.062	85.81
422.285	90.81
422.507	85.81
422.73	100.81
422.953	105.81
423.175	90.81
423.398	94.81
423.621	95.81
423.843	88.81
424.066	87.81
424.288	103.81
424.511	89.81
424.733	96.81
424.956	97.81
425.178	93.81
425.401	93.81
425.623	89.81
425.846	86.81
426.068	101.81
426.291	84.81
426.513	97.81
426.735	91.81
426.958	82.81
427.18	83.81
427.402	94.81
427.625	101.81
427.847	91.81
428.069	99.81
428.292	92.81
428.514	80.81
428.736	96.81
428.958	93.81
429.181	101.81
429.403	76.81
429.625	85.81
429.847	89.81
430.069	97.81
430.292	95.81
430.514	86.81
430.736	100.81
430.958	100.81
431.18	104.81
431.402	89.81
431.624	85.81
431.846	77.81
432.068	80.81
432.29	73.81
432.512	86.81
432.734	81.81
432.956	94.81
433.178	93.81
433.4	92.81
433.622	82.81
433.844	85.81
434.066	96.81
434.287	76.81
434.509	102.81
434.731	91.81
434.953	99.81
435.175	108.81
435.397	99.81
435.618	107.81
435.84	89.81
436.062	81.81
436.284	82.81
436.505	77.81
436.727	83.81
436.949	96.81
437.17	62.81
437.392	79.81
437.614	93.81
437.835	85.81
438.057	85.81
438.278	99.81
438.5	89.81
438.721	90.81
438.943	97.81
439.165	104.81
439.386	102.81
439.608	84.81
439.829	86.81
440.05	85.81
440.272	72.81
440.493	101.81
440.715	98.81
440.936	95.81
441.158	81.81
441.379	89.81
441.6	84.81
441.822	99.81
442.043	93.81
442.264	73.81
442.486	93.81
442.707	96.81
442.928	86.81
443.149	81.81
443.371	95.81
443.592	83.81
443.813	94.81
444.034	101.81
444.255	101.81
444.476	93.81
444.698	105.81
444.919	95.81
445.14	201.81
445.361	145.81
445.582	90.81
445.803	97.81
446.024	94.81
446.245	94.81
446.466	90.81
446.687	88.81
446.908	78.81
447.129	86.81
447.35	90.81
447.571	85.81
447.792	93.81
448.013	85.81
448.234	97.81
448.455	97.81
448.675	86.81
448.896	78.81
449.117	83.81
449.338	93.81
449.559	85.81
449.779	79.81
450	92.81
450.221	97.81
450.442	86.81
450.662	86.81
450.883	87.81
451.104	109.81
451.324	88.81
451.545	87.81
451.766	87.81
451.986	89.81
452.207	91.81
452.428	87.81
452.648	88.81
452.869	77.81
453.089	111.81
453.31	84.81
453.53	81.81
453.751	92.81
453.971	87.81
454.192	82.81
454.412	84.81
454.633	81.81
454.853	113.81
455.073	74.81
455.294	102.81
455.514	97.81
455.734	99.81
455.955	105.81
456.175	85.81
456.395	79.81
456.616	84.81
456.836	79.81
457.056	78.81
457.276	83.81
457.497	71.81
457.717	87.81
457.937	93.81
458.157	88.81
458.377	89.81
458.598	97.81
458.818	86.81
459.038	71.81
459.258	105.81
459.478	102.81
459.698	97.81
459.918	90.81
460.138	81.81
460.358	82.81
460.578	97.81
460.798	90.81
461.018	91.81
461.238	93.81
461.458	90.81
461.678	84.81
461.898	113.81
462.118	103.81
462.338	89.81
462.558	98.81
462.777	87.81
462.997	94.81
463.217	88.81
463.437	89.81
463.657	99.81
463.876	103.81
464.096	96.81
464.316	94.81
464.536	90.81
464.755	89.81
464.975	93.81
465.195	107.81
465.414	85.81
465.634	95.81
465.854	78.81
466.073	94.81
466.293	91.81
466.512	86.81
466.732	83.81
466.951	79.81
467.171	86.81
467.391	90.81
467.61	89.81
467.829	92.81
468.049	100.81
468.268	78.81
468.488	76.81
468.707	105.81
468.927	99.81
469.146	99.81
469.365	97.81
469.585	86.81
469.804	88.81
470.023	88.81
470.243	93.81
470.462	96.81
470.681	84.81
470.901	90.81
471.12	94.81
471.339	102.81
471.558	85.81
471.777	91.81
471.997	90.81
472.216	95.81
472.435	87.81
472.654	96.81
472.873	94.81
473.092	85.81
473.311	96.81
473.53	91.81
473.749	96.81
473.968	80.81
474.187	93.81
474.406	104.81
474.625	86.81
474.844	101.81
475.063	93.81
475.282	97.81
475.501	98.81
475.72	83.81
475.939	98.81
476.158	82.81
476.377	82.81
476.596	90.81
476.814	77.81
477.033	86.81
477.252	84.81
477.471	95.81
477.69	102.81
477.908	98.81
478.127	95.81
478.346	108.81
478.564	97.81
478.783	93.81
479.002	93.81
479.22	102.81
479.439	100.81
479.658	86.81
479.876	99.81
480.095	92.81
480.313	94.81
480.532	105.81
480.751	105.81
480.969	94.81
481.188	97.81
481.406	85.81
481.624	80.81
481.843	97.81
482.061	96.81
482.28	92.81
482.498	89.81
482.717	110.81
482.935	91.81
483.153	107.81
483.372	107.81
483.59	111.81
483.808	89.81
484.027	90.81
484.245	99.81
484.463	102.81
484.681	103.81
484.9	105.81
485.118	100.81
485.336	92.81
485.554	91.81
485.772	114.81
485.99	96.81
486.209	114.81
486.427	93.81
486.645	83.81
486.863	109.81
487.081	91.81
487.299	103.81
487.517	100.81
487.735	108.81
487.953	100.81
488.171	96.81
488.389	116.81
488.607	101.81
488.825	98.81
489.043	105.81
489.261	98.81
489.479	100.81
489.696	101.81
489.914	91.81
490.132	92.81
490.35	104.81
490.568	95.81
490.786	103.81
491.003	98.81
491.221	102.81
491.439	102.81
491.657	102.81
491.874	102.81
492.092	114.81
492.31	122.81
492.527	124.81
492.745	100.81
492.963	115.81
493.18	103.81
493.398	113.81
493.615	111.81
493.833	115.81
494.05	120.81
494.268	118.81
494.485	110.81
494.703	113.81
494.92	102.81
495.138	114.81
495.355	107.81
495.573	117.81
495.79	96.81
496.008	102.81
496.225	115.81
496.442	102.81
496.66	117.81
496.877	95.81
497.094	109.81
497.312	110.81
497.529	98.81
497.746	103.81
497.963	106.81
498.181	124.81
498.398	103.81
498.615	115.81
498.832	98.81
499.049	127.81
499.267	133.81
499.484	120.81
499.701	117.81
499.918	139.81
500.135	139.81
500.352	149.81
500.569	160.81
500.786	162.81
501.003	159.81
501.22	138.81
501.437	131.81
501.654	117.81
501.871	127.81
502.088	104.81
502.305	109.81
502.522	110.81
502.739	115.81
502.956	118.81
503.172	118.81
503.389	100.81
503.606	96.81
503.823	105.81
504.04	102.81
504.256	98.81
504.473	103.81
504.69	109.81
504.907	118.81
505.123	109.81
505.34	88.81
505.557	100.81
505.773	110.81
505.99	97.81
506.207	109.81
506.423	115.81
506.64	100.81
506.856	100.81
507.073	100.81
507.289	98.81
507.506	97.81
507.722	105.81
507.939	95.81
508.155	97.81
508.372	109.81
508.588	88.81
508.805	96.81
509.021	91.81
509.238	96.81
509.454	92.81
509.67	84.81
509.887	113.81
510.103	86.81
510.319	87.81
510.536	97.81
510.752	96.81
510.968	92.81
511.184	96.81
511.401	97.81
511.617	83.81
511.833	109.81
512.049	94.81
512.265	90.81
512.481	106.81
512.698	86.81
512.914	92.81
513.13	91.81
513.346	89.81
513.562	101.81
513.778	97.81
513.994	97.81
514.21	84.81
514.426	96.81
514.642	90.81
514.858	101.81
515.074	105.81
515.29	103.81
515.506	94.81
515.721	92.81
515.937	92.81
516.153	87.81
516.369	100.81
516.585	99.81
516.801	100.81
