Data from Location5.07152019.Energy5.Lamp.07192019.3%Agarose_HRD10591_16-03-09-629.txt Node
Date: Fri Jul 19 16:03:09 EDT 2019
User: cochatt
Spectrometer: HR+D1059
Trigger mode: 1
Integration Time (sec): 1.000000E-1
Scans to average: 1
Electric dark correction enabled: true
Nonlinearity correction enabled: false
Boxcar width: 0
XAxis mode: Wavelengths
Number of Pixels in Spectrum: 2048
>>>>>Begin Spectral Data<<<<<
223.165	-8.44
223.4	-8.44
223.635	-8.44
223.869	-12.44
224.104	-13.44
224.338	-12.44
224.573	-20.44
224.808	-10.44
225.042	-8.44
225.277	-19.44
225.511	-12.44
225.746	-3.44
225.98	11.56
226.215	0.56
226.449	14.56
226.683	17.56
226.918	44.56
227.152	32.56
227.387	39.56
227.621	38.56
227.856	28.56
228.09	38.56
228.324	45.56
228.559	46.56
228.793	53.56
229.027	62.56
229.262	62.56
229.496	72.56
229.73	72.56
229.964	58.56
230.199	63.56
230.433	68.56
230.667	86.56
230.901	83.56
231.136	76.56
231.37	78.56
231.604	87.56
231.838	75.56
232.072	85.56
232.306	83.56
232.541	75.56
232.775	83.56
233.009	83.56
233.243	81.56
233.477	88.56
233.711	81.56
233.945	93.56
234.179	89.56
234.413	95.56
234.647	65.56
234.881	84.56
235.115	85.56
235.349	79.56
235.583	83.56
235.817	83.56
236.051	83.56
236.285	83.56
236.519	86.56
236.753	72.56
236.987	73.56
237.221	83.56
237.455	71.56
237.689	80.56
237.922	71.56
238.156	86.56
238.39	63.56
238.624	73.56
238.858	72.56
239.091	74.56
239.325	94.56
239.559	73.56
239.793	75.56
240.027	80.56
240.26	75.56
240.494	68.56
240.728	72.56
240.961	83.56
241.195	70.56
241.429	75.56
241.662	80.56
241.896	74.56
242.13	82.56
242.363	74.56
242.597	71.56
242.83	89.56
243.064	84.56
243.298	70.56
243.531	60.56
243.765	74.56
243.998	67.56
244.232	70.56
244.465	64.56
244.699	70.56
244.932	74.56
245.166	79.56
245.399	77.56
245.633	95.56
245.866	86.56
246.099	74.56
246.333	79.56
246.566	87.56
246.8	70.56
247.033	73.56
247.266	71.56
247.5	79.56
247.733	88.56
247.966	73.56
248.2	77.56
248.433	75.56
248.666	64.56
248.899	82.56
249.133	66.56
249.366	84.56
249.599	74.56
249.832	89.56
250.066	90.56
250.299	79.56
250.532	96.56
250.765	70.56
250.998	78.56
251.231	84.56
251.465	76.56
251.698	72.56
251.931	98.56
252.164	90.56
252.397	64.56
252.63	75.56
252.863	74.56
253.096	92.56
253.329	102.56
253.562	79.56
253.795	82.56
254.028	84.56
254.261	83.56
254.494	87.56
254.727	75.56
254.96	76.56
255.193	87.56
255.426	79.56
255.659	79.56
255.892	91.56
256.124	81.56
256.357	86.56
256.59	94.56
256.823	93.56
257.056	79.56
257.289	78.56
257.521	82.56
257.754	84.56
257.987	99.56
258.22	76.56
258.452	80.56
258.685	89.56
258.918	86.56
259.151	87.56
259.383	86.56
259.616	75.56
259.849	100.56
260.081	82.56
260.314	83.56
260.547	70.56
260.779	70.56
261.012	97.56
261.244	88.56
261.477	94.56
261.71	82.56
261.942	86.56
262.175	83.56
262.407	84.56
262.64	90.56
262.872	83.56
263.105	87.56
263.337	95.56
263.57	89.56
263.802	86.56
264.035	87.56
264.267	75.56
264.499	83.56
264.732	74.56
264.964	76.56
265.197	87.56
265.429	90.56
265.661	90.56
265.894	82.56
266.126	76.56
266.358	92.56
266.591	68.56
266.823	79.56
267.055	84.56
267.287	90.56
267.52	77.56
267.752	74.56
267.984	77.56
268.216	84.56
268.448	82.56
268.681	79.56
268.913	93.56
269.145	98.56
269.377	85.56
269.609	85.56
269.841	89.56
270.073	94.56
270.306	93.56
270.538	73.56
270.77	86.56
271.002	81.56
271.234	85.56
271.466	86.56
271.698	95.56
271.93	94.56
272.162	82.56
272.394	89.56
272.626	89.56
272.858	83.56
273.09	84.56
273.322	81.56
273.553	85.56
273.785	87.56
274.017	82.56
274.249	98.56
274.481	98.56
274.713	84.56
274.945	83.56
275.176	75.56
275.408	75.56
275.64	74.56
275.872	91.56
276.104	76.56
276.335	75.56
276.567	89.56
276.799	76.56
277.031	93.56
277.262	106.56
277.494	89.56
277.726	92.56
277.957	81.56
278.189	91.56
278.421	77.56
278.652	84.56
278.884	82.56
279.115	92.56
279.347	89.56
279.579	72.56
279.81	87.56
280.042	79.56
280.273	86.56
280.505	91.56
280.736	85.56
280.968	87.56
281.199	84.56
281.431	87.56
281.662	87.56
281.894	82.56
282.125	92.56
282.356	97.56
282.588	80.56
282.819	93.56
283.051	93.56
283.282	76.56
283.513	92.56
283.745	102.56
283.976	98.56
284.207	103.56
284.439	96.56
284.67	92.56
284.901	101.56
285.132	90.56
285.364	77.56
285.595	83.56
285.826	105.56
286.057	88.56
286.288	81.56
286.52	87.56
286.751	94.56
286.982	90.56
287.213	81.56
287.444	75.56
287.675	82.56
287.906	82.56
288.138	85.56
288.369	93.56
288.6	86.56
288.831	98.56
289.062	91.56
289.293	88.56
289.524	84.56
289.755	81.56
289.986	89.56
290.217	99.56
290.448	96.56
290.679	93.56
290.91	91.56
291.141	91.56
291.371	88.56
291.602	79.56
291.833	95.56
292.064	91.56
292.295	88.56
292.526	84.56
292.757	86.56
292.987	91.56
293.218	99.56
293.449	86.56
293.68	87.56
293.91	80.56
294.141	87.56
294.372	88.56
294.603	82.56
294.833	75.56
295.064	90.56
295.295	95.56
295.525	98.56
295.756	96.56
295.987	84.56
296.217	90.56
296.448	87.56
296.679	79.56
296.909	84.56
297.14	92.56
297.37	90.56
297.601	86.56
297.831	99.56
298.062	92.56
298.292	81.56
298.523	95.56
298.753	84.56
298.984	94.56
299.214	85.56
299.445	100.56
299.675	90.56
299.905	85.56
300.136	84.56
300.366	104.56
300.597	94.56
300.827	79.56
301.057	88.56
301.288	83.56
301.518	90.56
301.748	100.56
301.979	90.56
302.209	86.56
302.439	94.56
302.669	87.56
302.9	88.56
303.13	89.56
303.36	92.56
303.59	94.56
303.82	99.56
304.051	93.56
304.281	100.56
304.511	98.56
304.741	88.56
304.971	93.56
305.201	91.56
305.431	94.56
305.661	88.56
305.891	93.56
306.121	76.56
306.352	83.56
306.582	96.56
306.812	91.56
307.042	85.56
307.272	87.56
307.502	85.56
307.731	88.56
307.961	95.56
308.191	102.56
308.421	86.56
308.651	85.56
308.881	89.56
309.111	105.56
309.341	78.56
309.571	80.56
309.8	99.56
310.03	93.56
310.26	96.56
310.49	77.56
310.72	84.56
310.949	79.56
311.179	87.56
311.409	90.56
311.639	95.56
311.868	91.56
312.098	89.56
312.328	88.56
312.557	89.56
312.787	94.56
313.017	87.56
313.246	88.56
313.476	96.56
313.706	95.56
313.935	97.56
314.165	96.56
314.394	92.56
314.624	87.56
314.853	119.56
315.083	91.56
315.312	90.56
315.542	99.56
315.771	99.56
316.001	84.56
316.23	96.56
316.46	92.56
316.689	116.56
316.919	97.56
317.148	75.56
317.377	83.56
317.607	97.56
317.836	93.56
318.065	95.56
318.295	101.56
318.524	89.56
318.753	101.56
318.983	97.56
319.212	93.56
319.441	88.56
319.67	88.56
319.9	97.56
320.129	90.56
320.358	81.56
320.587	98.56
320.816	79.56
321.046	83.56
321.275	95.56
321.504	87.56
321.733	90.56
321.962	93.56
322.191	90.56
322.42	90.56
322.649	83.56
322.878	113.56
323.108	99.56
323.337	95.56
323.566	101.56
323.795	106.56
324.024	105.56
324.253	102.56
324.482	99.56
324.71	99.56
324.939	84.56
325.168	98.56
325.397	76.56
325.626	90.56
325.855	87.56
326.084	80.56
326.313	84.56
326.542	100.56
326.77	93.56
326.999	91.56
327.228	94.56
327.457	84.56
327.686	86.56
327.914	95.56
328.143	99.56
328.372	93.56
328.6	95.56
328.829	106.56
329.058	83.56
329.287	97.56
329.515	97.56
329.744	84.56
329.972	95.56
330.201	90.56
330.43	83.56
330.658	98.56
330.887	84.56
331.115	89.56
331.344	81.56
331.572	102.56
331.801	101.56
332.03	98.56
332.258	82.56
332.486	78.56
332.715	93.56
332.943	91.56
333.172	99.56
333.4	97.56
333.629	106.56
333.857	113.56
334.085	110.56
334.314	103.56
334.542	92.56
334.771	105.56
334.999	98.56
335.227	105.56
335.455	96.56
335.684	103.56
335.912	94.56
336.14	95.56
336.369	91.56
336.597	94.56
336.825	91.56
337.053	89.56
337.281	97.56
337.51	98.56
337.738	93.56
337.966	105.56
338.194	94.56
338.422	86.56
338.65	74.56
338.878	79.56
339.106	104.56
339.334	98.56
339.562	89.56
339.79	88.56
340.018	99.56
340.246	84.56
340.474	83.56
340.702	85.56
340.93	99.56
341.158	71.56
341.386	94.56
341.614	98.56
341.842	97.56
342.07	92.56
342.298	82.56
342.526	102.56
342.754	85.56
342.981	96.56
343.209	101.56
343.437	91.56
343.665	101.56
343.893	89.56
344.12	91.56
344.348	111.56
344.576	101.56
344.804	88.56
345.031	92.56
345.259	83.56
345.487	103.56
345.714	101.56
345.942	94.56
346.17	93.56
346.397	81.56
346.625	95.56
346.853	91.56
347.08	92.56
347.308	89.56
347.535	90.56
347.763	81.56
347.99	89.56
348.218	89.56
348.445	84.56
348.673	76.56
348.9	88.56
349.128	101.56
349.355	88.56
349.583	89.56
349.81	100.56
350.037	94.56
350.265	85.56
350.492	82.56
350.72	86.56
350.947	87.56
351.174	83.56
351.402	102.56
351.629	86.56
351.856	89.56
352.083	93.56
352.311	102.56
352.538	92.56
352.765	98.56
352.992	86.56
353.22	95.56
353.447	89.56
353.674	103.56
353.901	96.56
354.128	88.56
354.355	92.56
354.583	99.56
354.81	88.56
355.037	98.56
355.264	96.56
355.491	88.56
355.718	95.56
355.945	91.56
356.172	100.56
356.399	97.56
356.626	95.56
356.853	104.56
357.08	93.56
357.307	102.56
357.534	95.56
357.761	94.56
357.988	85.56
358.215	91.56
358.441	96.56
358.668	96.56
358.895	88.56
359.122	90.56
359.349	83.56
359.576	81.56
359.802	90.56
360.029	114.56
360.256	89.56
360.483	84.56
360.709	100.56
360.936	96.56
361.163	95.56
361.39	106.56
361.616	81.56
361.843	88.56
362.07	94.56
362.296	85.56
362.523	88.56
362.749	102.56
362.976	90.56
363.203	100.56
363.429	99.56
363.656	86.56
363.882	89.56
364.109	90.56
364.335	88.56
364.562	90.56
364.788	90.56
365.015	94.56
365.241	88.56
365.468	99.56
365.694	94.56
365.92	76.56
366.147	87.56
366.373	100.56
366.599	83.56
366.826	85.56
367.052	94.56
367.278	96.56
367.505	100.56
367.731	86.56
367.957	105.56
368.184	85.56
368.41	87.56
368.636	78.56
368.862	90.56
369.089	86.56
369.315	100.56
369.541	94.56
369.767	101.56
369.993	94.56
370.219	91.56
370.445	110.56
370.672	98.56
370.898	92.56
371.124	94.56
371.35	84.56
371.576	116.56
371.802	88.56
372.028	110.56
372.254	98.56
372.48	92.56
372.706	97.56
372.932	99.56
373.158	82.56
373.384	95.56
373.61	86.56
373.835	78.56
374.061	98.56
374.287	92.56
374.513	99.56
374.739	98.56
374.965	96.56
375.191	86.56
375.416	84.56
375.642	90.56
375.868	92.56
376.094	94.56
376.319	78.56
376.545	94.56
376.771	93.56
376.997	86.56
377.222	84.56
377.448	96.56
377.674	88.56
377.899	96.56
378.125	94.56
378.35	95.56
378.576	101.56
378.802	100.56
379.027	94.56
379.253	106.56
379.478	103.56
379.704	111.56
379.929	88.56
380.155	98.56
380.38	85.56
380.606	75.56
380.831	95.56
381.057	113.56
381.282	75.56
381.507	80.56
381.733	90.56
381.958	89.56
382.184	75.56
382.409	84.56
382.634	107.56
382.86	84.56
383.085	85.56
383.31	86.56
383.535	111.56
383.761	95.56
383.986	92.56
384.211	95.56
384.436	88.56
384.662	100.56
384.887	102.56
385.112	78.56
385.337	105.56
385.562	98.56
385.787	93.56
386.013	94.56
386.238	99.56
386.463	87.56
386.688	102.56
386.913	91.56
387.138	108.56
387.363	98.56
387.588	86.56
387.813	106.56
388.038	100.56
388.263	91.56
388.488	99.56
388.713	89.56
388.938	76.56
389.163	99.56
389.387	93.56
389.612	82.56
389.837	85.56
390.062	95.56
390.287	89.56
390.512	101.56
390.736	97.56
390.961	79.56
391.186	94.56
391.411	104.56
391.636	91.56
391.86	101.56
392.085	101.56
392.31	104.56
392.534	88.56
392.759	90.56
392.984	97.56
393.208	83.56
393.433	76.56
393.658	103.56
393.882	98.56
394.107	78.56
394.331	102.56
394.556	89.56
394.78	86.56
395.005	91.56
395.229	112.56
395.454	91.56
395.678	90.56
395.903	82.56
396.127	110.56
396.352	97.56
396.576	85.56
396.801	104.56
397.025	96.56
397.249	103.56
397.474	98.56
397.698	106.56
397.922	91.56
398.147	95.56
398.371	91.56
398.595	103.56
398.82	95.56
399.044	101.56
399.268	88.56
399.492	97.56
399.717	96.56
399.941	110.56
400.165	120.56
400.389	105.56
400.613	88.56
400.837	94.56
401.062	92.56
401.286	104.56
401.51	98.56
401.734	88.56
401.958	88.56
402.182	96.56
402.406	104.56
402.63	97.56
402.854	101.56
403.078	89.56
403.302	100.56
403.526	99.56
403.75	105.56
403.974	104.56
404.198	95.56
404.422	98.56
404.645	100.56
404.869	97.56
405.093	90.56
405.317	114.56
405.541	88.56
405.765	99.56
405.988	104.56
406.212	110.56
406.436	115.56
406.66	97.56
406.883	104.56
407.107	117.56
407.331	100.56
407.555	113.56
407.778	105.56
408.002	94.56
408.226	102.56
408.449	102.56
408.673	103.56
408.896	101.56
409.12	95.56
409.344	85.56
409.567	90.56
409.791	101.56
410.014	98.56
410.238	89.56
410.461	106.56
410.685	110.56
410.908	107.56
411.132	91.56
411.355	96.56
411.578	106.56
411.802	101.56
412.025	101.56
412.249	88.56
412.472	86.56
412.695	109.56
412.919	92.56
413.142	98.56
413.365	92.56
413.589	98.56
413.812	110.56
414.035	83.56
414.258	91.56
414.482	93.56
414.705	100.56
414.928	95.56
415.151	100.56
415.374	112.56
415.597	96.56
415.821	88.56
416.044	100.56
416.267	100.56
416.49	102.56
416.713	113.56
416.936	101.56
417.159	92.56
417.382	98.56
417.605	113.56
417.828	94.56
418.051	98.56
418.274	99.56
418.497	100.56
418.72	99.56
418.943	104.56
419.166	114.56
419.389	112.56
419.611	94.56
419.834	104.56
420.057	91.56
420.28	98.56
420.503	92.56
420.726	96.56
420.948	103.56
421.171	97.56
421.394	96.56
421.617	100.56
421.839	104.56
422.062	117.56
422.285	90.56
422.507	107.56
422.73	91.56
422.953	84.56
423.175	105.56
423.398	99.56
423.621	95.56
423.843	113.56
424.066	98.56
424.288	91.56
424.511	96.56
424.733	93.56
424.956	90.56
425.178	99.56
425.401	92.56
425.623	94.56
425.846	96.56
426.068	107.56
426.291	95.56
426.513	90.56
426.735	93.56
426.958	92.56
427.18	110.56
427.402	98.56
427.625	86.56
427.847	82.56
428.069	84.56
428.292	111.56
428.514	90.56
428.736	79.56
428.958	97.56
429.181	87.56
429.403	89.56
429.625	111.56
429.847	100.56
430.069	88.56
430.292	99.56
430.514	95.56
430.736	97.56
430.958	112.56
431.18	84.56
431.402	89.56
431.624	94.56
431.846	84.56
432.068	93.56
432.29	87.56
432.512	94.56
432.734	84.56
432.956	88.56
433.178	80.56
433.4	83.56
433.622	100.56
433.844	90.56
434.066	101.56
434.287	94.56
434.509	90.56
434.731	95.56
434.953	112.56
435.175	90.56
435.397	114.56
435.618	102.56
435.84	110.56
436.062	100.56
436.284	98.56
436.505	90.56
436.727	102.56
436.949	105.56
437.17	88.56
437.392	94.56
437.614	87.56
437.835	80.56
438.057	98.56
438.278	86.56
438.5	98.56
438.721	98.56
438.943	101.56
439.165	118.56
439.386	85.56
439.608	90.56
439.829	91.56
440.05	86.56
440.272	90.56
440.493	82.56
440.715	110.56
440.936	107.56
441.158	103.56
441.379	97.56
441.6	94.56
441.822	107.56
442.043	98.56
442.264	102.56
442.486	91.56
442.707	95.56
442.928	88.56
443.149	88.56
443.371	107.56
443.592	100.56
443.813	77.56
444.034	95.56
444.255	96.56
444.476	99.56
444.698	107.56
444.919	108.56
445.14	213.56
445.361	143.56
445.582	99.56
445.803	99.56
446.024	89.56
446.245	98.56
446.466	113.56
446.687	100.56
446.908	94.56
447.129	82.56
447.35	100.56
447.571	99.56
447.792	104.56
448.013	100.56
448.234	93.56
448.455	76.56
448.675	86.56
448.896	89.56
449.117	90.56
449.338	90.56
449.559	91.56
449.779	98.56
450	99.56
450.221	99.56
450.442	91.56
450.662	90.56
450.883	92.56
451.104	101.56
451.324	95.56
451.545	94.56
451.766	83.56
451.986	76.56
452.207	88.56
452.428	86.56
452.648	100.56
452.869	98.56
453.089	91.56
453.31	86.56
453.53	82.56
453.751	96.56
453.971	106.56
454.192	85.56
454.412	90.56
454.633	99.56
454.853	107.56
455.073	92.56
455.294	89.56
455.514	86.56
455.734	86.56
455.955	91.56
456.175	91.56
456.395	108.56
456.616	86.56
456.836	88.56
457.056	102.56
457.276	95.56
457.497	88.56
457.717	93.56
457.937	90.56
458.157	107.56
458.377	102.56
458.598	87.56
458.818	99.56
459.038	103.56
459.258	94.56
459.478	88.56
459.698	90.56
459.918	99.56
460.138	113.56
460.358	97.56
460.578	95.56
460.798	111.56
461.018	100.56
461.238	98.56
461.458	104.56
461.678	86.56
461.898	99.56
462.118	95.56
462.338	91.56
462.558	104.56
462.777	104.56
462.997	103.56
463.217	103.56
463.437	112.56
463.657	103.56
463.876	81.56
464.096	103.56
464.316	97.56
464.536	100.56
464.755	91.56
464.975	106.56
465.195	104.56
465.414	100.56
465.634	101.56
465.854	91.56
466.073	91.56
466.293	113.56
466.512	110.56
466.732	88.56
466.951	92.56
467.171	98.56
467.391	95.56
467.61	110.56
467.829	104.56
468.049	95.56
468.268	76.56
468.488	79.56
468.707	84.56
468.927	97.56
469.146	105.56
469.365	106.56
469.585	100.56
469.804	104.56
470.023	98.56
470.243	103.56
470.462	99.56
470.681	96.56
470.901	91.56
471.12	89.56
471.339	102.56
471.558	82.56
471.777	101.56
471.997	110.56
472.216	104.56
472.435	88.56
472.654	85.56
472.873	99.56
473.092	88.56
473.311	101.56
473.53	100.56
473.749	88.56
473.968	116.56
474.187	100.56
474.406	92.56
474.625	96.56
474.844	88.56
475.063	91.56
475.282	88.56
475.501	96.56
475.72	95.56
475.939	92.56
476.158	91.56
476.377	95.56
476.596	80.56
476.814	84.56
477.033	97.56
477.252	96.56
477.471	88.56
477.69	105.56
477.908	87.56
478.127	93.56
478.346	101.56
478.564	89.56
478.783	98.56
479.002	101.56
479.22	94.56
479.439	89.56
479.658	105.56
479.876	84.56
480.095	96.56
480.313	110.56
480.532	90.56
480.751	102.56
480.969	95.56
481.188	107.56
481.406	98.56
481.624	102.56
481.843	103.56
482.061	95.56
482.28	102.56
482.498	99.56
482.717	102.56
482.935	97.56
483.153	96.56
483.372	98.56
483.59	104.56
483.808	104.56
484.027	113.56
484.245	92.56
484.463	96.56
484.681	110.56
484.9	99.56
485.118	96.56
485.336	90.56
485.554	98.56
485.772	99.56
485.99	98.56
486.209	89.56
486.427	99.56
486.645	113.56
486.863	109.56
487.081	115.56
487.299	102.56
487.517	88.56
487.735	104.56
487.953	103.56
488.171	102.56
488.389	102.56
488.607	118.56
488.825	122.56
489.043	93.56
489.261	102.56
489.479	102.56
489.696	112.56
489.914	101.56
490.132	101.56
490.35	104.56
490.568	103.56
490.786	109.56
491.003	105.56
491.221	105.56
491.439	111.56
491.657	106.56
491.874	114.56
492.092	117.56
492.31	123.56
492.527	116.56
492.745	115.56
492.963	113.56
493.18	106.56
493.398	118.56
493.615	102.56
493.833	110.56
494.05	107.56
494.268	107.56
494.485	124.56
494.703	111.56
494.92	121.56
495.138	121.56
495.355	118.56
495.573	106.56
495.79	119.56
496.008	108.56
496.225	107.56
496.442	111.56
496.66	110.56
496.877	111.56
497.094	127.56
497.312	120.56
497.529	117.56
497.746	111.56
497.963	104.56
498.181	117.56
498.398	122.56
498.615	124.56
498.832	120.56
499.049	113.56
499.267	137.56
499.484	123.56
499.701	130.56
499.918	130.56
500.135	155.56
500.352	155.56
500.569	150.56
500.786	158.56
501.003	139.56
501.22	140.56
501.437	125.56
501.654	128.56
501.871	117.56
502.088	114.56
502.305	125.56
502.522	124.56
502.739	123.56
502.956	110.56
503.172	96.56
503.389	99.56
503.606	106.56
503.823	105.56
504.04	101.56
504.256	112.56
504.473	113.56
504.69	103.56
504.907	112.56
505.123	123.56
505.34	105.56
505.557	100.56
505.773	115.56
505.99	115.56
506.207	99.56
506.423	121.56
506.64	94.56
506.856	101.56
507.073	97.56
507.289	107.56
507.506	106.56
507.722	100.56
507.939	88.56
508.155	86.56
508.372	115.56
508.588	105.56
508.805	103.56
509.021	98.56
509.238	87.56
509.454	106.56
509.67	103.56
509.887	105.56
510.103	110.56
510.319	107.56
510.536	97.56
510.752	104.56
510.968	91.56
511.184	103.56
511.401	111.56
511.617	110.56
511.833	98.56
512.049	98.56
512.265	112.56
512.481	110.56
512.698	102.56
512.914	101.56
513.13	90.56
513.346	105.56
513.562	92.56
513.778	98.56
513.994	90.56
514.21	89.56
514.426	91.56
514.642	111.56
