Data from Location5.07152019.Energy5.Lamp.07192019.3%Agarose_HRD10591_15-37-28-388.txt Node
Date: Fri Jul 19 15:37:28 EDT 2019
User: cochatt
Spectrometer: HR+D1059
Trigger mode: 1
Integration Time (sec): 1.000000E-1
Scans to average: 1
Electric dark correction enabled: true
Nonlinearity correction enabled: false
Boxcar width: 0
XAxis mode: Wavelengths
Number of Pixels in Spectrum: 2048
>>>>>Begin Spectral Data<<<<<
223.165	-8.56
223.4	-8.56
223.635	-8.56
223.869	-16.56
224.104	-3.56
224.338	-15.56
224.573	-12.56
224.808	-20.56
225.042	-20.56
225.277	-2.56
225.511	-3.56
225.746	5.44
225.98	11.44
226.215	19.44
226.449	6.44
226.683	5.44
226.918	24.44
227.152	31.44
227.387	32.44
227.621	29.44
227.856	51.44
228.09	54.44
228.324	51.44
228.559	51.44
228.793	39.44
229.027	55.44
229.262	71.44
229.496	64.44
229.73	63.44
229.964	66.44
230.199	68.44
230.433	70.44
230.667	80.44
230.901	75.44
231.136	73.44
231.37	87.44
231.604	73.44
231.838	68.44
232.072	87.44
232.306	84.44
232.541	76.44
232.775	79.44
233.009	81.44
233.243	87.44
233.477	90.44
233.711	81.44
233.945	88.44
234.179	71.44
234.413	81.44
234.647	71.44
234.881	70.44
235.115	72.44
235.349	82.44
235.583	80.44
235.817	80.44
236.051	75.44
236.285	86.44
236.519	75.44
236.753	64.44
236.987	64.44
237.221	64.44
237.455	71.44
237.689	69.44
237.922	76.44
238.156	87.44
238.39	78.44
238.624	71.44
238.858	71.44
239.091	61.44
239.325	77.44
239.559	75.44
239.793	64.44
240.027	78.44
240.26	86.44
240.494	73.44
240.728	81.44
240.961	73.44
241.195	73.44
241.429	75.44
241.662	70.44
241.896	73.44
242.13	84.44
242.363	71.44
242.597	72.44
242.83	71.44
243.064	84.44
243.298	77.44
243.531	73.44
243.765	73.44
243.998	77.44
244.232	66.44
244.465	83.44
244.699	81.44
244.932	88.44
245.166	67.44
245.399	76.44
245.633	82.44
245.866	73.44
246.099	79.44
246.333	84.44
246.566	69.44
246.8	84.44
247.033	78.44
247.266	84.44
247.5	72.44
247.733	70.44
247.966	80.44
248.2	77.44
248.433	73.44
248.666	71.44
248.899	77.44
249.133	85.44
249.366	88.44
249.599	84.44
249.832	85.44
250.066	73.44
250.299	69.44
250.532	65.44
250.765	85.44
250.998	70.44
251.231	78.44
251.465	90.44
251.698	77.44
251.931	61.44
252.164	62.44
252.397	80.44
252.63	78.44
252.863	70.44
253.096	61.44
253.329	81.44
253.562	75.44
253.795	78.44
254.028	87.44
254.261	64.44
254.494	85.44
254.727	73.44
254.96	74.44
255.193	71.44
255.426	65.44
255.659	71.44
255.892	81.44
256.124	80.44
256.357	82.44
256.59	72.44
256.823	76.44
257.056	79.44
257.289	86.44
257.521	84.44
257.754	73.44
257.987	85.44
258.22	77.44
258.452	72.44
258.685	76.44
258.918	82.44
259.151	65.44
259.383	84.44
259.616	79.44
259.849	80.44
260.081	76.44
260.314	93.44
260.547	80.44
260.779	89.44
261.012	70.44
261.244	68.44
261.477	66.44
261.71	89.44
261.942	68.44
262.175	71.44
262.407	68.44
262.64	75.44
262.872	75.44
263.105	73.44
263.337	71.44
263.57	76.44
263.802	67.44
264.035	81.44
264.267	68.44
264.499	78.44
264.732	83.44
264.964	81.44
265.197	72.44
265.429	80.44
265.661	90.44
265.894	90.44
266.126	80.44
266.358	80.44
266.591	94.44
266.823	85.44
267.055	79.44
267.287	75.44
267.52	80.44
267.752	79.44
267.984	79.44
268.216	64.44
268.448	80.44
268.681	86.44
268.913	96.44
269.145	71.44
269.377	92.44
269.609	95.44
269.841	74.44
270.073	71.44
270.306	71.44
270.538	76.44
270.77	72.44
271.002	84.44
271.234	69.44
271.466	94.44
271.698	78.44
271.93	76.44
272.162	69.44
272.394	72.44
272.626	76.44
272.858	85.44
273.09	65.44
273.322	96.44
273.553	87.44
273.785	80.44
274.017	70.44
274.249	83.44
274.481	79.44
274.713	84.44
274.945	87.44
275.176	73.44
275.408	86.44
275.64	96.44
275.872	63.44
276.104	84.44
276.335	74.44
276.567	87.44
276.799	74.44
277.031	88.44
277.262	82.44
277.494	85.44
277.726	70.44
277.957	78.44
278.189	93.44
278.421	77.44
278.652	72.44
278.884	78.44
279.115	90.44
279.347	92.44
279.579	77.44
279.81	80.44
280.042	83.44
280.273	82.44
280.505	79.44
280.736	78.44
280.968	89.44
281.199	80.44
281.431	85.44
281.662	84.44
281.894	81.44
282.125	82.44
282.356	67.44
282.588	80.44
282.819	88.44
283.051	103.44
283.282	75.44
283.513	86.44
283.745	82.44
283.976	60.44
284.207	75.44
284.439	77.44
284.67	73.44
284.901	81.44
285.132	80.44
285.364	88.44
285.595	97.44
285.826	79.44
286.057	93.44
286.288	95.44
286.52	79.44
286.751	82.44
286.982	86.44
287.213	68.44
287.444	88.44
287.675	80.44
287.906	82.44
288.138	83.44
288.369	66.44
288.6	87.44
288.831	87.44
289.062	63.44
289.293	72.44
289.524	86.44
289.755	80.44
289.986	82.44
290.217	73.44
290.448	85.44
290.679	80.44
290.91	88.44
291.141	79.44
291.371	88.44
291.602	89.44
291.833	85.44
292.064	89.44
292.295	85.44
292.526	72.44
292.757	91.44
292.987	84.44
293.218	80.44
293.449	81.44
293.68	70.44
293.91	74.44
294.141	86.44
294.372	74.44
294.603	77.44
294.833	86.44
295.064	87.44
295.295	82.44
295.525	77.44
295.756	73.44
295.987	81.44
296.217	77.44
296.448	67.44
296.679	86.44
296.909	85.44
297.14	68.44
297.37	88.44
297.601	88.44
297.831	96.44
298.062	94.44
298.292	76.44
298.523	92.44
298.753	83.44
298.984	68.44
299.214	97.44
299.445	88.44
299.675	86.44
299.905	84.44
300.136	71.44
300.366	90.44
300.597	77.44
300.827	79.44
301.057	80.44
301.288	91.44
301.518	90.44
301.748	68.44
301.979	77.44
302.209	78.44
302.439	81.44
302.669	98.44
302.9	91.44
303.13	87.44
303.36	101.44
303.59	69.44
303.82	76.44
304.051	87.44
304.281	74.44
304.511	77.44
304.741	86.44
304.971	64.44
305.201	87.44
305.431	86.44
305.661	79.44
305.891	96.44
306.121	70.44
306.352	89.44
306.582	92.44
306.812	81.44
307.042	88.44
307.272	74.44
307.502	79.44
307.731	72.44
307.961	80.44
308.191	86.44
308.421	81.44
308.651	82.44
308.881	83.44
309.111	80.44
309.341	82.44
309.571	81.44
309.8	86.44
310.03	75.44
310.26	70.44
310.49	87.44
310.72	78.44
310.949	82.44
311.179	91.44
311.409	88.44
311.639	88.44
311.868	94.44
312.098	78.44
312.328	81.44
312.557	56.44
312.787	85.44
313.017	86.44
313.246	75.44
313.476	69.44
313.706	71.44
313.935	71.44
314.165	78.44
314.394	82.44
314.624	90.44
314.853	79.44
315.083	86.44
315.312	73.44
315.542	63.44
315.771	78.44
316.001	83.44
316.23	78.44
316.46	90.44
316.689	85.44
316.919	85.44
317.148	85.44
317.377	91.44
317.607	85.44
317.836	73.44
318.065	82.44
318.295	77.44
318.524	82.44
318.753	84.44
318.983	79.44
319.212	100.44
319.441	72.44
319.67	70.44
319.9	79.44
320.129	71.44
320.358	93.44
320.587	89.44
320.816	82.44
321.046	89.44
321.275	85.44
321.504	90.44
321.733	81.44
321.962	77.44
322.191	83.44
322.42	79.44
322.649	78.44
322.878	83.44
323.108	87.44
323.337	76.44
323.566	80.44
323.795	82.44
324.024	86.44
324.253	86.44
324.482	77.44
324.71	74.44
324.939	83.44
325.168	85.44
325.397	82.44
325.626	93.44
325.855	86.44
326.084	82.44
326.313	78.44
326.542	83.44
326.77	80.44
326.999	85.44
327.228	90.44
327.457	77.44
327.686	91.44
327.914	84.44
328.143	81.44
328.372	85.44
328.6	75.44
328.829	84.44
329.058	89.44
329.287	77.44
329.515	86.44
329.744	80.44
329.972	96.44
330.201	94.44
330.43	81.44
330.658	84.44
330.887	76.44
331.115	85.44
331.344	82.44
331.572	93.44
331.801	93.44
332.03	84.44
332.258	82.44
332.486	97.44
332.715	75.44
332.943	73.44
333.172	84.44
333.4	91.44
333.629	83.44
333.857	78.44
334.085	89.44
334.314	88.44
334.542	80.44
334.771	79.44
334.999	71.44
335.227	64.44
335.455	93.44
335.684	75.44
335.912	90.44
336.14	92.44
336.369	80.44
336.597	94.44
336.825	83.44
337.053	76.44
337.281	87.44
337.51	75.44
337.738	85.44
337.966	80.44
338.194	72.44
338.422	80.44
338.65	97.44
338.878	77.44
339.106	85.44
339.334	80.44
339.562	89.44
339.79	72.44
340.018	88.44
340.246	87.44
340.474	85.44
340.702	83.44
340.93	82.44
341.158	82.44
341.386	82.44
341.614	82.44
341.842	81.44
342.07	80.44
342.298	73.44
342.526	91.44
342.754	96.44
342.981	78.44
343.209	74.44
343.437	80.44
343.665	76.44
343.893	91.44
344.12	84.44
344.348	76.44
344.576	76.44
344.804	72.44
345.031	81.44
345.259	88.44
345.487	84.44
345.714	80.44
345.942	78.44
346.17	69.44
346.397	81.44
346.625	82.44
346.853	75.44
347.08	85.44
347.308	86.44
347.535	83.44
347.763	79.44
347.99	73.44
348.218	77.44
348.445	77.44
348.673	75.44
348.9	83.44
349.128	89.44
349.355	71.44
349.583	77.44
349.81	96.44
350.037	80.44
350.265	75.44
350.492	81.44
350.72	82.44
350.947	78.44
351.174	85.44
351.402	85.44
351.629	84.44
351.856	86.44
352.083	87.44
352.311	88.44
352.538	75.44
352.765	81.44
352.992	66.44
353.22	87.44
353.447	84.44
353.674	80.44
353.901	79.44
354.128	69.44
354.355	95.44
354.583	69.44
354.81	78.44
355.037	69.44
355.264	89.44
355.491	73.44
355.718	77.44
355.945	77.44
356.172	85.44
356.399	89.44
356.626	76.44
356.853	81.44
357.08	74.44
357.307	83.44
357.534	80.44
357.761	78.44
357.988	74.44
358.215	91.44
358.441	83.44
358.668	87.44
358.895	80.44
359.122	90.44
359.349	68.44
359.576	88.44
359.802	76.44
360.029	83.44
360.256	88.44
360.483	73.44
360.709	80.44
360.936	86.44
361.163	76.44
361.39	89.44
361.616	84.44
361.843	89.44
362.07	79.44
362.296	91.44
362.523	83.44
362.749	80.44
362.976	87.44
363.203	87.44
363.429	91.44
363.656	81.44
363.882	81.44
364.109	84.44
364.335	77.44
364.562	82.44
364.788	78.44
365.015	79.44
365.241	77.44
365.468	81.44
365.694	78.44
365.92	90.44
366.147	81.44
366.373	79.44
366.599	82.44
366.826	80.44
367.052	93.44
367.278	83.44
367.505	86.44
367.731	88.44
367.957	77.44
368.184	72.44
368.41	74.44
368.636	78.44
368.862	81.44
369.089	72.44
369.315	91.44
369.541	72.44
369.767	79.44
369.993	95.44
370.219	83.44
370.445	76.44
370.672	76.44
370.898	91.44
371.124	79.44
371.35	72.44
371.576	84.44
371.802	84.44
372.028	79.44
372.254	82.44
372.48	81.44
372.706	86.44
372.932	69.44
373.158	82.44
373.384	95.44
373.61	92.44
373.835	84.44
374.061	74.44
374.287	76.44
374.513	85.44
374.739	79.44
374.965	79.44
375.191	77.44
375.416	90.44
375.642	77.44
375.868	89.44
376.094	84.44
376.319	82.44
376.545	66.44
376.771	93.44
376.997	67.44
377.222	84.44
377.448	76.44
377.674	77.44
377.899	85.44
378.125	81.44
378.35	94.44
378.576	71.44
378.802	70.44
379.027	91.44
379.253	88.44
379.478	76.44
379.704	71.44
379.929	70.44
380.155	82.44
380.38	89.44
380.606	79.44
380.831	78.44
381.057	88.44
381.282	81.44
381.507	78.44
381.733	73.44
381.958	79.44
382.184	59.44
382.409	70.44
382.634	84.44
382.86	75.44
383.085	83.44
383.31	86.44
383.535	86.44
383.761	95.44
383.986	72.44
384.211	74.44
384.436	99.44
384.662	72.44
384.887	78.44
385.112	76.44
385.337	85.44
385.562	99.44
385.787	86.44
386.013	86.44
386.238	81.44
386.463	81.44
386.688	94.44
386.913	83.44
387.138	86.44
387.363	96.44
387.588	93.44
387.813	89.44
388.038	78.44
388.263	78.44
388.488	64.44
388.713	72.44
388.938	85.44
389.163	83.44
389.387	76.44
389.612	83.44
389.837	90.44
390.062	90.44
390.287	79.44
390.512	80.44
390.736	80.44
390.961	80.44
391.186	71.44
391.411	83.44
391.636	69.44
391.86	87.44
392.085	83.44
392.31	83.44
392.534	93.44
392.759	84.44
392.984	85.44
393.208	85.44
393.433	71.44
393.658	83.44
393.882	80.44
394.107	74.44
394.331	84.44
394.556	93.44
394.78	81.44
395.005	96.44
395.229	80.44
395.454	78.44
395.678	78.44
395.903	71.44
396.127	75.44
396.352	90.44
396.576	85.44
396.801	68.44
397.025	84.44
397.249	92.44
397.474	94.44
397.698	97.44
397.922	98.44
398.147	82.44
398.371	81.44
398.595	80.44
398.82	82.44
399.044	77.44
399.268	90.44
399.492	73.44
399.717	75.44
399.941	72.44
400.165	72.44
400.389	77.44
400.613	89.44
400.837	99.44
401.062	78.44
401.286	73.44
401.51	86.44
401.734	86.44
401.958	86.44
402.182	89.44
402.406	86.44
402.63	72.44
402.854	84.44
403.078	94.44
403.302	85.44
403.526	91.44
403.75	77.44
403.974	72.44
404.198	80.44
404.422	91.44
404.645	85.44
404.869	92.44
405.093	85.44
405.317	71.44
405.541	77.44
405.765	85.44
405.988	88.44
406.212	88.44
406.436	87.44
406.66	85.44
406.883	96.44
407.107	84.44
407.331	82.44
407.555	100.44
407.778	73.44
408.002	76.44
408.226	85.44
408.449	83.44
408.673	96.44
408.896	87.44
409.12	90.44
409.344	95.44
409.567	86.44
409.791	98.44
410.014	88.44
410.238	90.44
410.461	76.44
410.685	100.44
410.908	93.44
411.132	99.44
411.355	81.44
411.578	87.44
411.802	77.44
412.025	71.44
412.249	80.44
412.472	89.44
412.695	73.44
412.919	86.44
413.142	79.44
413.365	95.44
413.589	89.44
413.812	81.44
414.035	100.44
414.258	82.44
414.482	80.44
414.705	78.44
414.928	75.44
415.151	92.44
415.374	87.44
415.597	84.44
415.821	98.44
416.044	92.44
416.267	83.44
416.49	98.44
416.713	92.44
416.936	91.44
417.159	82.44
417.382	82.44
417.605	81.44
417.828	82.44
418.051	74.44
418.274	89.44
418.497	86.44
418.72	84.44
418.943	81.44
419.166	101.44
419.389	85.44
419.611	78.44
419.834	93.44
420.057	81.44
420.28	87.44
420.503	92.44
420.726	108.44
420.948	89.44
421.171	96.44
421.394	84.44
421.617	106.44
421.839	94.44
422.062	99.44
422.285	85.44
422.507	89.44
422.73	89.44
422.953	84.44
423.175	76.44
423.398	92.44
423.621	76.44
423.843	104.44
424.066	90.44
424.288	94.44
424.511	82.44
424.733	103.44
424.956	81.44
425.178	78.44
425.401	100.44
425.623	94.44
425.846	92.44
426.068	92.44
426.291	87.44
426.513	94.44
426.735	100.44
426.958	89.44
427.18	89.44
427.402	100.44
427.625	85.44
427.847	86.44
428.069	91.44
428.292	97.44
428.514	79.44
428.736	77.44
428.958	81.44
429.181	95.44
429.403	95.44
429.625	96.44
429.847	79.44
430.069	95.44
430.292	96.44
430.514	96.44
430.736	80.44
430.958	76.44
431.18	85.44
431.402	91.44
431.624	86.44
431.846	86.44
432.068	79.44
432.29	72.44
432.512	81.44
432.734	91.44
432.956	101.44
433.178	81.44
433.4	101.44
433.622	95.44
433.844	97.44
434.066	93.44
434.287	98.44
434.509	87.44
434.731	97.44
434.953	98.44
435.175	85.44
435.397	78.44
435.618	94.44
435.84	85.44
436.062	93.44
436.284	98.44
436.505	87.44
436.727	87.44
436.949	90.44
437.17	78.44
437.392	73.44
437.614	90.44
437.835	71.44
438.057	75.44
438.278	92.44
438.5	92.44
438.721	93.44
438.943	83.44
439.165	85.44
439.386	92.44
439.608	97.44
439.829	102.44
440.05	96.44
440.272	107.44
440.493	88.44
440.715	92.44
440.936	87.44
441.158	95.44
441.379	86.44
441.6	93.44
441.822	98.44
442.043	93.44
442.264	96.44
442.486	82.44
442.707	71.44
442.928	99.44
443.149	89.44
443.371	93.44
443.592	96.44
443.813	101.44
444.034	76.44
444.255	77.44
444.476	88.44
444.698	82.44
444.919	84.44
445.14	223.44
445.361	159.44
445.582	97.44
445.803	110.44
446.024	99.44
446.245	105.44
446.466	99.44
446.687	86.44
446.908	113.44
447.129	96.44
447.35	104.44
447.571	86.44
447.792	96.44
448.013	105.44
448.234	94.44
448.455	99.44
448.675	92.44
448.896	97.44
449.117	94.44
449.338	88.44
449.559	92.44
449.779	88.44
450	114.44
450.221	84.44
450.442	90.44
450.662	87.44
450.883	86.44
451.104	94.44
451.324	91.44
451.545	97.44
451.766	84.44
451.986	94.44
452.207	89.44
452.428	106.44
452.648	69.44
452.869	85.44
453.089	97.44
453.31	82.44
453.53	93.44
453.751	82.44
453.971	80.44
454.192	67.44
454.412	91.44
454.633	85.44
454.853	83.44
455.073	77.44
455.294	98.44
455.514	95.44
455.734	94.44
455.955	104.44
456.175	83.44
456.395	88.44
456.616	87.44
456.836	95.44
457.056	95.44
457.276	96.44
457.497	83.44
457.717	91.44
457.937	85.44
458.157	85.44
458.377	83.44
458.598	89.44
458.818	89.44
459.038	80.44
459.258	92.44
459.478	75.44
459.698	85.44
459.918	86.44
460.138	77.44
460.358	88.44
460.578	93.44
460.798	87.44
461.018	99.44
461.238	73.44
461.458	74.44
461.678	108.44
461.898	85.44
462.118	95.44
462.338	85.44
462.558	83.44
462.777	79.44
462.997	90.44
463.217	84.44
463.437	79.44
463.657	92.44
463.876	82.44
464.096	76.44
464.316	90.44
464.536	93.44
464.755	96.44
464.975	80.44
465.195	95.44
465.414	94.44
465.634	84.44
465.854	86.44
466.073	76.44
466.293	85.44
466.512	92.44
466.732	86.44
466.951	92.44
467.171	96.44
467.391	104.44
467.61	84.44
467.829	86.44
468.049	84.44
468.268	90.44
468.488	101.44
468.707	82.44
468.927	77.44
469.146	90.44
469.365	98.44
469.585	80.44
469.804	87.44
470.023	84.44
470.243	85.44
470.462	89.44
470.681	97.44
470.901	102.44
471.12	84.44
471.339	85.44
471.558	82.44
471.777	101.44
471.997	88.44
472.216	96.44
472.435	92.44
472.654	94.44
472.873	92.44
473.092	98.44
473.311	95.44
473.53	93.44
473.749	90.44
473.968	88.44
474.187	102.44
474.406	83.44
474.625	91.44
474.844	96.44
475.063	91.44
475.282	90.44
475.501	77.44
475.72	104.44
475.939	100.44
476.158	84.44
476.377	102.44
476.596	71.44
476.814	84.44
477.033	88.44
477.252	97.44
477.471	81.44
477.69	94.44
477.908	90.44
478.127	95.44
478.346	95.44
478.564	98.44
478.783	94.44
479.002	90.44
479.22	90.44
479.439	98.44
479.658	91.44
479.876	80.44
480.095	74.44
480.313	85.44
480.532	81.44
480.751	92.44
480.969	84.44
481.188	88.44
481.406	71.44
481.624	97.44
481.843	92.44
482.061	85.44
482.28	100.44
482.498	103.44
482.717	77.44
482.935	83.44
483.153	86.44
483.372	89.44
483.59	96.44
483.808	90.44
484.027	99.44
484.245	79.44
484.463	104.44
484.681	95.44
484.9	105.44
485.118	115.44
485.336	84.44
485.554	97.44
485.772	87.44
485.99	81.44
486.209	95.44
486.427	78.44
486.645	77.44
486.863	95.44
487.081	81.44
487.299	113.44
487.517	100.44
487.735	96.44
487.953	112.44
488.171	99.44
488.389	97.44
488.607	100.44
488.825	90.44
489.043	86.44
489.261	84.44
489.479	100.44
489.696	101.44
489.914	103.44
490.132	112.44
490.35	97.44
490.568	111.44
490.786	99.44
491.003	100.44
491.221	100.44
491.439	106.44
491.657	104.44
491.874	121.44
492.092	115.44
492.31	116.44
492.527	130.44
492.745	102.44
492.963	104.44
493.18	109.44
493.398	101.44
493.615	105.44
493.833	102.44
494.05	89.44
494.268	95.44
494.485	109.44
494.703	113.44
494.92	120.44
495.138	96.44
495.355	91.44
495.573	101.44
495.79	112.44
496.008	102.44
496.225	109.44
496.442	91.44
496.66	101.44
496.877	103.44
497.094	101.44
497.312	103.44
497.529	103.44
497.746	98.44
497.963	103.44
498.181	93.44
498.398	88.44
498.615	95.44
498.832	75.44
499.049	79.44
499.267	102.44
499.484	92.44
499.701	91.44
499.918	89.44
500.135	89.44
500.352	79.44
500.569	89.44
500.786	89.44
501.003	102.44
501.22	98.44
501.437	103.44
501.654	92.44
501.871	102.44
502.088	81.44
502.305	89.44
502.522	94.44
502.739	91.44
502.956	104.44
503.172	80.44
503.389	84.44
503.606	85.44
503.823	88.44
504.04	85.44
504.256	73.44
504.473	85.44
504.69	94.44
504.907	99.44
505.123	88.44
505.34	78.44
505.557	90.44
505.773	90.44
505.99	96.44
506.207	96.44
506.423	90.44
506.64	100.44
506.856	72.44
507.073	90.44
507.289	90.44
507.506	80.44
507.722	85.44
507.939	79.44
508.155	103.44
508.372	93.44
508.588	82.44
508.805	86.44
509.021	77.44
509.238	90.44
509.454	93.44
509.67	79.44
509.887	73.44
510.103	89.44
510.319	88.44
510.536	60.44
510.752	88.44
510.968	78.44
511.184	79.44
511.401	89.44
511.617	94.44
511.833	89.44
512.049	88.44
512.265	88.44
512.481	100.44
512.698	71.44
512.914	81.44
513.13	92.44
513.346	75.44
513.562	82.44
513.778	89.44
513.994	82.44
514.21	73.44
514.426	96.44
514.642	65.44
514.858	76.44
515.074	86.44
515.29	87.44
515.506	92.44
515.721	71.44
515.937	63.44
516.153	87.44
516.369	90.44
516.585	97.44
516.801	89.44
517.016	103.44
517.232	92.44
517.448	83.44
517.664	82.44
517.879	97.44
518.095	91.44
518.311	64.44
