Data from Location5.07152019.Energy5.Lamp.07192019.3%Agarose_HRD10591_16-04-48-629.txt Node
Date: Fri Jul 19 16:04:48 EDT 2019
User: cochatt
Spectrometer: HR+D1059
Trigger mode: 1
Integration Time (sec): 1.000000E-1
Scans to average: 1
Electric dark correction enabled: true
Nonlinearity correction enabled: false
Boxcar width: 0
XAxis mode: Wavelengths
Number of Pixels in Spectrum: 2048
>>>>>Begin Spectral Data<<<<<
223.165	-13.5
223.4	-13.5
223.635	-13.5
223.869	-6.5
224.104	-9.5
224.338	-19.5
224.573	-20.5
224.808	-8.5
225.042	-33.5
225.277	-10.5
225.511	16.5
225.746	11.5
225.98	11.5
226.215	-3.5
226.449	12.5
226.683	22.5
226.918	19.5
227.152	31.5
227.387	43.5
227.621	37.5
227.856	32.5
228.09	55.5
228.324	71.5
228.559	63.5
228.793	52.5
229.027	55.5
229.262	71.5
229.496	68.5
229.73	64.5
229.964	75.5
230.199	78.5
230.433	83.5
230.667	79.5
230.901	75.5
231.136	65.5
231.37	74.5
231.604	86.5
231.838	75.5
232.072	81.5
232.306	82.5
232.541	90.5
232.775	97.5
233.009	90.5
233.243	85.5
233.477	99.5
233.711	73.5
233.945	80.5
234.179	80.5
234.413	79.5
234.647	87.5
234.881	98.5
235.115	80.5
235.349	79.5
235.583	73.5
235.817	85.5
236.051	82.5
236.285	84.5
236.519	86.5
236.753	77.5
236.987	72.5
237.221	73.5
237.455	80.5
237.689	75.5
237.922	81.5
238.156	90.5
238.39	81.5
238.624	96.5
238.858	82.5
239.091	72.5
239.325	87.5
239.559	85.5
239.793	76.5
240.027	82.5
240.26	75.5
240.494	89.5
240.728	96.5
240.961	88.5
241.195	59.5
241.429	90.5
241.662	92.5
241.896	91.5
242.13	80.5
242.363	96.5
242.597	72.5
242.83	73.5
243.064	92.5
243.298	72.5
243.531	84.5
243.765	79.5
243.998	79.5
244.232	80.5
244.465	73.5
244.699	82.5
244.932	70.5
245.166	80.5
245.399	80.5
245.633	69.5
245.866	88.5
246.099	81.5
246.333	82.5
246.566	85.5
246.8	83.5
247.033	71.5
247.266	87.5
247.5	90.5
247.733	98.5
247.966	74.5
248.2	75.5
248.433	66.5
248.666	92.5
248.899	91.5
249.133	83.5
249.366	75.5
249.599	92.5
249.832	84.5
250.066	84.5
250.299	74.5
250.532	71.5
250.765	83.5
250.998	76.5
251.231	83.5
251.465	92.5
251.698	85.5
251.931	77.5
252.164	71.5
252.397	77.5
252.63	83.5
252.863	95.5
253.096	74.5
253.329	83.5
253.562	83.5
253.795	86.5
254.028	86.5
254.261	86.5
254.494	79.5
254.727	71.5
254.96	76.5
255.193	78.5
255.426	83.5
255.659	84.5
255.892	86.5
256.124	68.5
256.357	83.5
256.59	84.5
256.823	76.5
257.056	85.5
257.289	81.5
257.521	77.5
257.754	66.5
257.987	85.5
258.22	84.5
258.452	78.5
258.685	76.5
258.918	77.5
259.151	96.5
259.383	82.5
259.616	78.5
259.849	87.5
260.081	84.5
260.314	75.5
260.547	85.5
260.779	85.5
261.012	80.5
261.244	83.5
261.477	89.5
261.71	78.5
261.942	76.5
262.175	91.5
262.407	84.5
262.64	91.5
262.872	99.5
263.105	95.5
263.337	84.5
263.57	81.5
263.802	73.5
264.035	83.5
264.267	91.5
264.499	99.5
264.732	80.5
264.964	77.5
265.197	95.5
265.429	76.5
265.661	84.5
265.894	72.5
266.126	95.5
266.358	87.5
266.591	74.5
266.823	89.5
267.055	83.5
267.287	85.5
267.52	76.5
267.752	81.5
267.984	85.5
268.216	108.5
268.448	95.5
268.681	64.5
268.913	73.5
269.145	90.5
269.377	89.5
269.609	87.5
269.841	93.5
270.073	88.5
270.306	84.5
270.538	99.5
270.77	74.5
271.002	86.5
271.234	90.5
271.466	75.5
271.698	101.5
271.93	73.5
272.162	77.5
272.394	88.5
272.626	89.5
272.858	81.5
273.09	77.5
273.322	82.5
273.553	81.5
273.785	93.5
274.017	76.5
274.249	91.5
274.481	91.5
274.713	96.5
274.945	88.5
275.176	83.5
275.408	93.5
275.64	76.5
275.872	72.5
276.104	96.5
276.335	95.5
276.567	75.5
276.799	95.5
277.031	95.5
277.262	88.5
277.494	102.5
277.726	83.5
277.957	90.5
278.189	91.5
278.421	92.5
278.652	66.5
278.884	95.5
279.115	88.5
279.347	95.5
279.579	80.5
279.81	83.5
280.042	84.5
280.273	86.5
280.505	91.5
280.736	89.5
280.968	87.5
281.199	76.5
281.431	95.5
281.662	89.5
281.894	86.5
282.125	85.5
282.356	97.5
282.588	72.5
282.819	90.5
283.051	88.5
283.282	82.5
283.513	80.5
283.745	90.5
283.976	77.5
284.207	90.5
284.439	81.5
284.67	75.5
284.901	90.5
285.132	84.5
285.364	91.5
285.595	91.5
285.826	90.5
286.057	96.5
286.288	82.5
286.52	91.5
286.751	100.5
286.982	88.5
287.213	84.5
287.444	82.5
287.675	84.5
287.906	91.5
288.138	94.5
288.369	83.5
288.6	94.5
288.831	101.5
289.062	93.5
289.293	91.5
289.524	104.5
289.755	104.5
289.986	82.5
290.217	93.5
290.448	90.5
290.679	84.5
290.91	89.5
291.141	90.5
291.371	94.5
291.602	83.5
291.833	96.5
292.064	97.5
292.295	77.5
292.526	90.5
292.757	96.5
292.987	86.5
293.218	87.5
293.449	92.5
293.68	97.5
293.91	89.5
294.141	99.5
294.372	93.5
294.603	92.5
294.833	104.5
295.064	85.5
295.295	99.5
295.525	75.5
295.756	80.5
295.987	88.5
296.217	98.5
296.448	81.5
296.679	81.5
296.909	86.5
297.14	73.5
297.37	92.5
297.601	102.5
297.831	91.5
298.062	93.5
298.292	94.5
298.523	79.5
298.753	87.5
298.984	87.5
299.214	84.5
299.445	114.5
299.675	102.5
299.905	92.5
300.136	97.5
300.366	81.5
300.597	86.5
300.827	97.5
301.057	84.5
301.288	84.5
301.518	92.5
301.748	91.5
301.979	88.5
302.209	91.5
302.439	90.5
302.669	92.5
302.9	87.5
303.13	105.5
303.36	100.5
303.59	92.5
303.82	98.5
304.051	89.5
304.281	95.5
304.511	97.5
304.741	86.5
304.971	85.5
305.201	83.5
305.431	93.5
305.661	85.5
305.891	85.5
306.121	86.5
306.352	86.5
306.582	86.5
306.812	90.5
307.042	85.5
307.272	86.5
307.502	88.5
307.731	82.5
307.961	86.5
308.191	82.5
308.421	98.5
308.651	104.5
308.881	80.5
309.111	85.5
309.341	85.5
309.571	88.5
309.8	87.5
310.03	89.5
310.26	90.5
310.49	85.5
310.72	91.5
310.949	92.5
311.179	106.5
311.409	79.5
311.639	75.5
311.868	101.5
312.098	79.5
312.328	98.5
312.557	97.5
312.787	104.5
313.017	84.5
313.246	96.5
313.476	102.5
313.706	91.5
313.935	100.5
314.165	85.5
314.394	84.5
314.624	91.5
314.853	86.5
315.083	88.5
315.312	84.5
315.542	93.5
315.771	85.5
316.001	97.5
316.23	99.5
316.46	98.5
316.689	88.5
316.919	92.5
317.148	98.5
317.377	81.5
317.607	104.5
317.836	95.5
318.065	86.5
318.295	85.5
318.524	111.5
318.753	90.5
318.983	97.5
319.212	85.5
319.441	84.5
319.67	93.5
319.9	93.5
320.129	77.5
320.358	87.5
320.587	77.5
320.816	89.5
321.046	83.5
321.275	83.5
321.504	84.5
321.733	101.5
321.962	100.5
322.191	108.5
322.42	99.5
322.649	94.5
322.878	105.5
323.108	97.5
323.337	92.5
323.566	91.5
323.795	82.5
324.024	90.5
324.253	92.5
324.482	95.5
324.71	89.5
324.939	92.5
325.168	95.5
325.397	100.5
325.626	94.5
325.855	87.5
326.084	83.5
326.313	93.5
326.542	93.5
326.77	84.5
326.999	89.5
327.228	92.5
327.457	83.5
327.686	91.5
327.914	95.5
328.143	105.5
328.372	95.5
328.6	106.5
328.829	93.5
329.058	88.5
329.287	95.5
329.515	93.5
329.744	101.5
329.972	90.5
330.201	84.5
330.43	99.5
330.658	99.5
330.887	92.5
331.115	97.5
331.344	110.5
331.572	86.5
331.801	83.5
332.03	104.5
332.258	102.5
332.486	91.5
332.715	90.5
332.943	92.5
333.172	95.5
333.4	101.5
333.629	101.5
333.857	98.5
334.085	99.5
334.314	93.5
334.542	100.5
334.771	105.5
334.999	100.5
335.227	99.5
335.455	90.5
335.684	79.5
335.912	102.5
336.14	89.5
336.369	96.5
336.597	87.5
336.825	101.5
337.053	89.5
337.281	76.5
337.51	95.5
337.738	100.5
337.966	90.5
338.194	99.5
338.422	100.5
338.65	79.5
338.878	93.5
339.106	97.5
339.334	98.5
339.562	104.5
339.79	94.5
340.018	81.5
340.246	88.5
340.474	102.5
340.702	89.5
340.93	82.5
341.158	83.5
341.386	93.5
341.614	78.5
341.842	98.5
342.07	95.5
342.298	104.5
342.526	84.5
342.754	90.5
342.981	85.5
343.209	93.5
343.437	106.5
343.665	99.5
343.893	107.5
344.12	98.5
344.348	97.5
344.576	76.5
344.804	102.5
345.031	102.5
345.259	92.5
345.487	90.5
345.714	96.5
345.942	94.5
346.17	91.5
346.397	84.5
346.625	110.5
346.853	103.5
347.08	97.5
347.308	98.5
347.535	91.5
347.763	77.5
347.99	83.5
348.218	98.5
348.445	99.5
348.673	108.5
348.9	94.5
349.128	90.5
349.355	85.5
349.583	87.5
349.81	96.5
350.037	82.5
350.265	93.5
350.492	101.5
350.72	87.5
350.947	89.5
351.174	69.5
351.402	88.5
351.629	78.5
351.856	81.5
352.083	88.5
352.311	85.5
352.538	91.5
352.765	94.5
352.992	82.5
353.22	101.5
353.447	97.5
353.674	89.5
353.901	84.5
354.128	79.5
354.355	89.5
354.583	84.5
354.81	78.5
355.037	98.5
355.264	94.5
355.491	83.5
355.718	86.5
355.945	85.5
356.172	88.5
356.399	87.5
356.626	92.5
356.853	100.5
357.08	101.5
357.307	89.5
357.534	86.5
357.761	93.5
357.988	82.5
358.215	90.5
358.441	91.5
358.668	99.5
358.895	102.5
359.122	70.5
359.349	85.5
359.576	85.5
359.802	93.5
360.029	80.5
360.256	93.5
360.483	94.5
360.709	96.5
360.936	100.5
361.163	85.5
361.39	101.5
361.616	90.5
361.843	99.5
362.07	93.5
362.296	79.5
362.523	92.5
362.749	73.5
362.976	96.5
363.203	90.5
363.429	94.5
363.656	91.5
363.882	93.5
364.109	71.5
364.335	81.5
364.562	93.5
364.788	88.5
365.015	97.5
365.241	102.5
365.468	83.5
365.694	84.5
365.92	89.5
366.147	106.5
366.373	101.5
366.599	79.5
366.826	82.5
367.052	85.5
367.278	84.5
367.505	94.5
367.731	90.5
367.957	94.5
368.184	80.5
368.41	87.5
368.636	91.5
368.862	96.5
369.089	88.5
369.315	89.5
369.541	87.5
369.767	81.5
369.993	92.5
370.219	95.5
370.445	74.5
370.672	90.5
370.898	92.5
371.124	83.5
371.35	92.5
371.576	83.5
371.802	86.5
372.028	84.5
372.254	85.5
372.48	81.5
372.706	87.5
372.932	78.5
373.158	81.5
373.384	88.5
373.61	88.5
373.835	95.5
374.061	83.5
374.287	81.5
374.513	101.5
374.739	100.5
374.965	82.5
375.191	109.5
375.416	92.5
375.642	92.5
375.868	100.5
376.094	111.5
376.319	93.5
376.545	91.5
376.771	94.5
376.997	95.5
377.222	93.5
377.448	90.5
377.674	92.5
377.899	84.5
378.125	96.5
378.35	84.5
378.576	88.5
378.802	68.5
379.027	91.5
379.253	89.5
379.478	96.5
379.704	78.5
379.929	87.5
380.155	84.5
380.38	104.5
380.606	96.5
380.831	98.5
381.057	101.5
381.282	97.5
381.507	88.5
381.733	85.5
381.958	103.5
382.184	98.5
382.409	78.5
382.634	93.5
382.86	86.5
383.085	85.5
383.31	90.5
383.535	85.5
383.761	87.5
383.986	103.5
384.211	96.5
384.436	111.5
384.662	89.5
384.887	88.5
385.112	98.5
385.337	78.5
385.562	88.5
385.787	91.5
386.013	93.5
386.238	75.5
386.463	87.5
386.688	90.5
386.913	90.5
387.138	95.5
387.363	89.5
387.588	93.5
387.813	90.5
388.038	87.5
388.263	89.5
388.488	93.5
388.713	88.5
388.938	84.5
389.163	79.5
389.387	87.5
389.612	100.5
389.837	87.5
390.062	84.5
390.287	99.5
390.512	93.5
390.736	111.5
390.961	107.5
391.186	90.5
391.411	96.5
391.636	87.5
391.86	85.5
392.085	106.5
392.31	99.5
392.534	100.5
392.759	93.5
392.984	107.5
393.208	106.5
393.433	108.5
393.658	90.5
393.882	100.5
394.107	82.5
394.331	88.5
394.556	87.5
394.78	83.5
395.005	85.5
395.229	96.5
395.454	93.5
395.678	96.5
395.903	101.5
396.127	93.5
396.352	111.5
396.576	87.5
396.801	95.5
397.025	92.5
397.249	100.5
397.474	88.5
397.698	83.5
397.922	111.5
398.147	95.5
398.371	101.5
398.595	96.5
398.82	94.5
399.044	91.5
399.268	100.5
399.492	89.5
399.717	103.5
399.941	85.5
400.165	108.5
400.389	98.5
400.613	104.5
400.837	100.5
401.062	103.5
401.286	102.5
401.51	95.5
401.734	104.5
401.958	85.5
402.182	95.5
402.406	102.5
402.63	102.5
402.854	100.5
403.078	97.5
403.302	103.5
403.526	96.5
403.75	101.5
403.974	105.5
404.198	100.5
404.422	99.5
404.645	88.5
404.869	91.5
405.093	101.5
405.317	108.5
405.541	95.5
405.765	96.5
405.988	103.5
406.212	91.5
406.436	100.5
406.66	98.5
406.883	104.5
407.107	102.5
407.331	98.5
407.555	106.5
407.778	109.5
408.002	108.5
408.226	104.5
408.449	91.5
408.673	100.5
408.896	97.5
409.12	94.5
409.344	101.5
409.567	99.5
409.791	92.5
410.014	102.5
410.238	81.5
410.461	77.5
410.685	84.5
410.908	91.5
411.132	86.5
411.355	100.5
411.578	103.5
411.802	99.5
412.025	101.5
412.249	85.5
412.472	89.5
412.695	113.5
412.919	102.5
413.142	114.5
413.365	78.5
413.589	88.5
413.812	88.5
414.035	97.5
414.258	90.5
414.482	111.5
414.705	91.5
414.928	87.5
415.151	103.5
415.374	91.5
415.597	82.5
415.821	92.5
416.044	111.5
416.267	101.5
416.49	96.5
416.713	95.5
416.936	106.5
417.159	94.5
417.382	92.5
417.605	90.5
417.828	100.5
418.051	101.5
418.274	96.5
418.497	97.5
418.72	91.5
418.943	99.5
419.166	90.5
419.389	107.5
419.611	93.5
419.834	96.5
420.057	99.5
420.28	103.5
420.503	90.5
420.726	91.5
420.948	104.5
421.171	89.5
421.394	97.5
421.617	94.5
421.839	84.5
422.062	93.5
422.285	93.5
422.507	93.5
422.73	92.5
422.953	100.5
423.175	75.5
423.398	87.5
423.621	95.5
423.843	104.5
424.066	92.5
424.288	105.5
424.511	97.5
424.733	77.5
424.956	87.5
425.178	77.5
425.401	98.5
425.623	107.5
425.846	92.5
426.068	91.5
426.291	80.5
426.513	90.5
426.735	97.5
426.958	89.5
427.18	83.5
427.402	82.5
427.625	96.5
427.847	88.5
428.069	94.5
428.292	108.5
428.514	93.5
428.736	94.5
428.958	106.5
429.181	102.5
429.403	77.5
429.625	94.5
429.847	77.5
430.069	97.5
430.292	105.5
430.514	93.5
430.736	90.5
430.958	97.5
431.18	96.5
431.402	98.5
431.624	89.5
431.846	99.5
432.068	85.5
432.29	99.5
432.512	111.5
432.734	85.5
432.956	90.5
433.178	87.5
433.4	86.5
433.622	102.5
433.844	93.5
434.066	99.5
434.287	100.5
434.509	89.5
434.731	88.5
434.953	83.5
435.175	93.5
435.397	93.5
435.618	93.5
435.84	91.5
436.062	97.5
436.284	91.5
436.505	96.5
436.727	89.5
436.949	89.5
437.17	89.5
437.392	70.5
437.614	94.5
437.835	91.5
438.057	89.5
438.278	91.5
438.5	95.5
438.721	81.5
438.943	91.5
439.165	106.5
439.386	87.5
439.608	96.5
439.829	99.5
440.05	99.5
440.272	88.5
440.493	98.5
440.715	92.5
440.936	92.5
441.158	93.5
441.379	99.5
441.6	117.5
441.822	92.5
442.043	94.5
442.264	88.5
442.486	92.5
442.707	104.5
442.928	99.5
443.149	89.5
443.371	99.5
443.592	98.5
443.813	98.5
444.034	95.5
444.255	94.5
444.476	97.5
444.698	79.5
444.919	100.5
445.14	225.5
445.361	167.5
445.582	87.5
445.803	88.5
446.024	104.5
446.245	88.5
446.466	111.5
446.687	104.5
446.908	95.5
447.129	98.5
447.35	78.5
447.571	90.5
447.792	90.5
448.013	90.5
448.234	92.5
448.455	92.5
448.675	112.5
448.896	90.5
449.117	85.5
449.338	98.5
449.559	99.5
449.779	106.5
450	88.5
450.221	90.5
450.442	99.5
450.662	95.5
450.883	114.5
451.104	99.5
451.324	95.5
451.545	103.5
451.766	98.5
451.986	92.5
452.207	90.5
452.428	90.5
452.648	97.5
452.869	111.5
453.089	96.5
453.31	84.5
453.53	91.5
453.751	102.5
453.971	84.5
454.192	102.5
454.412	92.5
454.633	75.5
454.853	83.5
455.073	80.5
455.294	94.5
455.514	100.5
455.734	106.5
455.955	95.5
456.175	95.5
456.395	92.5
456.616	88.5
456.836	104.5
457.056	96.5
457.276	93.5
457.497	90.5
457.717	83.5
457.937	97.5
458.157	89.5
458.377	96.5
458.598	91.5
458.818	86.5
459.038	81.5
459.258	83.5
459.478	94.5
459.698	91.5
459.918	109.5
460.138	95.5
460.358	89.5
460.578	100.5
460.798	95.5
461.018	103.5
461.238	106.5
461.458	91.5
461.678	88.5
461.898	101.5
462.118	104.5
462.338	101.5
462.558	93.5
462.777	101.5
462.997	101.5
463.217	106.5
463.437	99.5
463.657	100.5
463.876	96.5
464.096	100.5
464.316	104.5
464.536	91.5
464.755	104.5
464.975	103.5
465.195	98.5
465.414	101.5
465.634	103.5
465.854	91.5
466.073	90.5
466.293	105.5
466.512	101.5
466.732	99.5
466.951	98.5
467.171	103.5
467.391	91.5
467.61	81.5
467.829	91.5
468.049	94.5
468.268	82.5
468.488	81.5
468.707	92.5
468.927	93.5
469.146	96.5
469.365	102.5
469.585	83.5
469.804	91.5
470.023	94.5
470.243	104.5
470.462	103.5
470.681	89.5
470.901	100.5
471.12	100.5
471.339	100.5
471.558	98.5
471.777	100.5
471.997	96.5
472.216	92.5
472.435	83.5
472.654	92.5
472.873	104.5
473.092	97.5
473.311	90.5
473.53	100.5
473.749	98.5
473.968	112.5
474.187	102.5
474.406	100.5
474.625	110.5
474.844	102.5
475.063	93.5
475.282	99.5
475.501	97.5
475.72	95.5
475.939	103.5
476.158	80.5
476.377	102.5
476.596	98.5
476.814	90.5
477.033	93.5
477.252	104.5
477.471	96.5
477.69	107.5
477.908	96.5
478.127	113.5
478.346	107.5
478.564	100.5
478.783	104.5
479.002	102.5
479.22	104.5
479.439	100.5
479.658	93.5
479.876	98.5
480.095	104.5
480.313	94.5
480.532	120.5
480.751	100.5
480.969	98.5
481.188	111.5
481.406	112.5
481.624	109.5
481.843	95.5
482.061	92.5
482.28	113.5
482.498	101.5
482.717	100.5
482.935	82.5
483.153	104.5
483.372	101.5
483.59	105.5
483.808	97.5
484.027	95.5
484.245	95.5
484.463	100.5
484.681	92.5
484.9	108.5
485.118	103.5
485.336	76.5
485.554	109.5
485.772	111.5
485.99	102.5
486.209	97.5
486.427	111.5
486.645	92.5
486.863	107.5
487.081	101.5
487.299	104.5
487.517	112.5
487.735	106.5
487.953	111.5
488.171	104.5
488.389	104.5
488.607	98.5
488.825	108.5
489.043	91.5
489.261	108.5
489.479	88.5
489.696	87.5
489.914	108.5
490.132	99.5
490.35	107.5
490.568	97.5
490.786	97.5
491.003	92.5
491.221	104.5
491.439	105.5
491.657	104.5
491.874	120.5
492.092	104.5
492.31	116.5
492.527	134.5
492.745	93.5
492.963	117.5
493.18	109.5
493.398	113.5
493.615	106.5
493.833	103.5
494.05	113.5
494.268	108.5
494.485	104.5
494.703	124.5
494.92	105.5
495.138	107.5
495.355	115.5
495.573	115.5
495.79	105.5
496.008	98.5
496.225	102.5
496.442	107.5
496.66	109.5
496.877	129.5
497.094	106.5
497.312	95.5
497.529	119.5
497.746	109.5
497.963	108.5
498.181	117.5
498.398	105.5
498.615	115.5
498.832	103.5
499.049	113.5
499.267	121.5
499.484	135.5
499.701	137.5
499.918	133.5
500.135	130.5
500.352	136.5
500.569	163.5
500.786	149.5
501.003	152.5
501.22	141.5
501.437	134.5
501.654	130.5
501.871	129.5
502.088	119.5
502.305	122.5
502.522	103.5
502.739	103.5
502.956	108.5
503.172	111.5
503.389	103.5
503.606	114.5
503.823	105.5
504.04	111.5
504.256	121.5
504.473	106.5
504.69	119.5
504.907	114.5
505.123	96.5
505.34	109.5
505.557	104.5
505.773	105.5
505.99	96.5
506.207	96.5
506.423	102.5
506.64	105.5
506.856	94.5
507.073	77.5
507.289	105.5
507.506	103.5
507.722	102.5
507.939	115.5
508.155	93.5
508.372	121.5
508.588	103.5
508.805	96.5
509.021	95.5
509.238	95.5
509.454	112.5
509.67	102.5
509.887	111.5
510.103	93.5
510.319	108.5
510.536	105.5
510.752	96.5
510.968	90.5
511.184	99.5
511.401	102.5
511.617	98.5
511.833	89.5
512.049	107.5
512.265	117.5
512.481	109.5
512.698	98.5
512.914	97.5
513.13	99.5
513.346	93.5
513.562	80.5
513.778	102.5
513.994	99.5
514.21	94.5
514.426	96.5
514.642	103.5
514.858	116.5
515.074	109.5
515.29	95.5
515.506	99.5
515.721	87.5
515.937	105.5
516.153	97.5
516.369	107.5
516.585	89.5
516.801	103.5
517.016	107.5
517.232	112.5
517.448	88.5
517.664	101.5
517.879	90.5
518.095	101.5
518.311	99.5
518.527	108.5
518.742	100.5
518.958	113.5
519.173	100.5
519.389	95.5
519.605	115.5
519.82	101.5
520.036	93.5
520.251	104.5
520.467	116.5
520.682	94.5
520.898	101.5
521.113	104.5
521.329	90.5
521.544	101.5
521.76	109.5
521.975	100.5
522.19	87.5
522.406	108.5
522.621	97.5
522.836	102.5
523.052	95.5
523.267	97.5
523.482	104.5
523.698	86.5
523.913	96.5
524.128	104.5
524.343	90.5
524.559	102.5
524.774	111.5
524.989	94.5
525.204	104.5
525.419	97.5
525.634	102.5
525.849	106.5
526.064	87.5
526.28	105.5
526.495	78.5
526.71	87.5
526.925	100.5
527.14	89.5
527.355	107.5
527.57	97.5
527.785	105.5
527.999	98.5
528.214	86.5
528.429	103.5
528.644	96.5
528.859	95.5
529.074	97.5
529.289	91.5
529.503	108.5
529.718	111.5
529.933	104.5
530.148	91.5
530.363	99.5
530.577	86.5
530.792	91.5
531.007	97.5
531.221	108.5
531.436	86.5
531.651	90.5
531.865	107.5
532.08	97.5
532.295	90.5
532.509	84.5
532.724	96.5
532.938	93.5
533.153	103.5
533.367	98.5
533.582	98.5
533.796	100.5
534.011	103.5
534.225	100.5
