Data from Location5.07152019.Energy5.Lamp.07192019.3%Agarose_HRD10591_15-36-58-386.txt Node
Date: Fri Jul 19 15:36:58 EDT 2019
User: cochatt
Spectrometer: HR+D1059
Trigger mode: 1
Integration Time (sec): 1.000000E-1
Scans to average: 1
Electric dark correction enabled: true
Nonlinearity correction enabled: false
Boxcar width: 0
XAxis mode: Wavelengths
Number of Pixels in Spectrum: 2048
>>>>>Begin Spectral Data<<<<<
223.165	-16.75
223.4	-16.75
223.635	-16.75
223.869	-15.75
224.104	-15.75
224.338	-23.75
224.573	-12.75
224.808	-8.75
225.042	-12.75
225.277	-1.75
225.511	9.25
225.746	-4.75
225.98	10.25
226.215	7.25
226.449	14.25
226.683	18.25
226.918	15.25
227.152	38.25
227.387	48.25
227.621	41.25
227.856	47.25
228.09	32.25
228.324	51.25
228.559	60.25
228.793	54.25
229.027	67.25
229.262	60.25
229.496	66.25
229.73	67.25
229.964	67.25
230.199	57.25
230.433	67.25
230.667	67.25
230.901	75.25
231.136	85.25
231.37	78.25
231.604	82.25
231.838	85.25
232.072	78.25
232.306	73.25
232.541	82.25
232.775	89.25
233.009	78.25
233.243	95.25
233.477	79.25
233.711	90.25
233.945	89.25
234.179	82.25
234.413	93.25
234.647	97.25
234.881	77.25
235.115	82.25
235.349	65.25
235.583	84.25
235.817	88.25
236.051	89.25
236.285	78.25
236.519	66.25
236.753	80.25
236.987	81.25
237.221	83.25
237.455	81.25
237.689	66.25
237.922	80.25
238.156	83.25
238.39	75.25
238.624	69.25
238.858	79.25
239.091	80.25
239.325	83.25
239.559	69.25
239.793	84.25
240.027	81.25
240.26	83.25
240.494	65.25
240.728	85.25
240.961	79.25
241.195	74.25
241.429	82.25
241.662	83.25
241.896	73.25
242.13	83.25
242.363	76.25
242.597	77.25
242.83	70.25
243.064	75.25
243.298	75.25
243.531	82.25
243.765	73.25
243.998	80.25
244.232	73.25
244.465	76.25
244.699	76.25
244.932	89.25
245.166	84.25
245.399	83.25
245.633	75.25
245.866	80.25
246.099	68.25
246.333	78.25
246.566	79.25
246.8	76.25
247.033	79.25
247.266	79.25
247.5	70.25
247.733	75.25
247.966	73.25
248.2	82.25
248.433	69.25
248.666	57.25
248.899	88.25
249.133	71.25
249.366	82.25
249.599	84.25
249.832	83.25
250.066	80.25
250.299	79.25
250.532	60.25
250.765	89.25
250.998	93.25
251.231	83.25
251.465	76.25
251.698	71.25
251.931	78.25
252.164	89.25
252.397	81.25
252.63	87.25
252.863	73.25
253.096	86.25
253.329	90.25
253.562	87.25
253.795	85.25
254.028	93.25
254.261	84.25
254.494	74.25
254.727	66.25
254.96	81.25
255.193	63.25
255.426	82.25
255.659	86.25
255.892	71.25
256.124	82.25
256.357	76.25
256.59	79.25
256.823	78.25
257.056	74.25
257.289	70.25
257.521	93.25
257.754	79.25
257.987	88.25
258.22	87.25
258.452	91.25
258.685	78.25
258.918	71.25
259.151	78.25
259.383	86.25
259.616	76.25
259.849	72.25
260.081	82.25
260.314	92.25
260.547	81.25
260.779	100.25
261.012	81.25
261.244	72.25
261.477	90.25
261.71	83.25
261.942	88.25
262.175	90.25
262.407	74.25
262.64	65.25
262.872	85.25
263.105	71.25
263.337	99.25
263.57	71.25
263.802	82.25
264.035	84.25
264.267	85.25
264.499	80.25
264.732	74.25
264.964	89.25
265.197	83.25
265.429	80.25
265.661	88.25
265.894	79.25
266.126	79.25
266.358	82.25
266.591	80.25
266.823	90.25
267.055	87.25
267.287	70.25
267.52	90.25
267.752	83.25
267.984	76.25
268.216	64.25
268.448	108.25
268.681	87.25
268.913	75.25
269.145	92.25
269.377	74.25
269.609	89.25
269.841	87.25
270.073	87.25
270.306	92.25
270.538	91.25
270.77	71.25
271.002	82.25
271.234	81.25
271.466	89.25
271.698	73.25
271.93	90.25
272.162	87.25
272.394	77.25
272.626	84.25
272.858	98.25
273.09	93.25
273.322	73.25
273.553	75.25
273.785	62.25
274.017	89.25
274.249	76.25
274.481	89.25
274.713	87.25
274.945	81.25
275.176	83.25
275.408	88.25
275.64	86.25
275.872	77.25
276.104	90.25
276.335	83.25
276.567	82.25
276.799	89.25
277.031	84.25
277.262	83.25
277.494	93.25
277.726	84.25
277.957	82.25
278.189	82.25
278.421	76.25
278.652	76.25
278.884	82.25
279.115	94.25
279.347	86.25
279.579	75.25
279.81	83.25
280.042	73.25
280.273	81.25
280.505	81.25
280.736	91.25
280.968	79.25
281.199	73.25
281.431	93.25
281.662	70.25
281.894	89.25
282.125	81.25
282.356	100.25
282.588	89.25
282.819	60.25
283.051	85.25
283.282	89.25
283.513	86.25
283.745	87.25
283.976	81.25
284.207	87.25
284.439	75.25
284.67	88.25
284.901	95.25
285.132	92.25
285.364	72.25
285.595	75.25
285.826	74.25
286.057	74.25
286.288	84.25
286.52	81.25
286.751	71.25
286.982	92.25
287.213	66.25
287.444	91.25
287.675	83.25
287.906	78.25
288.138	89.25
288.369	83.25
288.6	83.25
288.831	81.25
289.062	86.25
289.293	83.25
289.524	78.25
289.755	94.25
289.986	73.25
290.217	97.25
290.448	86.25
290.679	74.25
290.91	98.25
291.141	71.25
291.371	86.25
291.602	90.25
291.833	62.25
292.064	79.25
292.295	89.25
292.526	69.25
292.757	74.25
292.987	88.25
293.218	74.25
293.449	81.25
293.68	97.25
293.91	91.25
294.141	83.25
294.372	85.25
294.603	80.25
294.833	77.25
295.064	88.25
295.295	80.25
295.525	80.25
295.756	95.25
295.987	72.25
296.217	83.25
296.448	89.25
296.679	69.25
296.909	83.25
297.14	74.25
297.37	86.25
297.601	74.25
297.831	93.25
298.062	82.25
298.292	87.25
298.523	84.25
298.753	86.25
298.984	83.25
299.214	86.25
299.445	77.25
299.675	82.25
299.905	80.25
300.136	83.25
300.366	78.25
300.597	84.25
300.827	78.25
301.057	88.25
301.288	85.25
301.518	80.25
301.748	86.25
301.979	88.25
302.209	74.25
302.439	85.25
302.669	77.25
302.9	75.25
303.13	90.25
303.36	75.25
303.59	90.25
303.82	72.25
304.051	91.25
304.281	82.25
304.511	91.25
304.741	81.25
304.971	87.25
305.201	73.25
305.431	85.25
305.661	82.25
305.891	94.25
306.121	88.25
306.352	77.25
306.582	90.25
306.812	89.25
307.042	87.25
307.272	78.25
307.502	83.25
307.731	87.25
307.961	78.25
308.191	93.25
308.421	86.25
308.651	81.25
308.881	95.25
309.111	76.25
309.341	79.25
309.571	86.25
309.8	80.25
310.03	84.25
310.26	80.25
310.49	72.25
310.72	71.25
310.949	89.25
311.179	88.25
311.409	93.25
311.639	79.25
311.868	71.25
312.098	81.25
312.328	73.25
312.557	70.25
312.787	80.25
313.017	71.25
313.246	100.25
313.476	86.25
313.706	86.25
313.935	86.25
314.165	88.25
314.394	78.25
314.624	73.25
314.853	98.25
315.083	87.25
315.312	95.25
315.542	88.25
315.771	73.25
316.001	87.25
316.23	91.25
316.46	84.25
316.689	95.25
316.919	78.25
317.148	80.25
317.377	84.25
317.607	83.25
317.836	94.25
318.065	82.25
318.295	83.25
318.524	69.25
318.753	87.25
318.983	83.25
319.212	76.25
319.441	102.25
319.67	89.25
319.9	98.25
320.129	82.25
320.358	96.25
320.587	86.25
320.816	85.25
321.046	71.25
321.275	73.25
321.504	94.25
321.733	86.25
321.962	86.25
322.191	94.25
322.42	78.25
322.649	78.25
322.878	82.25
323.108	85.25
323.337	79.25
323.566	94.25
323.795	82.25
324.024	71.25
324.253	80.25
324.482	83.25
324.71	74.25
324.939	79.25
325.168	82.25
325.397	89.25
325.626	97.25
325.855	83.25
326.084	79.25
326.313	86.25
326.542	82.25
326.77	71.25
326.999	77.25
327.228	78.25
327.457	73.25
327.686	68.25
327.914	74.25
328.143	84.25
328.372	77.25
328.6	89.25
328.829	91.25
329.058	79.25
329.287	72.25
329.515	76.25
329.744	81.25
329.972	84.25
330.201	80.25
330.43	95.25
330.658	86.25
330.887	89.25
331.115	90.25
331.344	83.25
331.572	74.25
331.801	98.25
332.03	90.25
332.258	77.25
332.486	74.25
332.715	79.25
332.943	94.25
333.172	84.25
333.4	79.25
333.629	90.25
333.857	85.25
334.085	95.25
334.314	69.25
334.542	92.25
334.771	82.25
334.999	72.25
335.227	92.25
335.455	75.25
335.684	89.25
335.912	88.25
336.14	82.25
336.369	91.25
336.597	74.25
336.825	85.25
337.053	85.25
337.281	89.25
337.51	88.25
337.738	70.25
337.966	72.25
338.194	91.25
338.422	80.25
338.65	88.25
338.878	95.25
339.106	111.25
339.334	94.25
339.562	74.25
339.79	82.25
340.018	90.25
340.246	85.25
340.474	78.25
340.702	71.25
340.93	77.25
341.158	83.25
341.386	84.25
341.614	87.25
341.842	76.25
342.07	68.25
342.298	96.25
342.526	94.25
342.754	78.25
342.981	88.25
343.209	83.25
343.437	75.25
343.665	90.25
343.893	91.25
344.12	63.25
344.348	77.25
344.576	89.25
344.804	97.25
345.031	90.25
345.259	91.25
345.487	78.25
345.714	82.25
345.942	86.25
346.17	85.25
346.397	73.25
346.625	89.25
346.853	76.25
347.08	87.25
347.308	84.25
347.535	90.25
347.763	74.25
347.99	88.25
348.218	75.25
348.445	80.25
348.673	83.25
348.9	83.25
349.128	95.25
349.355	73.25
349.583	70.25
349.81	72.25
350.037	73.25
350.265	89.25
350.492	67.25
350.72	84.25
350.947	76.25
351.174	93.25
351.402	88.25
351.629	84.25
351.856	74.25
352.083	92.25
352.311	87.25
352.538	81.25
352.765	98.25
352.992	71.25
353.22	81.25
353.447	91.25
353.674	89.25
353.901	86.25
354.128	78.25
354.355	91.25
354.583	75.25
354.81	78.25
355.037	81.25
355.264	81.25
355.491	88.25
355.718	72.25
355.945	97.25
356.172	89.25
356.399	85.25
356.626	74.25
356.853	89.25
357.08	90.25
357.307	81.25
357.534	81.25
357.761	82.25
357.988	89.25
358.215	83.25
358.441	77.25
358.668	81.25
358.895	79.25
359.122	78.25
359.349	81.25
359.576	70.25
359.802	93.25
360.029	92.25
360.256	85.25
360.483	78.25
360.709	76.25
360.936	80.25
361.163	76.25
361.39	98.25
361.616	82.25
361.843	87.25
362.07	77.25
362.296	78.25
362.523	81.25
362.749	85.25
362.976	74.25
363.203	73.25
363.429	75.25
363.656	91.25
363.882	79.25
364.109	86.25
364.335	94.25
364.562	74.25
364.788	82.25
365.015	75.25
365.241	70.25
365.468	89.25
365.694	69.25
365.92	85.25
366.147	75.25
366.373	81.25
366.599	84.25
366.826	82.25
367.052	79.25
367.278	79.25
367.505	85.25
367.731	83.25
367.957	80.25
368.184	83.25
368.41	88.25
368.636	80.25
368.862	90.25
369.089	94.25
369.315	86.25
369.541	76.25
369.767	87.25
369.993	71.25
370.219	70.25
370.445	67.25
370.672	81.25
370.898	90.25
371.124	87.25
371.35	89.25
371.576	83.25
371.802	85.25
372.028	90.25
372.254	75.25
372.48	96.25
372.706	78.25
372.932	70.25
373.158	88.25
373.384	87.25
373.61	75.25
373.835	93.25
374.061	86.25
374.287	66.25
374.513	79.25
374.739	76.25
374.965	66.25
375.191	82.25
375.416	80.25
375.642	76.25
375.868	88.25
376.094	84.25
376.319	83.25
376.545	83.25
376.771	78.25
376.997	89.25
377.222	89.25
377.448	75.25
377.674	89.25
377.899	83.25
378.125	85.25
378.35	92.25
378.576	82.25
378.802	86.25
379.027	82.25
379.253	85.25
379.478	84.25
379.704	81.25
379.929	86.25
380.155	96.25
380.38	83.25
380.606	71.25
380.831	80.25
381.057	87.25
381.282	98.25
381.507	80.25
381.733	74.25
381.958	73.25
382.184	89.25
382.409	87.25
382.634	74.25
382.86	94.25
383.085	85.25
383.31	76.25
383.535	69.25
383.761	79.25
383.986	92.25
384.211	75.25
384.436	60.25
384.662	71.25
384.887	78.25
385.112	89.25
385.337	83.25
385.562	94.25
385.787	93.25
386.013	91.25
386.238	86.25
386.463	88.25
386.688	88.25
386.913	77.25
387.138	89.25
387.363	80.25
387.588	89.25
387.813	86.25
388.038	94.25
388.263	83.25
388.488	81.25
388.713	67.25
388.938	90.25
389.163	79.25
389.387	94.25
389.612	93.25
389.837	90.25
390.062	91.25
390.287	89.25
390.512	73.25
390.736	74.25
390.961	83.25
391.186	96.25
391.411	78.25
391.636	78.25
391.86	84.25
392.085	83.25
392.31	98.25
392.534	92.25
392.759	82.25
392.984	94.25
393.208	77.25
393.433	88.25
393.658	81.25
393.882	76.25
394.107	85.25
394.331	94.25
394.556	94.25
394.78	95.25
395.005	89.25
395.229	83.25
395.454	86.25
395.678	79.25
395.903	85.25
396.127	90.25
396.352	84.25
396.576	86.25
396.801	74.25
397.025	83.25
397.249	81.25
397.474	89.25
397.698	81.25
397.922	101.25
398.147	90.25
398.371	105.25
398.595	87.25
398.82	82.25
399.044	81.25
399.268	70.25
399.492	79.25
399.717	99.25
399.941	67.25
400.165	90.25
400.389	88.25
400.613	77.25
400.837	82.25
401.062	83.25
401.286	93.25
401.51	89.25
401.734	84.25
401.958	90.25
402.182	94.25
402.406	96.25
402.63	89.25
402.854	90.25
403.078	64.25
403.302	79.25
403.526	74.25
403.75	76.25
403.974	82.25
404.198	98.25
404.422	87.25
404.645	81.25
404.869	87.25
405.093	96.25
405.317	105.25
405.541	90.25
405.765	85.25
405.988	85.25
406.212	80.25
406.436	83.25
406.66	99.25
406.883	86.25
407.107	79.25
407.331	72.25
407.555	71.25
407.778	82.25
408.002	78.25
408.226	80.25
408.449	89.25
408.673	89.25
408.896	94.25
409.12	90.25
409.344	93.25
409.567	79.25
409.791	77.25
410.014	75.25
410.238	85.25
410.461	95.25
410.685	74.25
410.908	87.25
411.132	84.25
411.355	97.25
411.578	80.25
411.802	99.25
412.025	90.25
412.249	84.25
412.472	80.25
412.695	93.25
412.919	94.25
413.142	87.25
413.365	80.25
413.589	82.25
413.812	97.25
414.035	90.25
414.258	96.25
414.482	84.25
414.705	78.25
414.928	83.25
415.151	88.25
415.374	81.25
415.597	90.25
415.821	90.25
416.044	89.25
416.267	101.25
416.49	94.25
416.713	94.25
416.936	85.25
417.159	86.25
417.382	94.25
417.605	96.25
417.828	89.25
418.051	80.25
418.274	90.25
418.497	91.25
418.72	83.25
418.943	88.25
419.166	90.25
419.389	102.25
419.611	75.25
419.834	87.25
420.057	93.25
420.28	89.25
420.503	90.25
420.726	83.25
420.948	95.25
421.171	83.25
421.394	86.25
421.617	96.25
421.839	88.25
422.062	100.25
422.285	95.25
422.507	78.25
422.73	81.25
422.953	95.25
423.175	93.25
423.398	92.25
423.621	75.25
423.843	99.25
424.066	91.25
424.288	91.25
424.511	97.25
424.733	99.25
424.956	84.25
425.178	86.25
425.401	89.25
425.623	79.25
425.846	85.25
426.068	94.25
426.291	100.25
426.513	110.25
426.735	104.25
426.958	111.25
427.18	101.25
427.402	99.25
427.625	90.25
427.847	73.25
428.069	90.25
428.292	72.25
428.514	75.25
428.736	79.25
428.958	87.25
429.181	91.25
429.403	84.25
429.625	84.25
429.847	95.25
430.069	78.25
430.292	79.25
430.514	89.25
430.736	91.25
430.958	78.25
431.18	90.25
431.402	91.25
431.624	91.25
431.846	100.25
432.068	82.25
432.29	65.25
432.512	87.25
432.734	80.25
432.956	93.25
433.178	93.25
433.4	90.25
433.622	96.25
433.844	84.25
434.066	90.25
434.287	90.25
434.509	83.25
434.731	89.25
434.953	85.25
435.175	80.25
435.397	80.25
435.618	78.25
435.84	81.25
436.062	89.25
436.284	92.25
436.505	84.25
436.727	97.25
436.949	94.25
437.17	91.25
437.392	81.25
437.614	85.25
437.835	90.25
438.057	93.25
438.278	84.25
438.5	92.25
438.721	91.25
438.943	81.25
439.165	83.25
439.386	87.25
439.608	91.25
439.829	88.25
440.05	103.25
440.272	105.25
440.493	92.25
440.715	99.25
440.936	90.25
441.158	94.25
441.379	93.25
441.6	90.25
441.822	76.25
442.043	88.25
442.264	97.25
442.486	100.25
442.707	78.25
442.928	81.25
443.149	90.25
443.371	89.25
443.592	81.25
443.813	89.25
444.034	90.25
444.255	88.25
444.476	102.25
444.698	95.25
444.919	95.25
445.14	177.25
445.361	119.25
445.582	101.25
445.803	97.25
446.024	89.25
446.245	98.25
446.466	99.25
446.687	88.25
446.908	97.25
447.129	97.25
447.35	90.25
447.571	79.25
447.792	96.25
448.013	90.25
448.234	99.25
448.455	99.25
448.675	90.25
448.896	99.25
449.117	89.25
449.338	91.25
449.559	89.25
449.779	92.25
450	87.25
450.221	85.25
450.442	89.25
450.662	93.25
450.883	116.25
451.104	106.25
451.324	85.25
451.545	99.25
451.766	81.25
451.986	100.25
452.207	98.25
452.428	93.25
452.648	101.25
452.869	97.25
453.089	99.25
453.31	100.25
453.53	85.25
453.751	94.25
453.971	97.25
454.192	95.25
454.412	90.25
454.633	96.25
454.853	85.25
455.073	85.25
455.294	86.25
455.514	83.25
455.734	87.25
455.955	85.25
456.175	99.25
456.395	89.25
456.616	93.25
456.836	94.25
457.056	99.25
457.276	85.25
457.497	80.25
457.717	78.25
457.937	92.25
458.157	85.25
458.377	69.25
458.598	94.25
458.818	87.25
459.038	79.25
459.258	71.25
459.478	77.25
459.698	72.25
459.918	86.25
460.138	90.25
460.358	76.25
460.578	81.25
460.798	87.25
461.018	83.25
461.238	80.25
461.458	82.25
461.678	86.25
461.898	82.25
462.118	77.25
462.338	81.25
462.558	88.25
462.777	81.25
462.997	84.25
463.217	89.25
463.437	88.25
463.657	97.25
463.876	83.25
464.096	102.25
464.316	97.25
464.536	88.25
464.755	76.25
464.975	87.25
465.195	83.25
465.414	87.25
465.634	81.25
465.854	96.25
466.073	92.25
466.293	89.25
466.512	74.25
466.732	95.25
466.951	78.25
467.171	90.25
467.391	97.25
467.61	82.25
467.829	85.25
468.049	98.25
468.268	95.25
468.488	93.25
468.707	114.25
468.927	92.25
469.146	101.25
469.365	88.25
469.585	85.25
469.804	89.25
470.023	90.25
470.243	87.25
470.462	97.25
470.681	90.25
470.901	86.25
471.12	101.25
471.339	89.25
471.558	92.25
471.777	87.25
471.997	94.25
472.216	96.25
472.435	88.25
472.654	88.25
472.873	85.25
473.092	88.25
473.311	97.25
473.53	76.25
473.749	86.25
473.968	94.25
474.187	105.25
474.406	97.25
474.625	78.25
474.844	98.25
475.063	83.25
475.282	81.25
475.501	98.25
475.72	89.25
475.939	79.25
476.158	100.25
476.377	97.25
476.596	77.25
476.814	82.25
477.033	87.25
477.252	85.25
477.471	100.25
477.69	101.25
477.908	81.25
478.127	100.25
478.346	87.25
478.564	103.25
478.783	87.25
479.002	92.25
479.22	118.25
479.439	98.25
479.658	82.25
479.876	80.25
480.095	84.25
480.313	79.25
480.532	91.25
480.751	89.25
480.969	79.25
481.188	88.25
481.406	84.25
481.624	82.25
481.843	81.25
482.061	84.25
482.28	87.25
482.498	94.25
482.717	86.25
482.935	81.25
483.153	101.25
483.372	94.25
483.59	101.25
483.808	92.25
484.027	89.25
484.245	77.25
484.463	91.25
484.681	118.25
484.9	88.25
485.118	98.25
485.336	99.25
485.554	79.25
485.772	71.25
485.99	80.25
486.209	94.25
486.427	73.25
486.645	92.25
486.863	98.25
487.081	98.25
487.299	90.25
487.517	104.25
487.735	106.25
487.953	121.25
488.171	117.25
488.389	97.25
488.607	97.25
488.825	103.25
489.043	89.25
489.261	90.25
489.479	89.25
489.696	100.25
489.914	94.25
490.132	102.25
490.35	89.25
490.568	101.25
490.786	101.25
491.003	109.25
491.221	101.25
491.439	105.25
491.657	107.25
491.874	113.25
492.092	121.25
492.31	145.25
492.527	129.25
492.745	118.25
492.963	90.25
493.18	119.25
493.398	111.25
493.615	114.25
493.833	104.25
494.05	115.25
494.268	98.25
494.485	116.25
494.703	103.25
494.92	113.25
495.138	98.25
495.355	113.25
495.573	114.25
495.79	110.25
496.008	97.25
496.225	112.25
496.442	107.25
496.66	125.25
496.877	103.25
497.094	111.25
497.312	97.25
497.529	102.25
497.746	97.25
497.963	95.25
498.181	84.25
498.398	83.25
498.615	98.25
498.832	95.25
499.049	99.25
499.267	83.25
499.484	90.25
499.701	94.25
499.918	94.25
500.135	89.25
500.352	87.25
500.569	105.25
500.786	111.25
501.003	103.25
501.22	94.25
501.437	98.25
501.654	93.25
501.871	83.25
502.088	76.25
502.305	93.25
502.522	103.25
502.739	92.25
502.956	93.25
503.172	95.25
503.389	86.25
503.606	106.25
503.823	97.25
504.04	111.25
504.256	87.25
504.473	88.25
504.69	86.25
504.907	100.25
505.123	88.25
505.34	88.25
505.557	75.25
505.773	87.25
505.99	81.25
506.207	91.25
506.423	100.25
506.64	112.25
506.856	105.25
507.073	102.25
507.289	85.25
507.506	100.25
507.722	104.25
507.939	90.25
508.155	85.25
508.372	90.25
508.588	91.25
508.805	93.25
509.021	86.25
509.238	77.25
509.454	82.25
509.67	86.25
509.887	94.25
510.103	91.25
510.319	71.25
510.536	87.25
510.752	76.25
510.968	86.25
511.184	89.25
511.401	84.25
511.617	86.25
511.833	82.25
512.049	87.25
512.265	93.25
512.481	87.25
512.698	89.25
512.914	87.25
513.13	105.25
513.346	84.25
513.562	98.25
513.778	91.25
513.994	87.25
514.21	89.25
514.426	93.25
514.642	90.25
514.858	81.25
515.074	94.25
515.29	93.25
515.506	81.25
515.721	80.25
515.937	77.25
516.153	82.25
516.369	74.25
516.585	82.25
516.801	91.25
517.016	88.25
517.232	73.25
517.448	92.25
517.664	75.25
517.879	67.25
518.095	93.25
