Data from Location5.07152019.Energy5.Lamp.07192019.3%Agarose_HRD10591_16-02-31-685.txt Node
Date: Fri Jul 19 16:02:31 EDT 2019
User: cochatt
Spectrometer: HR+D1059
Trigger mode: 1
Integration Time (sec): 1.000000E-1
Scans to average: 1
Electric dark correction enabled: true
Nonlinearity correction enabled: false
Boxcar width: 0
XAxis mode: Wavelengths
Number of Pixels in Spectrum: 2048
>>>>>Begin Spectral Data<<<<<
223.165	-19.69
223.4	-19.69
223.635	-19.69
223.869	-14.69
224.104	-2.69
224.338	-26.69
224.573	-21.69
224.808	-16.69
225.042	1.31
225.277	10.31
225.511	-17.69
225.746	1.31
225.98	10.31
226.215	6.31
226.449	5.31
226.683	25.31
226.918	28.31
227.152	31.31
227.387	30.31
227.621	42.31
227.856	31.31
228.09	38.31
228.324	47.31
228.559	50.31
228.793	34.31
229.027	52.31
229.262	65.31
229.496	60.31
229.73	85.31
229.964	79.31
230.199	72.31
230.433	68.31
230.667	72.31
230.901	77.31
231.136	82.31
231.37	85.31
231.604	65.31
231.838	83.31
232.072	78.31
232.306	92.31
232.541	73.31
232.775	73.31
233.009	72.31
233.243	84.31
233.477	86.31
233.711	86.31
233.945	95.31
234.179	73.31
234.413	61.31
234.647	72.31
234.881	68.31
235.115	74.31
235.349	70.31
235.583	69.31
235.817	84.31
236.051	71.31
236.285	65.31
236.519	72.31
236.753	75.31
236.987	66.31
237.221	79.31
237.455	75.31
237.689	76.31
237.922	76.31
238.156	66.31
238.39	73.31
238.624	71.31
238.858	67.31
239.091	71.31
239.325	72.31
239.559	62.31
239.793	76.31
240.027	69.31
240.26	79.31
240.494	67.31
240.728	65.31
240.961	78.31
241.195	64.31
241.429	82.31
241.662	66.31
241.896	79.31
242.13	69.31
242.363	82.31
242.597	62.31
242.83	65.31
243.064	70.31
243.298	78.31
243.531	73.31
243.765	96.31
243.998	64.31
244.232	80.31
244.465	72.31
244.699	68.31
244.932	78.31
245.166	85.31
245.399	76.31
245.633	67.31
245.866	83.31
246.099	63.31
246.333	71.31
246.566	73.31
246.8	74.31
247.033	72.31
247.266	78.31
247.5	80.31
247.733	78.31
247.966	75.31
248.2	84.31
248.433	71.31
248.666	84.31
248.899	86.31
249.133	78.31
249.366	81.31
249.599	82.31
249.832	72.31
250.066	77.31
250.299	75.31
250.532	72.31
250.765	79.31
250.998	87.31
251.231	86.31
251.465	73.31
251.698	84.31
251.931	81.31
252.164	91.31
252.397	93.31
252.63	78.31
252.863	92.31
253.096	70.31
253.329	78.31
253.562	71.31
253.795	80.31
254.028	69.31
254.261	78.31
254.494	86.31
254.727	72.31
254.96	84.31
255.193	83.31
255.426	74.31
255.659	86.31
255.892	81.31
256.124	73.31
256.357	80.31
256.59	95.31
256.823	72.31
257.056	81.31
257.289	79.31
257.521	74.31
257.754	86.31
257.987	80.31
258.22	72.31
258.452	83.31
258.685	73.31
258.918	78.31
259.151	87.31
259.383	85.31
259.616	70.31
259.849	78.31
260.081	81.31
260.314	84.31
260.547	72.31
260.779	90.31
261.012	82.31
261.244	85.31
261.477	89.31
261.71	82.31
261.942	87.31
262.175	70.31
262.407	87.31
262.64	73.31
262.872	81.31
263.105	90.31
263.337	81.31
263.57	92.31
263.802	87.31
264.035	80.31
264.267	81.31
264.499	90.31
264.732	86.31
264.964	74.31
265.197	72.31
265.429	86.31
265.661	82.31
265.894	66.31
266.126	82.31
266.358	91.31
266.591	71.31
266.823	80.31
267.055	74.31
267.287	80.31
267.52	78.31
267.752	92.31
267.984	89.31
268.216	78.31
268.448	77.31
268.681	82.31
268.913	84.31
269.145	74.31
269.377	75.31
269.609	76.31
269.841	83.31
270.073	76.31
270.306	85.31
270.538	73.31
270.77	82.31
271.002	82.31
271.234	84.31
271.466	73.31
271.698	81.31
271.93	75.31
272.162	88.31
272.394	90.31
272.626	77.31
272.858	79.31
273.09	88.31
273.322	90.31
273.553	86.31
273.785	90.31
274.017	94.31
274.249	91.31
274.481	81.31
274.713	66.31
274.945	83.31
275.176	78.31
275.408	87.31
275.64	97.31
275.872	73.31
276.104	94.31
276.335	73.31
276.567	80.31
276.799	72.31
277.031	74.31
277.262	81.31
277.494	82.31
277.726	95.31
277.957	82.31
278.189	81.31
278.421	72.31
278.652	76.31
278.884	82.31
279.115	84.31
279.347	86.31
279.579	74.31
279.81	90.31
280.042	85.31
280.273	80.31
280.505	83.31
280.736	89.31
280.968	78.31
281.199	92.31
281.431	82.31
281.662	95.31
281.894	80.31
282.125	82.31
282.356	80.31
282.588	87.31
282.819	98.31
283.051	96.31
283.282	89.31
283.513	79.31
283.745	85.31
283.976	83.31
284.207	84.31
284.439	96.31
284.67	91.31
284.901	80.31
285.132	82.31
285.364	90.31
285.595	111.31
285.826	76.31
286.057	92.31
286.288	70.31
286.52	68.31
286.751	87.31
286.982	107.31
287.213	92.31
287.444	91.31
287.675	87.31
287.906	90.31
288.138	70.31
288.369	89.31
288.6	79.31
288.831	74.31
289.062	95.31
289.293	91.31
289.524	100.31
289.755	86.31
289.986	92.31
290.217	82.31
290.448	84.31
290.679	86.31
290.91	92.31
291.141	93.31
291.371	97.31
291.602	88.31
291.833	90.31
292.064	88.31
292.295	99.31
292.526	82.31
292.757	71.31
292.987	91.31
293.218	83.31
293.449	95.31
293.68	86.31
293.91	82.31
294.141	90.31
294.372	77.31
294.603	94.31
294.833	75.31
295.064	81.31
295.295	102.31
295.525	78.31
295.756	93.31
295.987	82.31
296.217	93.31
296.448	96.31
296.679	95.31
296.909	80.31
297.14	83.31
297.37	92.31
297.601	77.31
297.831	84.31
298.062	85.31
298.292	91.31
298.523	72.31
298.753	86.31
298.984	93.31
299.214	86.31
299.445	85.31
299.675	96.31
299.905	97.31
300.136	93.31
300.366	89.31
300.597	84.31
300.827	87.31
301.057	78.31
301.288	80.31
301.518	96.31
301.748	83.31
301.979	89.31
302.209	84.31
302.439	87.31
302.669	92.31
302.9	94.31
303.13	83.31
303.36	87.31
303.59	84.31
303.82	79.31
304.051	93.31
304.281	93.31
304.511	86.31
304.741	77.31
304.971	85.31
305.201	91.31
305.431	103.31
305.661	87.31
305.891	88.31
306.121	82.31
306.352	86.31
306.582	89.31
306.812	92.31
307.042	100.31
307.272	87.31
307.502	86.31
307.731	98.31
307.961	92.31
308.191	74.31
308.421	102.31
308.651	78.31
308.881	92.31
309.111	76.31
309.341	90.31
309.571	88.31
309.8	86.31
310.03	85.31
310.26	86.31
310.49	92.31
310.72	86.31
310.949	95.31
311.179	70.31
311.409	92.31
311.639	91.31
311.868	87.31
312.098	84.31
312.328	96.31
312.557	82.31
312.787	82.31
313.017	89.31
313.246	68.31
313.476	77.31
313.706	85.31
313.935	83.31
314.165	96.31
314.394	81.31
314.624	73.31
314.853	78.31
315.083	87.31
315.312	80.31
315.542	92.31
315.771	88.31
316.001	96.31
316.23	94.31
316.46	97.31
316.689	89.31
316.919	84.31
317.148	97.31
317.377	88.31
317.607	78.31
317.836	101.31
318.065	88.31
318.295	85.31
318.524	91.31
318.753	80.31
318.983	80.31
319.212	75.31
319.441	88.31
319.67	98.31
319.9	80.31
320.129	91.31
320.358	91.31
320.587	97.31
320.816	86.31
321.046	95.31
321.275	90.31
321.504	87.31
321.733	91.31
321.962	89.31
322.191	88.31
322.42	82.31
322.649	83.31
322.878	95.31
323.108	94.31
323.337	85.31
323.566	78.31
323.795	88.31
324.024	96.31
324.253	99.31
324.482	82.31
324.71	80.31
324.939	87.31
325.168	88.31
325.397	79.31
325.626	78.31
325.855	92.31
326.084	81.31
326.313	85.31
326.542	77.31
326.77	91.31
326.999	88.31
327.228	92.31
327.457	95.31
327.686	91.31
327.914	85.31
328.143	91.31
328.372	91.31
328.6	101.31
328.829	93.31
329.058	72.31
329.287	88.31
329.515	91.31
329.744	95.31
329.972	78.31
330.201	97.31
330.43	86.31
330.658	89.31
330.887	91.31
331.115	85.31
331.344	90.31
331.572	92.31
331.801	87.31
332.03	87.31
332.258	80.31
332.486	85.31
332.715	83.31
332.943	69.31
333.172	94.31
333.4	88.31
333.629	111.31
333.857	96.31
334.085	78.31
334.314	89.31
334.542	101.31
334.771	93.31
334.999	83.31
335.227	103.31
335.455	90.31
335.684	83.31
335.912	92.31
336.14	97.31
336.369	97.31
336.597	98.31
336.825	94.31
337.053	82.31
337.281	95.31
337.51	96.31
337.738	93.31
337.966	87.31
338.194	83.31
338.422	84.31
338.65	93.31
338.878	93.31
339.106	84.31
339.334	106.31
339.562	94.31
339.79	94.31
340.018	82.31
340.246	82.31
340.474	78.31
340.702	108.31
340.93	95.31
341.158	100.31
341.386	96.31
341.614	90.31
341.842	93.31
342.07	93.31
342.298	97.31
342.526	84.31
342.754	84.31
342.981	80.31
343.209	94.31
343.437	92.31
343.665	93.31
343.893	83.31
344.12	107.31
344.348	90.31
344.576	100.31
344.804	109.31
345.031	88.31
345.259	100.31
345.487	85.31
345.714	90.31
345.942	91.31
346.17	83.31
346.397	93.31
346.625	79.31
346.853	81.31
347.08	79.31
347.308	88.31
347.535	83.31
347.763	92.31
347.99	96.31
348.218	98.31
348.445	88.31
348.673	83.31
348.9	93.31
349.128	86.31
349.355	74.31
349.583	87.31
349.81	77.31
350.037	95.31
350.265	87.31
350.492	94.31
350.72	84.31
350.947	83.31
351.174	91.31
351.402	78.31
351.629	99.31
351.856	82.31
352.083	101.31
352.311	93.31
352.538	106.31
352.765	82.31
352.992	83.31
353.22	90.31
353.447	94.31
353.674	93.31
353.901	84.31
354.128	98.31
354.355	87.31
354.583	93.31
354.81	89.31
355.037	95.31
355.264	88.31
355.491	100.31
355.718	91.31
355.945	79.31
356.172	78.31
356.399	80.31
356.626	84.31
356.853	99.31
357.08	99.31
357.307	88.31
357.534	93.31
357.761	89.31
357.988	103.31
358.215	87.31
358.441	92.31
358.668	83.31
358.895	100.31
359.122	102.31
359.349	96.31
359.576	87.31
359.802	95.31
360.029	100.31
360.256	85.31
360.483	91.31
360.709	78.31
360.936	81.31
361.163	90.31
361.39	91.31
361.616	100.31
361.843	96.31
362.07	90.31
362.296	94.31
362.523	82.31
362.749	92.31
362.976	75.31
363.203	81.31
363.429	103.31
363.656	86.31
363.882	81.31
364.109	87.31
364.335	86.31
364.562	93.31
364.788	90.31
365.015	80.31
365.241	83.31
365.468	99.31
365.694	96.31
365.92	90.31
366.147	79.31
366.373	95.31
366.599	105.31
366.826	94.31
367.052	74.31
367.278	87.31
367.505	80.31
367.731	91.31
367.957	74.31
368.184	88.31
368.41	93.31
368.636	90.31
368.862	92.31
369.089	96.31
369.315	86.31
369.541	98.31
369.767	87.31
369.993	80.31
370.219	91.31
370.445	90.31
370.672	79.31
370.898	98.31
371.124	87.31
371.35	95.31
371.576	85.31
371.802	87.31
372.028	85.31
372.254	87.31
372.48	93.31
372.706	84.31
372.932	80.31
373.158	80.31
373.384	91.31
373.61	96.31
373.835	93.31
374.061	93.31
374.287	82.31
374.513	82.31
374.739	97.31
374.965	85.31
375.191	91.31
375.416	95.31
375.642	86.31
375.868	96.31
376.094	81.31
376.319	85.31
376.545	90.31
376.771	79.31
376.997	94.31
377.222	73.31
377.448	86.31
377.674	86.31
377.899	93.31
378.125	80.31
378.35	77.31
378.576	91.31
378.802	89.31
379.027	83.31
379.253	86.31
379.478	91.31
379.704	86.31
379.929	96.31
380.155	94.31
380.38	90.31
380.606	76.31
380.831	101.31
381.057	86.31
381.282	64.31
381.507	90.31
381.733	86.31
381.958	87.31
382.184	86.31
382.409	98.31
382.634	89.31
382.86	106.31
383.085	86.31
383.31	84.31
383.535	94.31
383.761	83.31
383.986	95.31
384.211	85.31
384.436	91.31
384.662	85.31
384.887	82.31
385.112	83.31
385.337	101.31
385.562	85.31
385.787	89.31
386.013	106.31
386.238	110.31
386.463	107.31
386.688	103.31
386.913	82.31
387.138	93.31
387.363	86.31
387.588	100.31
387.813	100.31
388.038	92.31
388.263	93.31
388.488	102.31
388.713	97.31
388.938	91.31
389.163	77.31
389.387	97.31
389.612	83.31
389.837	96.31
390.062	87.31
390.287	86.31
390.512	93.31
390.736	106.31
390.961	87.31
391.186	92.31
391.411	92.31
391.636	95.31
391.86	93.31
392.085	95.31
392.31	90.31
392.534	83.31
392.759	96.31
392.984	102.31
393.208	84.31
393.433	100.31
393.658	94.31
393.882	102.31
394.107	78.31
394.331	82.31
394.556	91.31
394.78	92.31
395.005	93.31
395.229	93.31
395.454	103.31
395.678	82.31
395.903	98.31
396.127	107.31
396.352	94.31
396.576	95.31
396.801	84.31
397.025	80.31
397.249	84.31
397.474	86.31
397.698	94.31
397.922	106.31
398.147	95.31
398.371	94.31
398.595	96.31
398.82	98.31
399.044	95.31
399.268	80.31
399.492	101.31
399.717	109.31
399.941	106.31
400.165	106.31
400.389	100.31
400.613	101.31
400.837	96.31
401.062	101.31
401.286	75.31
401.51	88.31
401.734	99.31
401.958	86.31
402.182	100.31
402.406	101.31
402.63	82.31
402.854	87.31
403.078	94.31
403.302	100.31
403.526	94.31
403.75	95.31
403.974	88.31
404.198	101.31
404.422	99.31
404.645	122.31
404.869	96.31
405.093	86.31
405.317	91.31
405.541	95.31
405.765	87.31
405.988	106.31
406.212	79.31
406.436	106.31
406.66	108.31
406.883	97.31
407.107	96.31
407.331	99.31
407.555	91.31
407.778	97.31
408.002	110.31
408.226	102.31
408.449	99.31
408.673	119.31
408.896	96.31
409.12	92.31
409.344	98.31
409.567	86.31
409.791	91.31
410.014	95.31
410.238	90.31
410.461	100.31
410.685	98.31
410.908	96.31
411.132	96.31
411.355	92.31
411.578	79.31
411.802	96.31
412.025	82.31
412.249	84.31
412.472	118.31
412.695	97.31
412.919	102.31
413.142	94.31
413.365	85.31
413.589	94.31
413.812	85.31
414.035	79.31
414.258	95.31
414.482	95.31
414.705	88.31
414.928	94.31
415.151	94.31
415.374	100.31
415.597	96.31
415.821	95.31
416.044	90.31
416.267	90.31
416.49	102.31
416.713	94.31
416.936	95.31
417.159	101.31
417.382	81.31
417.605	80.31
417.828	90.31
418.051	92.31
418.274	98.31
418.497	101.31
418.72	96.31
418.943	92.31
419.166	95.31
419.389	87.31
419.611	114.31
419.834	98.31
420.057	119.31
420.28	102.31
420.503	101.31
420.726	92.31
420.948	108.31
421.171	94.31
421.394	90.31
421.617	99.31
421.839	89.31
422.062	87.31
422.285	97.31
422.507	104.31
422.73	103.31
422.953	92.31
423.175	95.31
423.398	91.31
423.621	100.31
423.843	85.31
424.066	94.31
424.288	93.31
424.511	98.31
424.733	94.31
424.956	91.31
425.178	108.31
425.401	106.31
425.623	82.31
425.846	109.31
426.068	112.31
426.291	110.31
426.513	102.31
426.735	99.31
426.958	86.31
427.18	90.31
427.402	91.31
427.625	83.31
427.847	91.31
428.069	90.31
428.292	94.31
428.514	98.31
428.736	92.31
428.958	93.31
429.181	87.31
429.403	95.31
429.625	95.31
429.847	93.31
430.069	95.31
430.292	86.31
430.514	94.31
430.736	81.31
430.958	96.31
431.18	104.31
431.402	105.31
431.624	85.31
431.846	90.31
432.068	77.31
432.29	85.31
432.512	91.31
432.734	95.31
432.956	103.31
433.178	86.31
433.4	99.31
433.622	101.31
433.844	100.31
434.066	85.31
434.287	101.31
434.509	91.31
434.731	95.31
434.953	96.31
435.175	102.31
435.397	101.31
435.618	99.31
435.84	85.31
436.062	83.31
436.284	94.31
436.505	110.31
436.727	91.31
436.949	102.31
437.17	95.31
437.392	83.31
437.614	108.31
437.835	86.31
438.057	87.31
438.278	84.31
438.5	73.31
438.721	93.31
438.943	87.31
439.165	94.31
439.386	90.31
439.608	92.31
439.829	92.31
440.05	95.31
440.272	99.31
440.493	87.31
440.715	93.31
440.936	98.31
441.158	94.31
441.379	96.31
441.6	96.31
441.822	106.31
442.043	106.31
442.264	94.31
442.486	82.31
442.707	102.31
442.928	99.31
443.149	83.31
443.371	80.31
443.592	88.31
443.813	87.31
444.034	91.31
444.255	85.31
444.476	104.31
444.698	90.31
444.919	106.31
445.14	199.31
445.361	155.31
445.582	106.31
445.803	84.31
446.024	86.31
446.245	92.31
446.466	95.31
446.687	90.31
446.908	95.31
447.129	114.31
447.35	96.31
447.571	103.31
447.792	94.31
448.013	97.31
448.234	84.31
448.455	93.31
448.675	83.31
448.896	83.31
449.117	86.31
449.338	102.31
449.559	86.31
449.779	83.31
450	87.31
450.221	80.31
450.442	94.31
450.662	89.31
450.883	94.31
451.104	98.31
451.324	90.31
451.545	89.31
451.766	88.31
451.986	89.31
452.207	86.31
452.428	88.31
452.648	98.31
452.869	91.31
453.089	90.31
453.31	76.31
453.53	80.31
453.751	81.31
453.971	81.31
454.192	87.31
454.412	88.31
454.633	82.31
454.853	88.31
455.073	109.31
455.294	84.31
455.514	90.31
455.734	92.31
455.955	96.31
456.175	75.31
456.395	93.31
456.616	84.31
456.836	63.31
457.056	107.31
457.276	86.31
457.497	85.31
457.717	93.31
457.937	104.31
458.157	88.31
458.377	87.31
458.598	101.31
458.818	93.31
459.038	91.31
459.258	86.31
459.478	90.31
459.698	91.31
459.918	91.31
460.138	82.31
460.358	108.31
460.578	86.31
460.798	114.31
461.018	94.31
461.238	96.31
461.458	94.31
461.678	83.31
461.898	95.31
462.118	98.31
462.338	91.31
462.558	81.31
462.777	96.31
462.997	97.31
463.217	98.31
463.437	110.31
463.657	85.31
463.876	95.31
464.096	101.31
464.316	86.31
464.536	93.31
464.755	97.31
464.975	100.31
465.195	105.31
465.414	94.31
465.634	91.31
465.854	93.31
466.073	94.31
466.293	93.31
466.512	98.31
466.732	88.31
466.951	88.31
467.171	87.31
467.391	84.31
467.61	84.31
467.829	97.31
468.049	84.31
468.268	99.31
468.488	97.31
468.707	89.31
468.927	88.31
469.146	99.31
469.365	103.31
469.585	100.31
469.804	99.31
470.023	87.31
470.243	106.31
470.462	89.31
470.681	109.31
470.901	104.31
471.12	86.31
471.339	88.31
471.558	96.31
471.777	104.31
471.997	89.31
472.216	104.31
472.435	84.31
472.654	99.31
472.873	100.31
473.092	91.31
473.311	97.31
473.53	96.31
473.749	81.31
473.968	101.31
474.187	105.31
474.406	86.31
474.625	109.31
474.844	87.31
475.063	79.31
475.282	99.31
475.501	97.31
475.72	103.31
475.939	106.31
476.158	97.31
476.377	110.31
476.596	99.31
476.814	107.31
477.033	91.31
477.252	93.31
477.471	86.31
477.69	95.31
477.908	110.31
478.127	88.31
478.346	112.31
478.564	110.31
478.783	94.31
479.002	94.31
479.22	98.31
479.439	103.31
479.658	82.31
479.876	102.31
480.095	89.31
480.313	103.31
480.532	97.31
480.751	92.31
480.969	90.31
481.188	110.31
481.406	101.31
481.624	91.31
481.843	100.31
482.061	99.31
482.28	98.31
482.498	99.31
482.717	78.31
482.935	102.31
483.153	99.31
483.372	100.31
483.59	103.31
483.808	88.31
484.027	107.31
484.245	119.31
484.463	107.31
484.681	116.31
484.9	95.31
485.118	95.31
485.336	93.31
485.554	100.31
485.772	101.31
485.99	92.31
486.209	95.31
486.427	106.31
486.645	100.31
486.863	95.31
487.081	109.31
487.299	107.31
487.517	112.31
487.735	98.31
487.953	110.31
488.171	102.31
488.389	86.31
488.607	114.31
488.825	97.31
489.043	112.31
489.261	103.31
489.479	113.31
489.696	104.31
489.914	81.31
490.132	106.31
490.35	100.31
490.568	103.31
490.786	116.31
491.003	110.31
491.221	101.31
491.439	108.31
491.657	101.31
491.874	115.31
492.092	101.31
492.31	118.31
492.527	91.31
492.745	108.31
492.963	124.31
493.18	110.31
493.398	102.31
493.615	90.31
493.833	95.31
494.05	111.31
494.268	114.31
494.485	118.31
494.703	102.31
494.92	96.31
495.138	113.31
495.355	102.31
495.573	111.31
495.79	110.31
496.008	117.31
496.225	114.31
496.442	91.31
496.66	118.31
496.877	108.31
497.094	115.31
497.312	114.31
497.529	92.31
497.746	120.31
497.963	114.31
498.181	108.31
498.398	126.31
498.615	114.31
498.832	98.31
499.049	114.31
499.267	124.31
499.484	140.31
499.701	130.31
499.918	133.31
500.135	139.31
500.352	148.31
500.569	161.31
500.786	162.31
501.003	143.31
501.22	142.31
501.437	128.31
501.654	130.31
501.871	117.31
502.088	117.31
502.305	128.31
502.522	122.31
502.739	103.31
502.956	122.31
503.172	92.31
503.389	107.31
503.606	102.31
503.823	112.31
504.04	116.31
504.256	115.31
504.473	108.31
504.69	132.31
504.907	126.31
505.123	111.31
505.34	111.31
505.557	113.31
505.773	95.31
505.99	96.31
506.207	110.31
506.423	102.31
506.64	100.31
506.856	95.31
507.073	99.31
507.289	105.31
507.506	93.31
507.722	113.31
507.939	98.31
508.155	107.31
508.372	86.31
508.588	106.31
508.805	99.31
509.021	100.31
509.238	99.31
509.454	104.31
509.67	94.31
509.887	92.31
510.103	95.31
510.319	98.31
510.536	85.31
510.752	99.31
510.968	90.31
511.184	90.31
511.401	102.31
511.617	107.31
511.833	96.31
512.049	89.31
512.265	97.31
512.481	96.31
512.698	94.31
512.914	86.31
513.13	99.31
513.346	102.31
513.562	101.31
513.778	93.31
513.994	98.31
514.21	87.31
514.426	106.31
514.642	110.31
514.858	106.31
515.074	90.31
515.29	113.31
515.506	90.31
515.721	94.31
515.937	106.31
516.153	82.31
