Data from Location5.07152019.Energy5.Lamp.07192019.3%Agarose_HRD10591_16-05-02-628.txt Node
Date: Fri Jul 19 16:05:02 EDT 2019
User: cochatt
Spectrometer: HR+D1059
Trigger mode: 1
Integration Time (sec): 1.000000E-1
Scans to average: 1
Electric dark correction enabled: true
Nonlinearity correction enabled: false
Boxcar width: 0
XAxis mode: Wavelengths
Number of Pixels in Spectrum: 2048
>>>>>Begin Spectral Data<<<<<
223.165	-19.19
223.4	-19.19
223.635	-19.19
223.869	-16.19
224.104	-24.19
224.338	-32.19
224.573	-16.19
224.808	-10.19
225.042	-3.19
225.277	-3.19
225.511	1.81
225.746	20.81
225.98	2.81
226.215	1.81
226.449	21.81
226.683	24.81
226.918	25.81
227.152	24.81
227.387	43.81
227.621	27.81
227.856	48.81
228.09	48.81
228.324	34.81
228.559	50.81
228.793	48.81
229.027	60.81
229.262	59.81
229.496	69.81
229.73	68.81
229.964	69.81
230.199	68.81
230.433	70.81
230.667	75.81
230.901	71.81
231.136	79.81
231.37	76.81
231.604	86.81
231.838	81.81
232.072	86.81
232.306	84.81
232.541	67.81
232.775	84.81
233.009	92.81
233.243	84.81
233.477	83.81
233.711	91.81
233.945	82.81
234.179	88.81
234.413	96.81
234.647	78.81
234.881	74.81
235.115	69.81
235.349	80.81
235.583	74.81
235.817	83.81
236.051	84.81
236.285	81.81
236.519	83.81
236.753	71.81
236.987	80.81
237.221	93.81
237.455	84.81
237.689	79.81
237.922	85.81
238.156	75.81
238.39	60.81
238.624	90.81
238.858	88.81
239.091	74.81
239.325	79.81
239.559	60.81
239.793	69.81
240.027	90.81
240.26	51.81
240.494	72.81
240.728	74.81
240.961	56.81
241.195	82.81
241.429	81.81
241.662	66.81
241.896	84.81
242.13	76.81
242.363	70.81
242.597	82.81
242.83	78.81
243.064	67.81
243.298	75.81
243.531	69.81
243.765	62.81
243.998	81.81
244.232	81.81
244.465	77.81
244.699	72.81
244.932	69.81
245.166	81.81
245.399	76.81
245.633	81.81
245.866	86.81
246.099	88.81
246.333	78.81
246.566	68.81
246.8	80.81
247.033	79.81
247.266	73.81
247.5	81.81
247.733	78.81
247.966	74.81
248.2	87.81
248.433	84.81
248.666	79.81
248.899	81.81
249.133	65.81
249.366	70.81
249.599	80.81
249.832	78.81
250.066	89.81
250.299	88.81
250.532	86.81
250.765	80.81
250.998	77.81
251.231	90.81
251.465	75.81
251.698	92.81
251.931	78.81
252.164	82.81
252.397	80.81
252.63	87.81
252.863	76.81
253.096	75.81
253.329	92.81
253.562	87.81
253.795	98.81
254.028	71.81
254.261	75.81
254.494	76.81
254.727	75.81
254.96	75.81
255.193	89.81
255.426	80.81
255.659	97.81
255.892	101.81
256.124	79.81
256.357	95.81
256.59	89.81
256.823	77.81
257.056	88.81
257.289	76.81
257.521	77.81
257.754	74.81
257.987	79.81
258.22	74.81
258.452	97.81
258.685	87.81
258.918	65.81
259.151	72.81
259.383	89.81
259.616	86.81
259.849	75.81
260.081	91.81
260.314	94.81
260.547	85.81
260.779	81.81
261.012	79.81
261.244	92.81
261.477	89.81
261.71	79.81
261.942	78.81
262.175	90.81
262.407	72.81
262.64	70.81
262.872	90.81
263.105	82.81
263.337	101.81
263.57	84.81
263.802	89.81
264.035	73.81
264.267	80.81
264.499	84.81
264.732	77.81
264.964	74.81
265.197	86.81
265.429	88.81
265.661	79.81
265.894	83.81
266.126	73.81
266.358	79.81
266.591	86.81
266.823	98.81
267.055	79.81
267.287	84.81
267.52	73.81
267.752	89.81
267.984	98.81
268.216	90.81
268.448	89.81
268.681	91.81
268.913	90.81
269.145	77.81
269.377	96.81
269.609	85.81
269.841	102.81
270.073	80.81
270.306	94.81
270.538	90.81
270.77	75.81
271.002	86.81
271.234	95.81
271.466	86.81
271.698	92.81
271.93	80.81
272.162	95.81
272.394	76.81
272.626	78.81
272.858	78.81
273.09	92.81
273.322	81.81
273.553	96.81
273.785	89.81
274.017	75.81
274.249	87.81
274.481	94.81
274.713	95.81
274.945	81.81
275.176	77.81
275.408	76.81
275.64	84.81
275.872	78.81
276.104	82.81
276.335	80.81
276.567	78.81
276.799	85.81
277.031	88.81
277.262	108.81
277.494	90.81
277.726	82.81
277.957	98.81
278.189	87.81
278.421	92.81
278.652	97.81
278.884	85.81
279.115	86.81
279.347	84.81
279.579	72.81
279.81	89.81
280.042	87.81
280.273	80.81
280.505	81.81
280.736	88.81
280.968	82.81
281.199	88.81
281.431	77.81
281.662	76.81
281.894	94.81
282.125	83.81
282.356	75.81
282.588	92.81
282.819	89.81
283.051	93.81
283.282	92.81
283.513	91.81
283.745	87.81
283.976	86.81
284.207	92.81
284.439	83.81
284.67	91.81
284.901	82.81
285.132	75.81
285.364	100.81
285.595	88.81
285.826	92.81
286.057	79.81
286.288	86.81
286.52	75.81
286.751	90.81
286.982	92.81
287.213	95.81
287.444	86.81
287.675	105.81
287.906	87.81
288.138	88.81
288.369	91.81
288.6	98.81
288.831	81.81
289.062	95.81
289.293	102.81
289.524	84.81
289.755	92.81
289.986	84.81
290.217	82.81
290.448	78.81
290.679	97.81
290.91	93.81
291.141	79.81
291.371	97.81
291.602	96.81
291.833	91.81
292.064	94.81
292.295	77.81
292.526	84.81
292.757	94.81
292.987	93.81
293.218	90.81
293.449	98.81
293.68	89.81
293.91	94.81
294.141	89.81
294.372	84.81
294.603	86.81
294.833	90.81
295.064	79.81
295.295	89.81
295.525	89.81
295.756	84.81
295.987	94.81
296.217	82.81
296.448	81.81
296.679	107.81
296.909	86.81
297.14	103.81
297.37	86.81
297.601	81.81
297.831	91.81
298.062	85.81
298.292	103.81
298.523	93.81
298.753	103.81
298.984	82.81
299.214	97.81
299.445	93.81
299.675	88.81
299.905	86.81
300.136	84.81
300.366	86.81
300.597	88.81
300.827	81.81
301.057	80.81
301.288	84.81
301.518	95.81
301.748	94.81
301.979	86.81
302.209	64.81
302.439	84.81
302.669	97.81
302.9	81.81
303.13	95.81
303.36	85.81
303.59	89.81
303.82	82.81
304.051	89.81
304.281	99.81
304.511	84.81
304.741	80.81
304.971	90.81
305.201	93.81
305.431	100.81
305.661	94.81
305.891	98.81
306.121	87.81
306.352	91.81
306.582	84.81
306.812	87.81
307.042	88.81
307.272	83.81
307.502	93.81
307.731	84.81
307.961	91.81
308.191	85.81
308.421	86.81
308.651	88.81
308.881	99.81
309.111	98.81
309.341	91.81
309.571	84.81
309.8	88.81
310.03	102.81
310.26	88.81
310.49	95.81
310.72	93.81
310.949	94.81
311.179	87.81
311.409	88.81
311.639	88.81
311.868	93.81
312.098	101.81
312.328	95.81
312.557	92.81
312.787	111.81
313.017	96.81
313.246	84.81
313.476	83.81
313.706	91.81
313.935	96.81
314.165	91.81
314.394	78.81
314.624	88.81
314.853	87.81
315.083	105.81
315.312	84.81
315.542	92.81
315.771	82.81
316.001	88.81
316.23	89.81
316.46	97.81
316.689	96.81
316.919	96.81
317.148	95.81
317.377	97.81
317.607	106.81
317.836	88.81
318.065	83.81
318.295	90.81
318.524	92.81
318.753	85.81
318.983	91.81
319.212	103.81
319.441	81.81
319.67	92.81
319.9	84.81
320.129	87.81
320.358	96.81
320.587	92.81
320.816	103.81
321.046	94.81
321.275	86.81
321.504	86.81
321.733	82.81
321.962	92.81
322.191	104.81
322.42	95.81
322.649	91.81
322.878	90.81
323.108	105.81
323.337	88.81
323.566	85.81
323.795	83.81
324.024	94.81
324.253	86.81
324.482	91.81
324.71	79.81
324.939	100.81
325.168	89.81
325.397	92.81
325.626	84.81
325.855	100.81
326.084	93.81
326.313	87.81
326.542	95.81
326.77	97.81
326.999	87.81
327.228	98.81
327.457	88.81
327.686	102.81
327.914	82.81
328.143	91.81
328.372	79.81
328.6	95.81
328.829	106.81
329.058	98.81
329.287	105.81
329.515	97.81
329.744	81.81
329.972	94.81
330.201	105.81
330.43	94.81
330.658	87.81
330.887	104.81
331.115	94.81
331.344	96.81
331.572	85.81
331.801	77.81
332.03	87.81
332.258	101.81
332.486	89.81
332.715	112.81
332.943	86.81
333.172	77.81
333.4	88.81
333.629	99.81
333.857	95.81
334.085	78.81
334.314	86.81
334.542	89.81
334.771	100.81
334.999	89.81
335.227	80.81
335.455	100.81
335.684	98.81
335.912	92.81
336.14	86.81
336.369	92.81
336.597	91.81
336.825	84.81
337.053	91.81
337.281	95.81
337.51	102.81
337.738	90.81
337.966	87.81
338.194	85.81
338.422	68.81
338.65	89.81
338.878	88.81
339.106	75.81
339.334	95.81
339.562	81.81
339.79	96.81
340.018	93.81
340.246	97.81
340.474	100.81
340.702	92.81
340.93	86.81
341.158	92.81
341.386	105.81
341.614	85.81
341.842	106.81
342.07	91.81
342.298	96.81
342.526	101.81
342.754	95.81
342.981	90.81
343.209	117.81
343.437	95.81
343.665	80.81
343.893	100.81
344.12	97.81
344.348	89.81
344.576	99.81
344.804	87.81
345.031	85.81
345.259	94.81
345.487	86.81
345.714	96.81
345.942	89.81
346.17	100.81
346.397	93.81
346.625	89.81
346.853	97.81
347.08	86.81
347.308	95.81
347.535	83.81
347.763	91.81
347.99	92.81
348.218	99.81
348.445	79.81
348.673	82.81
348.9	92.81
349.128	90.81
349.355	91.81
349.583	89.81
349.81	87.81
350.037	79.81
350.265	100.81
350.492	79.81
350.72	99.81
350.947	87.81
351.174	84.81
351.402	78.81
351.629	77.81
351.856	91.81
352.083	87.81
352.311	98.81
352.538	92.81
352.765	88.81
352.992	90.81
353.22	98.81
353.447	92.81
353.674	97.81
353.901	88.81
354.128	97.81
354.355	87.81
354.583	105.81
354.81	88.81
355.037	90.81
355.264	79.81
355.491	84.81
355.718	96.81
355.945	83.81
356.172	93.81
356.399	103.81
356.626	89.81
356.853	90.81
357.08	87.81
357.307	103.81
357.534	93.81
357.761	90.81
357.988	79.81
358.215	93.81
358.441	94.81
358.668	79.81
358.895	92.81
359.122	86.81
359.349	82.81
359.576	101.81
359.802	76.81
360.029	89.81
360.256	100.81
360.483	81.81
360.709	88.81
360.936	90.81
361.163	90.81
361.39	87.81
361.616	92.81
361.843	93.81
362.07	93.81
362.296	92.81
362.523	89.81
362.749	89.81
362.976	95.81
363.203	91.81
363.429	80.81
363.656	99.81
363.882	84.81
364.109	90.81
364.335	98.81
364.562	99.81
364.788	84.81
365.015	88.81
365.241	88.81
365.468	88.81
365.694	97.81
365.92	90.81
366.147	92.81
366.373	94.81
366.599	96.81
366.826	103.81
367.052	97.81
367.278	101.81
367.505	98.81
367.731	94.81
367.957	87.81
368.184	94.81
368.41	90.81
368.636	95.81
368.862	100.81
369.089	90.81
369.315	96.81
369.541	91.81
369.767	93.81
369.993	80.81
370.219	82.81
370.445	111.81
370.672	84.81
370.898	102.81
371.124	96.81
371.35	96.81
371.576	89.81
371.802	95.81
372.028	102.81
372.254	86.81
372.48	91.81
372.706	102.81
372.932	103.81
373.158	103.81
373.384	111.81
373.61	102.81
373.835	88.81
374.061	82.81
374.287	98.81
374.513	97.81
374.739	98.81
374.965	108.81
375.191	103.81
375.416	97.81
375.642	80.81
375.868	86.81
376.094	107.81
376.319	86.81
376.545	91.81
376.771	91.81
376.997	90.81
377.222	85.81
377.448	105.81
377.674	101.81
377.899	92.81
378.125	106.81
378.35	99.81
378.576	91.81
378.802	88.81
379.027	87.81
379.253	93.81
379.478	91.81
379.704	96.81
379.929	86.81
380.155	84.81
380.38	95.81
380.606	84.81
380.831	87.81
381.057	102.81
381.282	97.81
381.507	94.81
381.733	89.81
381.958	95.81
382.184	96.81
382.409	98.81
382.634	91.81
382.86	90.81
383.085	86.81
383.31	90.81
383.535	91.81
383.761	103.81
383.986	98.81
384.211	99.81
384.436	93.81
384.662	94.81
384.887	102.81
385.112	84.81
385.337	99.81
385.562	93.81
385.787	99.81
386.013	102.81
386.238	104.81
386.463	79.81
386.688	92.81
386.913	72.81
387.138	79.81
387.363	100.81
387.588	109.81
387.813	82.81
388.038	78.81
388.263	83.81
388.488	105.81
388.713	89.81
388.938	92.81
389.163	84.81
389.387	86.81
389.612	101.81
389.837	90.81
390.062	105.81
390.287	87.81
390.512	82.81
390.736	95.81
390.961	98.81
391.186	104.81
391.411	94.81
391.636	88.81
391.86	91.81
392.085	91.81
392.31	87.81
392.534	98.81
392.759	100.81
392.984	96.81
393.208	95.81
393.433	91.81
393.658	95.81
393.882	92.81
394.107	94.81
394.331	104.81
394.556	95.81
394.78	90.81
395.005	82.81
395.229	108.81
395.454	84.81
395.678	74.81
395.903	95.81
396.127	101.81
396.352	92.81
396.576	85.81
396.801	99.81
397.025	88.81
397.249	85.81
397.474	100.81
397.698	95.81
397.922	90.81
398.147	90.81
398.371	99.81
398.595	95.81
398.82	100.81
399.044	103.81
399.268	96.81
399.492	107.81
399.717	108.81
399.941	102.81
400.165	110.81
400.389	101.81
400.613	100.81
400.837	101.81
401.062	86.81
401.286	99.81
401.51	69.81
401.734	82.81
401.958	83.81
402.182	86.81
402.406	85.81
402.63	107.81
402.854	89.81
403.078	97.81
403.302	79.81
403.526	95.81
403.75	99.81
403.974	98.81
404.198	96.81
404.422	102.81
404.645	97.81
404.869	103.81
405.093	98.81
405.317	88.81
405.541	100.81
405.765	90.81
405.988	85.81
406.212	102.81
406.436	92.81
406.66	102.81
406.883	101.81
407.107	87.81
407.331	98.81
407.555	85.81
407.778	107.81
408.002	102.81
408.226	93.81
408.449	106.81
408.673	75.81
408.896	82.81
409.12	88.81
409.344	94.81
409.567	91.81
409.791	93.81
410.014	84.81
410.238	87.81
410.461	98.81
410.685	85.81
410.908	100.81
411.132	91.81
411.355	95.81
411.578	85.81
411.802	82.81
412.025	98.81
412.249	83.81
412.472	90.81
412.695	89.81
412.919	89.81
413.142	84.81
413.365	91.81
413.589	103.81
413.812	106.81
414.035	89.81
414.258	103.81
414.482	90.81
414.705	96.81
414.928	94.81
415.151	87.81
415.374	97.81
415.597	91.81
415.821	108.81
416.044	102.81
416.267	96.81
416.49	94.81
416.713	99.81
416.936	89.81
417.159	107.81
417.382	87.81
417.605	92.81
417.828	94.81
418.051	89.81
418.274	86.81
418.497	79.81
418.72	86.81
418.943	91.81
419.166	82.81
419.389	100.81
419.611	107.81
419.834	90.81
420.057	78.81
420.28	103.81
420.503	93.81
420.726	93.81
420.948	92.81
421.171	94.81
421.394	86.81
421.617	92.81
421.839	91.81
422.062	95.81
422.285	99.81
422.507	92.81
422.73	99.81
422.953	99.81
423.175	91.81
423.398	94.81
423.621	106.81
423.843	101.81
424.066	94.81
424.288	103.81
424.511	103.81
424.733	98.81
424.956	98.81
425.178	92.81
425.401	83.81
425.623	85.81
425.846	102.81
426.068	91.81
426.291	91.81
426.513	92.81
426.735	98.81
426.958	101.81
427.18	84.81
427.402	86.81
427.625	91.81
427.847	100.81
428.069	96.81
428.292	82.81
428.514	94.81
428.736	80.81
428.958	89.81
429.181	95.81
429.403	91.81
429.625	96.81
429.847	99.81
430.069	89.81
430.292	79.81
430.514	86.81
430.736	86.81
430.958	100.81
431.18	100.81
431.402	83.81
431.624	100.81
431.846	103.81
432.068	84.81
432.29	92.81
432.512	92.81
432.734	86.81
432.956	104.81
433.178	105.81
433.4	92.81
433.622	105.81
433.844	95.81
434.066	98.81
434.287	85.81
434.509	83.81
434.731	94.81
434.953	99.81
435.175	102.81
435.397	100.81
435.618	97.81
435.84	99.81
436.062	90.81
436.284	113.81
436.505	93.81
436.727	87.81
436.949	88.81
437.17	79.81
437.392	77.81
437.614	86.81
437.835	78.81
438.057	84.81
438.278	89.81
438.5	98.81
438.721	99.81
438.943	94.81
439.165	80.81
439.386	98.81
439.608	113.81
439.829	94.81
440.05	92.81
440.272	92.81
440.493	98.81
440.715	91.81
440.936	89.81
441.158	80.81
441.379	99.81
441.6	84.81
441.822	89.81
442.043	100.81
442.264	94.81
442.486	98.81
442.707	83.81
442.928	88.81
443.149	81.81
443.371	90.81
443.592	94.81
443.813	97.81
444.034	103.81
444.255	95.81
444.476	85.81
444.698	98.81
444.919	100.81
445.14	235.81
445.361	139.81
445.582	105.81
445.803	95.81
446.024	90.81
446.245	91.81
446.466	94.81
446.687	96.81
446.908	88.81
447.129	82.81
447.35	85.81
447.571	82.81
447.792	84.81
448.013	99.81
448.234	90.81
448.455	97.81
448.675	95.81
448.896	104.81
449.117	91.81
449.338	80.81
449.559	90.81
449.779	87.81
450	96.81
450.221	105.81
450.442	86.81
450.662	86.81
450.883	95.81
451.104	107.81
451.324	91.81
451.545	85.81
451.766	73.81
451.986	100.81
452.207	82.81
452.428	87.81
452.648	94.81
452.869	94.81
453.089	103.81
453.31	101.81
453.53	85.81
453.751	97.81
453.971	84.81
454.192	76.81
454.412	75.81
454.633	96.81
454.853	84.81
455.073	80.81
455.294	91.81
455.514	90.81
455.734	91.81
455.955	92.81
456.175	91.81
456.395	96.81
456.616	74.81
456.836	94.81
457.056	88.81
457.276	87.81
457.497	84.81
457.717	97.81
457.937	101.81
458.157	98.81
458.377	92.81
458.598	98.81
458.818	100.81
459.038	87.81
459.258	86.81
459.478	91.81
459.698	94.81
459.918	89.81
460.138	95.81
460.358	92.81
460.578	90.81
460.798	85.81
461.018	97.81
461.238	94.81
461.458	112.81
461.678	99.81
461.898	90.81
462.118	92.81
462.338	93.81
462.558	89.81
462.777	85.81
462.997	109.81
463.217	105.81
463.437	98.81
463.657	79.81
463.876	90.81
464.096	99.81
464.316	91.81
464.536	97.81
464.755	93.81
464.975	80.81
465.195	92.81
465.414	89.81
465.634	105.81
465.854	74.81
466.073	94.81
466.293	99.81
466.512	77.81
466.732	90.81
466.951	84.81
467.171	76.81
467.391	99.81
467.61	96.81
467.829	98.81
468.049	92.81
468.268	97.81
468.488	103.81
468.707	93.81
468.927	89.81
469.146	91.81
469.365	77.81
469.585	100.81
469.804	90.81
470.023	90.81
470.243	105.81
470.462	91.81
470.681	88.81
470.901	95.81
471.12	97.81
471.339	103.81
471.558	109.81
471.777	90.81
471.997	104.81
472.216	88.81
472.435	83.81
472.654	94.81
472.873	90.81
473.092	84.81
473.311	100.81
473.53	91.81
473.749	90.81
473.968	96.81
474.187	92.81
474.406	92.81
474.625	91.81
474.844	97.81
475.063	92.81
475.282	78.81
475.501	98.81
475.72	76.81
475.939	93.81
476.158	81.81
476.377	96.81
476.596	91.81
476.814	101.81
477.033	95.81
477.252	95.81
477.471	90.81
477.69	100.81
477.908	99.81
478.127	97.81
478.346	80.81
478.564	91.81
478.783	102.81
479.002	110.81
479.22	84.81
479.439	96.81
479.658	100.81
479.876	106.81
480.095	86.81
480.313	112.81
480.532	98.81
480.751	90.81
480.969	83.81
481.188	99.81
481.406	90.81
481.624	93.81
481.843	98.81
482.061	89.81
482.28	97.81
482.498	92.81
482.717	94.81
482.935	88.81
483.153	113.81
483.372	101.81
483.59	99.81
483.808	98.81
484.027	104.81
484.245	97.81
484.463	95.81
484.681	116.81
484.9	100.81
485.118	100.81
485.336	99.81
485.554	95.81
485.772	91.81
485.99	89.81
486.209	89.81
486.427	105.81
486.645	92.81
486.863	99.81
487.081	102.81
487.299	103.81
487.517	99.81
487.735	107.81
487.953	105.81
488.171	107.81
488.389	91.81
488.607	111.81
488.825	100.81
489.043	103.81
489.261	107.81
489.479	104.81
489.696	78.81
489.914	102.81
490.132	111.81
490.35	90.81
490.568	112.81
490.786	89.81
491.003	98.81
491.221	87.81
491.439	100.81
491.657	116.81
491.874	124.81
492.092	118.81
492.31	114.81
492.527	98.81
492.745	94.81
492.963	102.81
493.18	100.81
493.398	107.81
493.615	122.81
493.833	115.81
494.05	112.81
494.268	112.81
494.485	104.81
494.703	110.81
494.92	117.81
495.138	102.81
495.355	118.81
495.573	100.81
495.79	119.81
496.008	116.81
496.225	100.81
496.442	111.81
496.66	101.81
496.877	88.81
497.094	103.81
497.312	112.81
497.529	104.81
497.746	106.81
497.963	99.81
498.181	110.81
498.398	110.81
498.615	119.81
498.832	108.81
499.049	94.81
499.267	113.81
499.484	113.81
499.701	119.81
499.918	139.81
500.135	123.81
500.352	149.81
500.569	149.81
500.786	142.81
501.003	137.81
501.22	134.81
501.437	117.81
501.654	115.81
501.871	113.81
502.088	114.81
502.305	117.81
502.522	106.81
502.739	115.81
502.956	102.81
503.172	114.81
503.389	97.81
503.606	106.81
503.823	91.81
504.04	100.81
504.256	105.81
504.473	105.81
504.69	122.81
504.907	108.81
505.123	110.81
505.34	99.81
505.557	100.81
505.773	84.81
505.99	107.81
506.207	100.81
506.423	91.81
506.64	108.81
506.856	107.81
507.073	90.81
507.289	83.81
507.506	100.81
507.722	109.81
507.939	100.81
508.155	113.81
508.372	112.81
508.588	119.81
508.805	112.81
509.021	91.81
509.238	98.81
509.454	102.81
509.67	94.81
509.887	103.81
510.103	89.81
510.319	96.81
510.536	81.81
510.752	94.81
510.968	91.81
511.184	96.81
511.401	106.81
511.617	90.81
511.833	98.81
512.049	104.81
512.265	106.81
512.481	89.81
512.698	96.81
512.914	96.81
513.13	98.81
513.346	88.81
513.562	111.81
513.778	88.81
513.994	112.81
514.21	84.81
514.426	105.81
514.642	81.81
514.858	94.81
515.074	95.81
515.29	103.81
515.506	84.81
515.721	94.81
515.937	95.81
