Data from Location5.07152019.Energy5.Lamp.07192019.3%Agarose_HRD10591_16-04-56-629.txt Node
Date: Fri Jul 19 16:04:56 EDT 2019
User: cochatt
Spectrometer: HR+D1059
Trigger mode: 1
Integration Time (sec): 1.000000E-1
Scans to average: 1
Electric dark correction enabled: true
Nonlinearity correction enabled: false
Boxcar width: 0
XAxis mode: Wavelengths
Number of Pixels in Spectrum: 2048
>>>>>Begin Spectral Data<<<<<
223.165	1.25
223.4	1.25
223.635	1.25
223.869	-11.75
224.104	-15.75
224.338	-11.75
224.573	-14.75
224.808	-19.75
225.042	-10.75
225.277	-12.75
225.511	2.25
225.746	-3.75
225.98	4.25
226.215	3.25
226.449	23.25
226.683	12.25
226.918	25.25
227.152	29.25
227.387	25.25
227.621	34.25
227.856	32.25
228.09	39.25
228.324	38.25
228.559	54.25
228.793	61.25
229.027	62.25
229.262	47.25
229.496	55.25
229.73	61.25
229.964	65.25
230.199	68.25
230.433	72.25
230.667	76.25
230.901	75.25
231.136	65.25
231.37	75.25
231.604	75.25
231.838	78.25
232.072	75.25
232.306	80.25
232.541	72.25
232.775	88.25
233.009	82.25
233.243	71.25
233.477	76.25
233.711	86.25
233.945	76.25
234.179	76.25
234.413	92.25
234.647	71.25
234.881	72.25
235.115	70.25
235.349	66.25
235.583	76.25
235.817	69.25
236.051	63.25
236.285	69.25
236.519	55.25
236.753	80.25
236.987	78.25
237.221	74.25
237.455	55.25
237.689	80.25
237.922	78.25
238.156	65.25
238.39	69.25
238.624	83.25
238.858	74.25
239.091	64.25
239.325	77.25
239.559	76.25
239.793	75.25
240.027	79.25
240.26	70.25
240.494	80.25
240.728	72.25
240.961	70.25
241.195	67.25
241.429	74.25
241.662	70.25
241.896	74.25
242.13	66.25
242.363	77.25
242.597	63.25
242.83	64.25
243.064	67.25
243.298	82.25
243.531	71.25
243.765	71.25
243.998	75.25
244.232	78.25
244.465	83.25
244.699	79.25
244.932	58.25
245.166	81.25
245.399	69.25
245.633	82.25
245.866	80.25
246.099	67.25
246.333	65.25
246.566	74.25
246.8	84.25
247.033	75.25
247.266	78.25
247.5	77.25
247.733	82.25
247.966	87.25
248.2	71.25
248.433	81.25
248.666	78.25
248.899	83.25
249.133	75.25
249.366	79.25
249.599	73.25
249.832	67.25
250.066	78.25
250.299	77.25
250.532	85.25
250.765	79.25
250.998	67.25
251.231	76.25
251.465	65.25
251.698	79.25
251.931	74.25
252.164	80.25
252.397	82.25
252.63	72.25
252.863	78.25
253.096	76.25
253.329	74.25
253.562	80.25
253.795	82.25
254.028	63.25
254.261	70.25
254.494	67.25
254.727	71.25
254.96	79.25
255.193	91.25
255.426	85.25
255.659	74.25
255.892	90.25
256.124	87.25
256.357	84.25
256.59	72.25
256.823	83.25
257.056	69.25
257.289	72.25
257.521	69.25
257.754	86.25
257.987	84.25
258.22	91.25
258.452	88.25
258.685	80.25
258.918	81.25
259.151	84.25
259.383	79.25
259.616	67.25
259.849	83.25
260.081	79.25
260.314	83.25
260.547	85.25
260.779	73.25
261.012	79.25
261.244	85.25
261.477	75.25
261.71	78.25
261.942	80.25
262.175	77.25
262.407	64.25
262.64	81.25
262.872	86.25
263.105	80.25
263.337	76.25
263.57	69.25
263.802	86.25
264.035	69.25
264.267	80.25
264.499	70.25
264.732	72.25
264.964	72.25
265.197	72.25
265.429	79.25
265.661	75.25
265.894	85.25
266.126	105.25
266.358	73.25
266.591	86.25
266.823	67.25
267.055	86.25
267.287	87.25
267.52	82.25
267.752	72.25
267.984	100.25
268.216	91.25
268.448	67.25
268.681	91.25
268.913	75.25
269.145	70.25
269.377	84.25
269.609	89.25
269.841	72.25
270.073	70.25
270.306	88.25
270.538	86.25
270.77	84.25
271.002	82.25
271.234	92.25
271.466	90.25
271.698	68.25
271.93	74.25
272.162	94.25
272.394	92.25
272.626	83.25
272.858	88.25
273.09	86.25
273.322	91.25
273.553	93.25
273.785	74.25
274.017	65.25
274.249	76.25
274.481	77.25
274.713	85.25
274.945	83.25
275.176	89.25
275.408	87.25
275.64	86.25
275.872	72.25
276.104	91.25
276.335	78.25
276.567	90.25
276.799	93.25
277.031	80.25
277.262	87.25
277.494	79.25
277.726	81.25
277.957	70.25
278.189	58.25
278.421	82.25
278.652	91.25
278.884	95.25
279.115	88.25
279.347	76.25
279.579	84.25
279.81	75.25
280.042	80.25
280.273	86.25
280.505	67.25
280.736	84.25
280.968	86.25
281.199	101.25
281.431	99.25
281.662	74.25
281.894	76.25
282.125	86.25
282.356	89.25
282.588	83.25
282.819	85.25
283.051	85.25
283.282	89.25
283.513	88.25
283.745	88.25
283.976	74.25
284.207	92.25
284.439	75.25
284.67	91.25
284.901	78.25
285.132	75.25
285.364	92.25
285.595	79.25
285.826	82.25
286.057	98.25
286.288	87.25
286.52	94.25
286.751	84.25
286.982	78.25
287.213	80.25
287.444	90.25
287.675	90.25
287.906	79.25
288.138	73.25
288.369	100.25
288.6	92.25
288.831	90.25
289.062	86.25
289.293	81.25
289.524	74.25
289.755	80.25
289.986	88.25
290.217	80.25
290.448	84.25
290.679	95.25
290.91	95.25
291.141	101.25
291.371	90.25
291.602	81.25
291.833	80.25
292.064	76.25
292.295	94.25
292.526	81.25
292.757	82.25
292.987	77.25
293.218	93.25
293.449	92.25
293.68	83.25
293.91	87.25
294.141	84.25
294.372	86.25
294.603	80.25
294.833	90.25
295.064	72.25
295.295	83.25
295.525	92.25
295.756	105.25
295.987	88.25
296.217	82.25
296.448	85.25
296.679	79.25
296.909	88.25
297.14	81.25
297.37	90.25
297.601	95.25
297.831	84.25
298.062	93.25
298.292	89.25
298.523	100.25
298.753	84.25
298.984	87.25
299.214	78.25
299.445	82.25
299.675	78.25
299.905	91.25
300.136	79.25
300.366	93.25
300.597	87.25
300.827	92.25
301.057	100.25
301.288	91.25
301.518	94.25
301.748	86.25
301.979	79.25
302.209	87.25
302.439	80.25
302.669	86.25
302.9	85.25
303.13	82.25
303.36	110.25
303.59	103.25
303.82	83.25
304.051	86.25
304.281	91.25
304.511	86.25
304.741	85.25
304.971	85.25
305.201	95.25
305.431	84.25
305.661	91.25
305.891	81.25
306.121	89.25
306.352	96.25
306.582	90.25
306.812	99.25
307.042	101.25
307.272	69.25
307.502	84.25
307.731	86.25
307.961	90.25
308.191	91.25
308.421	71.25
308.651	94.25
308.881	88.25
309.111	90.25
309.341	94.25
309.571	101.25
309.8	80.25
310.03	79.25
310.26	93.25
310.49	79.25
310.72	80.25
310.949	89.25
311.179	76.25
311.409	96.25
311.639	85.25
311.868	96.25
312.098	82.25
312.328	80.25
312.557	92.25
312.787	85.25
313.017	87.25
313.246	74.25
313.476	100.25
313.706	84.25
313.935	88.25
314.165	96.25
314.394	76.25
314.624	76.25
314.853	86.25
315.083	86.25
315.312	96.25
315.542	78.25
315.771	90.25
316.001	86.25
316.23	100.25
316.46	80.25
316.689	71.25
316.919	85.25
317.148	97.25
317.377	95.25
317.607	98.25
317.836	88.25
318.065	75.25
318.295	84.25
318.524	89.25
318.753	82.25
318.983	89.25
319.212	101.25
319.441	95.25
319.67	80.25
319.9	75.25
320.129	82.25
320.358	94.25
320.587	88.25
320.816	92.25
321.046	85.25
321.275	95.25
321.504	82.25
321.733	96.25
321.962	90.25
322.191	90.25
322.42	94.25
322.649	91.25
322.878	74.25
323.108	101.25
323.337	80.25
323.566	91.25
323.795	85.25
324.024	88.25
324.253	95.25
324.482	92.25
324.71	83.25
324.939	85.25
325.168	88.25
325.397	79.25
325.626	90.25
325.855	78.25
326.084	85.25
326.313	85.25
326.542	90.25
326.77	86.25
326.999	93.25
327.228	78.25
327.457	82.25
327.686	78.25
327.914	84.25
328.143	85.25
328.372	81.25
328.6	77.25
328.829	85.25
329.058	77.25
329.287	91.25
329.515	93.25
329.744	89.25
329.972	90.25
330.201	85.25
330.43	100.25
330.658	98.25
330.887	76.25
331.115	82.25
331.344	96.25
331.572	88.25
331.801	92.25
332.03	103.25
332.258	95.25
332.486	77.25
332.715	105.25
332.943	90.25
333.172	92.25
333.4	92.25
333.629	81.25
333.857	91.25
334.085	99.25
334.314	83.25
334.542	81.25
334.771	89.25
334.999	89.25
335.227	95.25
335.455	83.25
335.684	84.25
335.912	92.25
336.14	86.25
336.369	94.25
336.597	96.25
336.825	95.25
337.053	71.25
337.281	87.25
337.51	76.25
337.738	94.25
337.966	83.25
338.194	72.25
338.422	88.25
338.65	103.25
338.878	89.25
339.106	86.25
339.334	85.25
339.562	90.25
339.79	80.25
340.018	95.25
340.246	87.25
340.474	86.25
340.702	95.25
340.93	91.25
341.158	98.25
341.386	101.25
341.614	92.25
341.842	91.25
342.07	82.25
342.298	90.25
342.526	81.25
342.754	70.25
342.981	81.25
343.209	92.25
343.437	100.25
343.665	92.25
343.893	85.25
344.12	106.25
344.348	99.25
344.576	86.25
344.804	91.25
345.031	83.25
345.259	88.25
345.487	95.25
345.714	74.25
345.942	81.25
346.17	90.25
346.397	101.25
346.625	80.25
346.853	75.25
347.08	82.25
347.308	82.25
347.535	81.25
347.763	98.25
347.99	102.25
348.218	76.25
348.445	90.25
348.673	93.25
348.9	93.25
349.128	90.25
349.355	79.25
349.583	88.25
349.81	99.25
350.037	99.25
350.265	94.25
350.492	92.25
350.72	79.25
350.947	80.25
351.174	85.25
351.402	86.25
351.629	90.25
351.856	80.25
352.083	90.25
352.311	91.25
352.538	77.25
352.765	93.25
352.992	99.25
353.22	90.25
353.447	84.25
353.674	78.25
353.901	85.25
354.128	88.25
354.355	70.25
354.583	88.25
354.81	92.25
355.037	97.25
355.264	79.25
355.491	85.25
355.718	65.25
355.945	96.25
356.172	84.25
356.399	94.25
356.626	89.25
356.853	95.25
357.08	76.25
357.307	82.25
357.534	71.25
357.761	85.25
357.988	82.25
358.215	83.25
358.441	90.25
358.668	85.25
358.895	85.25
359.122	80.25
359.349	82.25
359.576	85.25
359.802	78.25
360.029	90.25
360.256	74.25
360.483	94.25
360.709	79.25
360.936	99.25
361.163	81.25
361.39	89.25
361.616	83.25
361.843	72.25
362.07	90.25
362.296	83.25
362.523	81.25
362.749	94.25
362.976	90.25
363.203	108.25
363.429	84.25
363.656	90.25
363.882	83.25
364.109	91.25
364.335	90.25
364.562	90.25
364.788	87.25
365.015	83.25
365.241	92.25
365.468	84.25
365.694	87.25
365.92	88.25
366.147	84.25
366.373	68.25
366.599	93.25
366.826	89.25
367.052	73.25
367.278	72.25
367.505	101.25
367.731	94.25
367.957	83.25
368.184	86.25
368.41	109.25
368.636	84.25
368.862	72.25
369.089	96.25
369.315	82.25
369.541	80.25
369.767	86.25
369.993	80.25
370.219	87.25
370.445	74.25
370.672	83.25
370.898	87.25
371.124	93.25
371.35	73.25
371.576	84.25
371.802	86.25
372.028	79.25
372.254	94.25
372.48	88.25
372.706	90.25
372.932	75.25
373.158	86.25
373.384	81.25
373.61	88.25
373.835	103.25
374.061	92.25
374.287	92.25
374.513	94.25
374.739	83.25
374.965	69.25
375.191	83.25
375.416	91.25
375.642	72.25
375.868	92.25
376.094	114.25
376.319	86.25
376.545	98.25
376.771	86.25
376.997	69.25
377.222	86.25
377.448	84.25
377.674	84.25
377.899	94.25
378.125	71.25
378.35	83.25
378.576	83.25
378.802	87.25
379.027	91.25
379.253	89.25
379.478	90.25
379.704	91.25
379.929	87.25
380.155	92.25
380.38	92.25
380.606	88.25
380.831	90.25
381.057	81.25
381.282	91.25
381.507	82.25
381.733	84.25
381.958	83.25
382.184	108.25
382.409	88.25
382.634	91.25
382.86	100.25
383.085	91.25
383.31	93.25
383.535	91.25
383.761	95.25
383.986	104.25
384.211	84.25
384.436	86.25
384.662	88.25
384.887	98.25
385.112	70.25
385.337	88.25
385.562	97.25
385.787	81.25
386.013	96.25
386.238	85.25
386.463	89.25
386.688	91.25
386.913	99.25
387.138	90.25
387.363	84.25
387.588	86.25
387.813	76.25
388.038	84.25
388.263	94.25
388.488	85.25
388.713	80.25
388.938	88.25
389.163	94.25
389.387	87.25
389.612	102.25
389.837	93.25
390.062	92.25
390.287	87.25
390.512	78.25
390.736	80.25
390.961	83.25
391.186	97.25
391.411	68.25
391.636	90.25
391.86	86.25
392.085	98.25
392.31	81.25
392.534	87.25
392.759	86.25
392.984	82.25
393.208	74.25
393.433	83.25
393.658	90.25
393.882	110.25
394.107	85.25
394.331	80.25
394.556	94.25
394.78	82.25
395.005	92.25
395.229	91.25
395.454	89.25
395.678	82.25
395.903	98.25
396.127	88.25
396.352	94.25
396.576	81.25
396.801	90.25
397.025	82.25
397.249	85.25
397.474	109.25
397.698	78.25
397.922	86.25
398.147	96.25
398.371	90.25
398.595	92.25
398.82	79.25
399.044	81.25
399.268	96.25
399.492	91.25
399.717	115.25
399.941	97.25
400.165	98.25
400.389	84.25
400.613	110.25
400.837	96.25
401.062	91.25
401.286	84.25
401.51	97.25
401.734	82.25
401.958	98.25
402.182	92.25
402.406	99.25
402.63	89.25
402.854	86.25
403.078	90.25
403.302	99.25
403.526	96.25
403.75	88.25
403.974	90.25
404.198	99.25
404.422	106.25
404.645	93.25
404.869	108.25
405.093	95.25
405.317	100.25
405.541	87.25
405.765	93.25
405.988	95.25
406.212	106.25
406.436	90.25
406.66	95.25
406.883	96.25
407.107	84.25
407.331	103.25
407.555	89.25
407.778	87.25
408.002	108.25
408.226	96.25
408.449	94.25
408.673	92.25
408.896	84.25
409.12	91.25
409.344	82.25
409.567	89.25
409.791	101.25
410.014	98.25
410.238	90.25
410.461	101.25
410.685	111.25
410.908	88.25
411.132	81.25
411.355	97.25
411.578	84.25
411.802	93.25
412.025	89.25
412.249	95.25
412.472	90.25
412.695	100.25
412.919	100.25
413.142	94.25
413.365	78.25
413.589	75.25
413.812	96.25
414.035	91.25
414.258	85.25
414.482	109.25
414.705	82.25
414.928	100.25
415.151	101.25
415.374	81.25
415.597	84.25
415.821	100.25
416.044	94.25
416.267	97.25
416.49	82.25
416.713	77.25
416.936	91.25
417.159	98.25
417.382	87.25
417.605	83.25
417.828	103.25
418.051	102.25
418.274	83.25
418.497	97.25
418.72	108.25
418.943	97.25
419.166	101.25
419.389	99.25
419.611	93.25
419.834	99.25
420.057	93.25
420.28	91.25
420.503	92.25
420.726	80.25
420.948	92.25
421.171	86.25
421.394	89.25
421.617	103.25
421.839	73.25
422.062	80.25
422.285	89.25
422.507	93.25
422.73	93.25
422.953	92.25
423.175	92.25
423.398	90.25
423.621	88.25
423.843	90.25
424.066	87.25
424.288	96.25
424.511	93.25
424.733	94.25
424.956	110.25
425.178	90.25
425.401	92.25
425.623	83.25
425.846	87.25
426.068	83.25
426.291	77.25
426.513	91.25
426.735	78.25
426.958	95.25
427.18	90.25
427.402	85.25
427.625	96.25
427.847	84.25
428.069	90.25
428.292	81.25
428.514	92.25
428.736	87.25
428.958	96.25
429.181	110.25
429.403	84.25
429.625	85.25
429.847	110.25
430.069	93.25
430.292	100.25
430.514	89.25
430.736	81.25
430.958	97.25
431.18	90.25
431.402	88.25
431.624	96.25
431.846	89.25
432.068	96.25
432.29	94.25
432.512	91.25
432.734	100.25
432.956	92.25
433.178	88.25
433.4	85.25
433.622	94.25
433.844	86.25
434.066	98.25
434.287	95.25
434.509	89.25
434.731	84.25
434.953	85.25
435.175	93.25
435.397	93.25
435.618	82.25
435.84	95.25
436.062	93.25
436.284	86.25
436.505	87.25
436.727	87.25
436.949	102.25
437.17	102.25
437.392	85.25
437.614	81.25
437.835	87.25
438.057	85.25
438.278	80.25
438.5	96.25
438.721	91.25
438.943	84.25
439.165	88.25
439.386	88.25
439.608	67.25
439.829	97.25
440.05	80.25
440.272	90.25
440.493	90.25
440.715	81.25
440.936	94.25
441.158	82.25
441.379	99.25
441.6	87.25
441.822	87.25
442.043	87.25
442.264	72.25
442.486	81.25
442.707	92.25
442.928	100.25
443.149	100.25
443.371	82.25
443.592	72.25
443.813	82.25
444.034	80.25
444.255	107.25
444.476	80.25
444.698	95.25
444.919	82.25
445.14	244.25
445.361	139.25
445.582	92.25
445.803	68.25
446.024	103.25
446.245	91.25
446.466	102.25
446.687	83.25
446.908	76.25
447.129	94.25
447.35	84.25
447.571	96.25
447.792	97.25
448.013	82.25
448.234	91.25
448.455	76.25
448.675	86.25
448.896	94.25
449.117	77.25
449.338	99.25
449.559	73.25
449.779	82.25
450	86.25
450.221	79.25
450.442	104.25
450.662	91.25
450.883	75.25
451.104	95.25
451.324	93.25
451.545	80.25
451.766	80.25
451.986	87.25
452.207	93.25
452.428	86.25
452.648	95.25
452.869	86.25
453.089	86.25
453.31	84.25
453.53	86.25
453.751	93.25
453.971	93.25
454.192	85.25
454.412	95.25
454.633	88.25
454.853	95.25
455.073	91.25
455.294	71.25
455.514	87.25
455.734	79.25
455.955	86.25
456.175	93.25
456.395	94.25
456.616	97.25
456.836	81.25
457.056	86.25
457.276	84.25
457.497	97.25
457.717	85.25
457.937	86.25
458.157	83.25
458.377	90.25
458.598	96.25
458.818	93.25
459.038	87.25
459.258	90.25
459.478	94.25
459.698	85.25
459.918	75.25
460.138	98.25
460.358	88.25
460.578	85.25
460.798	88.25
461.018	98.25
461.238	93.25
461.458	85.25
461.678	77.25
461.898	93.25
462.118	90.25
462.338	95.25
462.558	85.25
462.777	97.25
462.997	96.25
463.217	98.25
463.437	96.25
463.657	80.25
463.876	95.25
464.096	98.25
464.316	88.25
464.536	98.25
464.755	89.25
464.975	86.25
465.195	100.25
465.414	78.25
465.634	90.25
465.854	95.25
466.073	77.25
466.293	86.25
466.512	89.25
466.732	114.25
466.951	96.25
467.171	104.25
467.391	84.25
467.61	97.25
467.829	91.25
468.049	92.25
468.268	100.25
468.488	97.25
468.707	103.25
468.927	91.25
469.146	92.25
469.365	84.25
469.585	90.25
469.804	87.25
470.023	82.25
470.243	87.25
470.462	88.25
470.681	96.25
470.901	86.25
471.12	102.25
471.339	86.25
471.558	97.25
471.777	95.25
471.997	100.25
472.216	93.25
472.435	86.25
472.654	94.25
472.873	93.25
473.092	102.25
473.311	108.25
473.53	90.25
473.749	90.25
473.968	97.25
474.187	93.25
474.406	77.25
474.625	87.25
474.844	92.25
475.063	88.25
475.282	110.25
475.501	83.25
475.72	85.25
475.939	96.25
476.158	97.25
476.377	91.25
476.596	95.25
476.814	108.25
477.033	94.25
477.252	91.25
477.471	90.25
477.69	97.25
477.908	96.25
478.127	100.25
478.346	92.25
478.564	94.25
478.783	92.25
479.002	88.25
479.22	101.25
479.439	97.25
479.658	103.25
479.876	90.25
480.095	104.25
480.313	94.25
480.532	94.25
480.751	107.25
480.969	95.25
481.188	98.25
481.406	101.25
481.624	100.25
481.843	103.25
482.061	89.25
482.28	85.25
482.498	90.25
482.717	84.25
482.935	103.25
483.153	93.25
483.372	95.25
483.59	87.25
483.808	98.25
484.027	96.25
484.245	92.25
484.463	95.25
484.681	108.25
484.9	114.25
485.118	92.25
485.336	94.25
485.554	103.25
485.772	84.25
485.99	95.25
486.209	93.25
486.427	84.25
486.645	98.25
486.863	96.25
487.081	103.25
487.299	108.25
487.517	90.25
487.735	112.25
487.953	120.25
488.171	110.25
488.389	96.25
488.607	100.25
488.825	86.25
489.043	100.25
489.261	106.25
489.479	86.25
489.696	93.25
489.914	99.25
490.132	99.25
490.35	90.25
490.568	94.25
490.786	104.25
491.003	111.25
491.221	110.25
491.439	94.25
491.657	110.25
491.874	99.25
492.092	110.25
492.31	116.25
492.527	105.25
492.745	106.25
492.963	111.25
493.18	98.25
493.398	96.25
493.615	109.25
493.833	122.25
494.05	116.25
494.268	94.25
494.485	110.25
494.703	96.25
494.92	97.25
495.138	96.25
495.355	108.25
495.573	93.25
495.79	101.25
496.008	107.25
496.225	102.25
496.442	104.25
496.66	115.25
496.877	95.25
497.094	112.25
497.312	110.25
497.529	116.25
497.746	106.25
497.963	107.25
498.181	106.25
498.398	102.25
498.615	118.25
498.832	94.25
499.049	116.25
499.267	117.25
499.484	117.25
499.701	117.25
499.918	135.25
500.135	149.25
500.352	143.25
500.569	141.25
500.786	159.25
501.003	130.25
501.22	125.25
501.437	137.25
501.654	116.25
501.871	103.25
502.088	116.25
502.305	94.25
502.522	77.25
502.739	118.25
502.956	109.25
503.172	100.25
503.389	94.25
503.606	91.25
503.823	109.25
504.04	128.25
504.256	101.25
504.473	102.25
504.69	93.25
504.907	122.25
505.123	106.25
505.34	103.25
505.557	101.25
505.773	106.25
505.99	112.25
506.207	99.25
506.423	96.25
506.64	100.25
506.856	95.25
507.073	91.25
507.289	113.25
507.506	87.25
507.722	96.25
507.939	91.25
508.155	102.25
508.372	116.25
508.588	108.25
508.805	96.25
509.021	109.25
509.238	91.25
509.454	95.25
509.67	89.25
509.887	92.25
510.103	95.25
510.319	110.25
510.536	98.25
510.752	94.25
510.968	98.25
511.184	86.25
511.401	91.25
511.617	96.25
511.833	100.25
512.049	94.25
512.265	97.25
512.481	90.25
512.698	91.25
512.914	99.25
513.13	81.25
513.346	93.25
513.562	102.25
513.778	94.25
513.994	89.25
514.21	81.25
514.426	111.25
514.642	98.25
514.858	100.25
515.074	93.25
515.29	94.25
515.506	92.25
515.721	82.25
515.937	89.25
516.153	76.25
516.369	98.25
516.585	90.25
516.801	99.25
517.016	114.25
517.232	106.25
