Data from Location5.07152019.Energy5.Lamp.07192019.3%Agarose_HRD10591_15-37-59-388.txt Node
Date: Fri Jul 19 15:37:59 EDT 2019
User: cochatt
Spectrometer: HR+D1059
Trigger mode: 1
Integration Time (sec): 1.000000E-1
Scans to average: 1
Electric dark correction enabled: true
Nonlinearity correction enabled: false
Boxcar width: 0
XAxis mode: Wavelengths
Number of Pixels in Spectrum: 2048
>>>>>Begin Spectral Data<<<<<
223.165	-11.56
223.4	-11.56
223.635	-11.56
223.869	-12.56
224.104	-16.56
224.338	-11.56
224.573	-13.56
224.808	-23.56
225.042	-5.56
225.277	-15.56
225.511	-7.56
225.746	4.44
225.98	4.44
226.215	23.44
226.449	18.44
226.683	8.44
226.918	30.44
227.152	28.44
227.387	19.44
227.621	26.44
227.856	45.44
228.09	43.44
228.324	47.44
228.559	48.44
228.793	71.44
229.027	59.44
229.262	53.44
229.496	60.44
229.73	68.44
229.964	59.44
230.199	67.44
230.433	68.44
230.667	81.44
230.901	77.44
231.136	73.44
231.37	75.44
231.604	85.44
231.838	71.44
232.072	76.44
232.306	76.44
232.541	75.44
232.775	79.44
233.009	81.44
233.243	73.44
233.477	63.44
233.711	82.44
233.945	76.44
234.179	86.44
234.413	68.44
234.647	88.44
234.881	86.44
235.115	79.44
235.349	88.44
235.583	75.44
235.817	76.44
236.051	48.44
236.285	72.44
236.519	75.44
236.753	81.44
236.987	80.44
237.221	61.44
237.455	64.44
237.689	68.44
237.922	74.44
238.156	77.44
238.39	70.44
238.624	66.44
238.858	62.44
239.091	66.44
239.325	71.44
239.559	77.44
239.793	83.44
240.027	84.44
240.26	74.44
240.494	63.44
240.728	70.44
240.961	70.44
241.195	75.44
241.429	71.44
241.662	74.44
241.896	81.44
242.13	72.44
242.363	89.44
242.597	69.44
242.83	66.44
243.064	77.44
243.298	71.44
243.531	74.44
243.765	62.44
243.998	69.44
244.232	64.44
244.465	74.44
244.699	68.44
244.932	77.44
245.166	72.44
245.399	75.44
245.633	79.44
245.866	64.44
246.099	71.44
246.333	81.44
246.566	62.44
246.8	72.44
247.033	83.44
247.266	72.44
247.5	85.44
247.733	88.44
247.966	63.44
248.2	77.44
248.433	83.44
248.666	68.44
248.899	66.44
249.133	73.44
249.366	74.44
249.599	71.44
249.832	74.44
250.066	72.44
250.299	79.44
250.532	71.44
250.765	69.44
250.998	93.44
251.231	81.44
251.465	81.44
251.698	75.44
251.931	73.44
252.164	70.44
252.397	84.44
252.63	92.44
252.863	78.44
253.096	66.44
253.329	82.44
253.562	84.44
253.795	52.44
254.028	87.44
254.261	86.44
254.494	72.44
254.727	84.44
254.96	84.44
255.193	74.44
255.426	74.44
255.659	77.44
255.892	72.44
256.124	82.44
256.357	86.44
256.59	77.44
256.823	94.44
257.056	77.44
257.289	79.44
257.521	86.44
257.754	79.44
257.987	78.44
258.22	76.44
258.452	79.44
258.685	75.44
258.918	77.44
259.151	64.44
259.383	67.44
259.616	59.44
259.849	79.44
260.081	76.44
260.314	74.44
260.547	91.44
260.779	74.44
261.012	75.44
261.244	78.44
261.477	82.44
261.71	93.44
261.942	84.44
262.175	88.44
262.407	76.44
262.64	78.44
262.872	78.44
263.105	83.44
263.337	82.44
263.57	66.44
263.802	87.44
264.035	77.44
264.267	82.44
264.499	65.44
264.732	78.44
264.964	68.44
265.197	83.44
265.429	76.44
265.661	71.44
265.894	87.44
266.126	75.44
266.358	89.44
266.591	83.44
266.823	78.44
267.055	67.44
267.287	84.44
267.52	69.44
267.752	89.44
267.984	91.44
268.216	73.44
268.448	90.44
268.681	73.44
268.913	84.44
269.145	76.44
269.377	84.44
269.609	80.44
269.841	94.44
270.073	80.44
270.306	89.44
270.538	92.44
270.77	82.44
271.002	82.44
271.234	77.44
271.466	83.44
271.698	69.44
271.93	70.44
272.162	69.44
272.394	72.44
272.626	82.44
272.858	72.44
273.09	78.44
273.322	74.44
273.553	81.44
273.785	93.44
274.017	69.44
274.249	69.44
274.481	72.44
274.713	84.44
274.945	78.44
275.176	76.44
275.408	77.44
275.64	74.44
275.872	81.44
276.104	81.44
276.335	82.44
276.567	89.44
276.799	88.44
277.031	79.44
277.262	64.44
277.494	85.44
277.726	70.44
277.957	82.44
278.189	86.44
278.421	93.44
278.652	86.44
278.884	87.44
279.115	77.44
279.347	81.44
279.579	84.44
279.81	87.44
280.042	69.44
280.273	74.44
280.505	75.44
280.736	68.44
280.968	92.44
281.199	76.44
281.431	71.44
281.662	78.44
281.894	67.44
282.125	64.44
282.356	70.44
282.588	65.44
282.819	74.44
283.051	69.44
283.282	79.44
283.513	78.44
283.745	77.44
283.976	80.44
284.207	75.44
284.439	91.44
284.67	91.44
284.901	78.44
285.132	88.44
285.364	77.44
285.595	76.44
285.826	85.44
286.057	97.44
286.288	88.44
286.52	96.44
286.751	73.44
286.982	79.44
287.213	63.44
287.444	82.44
287.675	83.44
287.906	87.44
288.138	84.44
288.369	76.44
288.6	83.44
288.831	69.44
289.062	86.44
289.293	90.44
289.524	69.44
289.755	83.44
289.986	84.44
290.217	85.44
290.448	70.44
290.679	72.44
290.91	80.44
291.141	79.44
291.371	83.44
291.602	86.44
291.833	77.44
292.064	86.44
292.295	76.44
292.526	87.44
292.757	69.44
292.987	87.44
293.218	94.44
293.449	69.44
293.68	84.44
293.91	69.44
294.141	69.44
294.372	91.44
294.603	69.44
294.833	78.44
295.064	82.44
295.295	63.44
295.525	82.44
295.756	82.44
295.987	72.44
296.217	71.44
296.448	70.44
296.679	82.44
296.909	78.44
297.14	80.44
297.37	81.44
297.601	84.44
297.831	62.44
298.062	90.44
298.292	82.44
298.523	87.44
298.753	82.44
298.984	76.44
299.214	75.44
299.445	85.44
299.675	87.44
299.905	78.44
300.136	75.44
300.366	69.44
300.597	82.44
300.827	69.44
301.057	74.44
301.288	75.44
301.518	82.44
301.748	84.44
301.979	77.44
302.209	72.44
302.439	98.44
302.669	70.44
302.9	90.44
303.13	84.44
303.36	85.44
303.59	83.44
303.82	88.44
304.051	87.44
304.281	88.44
304.511	75.44
304.741	80.44
304.971	78.44
305.201	76.44
305.431	83.44
305.661	87.44
305.891	73.44
306.121	87.44
306.352	80.44
306.582	76.44
306.812	79.44
307.042	79.44
307.272	78.44
307.502	76.44
307.731	94.44
307.961	84.44
308.191	66.44
308.421	77.44
308.651	77.44
308.881	86.44
309.111	86.44
309.341	79.44
309.571	87.44
309.8	71.44
310.03	78.44
310.26	78.44
310.49	85.44
310.72	81.44
310.949	91.44
311.179	78.44
311.409	97.44
311.639	75.44
311.868	88.44
312.098	79.44
312.328	82.44
312.557	76.44
312.787	70.44
313.017	84.44
313.246	83.44
313.476	72.44
313.706	84.44
313.935	85.44
314.165	79.44
314.394	88.44
314.624	74.44
314.853	97.44
315.083	86.44
315.312	76.44
315.542	91.44
315.771	71.44
316.001	77.44
316.23	79.44
316.46	69.44
316.689	81.44
316.919	70.44
317.148	72.44
317.377	78.44
317.607	74.44
317.836	56.44
318.065	78.44
318.295	92.44
318.524	67.44
318.753	90.44
318.983	82.44
319.212	88.44
319.441	89.44
319.67	78.44
319.9	87.44
320.129	84.44
320.358	97.44
320.587	80.44
320.816	74.44
321.046	81.44
321.275	95.44
321.504	81.44
321.733	80.44
321.962	92.44
322.191	74.44
322.42	84.44
322.649	82.44
322.878	95.44
323.108	87.44
323.337	80.44
323.566	83.44
323.795	70.44
324.024	86.44
324.253	88.44
324.482	69.44
324.71	87.44
324.939	87.44
325.168	72.44
325.397	68.44
325.626	79.44
325.855	87.44
326.084	88.44
326.313	71.44
326.542	82.44
326.77	74.44
326.999	91.44
327.228	77.44
327.457	77.44
327.686	78.44
327.914	83.44
328.143	91.44
328.372	78.44
328.6	80.44
328.829	85.44
329.058	65.44
329.287	79.44
329.515	78.44
329.744	75.44
329.972	83.44
330.201	85.44
330.43	73.44
330.658	78.44
330.887	85.44
331.115	85.44
331.344	81.44
331.572	92.44
331.801	60.44
332.03	79.44
332.258	85.44
332.486	92.44
332.715	93.44
332.943	76.44
333.172	80.44
333.4	86.44
333.629	78.44
333.857	91.44
334.085	90.44
334.314	67.44
334.542	78.44
334.771	72.44
334.999	89.44
335.227	88.44
335.455	81.44
335.684	85.44
335.912	85.44
336.14	84.44
336.369	70.44
336.597	71.44
336.825	75.44
337.053	67.44
337.281	72.44
337.51	82.44
337.738	84.44
337.966	99.44
338.194	88.44
338.422	83.44
338.65	92.44
338.878	86.44
339.106	75.44
339.334	74.44
339.562	75.44
339.79	85.44
340.018	71.44
340.246	70.44
340.474	76.44
340.702	83.44
340.93	75.44
341.158	78.44
341.386	77.44
341.614	81.44
341.842	87.44
342.07	87.44
342.298	85.44
342.526	87.44
342.754	92.44
342.981	97.44
343.209	90.44
343.437	84.44
343.665	84.44
343.893	70.44
344.12	91.44
344.348	78.44
344.576	80.44
344.804	70.44
345.031	80.44
345.259	83.44
345.487	83.44
345.714	85.44
345.942	80.44
346.17	92.44
346.397	85.44
346.625	70.44
346.853	85.44
347.08	85.44
347.308	72.44
347.535	76.44
347.763	78.44
347.99	75.44
348.218	78.44
348.445	77.44
348.673	87.44
348.9	81.44
349.128	84.44
349.355	76.44
349.583	97.44
349.81	91.44
350.037	66.44
350.265	94.44
350.492	78.44
350.72	85.44
350.947	96.44
351.174	76.44
351.402	91.44
351.629	72.44
351.856	83.44
352.083	82.44
352.311	69.44
352.538	71.44
352.765	67.44
352.992	76.44
353.22	70.44
353.447	78.44
353.674	78.44
353.901	75.44
354.128	73.44
354.355	76.44
354.583	85.44
354.81	82.44
355.037	74.44
355.264	84.44
355.491	95.44
355.718	91.44
355.945	82.44
356.172	85.44
356.399	69.44
356.626	84.44
356.853	78.44
357.08	77.44
357.307	82.44
357.534	76.44
357.761	81.44
357.988	78.44
358.215	73.44
358.441	82.44
358.668	73.44
358.895	68.44
359.122	67.44
359.349	90.44
359.576	92.44
359.802	84.44
360.029	80.44
360.256	79.44
360.483	80.44
360.709	89.44
360.936	79.44
361.163	73.44
361.39	84.44
361.616	86.44
361.843	82.44
362.07	79.44
362.296	76.44
362.523	92.44
362.749	80.44
362.976	84.44
363.203	87.44
363.429	69.44
363.656	72.44
363.882	70.44
364.109	72.44
364.335	80.44
364.562	83.44
364.788	90.44
365.015	79.44
365.241	77.44
365.468	80.44
365.694	70.44
365.92	72.44
366.147	78.44
366.373	79.44
366.599	91.44
366.826	80.44
367.052	74.44
367.278	85.44
367.505	78.44
367.731	80.44
367.957	90.44
368.184	82.44
368.41	81.44
368.636	79.44
368.862	91.44
369.089	72.44
369.315	88.44
369.541	78.44
369.767	72.44
369.993	79.44
370.219	78.44
370.445	82.44
370.672	83.44
370.898	71.44
371.124	74.44
371.35	92.44
371.576	77.44
371.802	79.44
372.028	79.44
372.254	72.44
372.48	69.44
372.706	81.44
372.932	90.44
373.158	74.44
373.384	72.44
373.61	68.44
373.835	82.44
374.061	79.44
374.287	68.44
374.513	83.44
374.739	61.44
374.965	71.44
375.191	75.44
375.416	82.44
375.642	94.44
375.868	91.44
376.094	85.44
376.319	87.44
376.545	91.44
376.771	74.44
376.997	89.44
377.222	81.44
377.448	84.44
377.674	83.44
377.899	86.44
378.125	85.44
378.35	72.44
378.576	70.44
378.802	63.44
379.027	80.44
379.253	81.44
379.478	86.44
379.704	90.44
379.929	75.44
380.155	88.44
380.38	89.44
380.606	79.44
380.831	82.44
381.057	87.44
381.282	74.44
381.507	94.44
381.733	83.44
381.958	96.44
382.184	86.44
382.409	81.44
382.634	75.44
382.86	76.44
383.085	73.44
383.31	72.44
383.535	100.44
383.761	82.44
383.986	68.44
384.211	93.44
384.436	84.44
384.662	87.44
384.887	76.44
385.112	78.44
385.337	83.44
385.562	80.44
385.787	84.44
386.013	83.44
386.238	82.44
386.463	69.44
386.688	82.44
386.913	66.44
387.138	79.44
387.363	72.44
387.588	98.44
387.813	80.44
388.038	81.44
388.263	82.44
388.488	88.44
388.713	99.44
388.938	82.44
389.163	65.44
389.387	87.44
389.612	83.44
389.837	86.44
390.062	78.44
390.287	81.44
390.512	70.44
390.736	89.44
390.961	78.44
391.186	86.44
391.411	87.44
391.636	78.44
391.86	99.44
392.085	78.44
392.31	83.44
392.534	75.44
392.759	86.44
392.984	68.44
393.208	93.44
393.433	75.44
393.658	80.44
393.882	83.44
394.107	83.44
394.331	84.44
394.556	78.44
394.78	83.44
395.005	97.44
395.229	87.44
395.454	78.44
395.678	80.44
395.903	85.44
396.127	81.44
396.352	86.44
396.576	77.44
396.801	78.44
397.025	65.44
397.249	63.44
397.474	82.44
397.698	80.44
397.922	78.44
398.147	77.44
398.371	68.44
398.595	84.44
398.82	88.44
399.044	85.44
399.268	71.44
399.492	74.44
399.717	72.44
399.941	80.44
400.165	88.44
400.389	77.44
400.613	82.44
400.837	82.44
401.062	94.44
401.286	94.44
401.51	86.44
401.734	85.44
401.958	79.44
402.182	91.44
402.406	80.44
402.63	86.44
402.854	81.44
403.078	82.44
403.302	78.44
403.526	85.44
403.75	78.44
403.974	84.44
404.198	88.44
404.422	87.44
404.645	76.44
404.869	70.44
405.093	97.44
405.317	91.44
405.541	93.44
405.765	72.44
405.988	86.44
406.212	87.44
406.436	86.44
406.66	78.44
406.883	81.44
407.107	75.44
407.331	80.44
407.555	80.44
407.778	76.44
408.002	79.44
408.226	86.44
408.449	78.44
408.673	78.44
408.896	96.44
409.12	83.44
409.344	87.44
409.567	89.44
409.791	81.44
410.014	89.44
410.238	72.44
410.461	80.44
410.685	90.44
410.908	91.44
411.132	79.44
411.355	83.44
411.578	76.44
411.802	93.44
412.025	76.44
412.249	86.44
412.472	74.44
412.695	83.44
412.919	88.44
413.142	93.44
413.365	73.44
413.589	86.44
413.812	90.44
414.035	90.44
414.258	77.44
414.482	96.44
414.705	92.44
414.928	82.44
415.151	93.44
415.374	89.44
415.597	84.44
415.821	93.44
416.044	91.44
416.267	84.44
416.49	94.44
416.713	82.44
416.936	105.44
417.159	96.44
417.382	94.44
417.605	84.44
417.828	78.44
418.051	87.44
418.274	86.44
418.497	95.44
418.72	83.44
418.943	79.44
419.166	75.44
419.389	93.44
419.611	91.44
419.834	87.44
420.057	93.44
420.28	97.44
420.503	95.44
420.726	87.44
420.948	88.44
421.171	84.44
421.394	80.44
421.617	87.44
421.839	98.44
422.062	95.44
422.285	94.44
422.507	87.44
422.73	96.44
422.953	89.44
423.175	102.44
423.398	80.44
423.621	92.44
423.843	92.44
424.066	86.44
424.288	89.44
424.511	95.44
424.733	93.44
424.956	78.44
425.178	87.44
425.401	96.44
425.623	94.44
425.846	79.44
426.068	68.44
426.291	83.44
426.513	95.44
426.735	83.44
426.958	90.44
427.18	85.44
427.402	90.44
427.625	76.44
427.847	96.44
428.069	84.44
428.292	86.44
428.514	90.44
428.736	91.44
428.958	76.44
429.181	93.44
429.403	93.44
429.625	86.44
429.847	84.44
430.069	76.44
430.292	81.44
430.514	100.44
430.736	78.44
430.958	84.44
431.18	86.44
431.402	76.44
431.624	87.44
431.846	94.44
432.068	80.44
432.29	78.44
432.512	90.44
432.734	77.44
432.956	84.44
433.178	97.44
433.4	76.44
433.622	89.44
433.844	83.44
434.066	81.44
434.287	84.44
434.509	79.44
434.731	76.44
434.953	86.44
435.175	88.44
435.397	90.44
435.618	74.44
435.84	93.44
436.062	76.44
436.284	86.44
436.505	83.44
436.727	79.44
436.949	95.44
437.17	86.44
437.392	94.44
437.614	71.44
437.835	74.44
438.057	87.44
438.278	83.44
438.5	83.44
438.721	79.44
438.943	96.44
439.165	85.44
439.386	104.44
439.608	83.44
439.829	82.44
440.05	100.44
440.272	80.44
440.493	97.44
440.715	86.44
440.936	96.44
441.158	85.44
441.379	85.44
441.6	88.44
441.822	107.44
442.043	91.44
442.264	91.44
442.486	103.44
442.707	89.44
442.928	88.44
443.149	82.44
443.371	104.44
443.592	92.44
443.813	86.44
444.034	85.44
444.255	93.44
444.476	96.44
444.698	94.44
444.919	93.44
445.14	165.44
445.361	128.44
445.582	94.44
445.803	92.44
446.024	96.44
446.245	106.44
446.466	91.44
446.687	92.44
446.908	108.44
447.129	102.44
447.35	106.44
447.571	92.44
447.792	96.44
448.013	93.44
448.234	77.44
448.455	93.44
448.675	92.44
448.896	82.44
449.117	81.44
449.338	91.44
449.559	89.44
449.779	81.44
450	86.44
450.221	78.44
450.442	94.44
450.662	94.44
450.883	93.44
451.104	97.44
451.324	89.44
451.545	88.44
451.766	75.44
451.986	100.44
452.207	78.44
452.428	85.44
452.648	99.44
452.869	77.44
453.089	78.44
453.31	86.44
453.53	75.44
453.751	84.44
453.971	82.44
454.192	80.44
454.412	83.44
454.633	81.44
454.853	101.44
455.073	90.44
455.294	82.44
455.514	94.44
455.734	81.44
455.955	87.44
456.175	95.44
456.395	92.44
456.616	78.44
456.836	72.44
457.056	83.44
457.276	81.44
457.497	87.44
457.717	95.44
457.937	81.44
458.157	78.44
458.377	80.44
458.598	81.44
458.818	76.44
459.038	82.44
459.258	80.44
459.478	82.44
459.698	96.44
459.918	74.44
460.138	75.44
460.358	76.44
460.578	79.44
460.798	84.44
461.018	88.44
461.238	77.44
461.458	92.44
461.678	84.44
461.898	72.44
462.118	68.44
462.338	103.44
462.558	82.44
462.777	80.44
462.997	71.44
463.217	86.44
463.437	86.44
463.657	87.44
463.876	94.44
464.096	77.44
464.316	82.44
464.536	76.44
464.755	93.44
464.975	82.44
465.195	80.44
465.414	90.44
465.634	95.44
465.854	88.44
466.073	81.44
466.293	97.44
466.512	110.44
466.732	95.44
466.951	86.44
467.171	82.44
467.391	90.44
467.61	96.44
467.829	94.44
468.049	84.44
468.268	103.44
468.488	97.44
468.707	88.44
468.927	88.44
469.146	95.44
469.365	87.44
469.585	93.44
469.804	89.44
470.023	88.44
470.243	92.44
470.462	85.44
470.681	74.44
470.901	84.44
471.12	100.44
471.339	100.44
471.558	103.44
471.777	98.44
471.997	89.44
472.216	99.44
472.435	82.44
472.654	106.44
472.873	79.44
473.092	79.44
473.311	77.44
473.53	94.44
473.749	86.44
473.968	94.44
474.187	104.44
474.406	80.44
474.625	79.44
474.844	99.44
475.063	92.44
475.282	84.44
475.501	85.44
475.72	84.44
475.939	89.44
476.158	100.44
476.377	84.44
476.596	89.44
476.814	84.44
477.033	91.44
477.252	78.44
477.471	86.44
477.69	88.44
477.908	90.44
478.127	77.44
478.346	82.44
478.564	91.44
478.783	99.44
479.002	89.44
479.22	103.44
479.439	90.44
479.658	102.44
479.876	76.44
480.095	84.44
480.313	78.44
480.532	92.44
480.751	87.44
480.969	85.44
481.188	71.44
481.406	88.44
481.624	91.44
481.843	84.44
482.061	82.44
482.28	80.44
482.498	78.44
482.717	91.44
482.935	84.44
483.153	110.44
483.372	97.44
483.59	96.44
483.808	105.44
484.027	84.44
484.245	96.44
484.463	89.44
484.681	103.44
484.9	75.44
485.118	81.44
485.336	98.44
485.554	102.44
485.772	87.44
485.99	85.44
486.209	86.44
486.427	84.44
486.645	88.44
486.863	97.44
487.081	96.44
487.299	94.44
487.517	95.44
487.735	101.44
487.953	117.44
488.171	97.44
488.389	96.44
488.607	98.44
488.825	88.44
489.043	90.44
489.261	101.44
489.479	89.44
489.696	94.44
489.914	92.44
490.132	99.44
490.35	101.44
490.568	107.44
490.786	100.44
491.003	109.44
491.221	106.44
491.439	107.44
491.657	110.44
491.874	115.44
492.092	122.44
492.31	118.44
492.527	116.44
492.745	102.44
492.963	106.44
493.18	110.44
493.398	92.44
493.615	126.44
493.833	101.44
494.05	109.44
494.268	108.44
494.485	95.44
494.703	110.44
494.92	100.44
495.138	94.44
495.355	119.44
495.573	101.44
495.79	98.44
496.008	119.44
496.225	98.44
496.442	99.44
496.66	113.44
496.877	115.44
497.094	109.44
497.312	91.44
497.529	94.44
497.746	95.44
497.963	89.44
498.181	90.44
498.398	71.44
498.615	92.44
498.832	76.44
499.049	85.44
499.267	103.44
499.484	90.44
499.701	79.44
499.918	108.44
500.135	95.44
500.352	104.44
500.569	100.44
500.786	93.44
501.003	109.44
501.22	95.44
501.437	88.44
501.654	101.44
501.871	92.44
502.088	93.44
502.305	88.44
502.522	82.44
502.739	80.44
502.956	86.44
503.172	93.44
503.389	84.44
503.606	84.44
503.823	82.44
504.04	88.44
504.256	91.44
504.473	78.44
504.69	89.44
504.907	97.44
505.123	73.44
505.34	84.44
505.557	94.44
505.773	92.44
505.99	86.44
506.207	97.44
506.423	97.44
506.64	93.44
506.856	77.44
507.073	82.44
507.289	67.44
507.506	84.44
507.722	94.44
507.939	83.44
508.155	66.44
508.372	100.44
508.588	93.44
508.805	95.44
509.021	86.44
509.238	96.44
509.454	90.44
509.67	78.44
509.887	95.44
510.103	92.44
510.319	90.44
510.536	86.44
510.752	73.44
510.968	78.44
511.184	72.44
511.401	93.44
511.617	94.44
511.833	92.44
512.049	81.44
512.265	79.44
512.481	83.44
512.698	88.44
512.914	91.44
513.13	79.44
513.346	83.44
513.562	80.44
513.778	84.44
513.994	73.44
514.21	68.44
514.426	78.44
514.642	76.44
514.858	87.44
515.074	70.44
515.29	94.44
515.506	87.44
515.721	85.44
515.937	86.44
516.153	78.44
516.369	87.44
516.585	72.44
516.801	78.44
517.016	83.44
517.232	94.44
517.448	91.44
517.664	78.44
517.879	81.44
518.095	68.44
518.311	77.44
518.527	83.44
