Data from Location5.07152019.Energy5.Lamp.07192019.3%Agarose_HRD10591_15-37-09-387.txt Node
Date: Fri Jul 19 15:37:09 EDT 2019
User: cochatt
Spectrometer: HR+D1059
Trigger mode: 1
Integration Time (sec): 1.000000E-1
Scans to average: 1
Electric dark correction enabled: true
Nonlinearity correction enabled: false
Boxcar width: 0
XAxis mode: Wavelengths
Number of Pixels in Spectrum: 2048
>>>>>Begin Spectral Data<<<<<
223.165	-10.56
223.4	-10.56
223.635	-10.56
223.869	-20.56
224.104	-21.56
224.338	-15.56
224.573	-15.56
224.808	-5.56
225.042	-8.56
225.277	-6.56
225.511	-7.56
225.746	4.44
225.98	2.44
226.215	5.44
226.449	29.44
226.683	20.44
226.918	24.44
227.152	25.44
227.387	39.44
227.621	41.44
227.856	55.44
228.09	56.44
228.324	64.44
228.559	59.44
228.793	64.44
229.027	59.44
229.262	56.44
229.496	64.44
229.73	67.44
229.964	61.44
230.199	70.44
230.433	60.44
230.667	73.44
230.901	81.44
231.136	56.44
231.37	84.44
231.604	97.44
231.838	85.44
232.072	82.44
232.306	84.44
232.541	90.44
232.775	84.44
233.009	80.44
233.243	90.44
233.477	86.44
233.711	81.44
233.945	75.44
234.179	77.44
234.413	85.44
234.647	81.44
234.881	71.44
235.115	76.44
235.349	78.44
235.583	69.44
235.817	84.44
236.051	78.44
236.285	74.44
236.519	56.44
236.753	78.44
236.987	76.44
237.221	69.44
237.455	102.44
237.689	76.44
237.922	76.44
238.156	63.44
238.39	77.44
238.624	89.44
238.858	89.44
239.091	91.44
239.325	77.44
239.559	72.44
239.793	74.44
240.027	83.44
240.26	84.44
240.494	85.44
240.728	84.44
240.961	77.44
241.195	70.44
241.429	72.44
241.662	71.44
241.896	78.44
242.13	88.44
242.363	76.44
242.597	90.44
242.83	92.44
243.064	91.44
243.298	82.44
243.531	76.44
243.765	74.44
243.998	80.44
244.232	70.44
244.465	81.44
244.699	82.44
244.932	77.44
245.166	81.44
245.399	73.44
245.633	79.44
245.866	85.44
246.099	82.44
246.333	82.44
246.566	79.44
246.8	75.44
247.033	82.44
247.266	90.44
247.5	86.44
247.733	96.44
247.966	81.44
248.2	98.44
248.433	87.44
248.666	79.44
248.899	75.44
249.133	88.44
249.366	87.44
249.599	78.44
249.832	84.44
250.066	80.44
250.299	81.44
250.532	79.44
250.765	82.44
250.998	72.44
251.231	76.44
251.465	87.44
251.698	82.44
251.931	74.44
252.164	71.44
252.397	90.44
252.63	82.44
252.863	92.44
253.096	78.44
253.329	80.44
253.562	82.44
253.795	84.44
254.028	75.44
254.261	85.44
254.494	82.44
254.727	76.44
254.96	67.44
255.193	73.44
255.426	83.44
255.659	75.44
255.892	83.44
256.124	101.44
256.357	84.44
256.59	81.44
256.823	81.44
257.056	87.44
257.289	81.44
257.521	75.44
257.754	83.44
257.987	79.44
258.22	81.44
258.452	81.44
258.685	88.44
258.918	84.44
259.151	70.44
259.383	89.44
259.616	86.44
259.849	85.44
260.081	96.44
260.314	69.44
260.547	85.44
260.779	93.44
261.012	87.44
261.244	89.44
261.477	70.44
261.71	91.44
261.942	75.44
262.175	76.44
262.407	90.44
262.64	85.44
262.872	84.44
263.105	82.44
263.337	89.44
263.57	88.44
263.802	84.44
264.035	78.44
264.267	71.44
264.499	92.44
264.732	79.44
264.964	81.44
265.197	88.44
265.429	81.44
265.661	79.44
265.894	86.44
266.126	95.44
266.358	86.44
266.591	95.44
266.823	87.44
267.055	97.44
267.287	93.44
267.52	79.44
267.752	96.44
267.984	81.44
268.216	84.44
268.448	81.44
268.681	91.44
268.913	74.44
269.145	91.44
269.377	75.44
269.609	75.44
269.841	99.44
270.073	84.44
270.306	92.44
270.538	91.44
270.77	86.44
271.002	79.44
271.234	89.44
271.466	100.44
271.698	73.44
271.93	95.44
272.162	72.44
272.394	78.44
272.626	79.44
272.858	67.44
273.09	73.44
273.322	85.44
273.553	89.44
273.785	97.44
274.017	85.44
274.249	88.44
274.481	76.44
274.713	91.44
274.945	75.44
275.176	85.44
275.408	90.44
275.64	91.44
275.872	83.44
276.104	81.44
276.335	85.44
276.567	89.44
276.799	78.44
277.031	85.44
277.262	78.44
277.494	85.44
277.726	93.44
277.957	94.44
278.189	70.44
278.421	96.44
278.652	82.44
278.884	82.44
279.115	71.44
279.347	100.44
279.579	92.44
279.81	80.44
280.042	83.44
280.273	75.44
280.505	99.44
280.736	91.44
280.968	88.44
281.199	86.44
281.431	93.44
281.662	87.44
281.894	91.44
282.125	94.44
282.356	91.44
282.588	88.44
282.819	78.44
283.051	81.44
283.282	77.44
283.513	87.44
283.745	78.44
283.976	78.44
284.207	91.44
284.439	88.44
284.67	88.44
284.901	92.44
285.132	98.44
285.364	90.44
285.595	83.44
285.826	77.44
286.057	80.44
286.288	90.44
286.52	88.44
286.751	71.44
286.982	92.44
287.213	67.44
287.444	85.44
287.675	89.44
287.906	87.44
288.138	82.44
288.369	89.44
288.6	91.44
288.831	90.44
289.062	93.44
289.293	92.44
289.524	95.44
289.755	100.44
289.986	81.44
290.217	87.44
290.448	81.44
290.679	79.44
290.91	84.44
291.141	93.44
291.371	84.44
291.602	96.44
291.833	94.44
292.064	94.44
292.295	80.44
292.526	90.44
292.757	104.44
292.987	95.44
293.218	88.44
293.449	79.44
293.68	87.44
293.91	78.44
294.141	87.44
294.372	85.44
294.603	96.44
294.833	92.44
295.064	96.44
295.295	77.44
295.525	85.44
295.756	82.44
295.987	81.44
296.217	73.44
296.448	82.44
296.679	82.44
296.909	98.44
297.14	83.44
297.37	97.44
297.601	78.44
297.831	97.44
298.062	85.44
298.292	78.44
298.523	88.44
298.753	85.44
298.984	84.44
299.214	76.44
299.445	89.44
299.675	94.44
299.905	96.44
300.136	96.44
300.366	96.44
300.597	94.44
300.827	88.44
301.057	82.44
301.288	81.44
301.518	65.44
301.748	91.44
301.979	86.44
302.209	90.44
302.439	83.44
302.669	79.44
302.9	85.44
303.13	80.44
303.36	77.44
303.59	96.44
303.82	72.44
304.051	86.44
304.281	80.44
304.511	84.44
304.741	91.44
304.971	94.44
305.201	93.44
305.431	93.44
305.661	100.44
305.891	78.44
306.121	95.44
306.352	82.44
306.582	91.44
306.812	88.44
307.042	97.44
307.272	87.44
307.502	80.44
307.731	86.44
307.961	94.44
308.191	94.44
308.421	99.44
308.651	86.44
308.881	94.44
309.111	83.44
309.341	78.44
309.571	89.44
309.8	77.44
310.03	74.44
310.26	96.44
310.49	86.44
310.72	86.44
310.949	85.44
311.179	99.44
311.409	70.44
311.639	93.44
311.868	93.44
312.098	102.44
312.328	88.44
312.557	82.44
312.787	97.44
313.017	82.44
313.246	92.44
313.476	84.44
313.706	100.44
313.935	89.44
314.165	77.44
314.394	80.44
314.624	58.44
314.853	93.44
315.083	92.44
315.312	78.44
315.542	86.44
315.771	98.44
316.001	89.44
316.23	102.44
316.46	76.44
316.689	85.44
316.919	79.44
317.148	78.44
317.377	98.44
317.607	91.44
317.836	83.44
318.065	91.44
318.295	85.44
318.524	93.44
318.753	78.44
318.983	89.44
319.212	78.44
319.441	89.44
319.67	84.44
319.9	78.44
320.129	84.44
320.358	89.44
320.587	89.44
320.816	75.44
321.046	96.44
321.275	92.44
321.504	96.44
321.733	91.44
321.962	90.44
322.191	88.44
322.42	91.44
322.649	84.44
322.878	98.44
323.108	93.44
323.337	88.44
323.566	86.44
323.795	86.44
324.024	89.44
324.253	85.44
324.482	78.44
324.71	92.44
324.939	96.44
325.168	105.44
325.397	81.44
325.626	80.44
325.855	100.44
326.084	91.44
326.313	80.44
326.542	85.44
326.77	91.44
326.999	88.44
327.228	88.44
327.457	86.44
327.686	84.44
327.914	82.44
328.143	92.44
328.372	88.44
328.6	99.44
328.829	73.44
329.058	84.44
329.287	92.44
329.515	79.44
329.744	94.44
329.972	98.44
330.201	92.44
330.43	90.44
330.658	78.44
330.887	80.44
331.115	90.44
331.344	85.44
331.572	92.44
331.801	76.44
332.03	92.44
332.258	89.44
332.486	89.44
332.715	90.44
332.943	93.44
333.172	84.44
333.4	106.44
333.629	83.44
333.857	83.44
334.085	87.44
334.314	94.44
334.542	89.44
334.771	90.44
334.999	78.44
335.227	80.44
335.455	90.44
335.684	112.44
335.912	103.44
336.14	88.44
336.369	93.44
336.597	93.44
336.825	85.44
337.053	99.44
337.281	86.44
337.51	89.44
337.738	86.44
337.966	95.44
338.194	80.44
338.422	87.44
338.65	98.44
338.878	83.44
339.106	89.44
339.334	81.44
339.562	71.44
339.79	77.44
340.018	88.44
340.246	80.44
340.474	92.44
340.702	75.44
340.93	77.44
341.158	93.44
341.386	86.44
341.614	80.44
341.842	80.44
342.07	84.44
342.298	93.44
342.526	72.44
342.754	97.44
342.981	106.44
343.209	93.44
343.437	92.44
343.665	89.44
343.893	98.44
344.12	90.44
344.348	89.44
344.576	84.44
344.804	72.44
345.031	88.44
345.259	89.44
345.487	91.44
345.714	94.44
345.942	88.44
346.17	87.44
346.397	81.44
346.625	73.44
346.853	105.44
347.08	107.44
347.308	77.44
347.535	82.44
347.763	70.44
347.99	94.44
348.218	107.44
348.445	78.44
348.673	81.44
348.9	88.44
349.128	78.44
349.355	97.44
349.583	85.44
349.81	88.44
350.037	87.44
350.265	85.44
350.492	76.44
350.72	93.44
350.947	94.44
351.174	82.44
351.402	83.44
351.629	73.44
351.856	83.44
352.083	90.44
352.311	84.44
352.538	86.44
352.765	74.44
352.992	95.44
353.22	78.44
353.447	70.44
353.674	84.44
353.901	92.44
354.128	89.44
354.355	85.44
354.583	90.44
354.81	91.44
355.037	73.44
355.264	91.44
355.491	82.44
355.718	83.44
355.945	81.44
356.172	87.44
356.399	92.44
356.626	93.44
356.853	70.44
357.08	93.44
357.307	85.44
357.534	81.44
357.761	94.44
357.988	97.44
358.215	88.44
358.441	76.44
358.668	88.44
358.895	81.44
359.122	76.44
359.349	84.44
359.576	69.44
359.802	82.44
360.029	96.44
360.256	92.44
360.483	76.44
360.709	91.44
360.936	90.44
361.163	98.44
361.39	87.44
361.616	86.44
361.843	72.44
362.07	87.44
362.296	77.44
362.523	81.44
362.749	89.44
362.976	89.44
363.203	98.44
363.429	78.44
363.656	82.44
363.882	90.44
364.109	99.44
364.335	90.44
364.562	90.44
364.788	77.44
365.015	81.44
365.241	85.44
365.468	90.44
365.694	81.44
365.92	96.44
366.147	87.44
366.373	93.44
366.599	81.44
366.826	96.44
367.052	82.44
367.278	74.44
367.505	91.44
367.731	90.44
367.957	90.44
368.184	86.44
368.41	82.44
368.636	80.44
368.862	79.44
369.089	100.44
369.315	93.44
369.541	92.44
369.767	88.44
369.993	91.44
370.219	83.44
370.445	81.44
370.672	83.44
370.898	77.44
371.124	92.44
371.35	106.44
371.576	90.44
371.802	80.44
372.028	102.44
372.254	93.44
372.48	86.44
372.706	96.44
372.932	102.44
373.158	80.44
373.384	89.44
373.61	92.44
373.835	99.44
374.061	79.44
374.287	86.44
374.513	97.44
374.739	81.44
374.965	74.44
375.191	90.44
375.416	76.44
375.642	90.44
375.868	93.44
376.094	76.44
376.319	75.44
376.545	83.44
376.771	102.44
376.997	92.44
377.222	81.44
377.448	75.44
377.674	85.44
377.899	80.44
378.125	98.44
378.35	88.44
378.576	87.44
378.802	73.44
379.027	100.44
379.253	82.44
379.478	81.44
379.704	93.44
379.929	81.44
380.155	88.44
380.38	92.44
380.606	110.44
380.831	78.44
381.057	100.44
381.282	96.44
381.507	95.44
381.733	83.44
381.958	74.44
382.184	92.44
382.409	85.44
382.634	85.44
382.86	96.44
383.085	92.44
383.31	92.44
383.535	81.44
383.761	67.44
383.986	93.44
384.211	98.44
384.436	86.44
384.662	90.44
384.887	81.44
385.112	89.44
385.337	84.44
385.562	102.44
385.787	93.44
386.013	82.44
386.238	82.44
386.463	92.44
386.688	75.44
386.913	73.44
387.138	83.44
387.363	96.44
387.588	103.44
387.813	77.44
388.038	92.44
388.263	82.44
388.488	78.44
388.713	85.44
388.938	84.44
389.163	91.44
389.387	97.44
389.612	77.44
389.837	85.44
390.062	86.44
390.287	89.44
390.512	98.44
390.736	82.44
390.961	88.44
391.186	105.44
391.411	89.44
391.636	88.44
391.86	91.44
392.085	97.44
392.31	86.44
392.534	69.44
392.759	88.44
392.984	75.44
393.208	86.44
393.433	85.44
393.658	89.44
393.882	85.44
394.107	84.44
394.331	85.44
394.556	90.44
394.78	87.44
395.005	96.44
395.229	80.44
395.454	82.44
395.678	85.44
395.903	81.44
396.127	97.44
396.352	87.44
396.576	88.44
396.801	91.44
397.025	95.44
397.249	89.44
397.474	99.44
397.698	87.44
397.922	89.44
398.147	87.44
398.371	86.44
398.595	99.44
398.82	88.44
399.044	93.44
399.268	89.44
399.492	84.44
399.717	89.44
399.941	92.44
400.165	93.44
400.389	94.44
400.613	95.44
400.837	102.44
401.062	90.44
401.286	93.44
401.51	83.44
401.734	77.44
401.958	88.44
402.182	88.44
402.406	77.44
402.63	96.44
402.854	92.44
403.078	85.44
403.302	104.44
403.526	86.44
403.75	83.44
403.974	92.44
404.198	82.44
404.422	81.44
404.645	84.44
404.869	86.44
405.093	106.44
405.317	93.44
405.541	93.44
405.765	96.44
405.988	97.44
406.212	77.44
406.436	81.44
406.66	95.44
406.883	81.44
407.107	90.44
407.331	84.44
407.555	98.44
407.778	86.44
408.002	94.44
408.226	88.44
408.449	79.44
408.673	93.44
408.896	87.44
409.12	96.44
409.344	94.44
409.567	77.44
409.791	97.44
410.014	94.44
410.238	102.44
410.461	98.44
410.685	94.44
410.908	104.44
411.132	98.44
411.355	102.44
411.578	94.44
411.802	98.44
412.025	96.44
412.249	94.44
412.472	101.44
412.695	93.44
412.919	76.44
413.142	84.44
413.365	92.44
413.589	110.44
413.812	86.44
414.035	102.44
414.258	92.44
414.482	100.44
414.705	97.44
414.928	93.44
415.151	102.44
415.374	99.44
415.597	105.44
415.821	104.44
416.044	92.44
416.267	87.44
416.49	98.44
416.713	96.44
416.936	95.44
417.159	89.44
417.382	84.44
417.605	94.44
417.828	95.44
418.051	98.44
418.274	88.44
418.497	99.44
418.72	101.44
418.943	85.44
419.166	89.44
419.389	74.44
419.611	86.44
419.834	101.44
420.057	101.44
420.28	84.44
420.503	86.44
420.726	97.44
420.948	90.44
421.171	88.44
421.394	89.44
421.617	85.44
421.839	93.44
422.062	98.44
422.285	94.44
422.507	95.44
422.73	92.44
422.953	101.44
423.175	98.44
423.398	93.44
423.621	91.44
423.843	81.44
424.066	96.44
424.288	93.44
424.511	92.44
424.733	93.44
424.956	102.44
425.178	100.44
425.401	90.44
425.623	88.44
425.846	86.44
426.068	90.44
426.291	90.44
426.513	100.44
426.735	80.44
426.958	96.44
427.18	93.44
427.402	97.44
427.625	108.44
427.847	91.44
428.069	111.44
428.292	89.44
428.514	99.44
428.736	96.44
428.958	88.44
429.181	100.44
429.403	96.44
429.625	89.44
429.847	96.44
430.069	100.44
430.292	92.44
430.514	90.44
430.736	93.44
430.958	91.44
431.18	98.44
431.402	94.44
431.624	95.44
431.846	88.44
432.068	91.44
432.29	89.44
432.512	92.44
432.734	98.44
432.956	86.44
433.178	93.44
433.4	99.44
433.622	97.44
433.844	93.44
434.066	90.44
434.287	93.44
434.509	80.44
434.731	83.44
434.953	84.44
435.175	81.44
435.397	77.44
435.618	87.44
435.84	75.44
436.062	97.44
436.284	90.44
436.505	88.44
436.727	92.44
436.949	98.44
437.17	93.44
437.392	91.44
437.614	84.44
437.835	91.44
438.057	92.44
438.278	106.44
438.5	108.44
438.721	105.44
438.943	104.44
439.165	96.44
439.386	90.44
439.608	108.44
439.829	100.44
440.05	100.44
440.272	93.44
440.493	101.44
440.715	93.44
440.936	89.44
441.158	88.44
441.379	100.44
441.6	84.44
441.822	93.44
442.043	106.44
442.264	98.44
442.486	109.44
442.707	97.44
442.928	102.44
443.149	85.44
443.371	95.44
443.592	100.44
443.813	96.44
444.034	100.44
444.255	87.44
444.476	94.44
444.698	101.44
444.919	92.44
445.14	174.44
445.361	140.44
445.582	84.44
445.803	91.44
446.024	101.44
446.245	113.44
446.466	111.44
446.687	115.44
446.908	107.44
447.129	108.44
447.35	95.44
447.571	98.44
447.792	100.44
448.013	98.44
448.234	105.44
448.455	93.44
448.675	106.44
448.896	102.44
449.117	98.44
449.338	99.44
449.559	101.44
449.779	104.44
450	103.44
450.221	99.44
450.442	89.44
450.662	98.44
450.883	106.44
451.104	98.44
451.324	85.44
451.545	93.44
451.766	84.44
451.986	108.44
452.207	104.44
452.428	89.44
452.648	90.44
452.869	88.44
453.089	94.44
453.31	99.44
453.53	93.44
453.751	86.44
453.971	93.44
454.192	91.44
454.412	95.44
454.633	86.44
454.853	96.44
455.073	89.44
455.294	93.44
455.514	83.44
455.734	104.44
455.955	78.44
456.175	83.44
456.395	84.44
456.616	92.44
456.836	89.44
457.056	77.44
457.276	92.44
457.497	74.44
457.717	88.44
457.937	83.44
458.157	73.44
458.377	82.44
458.598	87.44
458.818	80.44
459.038	85.44
459.258	92.44
459.478	91.44
459.698	81.44
459.918	97.44
460.138	106.44
460.358	93.44
460.578	91.44
460.798	83.44
461.018	77.44
461.238	92.44
461.458	90.44
461.678	89.44
461.898	76.44
462.118	77.44
462.338	100.44
462.558	104.44
462.777	91.44
462.997	78.44
463.217	84.44
463.437	81.44
463.657	80.44
463.876	90.44
464.096	99.44
464.316	91.44
464.536	85.44
464.755	107.44
464.975	90.44
465.195	83.44
465.414	91.44
465.634	77.44
465.854	102.44
466.073	90.44
466.293	103.44
466.512	93.44
466.732	86.44
466.951	106.44
467.171	113.44
467.391	88.44
467.61	89.44
467.829	101.44
468.049	87.44
468.268	95.44
468.488	106.44
468.707	99.44
468.927	102.44
469.146	100.44
469.365	99.44
469.585	92.44
469.804	95.44
470.023	87.44
470.243	105.44
470.462	107.44
470.681	79.44
470.901	82.44
471.12	107.44
471.339	101.44
471.558	92.44
471.777	97.44
471.997	85.44
472.216	91.44
472.435	84.44
472.654	87.44
472.873	105.44
473.092	91.44
473.311	81.44
473.53	117.44
473.749	106.44
473.968	98.44
474.187	100.44
474.406	97.44
474.625	87.44
474.844	86.44
475.063	99.44
475.282	87.44
475.501	106.44
475.72	93.44
475.939	85.44
476.158	97.44
476.377	89.44
476.596	99.44
476.814	85.44
477.033	96.44
477.252	103.44
477.471	97.44
477.69	80.44
477.908	96.44
478.127	101.44
478.346	79.44
478.564	105.44
478.783	83.44
479.002	91.44
479.22	108.44
479.439	104.44
479.658	85.44
479.876	81.44
480.095	99.44
480.313	104.44
480.532	89.44
480.751	82.44
480.969	78.44
481.188	71.44
481.406	75.44
481.624	86.44
481.843	91.44
482.061	82.44
482.28	105.44
482.498	91.44
482.717	77.44
482.935	91.44
483.153	106.44
483.372	92.44
483.59	112.44
483.808	86.44
484.027	99.44
484.245	91.44
484.463	99.44
484.681	106.44
484.9	116.44
485.118	96.44
485.336	80.44
485.554	92.44
485.772	89.44
485.99	84.44
486.209	90.44
486.427	96.44
486.645	103.44
486.863	103.44
487.081	96.44
487.299	93.44
487.517	97.44
487.735	113.44
487.953	114.44
488.171	118.44
488.389	112.44
488.607	106.44
488.825	107.44
489.043	93.44
489.261	103.44
489.479	98.44
489.696	88.44
489.914	105.44
490.132	100.44
490.35	96.44
490.568	108.44
490.786	106.44
491.003	105.44
491.221	119.44
491.439	109.44
491.657	97.44
491.874	114.44
492.092	120.44
492.31	123.44
492.527	125.44
492.745	131.44
492.963	119.44
493.18	126.44
493.398	96.44
493.615	107.44
493.833	96.44
494.05	97.44
494.268	108.44
494.485	104.44
494.703	98.44
494.92	98.44
495.138	101.44
495.355	100.44
495.573	107.44
495.79	105.44
496.008	112.44
496.225	112.44
496.442	108.44
496.66	107.44
496.877	121.44
497.094	100.44
497.312	98.44
497.529	94.44
497.746	95.44
497.963	98.44
498.181	103.44
498.398	106.44
498.615	101.44
498.832	98.44
499.049	99.44
499.267	99.44
499.484	97.44
499.701	92.44
499.918	117.44
500.135	105.44
500.352	99.44
500.569	100.44
500.786	107.44
501.003	95.44
501.22	112.44
501.437	103.44
501.654	88.44
501.871	106.44
502.088	94.44
502.305	101.44
502.522	91.44
502.739	104.44
502.956	109.44
503.172	104.44
503.389	92.44
503.606	114.44
503.823	101.44
504.04	98.44
504.256	94.44
504.473	82.44
504.69	87.44
504.907	83.44
505.123	89.44
505.34	99.44
505.557	106.44
505.773	105.44
505.99	110.44
506.207	82.44
506.423	87.44
506.64	86.44
506.856	79.44
507.073	97.44
507.289	103.44
507.506	99.44
507.722	94.44
507.939	91.44
508.155	98.44
508.372	71.44
508.588	100.44
508.805	81.44
509.021	87.44
509.238	102.44
509.454	69.44
509.67	91.44
509.887	94.44
510.103	90.44
510.319	76.44
510.536	87.44
510.752	86.44
510.968	85.44
511.184	91.44
511.401	81.44
511.617	92.44
511.833	90.44
512.049	90.44
512.265	95.44
512.481	90.44
512.698	82.44
512.914	96.44
513.13	89.44
513.346	69.44
513.562	91.44
513.778	105.44
513.994	90.44
514.21	94.44
514.426	92.44
514.642	85.44
514.858	79.44
515.074	89.44
515.29	77.44
515.506	93.44
515.721	83.44
515.937	70.44
516.153	98.44
516.369	79.44
516.585	87.44
516.801	86.44
517.016	84.44
