Data from Location5.07152019.Energy5.Lamp.07192019.3%Agarose_HRD10591_16-04-21-629.txt Node
Date: Fri Jul 19 16:04:21 EDT 2019
User: cochatt
Spectrometer: HR+D1059
Trigger mode: 1
Integration Time (sec): 1.000000E-1
Scans to average: 1
Electric dark correction enabled: true
Nonlinearity correction enabled: false
Boxcar width: 0
XAxis mode: Wavelengths
Number of Pixels in Spectrum: 2048
>>>>>Begin Spectral Data<<<<<
223.165	-16.12
223.4	-16.12
223.635	-16.12
223.869	-25.12
224.104	-9.12
224.338	-10.12
224.573	-6.12
224.808	-5.12
225.042	-11.12
225.277	-7.12
225.511	-3.12
225.746	-0.12
225.98	-2.12
226.215	13.88
226.449	11.88
226.683	18.88
226.918	27.88
227.152	22.88
227.387	36.88
227.621	43.88
227.856	38.88
228.09	41.88
228.324	53.88
228.559	56.88
228.793	56.88
229.027	53.88
229.262	71.88
229.496	61.88
229.73	79.88
229.964	78.88
230.199	75.88
230.433	63.88
230.667	68.88
230.901	76.88
231.136	76.88
231.37	76.88
231.604	77.88
231.838	79.88
232.072	92.88
232.306	84.88
232.541	90.88
232.775	77.88
233.009	87.88
233.243	90.88
233.477	82.88
233.711	83.88
233.945	81.88
234.179	79.88
234.413	83.88
234.647	80.88
234.881	80.88
235.115	76.88
235.349	66.88
235.583	78.88
235.817	77.88
236.051	82.88
236.285	72.88
236.519	82.88
236.753	96.88
236.987	78.88
237.221	80.88
237.455	78.88
237.689	67.88
237.922	70.88
238.156	84.88
238.39	76.88
238.624	83.88
238.858	78.88
239.091	78.88
239.325	60.88
239.559	72.88
239.793	70.88
240.027	86.88
240.26	69.88
240.494	87.88
240.728	94.88
240.961	80.88
241.195	89.88
241.429	90.88
241.662	76.88
241.896	94.88
242.13	82.88
242.363	73.88
242.597	78.88
242.83	73.88
243.064	83.88
243.298	92.88
243.531	79.88
243.765	68.88
243.998	75.88
244.232	81.88
244.465	73.88
244.699	69.88
244.932	79.88
245.166	61.88
245.399	96.88
245.633	80.88
245.866	84.88
246.099	103.88
246.333	75.88
246.566	79.88
246.8	82.88
247.033	78.88
247.266	87.88
247.5	73.88
247.733	74.88
247.966	91.88
248.2	95.88
248.433	75.88
248.666	80.88
248.899	87.88
249.133	88.88
249.366	86.88
249.599	80.88
249.832	80.88
250.066	76.88
250.299	92.88
250.532	92.88
250.765	93.88
250.998	82.88
251.231	78.88
251.465	84.88
251.698	73.88
251.931	84.88
252.164	82.88
252.397	78.88
252.63	87.88
252.863	79.88
253.096	81.88
253.329	89.88
253.562	83.88
253.795	78.88
254.028	82.88
254.261	73.88
254.494	86.88
254.727	86.88
254.96	82.88
255.193	85.88
255.426	79.88
255.659	79.88
255.892	70.88
256.124	76.88
256.357	80.88
256.59	86.88
256.823	80.88
257.056	85.88
257.289	75.88
257.521	76.88
257.754	72.88
257.987	84.88
258.22	71.88
258.452	73.88
258.685	87.88
258.918	87.88
259.151	95.88
259.383	86.88
259.616	92.88
259.849	86.88
260.081	89.88
260.314	89.88
260.547	75.88
260.779	95.88
261.012	69.88
261.244	95.88
261.477	82.88
261.71	86.88
261.942	85.88
262.175	82.88
262.407	91.88
262.64	89.88
262.872	90.88
263.105	84.88
263.337	89.88
263.57	94.88
263.802	78.88
264.035	79.88
264.267	96.88
264.499	86.88
264.732	86.88
264.964	98.88
265.197	83.88
265.429	98.88
265.661	81.88
265.894	86.88
266.126	89.88
266.358	92.88
266.591	83.88
266.823	85.88
267.055	85.88
267.287	84.88
267.52	86.88
267.752	80.88
267.984	86.88
268.216	99.88
268.448	79.88
268.681	79.88
268.913	90.88
269.145	83.88
269.377	87.88
269.609	83.88
269.841	87.88
270.073	90.88
270.306	76.88
270.538	96.88
270.77	95.88
271.002	76.88
271.234	98.88
271.466	99.88
271.698	80.88
271.93	83.88
272.162	94.88
272.394	87.88
272.626	94.88
272.858	90.88
273.09	86.88
273.322	99.88
273.553	97.88
273.785	86.88
274.017	80.88
274.249	86.88
274.481	81.88
274.713	73.88
274.945	81.88
275.176	92.88
275.408	103.88
275.64	83.88
275.872	93.88
276.104	89.88
276.335	87.88
276.567	90.88
276.799	84.88
277.031	73.88
277.262	73.88
277.494	93.88
277.726	87.88
277.957	92.88
278.189	92.88
278.421	95.88
278.652	91.88
278.884	103.88
279.115	88.88
279.347	90.88
279.579	107.88
279.81	76.88
280.042	87.88
280.273	76.88
280.505	94.88
280.736	87.88
280.968	86.88
281.199	74.88
281.431	95.88
281.662	86.88
281.894	91.88
282.125	93.88
282.356	88.88
282.588	93.88
282.819	106.88
283.051	93.88
283.282	81.88
283.513	87.88
283.745	98.88
283.976	78.88
284.207	96.88
284.439	92.88
284.67	100.88
284.901	90.88
285.132	79.88
285.364	80.88
285.595	86.88
285.826	86.88
286.057	104.88
286.288	98.88
286.52	94.88
286.751	107.88
286.982	87.88
287.213	86.88
287.444	105.88
287.675	103.88
287.906	96.88
288.138	85.88
288.369	85.88
288.6	77.88
288.831	79.88
289.062	97.88
289.293	84.88
289.524	85.88
289.755	80.88
289.986	102.88
290.217	88.88
290.448	84.88
290.679	94.88
290.91	100.88
291.141	96.88
291.371	96.88
291.602	84.88
291.833	83.88
292.064	94.88
292.295	87.88
292.526	93.88
292.757	86.88
292.987	92.88
293.218	86.88
293.449	98.88
293.68	92.88
293.91	91.88
294.141	87.88
294.372	89.88
294.603	85.88
294.833	91.88
295.064	93.88
295.295	86.88
295.525	76.88
295.756	87.88
295.987	106.88
296.217	97.88
296.448	88.88
296.679	97.88
296.909	73.88
297.14	82.88
297.37	104.88
297.601	85.88
297.831	90.88
298.062	91.88
298.292	105.88
298.523	80.88
298.753	76.88
298.984	89.88
299.214	87.88
299.445	88.88
299.675	80.88
299.905	107.88
300.136	98.88
300.366	90.88
300.597	90.88
300.827	86.88
301.057	92.88
301.288	91.88
301.518	89.88
301.748	84.88
301.979	101.88
302.209	92.88
302.439	104.88
302.669	95.88
302.9	105.88
303.13	86.88
303.36	98.88
303.59	86.88
303.82	95.88
304.051	99.88
304.281	96.88
304.511	97.88
304.741	95.88
304.971	87.88
305.201	97.88
305.431	95.88
305.661	90.88
305.891	97.88
306.121	93.88
306.352	93.88
306.582	96.88
306.812	91.88
307.042	98.88
307.272	93.88
307.502	90.88
307.731	95.88
307.961	87.88
308.191	86.88
308.421	100.88
308.651	84.88
308.881	75.88
309.111	84.88
309.341	99.88
309.571	97.88
309.8	100.88
310.03	89.88
310.26	89.88
310.49	92.88
310.72	99.88
310.949	95.88
311.179	82.88
311.409	78.88
311.639	96.88
311.868	93.88
312.098	112.88
312.328	86.88
312.557	88.88
312.787	91.88
313.017	85.88
313.246	92.88
313.476	86.88
313.706	90.88
313.935	82.88
314.165	95.88
314.394	88.88
314.624	90.88
314.853	89.88
315.083	97.88
315.312	88.88
315.542	80.88
315.771	89.88
316.001	92.88
316.23	88.88
316.46	101.88
316.689	104.88
316.919	90.88
317.148	95.88
317.377	108.88
317.607	90.88
317.836	98.88
318.065	88.88
318.295	91.88
318.524	88.88
318.753	76.88
318.983	99.88
319.212	103.88
319.441	91.88
319.67	85.88
319.9	95.88
320.129	79.88
320.358	98.88
320.587	104.88
320.816	97.88
321.046	104.88
321.275	84.88
321.504	82.88
321.733	103.88
321.962	86.88
322.191	100.88
322.42	95.88
322.649	90.88
322.878	88.88
323.108	105.88
323.337	93.88
323.566	94.88
323.795	86.88
324.024	93.88
324.253	89.88
324.482	93.88
324.71	90.88
324.939	89.88
325.168	91.88
325.397	87.88
325.626	90.88
325.855	114.88
326.084	82.88
326.313	97.88
326.542	104.88
326.77	87.88
326.999	96.88
327.228	92.88
327.457	101.88
327.686	94.88
327.914	83.88
328.143	88.88
328.372	90.88
328.6	78.88
328.829	104.88
329.058	100.88
329.287	83.88
329.515	97.88
329.744	89.88
329.972	82.88
330.201	92.88
330.43	86.88
330.658	106.88
330.887	82.88
331.115	89.88
331.344	77.88
331.572	97.88
331.801	91.88
332.03	88.88
332.258	106.88
332.486	89.88
332.715	101.88
332.943	93.88
333.172	93.88
333.4	100.88
333.629	87.88
333.857	101.88
334.085	86.88
334.314	98.88
334.542	86.88
334.771	98.88
334.999	103.88
335.227	89.88
335.455	98.88
335.684	94.88
335.912	98.88
336.14	84.88
336.369	104.88
336.597	104.88
336.825	93.88
337.053	90.88
337.281	90.88
337.51	98.88
337.738	100.88
337.966	90.88
338.194	83.88
338.422	86.88
338.65	94.88
338.878	86.88
339.106	99.88
339.334	105.88
339.562	89.88
339.79	86.88
340.018	92.88
340.246	89.88
340.474	81.88
340.702	98.88
340.93	88.88
341.158	99.88
341.386	95.88
341.614	98.88
341.842	80.88
342.07	80.88
342.298	98.88
342.526	84.88
342.754	93.88
342.981	104.88
343.209	75.88
343.437	105.88
343.665	110.88
343.893	90.88
344.12	106.88
344.348	97.88
344.576	81.88
344.804	96.88
345.031	75.88
345.259	94.88
345.487	93.88
345.714	106.88
345.942	94.88
346.17	100.88
346.397	107.88
346.625	95.88
346.853	79.88
347.08	87.88
347.308	96.88
347.535	91.88
347.763	108.88
347.99	92.88
348.218	77.88
348.445	96.88
348.673	88.88
348.9	84.88
349.128	97.88
349.355	88.88
349.583	103.88
349.81	92.88
350.037	95.88
350.265	92.88
350.492	91.88
350.72	85.88
350.947	96.88
351.174	86.88
351.402	87.88
351.629	95.88
351.856	92.88
352.083	85.88
352.311	104.88
352.538	101.88
352.765	103.88
352.992	99.88
353.22	86.88
353.447	91.88
353.674	80.88
353.901	99.88
354.128	86.88
354.355	82.88
354.583	81.88
354.81	83.88
355.037	96.88
355.264	100.88
355.491	86.88
355.718	100.88
355.945	104.88
356.172	84.88
356.399	89.88
356.626	78.88
356.853	82.88
357.08	90.88
357.307	89.88
357.534	107.88
357.761	79.88
357.988	83.88
358.215	111.88
358.441	99.88
358.668	86.88
358.895	91.88
359.122	82.88
359.349	78.88
359.576	99.88
359.802	92.88
360.029	88.88
360.256	90.88
360.483	90.88
360.709	104.88
360.936	101.88
361.163	89.88
361.39	102.88
361.616	86.88
361.843	79.88
362.07	92.88
362.296	84.88
362.523	89.88
362.749	86.88
362.976	89.88
363.203	107.88
363.429	92.88
363.656	93.88
363.882	72.88
364.109	93.88
364.335	99.88
364.562	76.88
364.788	74.88
365.015	97.88
365.241	100.88
365.468	87.88
365.694	86.88
365.92	89.88
366.147	98.88
366.373	91.88
366.599	92.88
366.826	85.88
367.052	102.88
367.278	90.88
367.505	90.88
367.731	96.88
367.957	88.88
368.184	94.88
368.41	102.88
368.636	87.88
368.862	94.88
369.089	91.88
369.315	86.88
369.541	98.88
369.767	88.88
369.993	102.88
370.219	80.88
370.445	98.88
370.672	96.88
370.898	90.88
371.124	75.88
371.35	86.88
371.576	91.88
371.802	100.88
372.028	80.88
372.254	93.88
372.48	91.88
372.706	81.88
372.932	88.88
373.158	99.88
373.384	99.88
373.61	92.88
373.835	93.88
374.061	81.88
374.287	83.88
374.513	87.88
374.739	85.88
374.965	102.88
375.191	94.88
375.416	102.88
375.642	97.88
375.868	81.88
376.094	87.88
376.319	83.88
376.545	97.88
376.771	87.88
376.997	81.88
377.222	97.88
377.448	90.88
377.674	96.88
377.899	96.88
378.125	85.88
378.35	87.88
378.576	88.88
378.802	94.88
379.027	97.88
379.253	80.88
379.478	82.88
379.704	89.88
379.929	101.88
380.155	80.88
380.38	110.88
380.606	88.88
380.831	92.88
381.057	96.88
381.282	95.88
381.507	98.88
381.733	98.88
381.958	83.88
382.184	89.88
382.409	95.88
382.634	88.88
382.86	86.88
383.085	99.88
383.31	85.88
383.535	95.88
383.761	95.88
383.986	84.88
384.211	90.88
384.436	95.88
384.662	91.88
384.887	97.88
385.112	94.88
385.337	90.88
385.562	86.88
385.787	90.88
386.013	98.88
386.238	90.88
386.463	89.88
386.688	89.88
386.913	98.88
387.138	100.88
387.363	100.88
387.588	91.88
387.813	91.88
388.038	91.88
388.263	98.88
388.488	91.88
388.713	92.88
388.938	98.88
389.163	94.88
389.387	84.88
389.612	97.88
389.837	82.88
390.062	91.88
390.287	92.88
390.512	91.88
390.736	96.88
390.961	94.88
391.186	87.88
391.411	92.88
391.636	92.88
391.86	90.88
392.085	89.88
392.31	96.88
392.534	99.88
392.759	97.88
392.984	94.88
393.208	107.88
393.433	85.88
393.658	99.88
393.882	90.88
394.107	101.88
394.331	84.88
394.556	84.88
394.78	86.88
395.005	87.88
395.229	75.88
395.454	100.88
395.678	94.88
395.903	87.88
396.127	81.88
396.352	98.88
396.576	98.88
396.801	90.88
397.025	104.88
397.249	88.88
397.474	91.88
397.698	86.88
397.922	97.88
398.147	90.88
398.371	82.88
398.595	96.88
398.82	98.88
399.044	95.88
399.268	89.88
399.492	91.88
399.717	98.88
399.941	97.88
400.165	95.88
400.389	95.88
400.613	91.88
400.837	100.88
401.062	92.88
401.286	73.88
401.51	87.88
401.734	97.88
401.958	97.88
402.182	100.88
402.406	95.88
402.63	106.88
402.854	85.88
403.078	87.88
403.302	96.88
403.526	99.88
403.75	99.88
403.974	110.88
404.198	95.88
404.422	109.88
404.645	100.88
404.869	85.88
405.093	95.88
405.317	87.88
405.541	90.88
405.765	88.88
405.988	99.88
406.212	106.88
406.436	86.88
406.66	107.88
406.883	93.88
407.107	107.88
407.331	98.88
407.555	112.88
407.778	108.88
408.002	90.88
408.226	89.88
408.449	101.88
408.673	102.88
408.896	99.88
409.12	88.88
409.344	99.88
409.567	96.88
409.791	113.88
410.014	94.88
410.238	96.88
410.461	100.88
410.685	75.88
410.908	104.88
411.132	96.88
411.355	102.88
411.578	101.88
411.802	93.88
412.025	97.88
412.249	87.88
412.472	91.88
412.695	98.88
412.919	85.88
413.142	86.88
413.365	100.88
413.589	95.88
413.812	96.88
414.035	95.88
414.258	92.88
414.482	102.88
414.705	104.88
414.928	98.88
415.151	95.88
415.374	96.88
415.597	94.88
415.821	99.88
416.044	113.88
416.267	97.88
416.49	102.88
416.713	106.88
416.936	83.88
417.159	88.88
417.382	89.88
417.605	84.88
417.828	102.88
418.051	87.88
418.274	100.88
418.497	112.88
418.72	96.88
418.943	114.88
419.166	93.88
419.389	95.88
419.611	81.88
419.834	88.88
420.057	90.88
420.28	102.88
420.503	89.88
420.726	89.88
420.948	88.88
421.171	103.88
421.394	113.88
421.617	91.88
421.839	96.88
422.062	79.88
422.285	106.88
422.507	85.88
422.73	97.88
422.953	100.88
423.175	94.88
423.398	94.88
423.621	88.88
423.843	87.88
424.066	99.88
424.288	96.88
424.511	96.88
424.733	85.88
424.956	99.88
425.178	91.88
425.401	102.88
425.623	99.88
425.846	93.88
426.068	95.88
426.291	88.88
426.513	73.88
426.735	103.88
426.958	81.88
427.18	84.88
427.402	86.88
427.625	88.88
427.847	100.88
428.069	89.88
428.292	95.88
428.514	88.88
428.736	87.88
428.958	83.88
429.181	100.88
429.403	77.88
429.625	91.88
429.847	76.88
430.069	86.88
430.292	87.88
430.514	74.88
430.736	94.88
430.958	88.88
431.18	102.88
431.402	99.88
431.624	106.88
431.846	98.88
432.068	84.88
432.29	86.88
432.512	86.88
432.734	94.88
432.956	103.88
433.178	110.88
433.4	89.88
433.622	97.88
433.844	100.88
434.066	95.88
434.287	96.88
434.509	97.88
434.731	95.88
434.953	102.88
435.175	106.88
435.397	107.88
435.618	88.88
435.84	93.88
436.062	80.88
436.284	95.88
436.505	102.88
436.727	96.88
436.949	97.88
437.17	91.88
437.392	88.88
437.614	82.88
437.835	81.88
438.057	80.88
438.278	96.88
438.5	89.88
438.721	90.88
438.943	99.88
439.165	96.88
439.386	89.88
439.608	106.88
439.829	108.88
440.05	95.88
440.272	101.88
440.493	87.88
440.715	108.88
440.936	93.88
441.158	86.88
441.379	103.88
441.6	83.88
441.822	90.88
442.043	99.88
442.264	98.88
442.486	106.88
442.707	101.88
442.928	104.88
443.149	96.88
443.371	86.88
443.592	86.88
443.813	89.88
444.034	94.88
444.255	91.88
444.476	91.88
444.698	104.88
444.919	96.88
445.14	205.88
445.361	152.88
445.582	105.88
445.803	96.88
446.024	96.88
446.245	92.88
446.466	96.88
446.687	94.88
446.908	93.88
447.129	92.88
447.35	98.88
447.571	90.88
447.792	102.88
448.013	90.88
448.234	103.88
448.455	89.88
448.675	84.88
448.896	91.88
449.117	94.88
449.338	87.88
449.559	106.88
449.779	97.88
450	98.88
450.221	86.88
450.442	99.88
450.662	82.88
450.883	99.88
451.104	102.88
451.324	85.88
451.545	83.88
451.766	102.88
451.986	98.88
452.207	99.88
452.428	94.88
452.648	83.88
452.869	89.88
453.089	98.88
453.31	95.88
453.53	100.88
453.751	84.88
453.971	88.88
454.192	88.88
454.412	95.88
454.633	81.88
454.853	87.88
455.073	82.88
455.294	80.88
455.514	98.88
455.734	86.88
455.955	94.88
456.175	103.88
456.395	98.88
456.616	83.88
456.836	88.88
457.056	88.88
457.276	87.88
457.497	90.88
457.717	85.88
457.937	101.88
458.157	91.88
458.377	93.88
458.598	80.88
458.818	90.88
459.038	102.88
459.258	93.88
459.478	89.88
459.698	97.88
459.918	97.88
460.138	89.88
460.358	92.88
460.578	94.88
460.798	91.88
461.018	100.88
461.238	90.88
461.458	97.88
461.678	100.88
461.898	97.88
462.118	93.88
462.338	89.88
462.558	75.88
462.777	98.88
462.997	117.88
463.217	102.88
463.437	108.88
463.657	105.88
463.876	99.88
464.096	109.88
464.316	105.88
464.536	87.88
464.755	105.88
464.975	98.88
465.195	77.88
465.414	90.88
465.634	101.88
465.854	98.88
466.073	83.88
466.293	95.88
466.512	88.88
466.732	98.88
466.951	96.88
467.171	91.88
467.391	107.88
467.61	84.88
467.829	87.88
468.049	103.88
468.268	97.88
468.488	94.88
468.707	94.88
468.927	90.88
469.146	93.88
469.365	111.88
469.585	102.88
469.804	95.88
470.023	88.88
470.243	91.88
470.462	103.88
470.681	117.88
470.901	93.88
471.12	94.88
471.339	99.88
471.558	96.88
471.777	94.88
471.997	90.88
472.216	98.88
472.435	100.88
472.654	98.88
472.873	89.88
473.092	110.88
473.311	91.88
473.53	96.88
473.749	82.88
473.968	103.88
474.187	97.88
474.406	96.88
474.625	83.88
474.844	102.88
475.063	78.88
475.282	97.88
475.501	88.88
475.72	105.88
475.939	95.88
476.158	101.88
476.377	108.88
476.596	98.88
476.814	107.88
477.033	89.88
477.252	98.88
477.471	103.88
477.69	96.88
477.908	87.88
478.127	89.88
478.346	95.88
478.564	110.88
478.783	88.88
479.002	108.88
479.22	110.88
479.439	96.88
479.658	91.88
479.876	81.88
480.095	97.88
480.313	105.88
480.532	123.88
480.751	97.88
480.969	96.88
481.188	86.88
481.406	94.88
481.624	88.88
481.843	98.88
482.061	87.88
482.28	95.88
482.498	90.88
482.717	94.88
482.935	96.88
483.153	101.88
483.372	115.88
483.59	95.88
483.808	105.88
484.027	91.88
484.245	102.88
484.463	98.88
484.681	106.88
484.9	99.88
485.118	117.88
485.336	90.88
485.554	86.88
485.772	104.88
485.99	90.88
486.209	88.88
486.427	85.88
486.645	102.88
486.863	112.88
487.081	90.88
487.299	107.88
487.517	116.88
487.735	96.88
487.953	104.88
488.171	114.88
488.389	104.88
488.607	104.88
488.825	98.88
489.043	110.88
489.261	100.88
489.479	108.88
489.696	107.88
489.914	94.88
490.132	113.88
490.35	105.88
490.568	102.88
490.786	91.88
491.003	103.88
491.221	104.88
491.439	93.88
491.657	88.88
491.874	101.88
492.092	119.88
492.31	117.88
492.527	122.88
492.745	110.88
492.963	112.88
493.18	100.88
493.398	111.88
493.615	108.88
493.833	104.88
494.05	96.88
494.268	114.88
494.485	115.88
494.703	110.88
494.92	111.88
495.138	107.88
495.355	113.88
495.573	110.88
495.79	105.88
496.008	105.88
496.225	110.88
496.442	104.88
496.66	111.88
496.877	114.88
497.094	114.88
497.312	106.88
497.529	110.88
497.746	115.88
497.963	104.88
498.181	100.88
498.398	92.88
498.615	112.88
498.832	108.88
499.049	108.88
499.267	116.88
499.484	127.88
499.701	123.88
499.918	132.88
500.135	130.88
500.352	145.88
500.569	159.88
500.786	154.88
501.003	149.88
501.22	131.88
501.437	119.88
501.654	116.88
501.871	115.88
502.088	118.88
502.305	122.88
502.522	109.88
502.739	99.88
502.956	113.88
503.172	108.88
503.389	99.88
503.606	115.88
503.823	110.88
504.04	98.88
504.256	117.88
504.473	106.88
504.69	106.88
504.907	116.88
505.123	113.88
505.34	91.88
505.557	92.88
505.773	88.88
505.99	97.88
506.207	94.88
506.423	115.88
506.64	98.88
506.856	105.88
507.073	117.88
507.289	92.88
507.506	110.88
507.722	101.88
507.939	93.88
508.155	109.88
508.372	108.88
508.588	100.88
508.805	95.88
509.021	104.88
509.238	105.88
509.454	100.88
509.67	96.88
509.887	92.88
510.103	94.88
510.319	97.88
510.536	93.88
510.752	116.88
510.968	101.88
511.184	105.88
511.401	89.88
511.617	111.88
511.833	91.88
512.049	96.88
512.265	95.88
512.481	114.88
512.698	88.88
512.914	98.88
513.13	90.88
513.346	96.88
513.562	100.88
513.778	104.88
513.994	98.88
514.21	90.88
514.426	94.88
514.642	85.88
514.858	107.88
515.074	91.88
515.29	109.88
515.506	103.88
