Data from Location5.07152019.Energy5.Lamp.07192019.3%Agarose_HRD10591_15-36-57-387.txt Node
Date: Fri Jul 19 15:36:57 EDT 2019
User: cochatt
Spectrometer: HR+D1059
Trigger mode: 1
Integration Time (sec): 1.000000E-1
Scans to average: 1
Electric dark correction enabled: true
Nonlinearity correction enabled: false
Boxcar width: 0
XAxis mode: Wavelengths
Number of Pixels in Spectrum: 2048
>>>>>Begin Spectral Data<<<<<
223.165	-11.62
223.4	-11.62
223.635	-11.62
223.869	-20.62
224.104	-9.62
224.338	-2.62
224.573	-13.62
224.808	-14.62
225.042	-17.62
225.277	-5.62
225.511	3.38
225.746	-5.62
225.98	0.38
226.215	2.38
226.449	9.38
226.683	27.38
226.918	25.38
227.152	33.38
227.387	29.38
227.621	25.38
227.856	42.38
228.09	44.38
228.324	50.38
228.559	55.38
228.793	51.38
229.027	60.38
229.262	60.38
229.496	59.38
229.73	51.38
229.964	68.38
230.199	48.38
230.433	76.38
230.667	69.38
230.901	82.38
231.136	78.38
231.37	90.38
231.604	75.38
231.838	58.38
232.072	76.38
232.306	82.38
232.541	83.38
232.775	84.38
233.009	76.38
233.243	75.38
233.477	68.38
233.711	91.38
233.945	90.38
234.179	94.38
234.413	84.38
234.647	80.38
234.881	66.38
235.115	82.38
235.349	82.38
235.583	100.38
235.817	64.38
236.051	78.38
236.285	77.38
236.519	64.38
236.753	82.38
236.987	76.38
237.221	72.38
237.455	75.38
237.689	86.38
237.922	84.38
238.156	59.38
238.39	67.38
238.624	87.38
238.858	60.38
239.091	71.38
239.325	74.38
239.559	95.38
239.793	58.38
240.027	83.38
240.26	64.38
240.494	75.38
240.728	78.38
240.961	55.38
241.195	72.38
241.429	60.38
241.662	71.38
241.896	72.38
242.13	74.38
242.363	56.38
242.597	70.38
242.83	76.38
243.064	81.38
243.298	72.38
243.531	82.38
243.765	63.38
243.998	83.38
244.232	81.38
244.465	78.38
244.699	77.38
244.932	79.38
245.166	79.38
245.399	77.38
245.633	82.38
245.866	74.38
246.099	58.38
246.333	74.38
246.566	67.38
246.8	73.38
247.033	66.38
247.266	78.38
247.5	76.38
247.733	69.38
247.966	77.38
248.2	79.38
248.433	69.38
248.666	86.38
248.899	83.38
249.133	85.38
249.366	84.38
249.599	89.38
249.832	69.38
250.066	87.38
250.299	91.38
250.532	70.38
250.765	78.38
250.998	73.38
251.231	70.38
251.465	68.38
251.698	98.38
251.931	87.38
252.164	78.38
252.397	81.38
252.63	74.38
252.863	89.38
253.096	70.38
253.329	84.38
253.562	82.38
253.795	89.38
254.028	73.38
254.261	65.38
254.494	68.38
254.727	83.38
254.96	68.38
255.193	85.38
255.426	73.38
255.659	74.38
255.892	79.38
256.124	65.38
256.357	73.38
256.59	83.38
256.823	80.38
257.056	86.38
257.289	67.38
257.521	80.38
257.754	75.38
257.987	84.38
258.22	80.38
258.452	68.38
258.685	83.38
258.918	82.38
259.151	70.38
259.383	84.38
259.616	80.38
259.849	65.38
260.081	91.38
260.314	74.38
260.547	64.38
260.779	82.38
261.012	89.38
261.244	76.38
261.477	64.38
261.71	74.38
261.942	67.38
262.175	74.38
262.407	76.38
262.64	77.38
262.872	76.38
263.105	76.38
263.337	74.38
263.57	70.38
263.802	79.38
264.035	68.38
264.267	84.38
264.499	76.38
264.732	81.38
264.964	81.38
265.197	70.38
265.429	62.38
265.661	76.38
265.894	85.38
266.126	88.38
266.358	81.38
266.591	78.38
266.823	71.38
267.055	68.38
267.287	78.38
267.52	76.38
267.752	72.38
267.984	87.38
268.216	83.38
268.448	79.38
268.681	90.38
268.913	73.38
269.145	81.38
269.377	73.38
269.609	79.38
269.841	86.38
270.073	79.38
270.306	85.38
270.538	91.38
270.77	85.38
271.002	78.38
271.234	84.38
271.466	73.38
271.698	72.38
271.93	82.38
272.162	80.38
272.394	71.38
272.626	75.38
272.858	91.38
273.09	80.38
273.322	82.38
273.553	92.38
273.785	84.38
274.017	81.38
274.249	72.38
274.481	76.38
274.713	79.38
274.945	84.38
275.176	71.38
275.408	83.38
275.64	87.38
275.872	81.38
276.104	94.38
276.335	83.38
276.567	87.38
276.799	73.38
277.031	83.38
277.262	80.38
277.494	82.38
277.726	80.38
277.957	93.38
278.189	96.38
278.421	88.38
278.652	77.38
278.884	75.38
279.115	78.38
279.347	82.38
279.579	88.38
279.81	96.38
280.042	80.38
280.273	87.38
280.505	75.38
280.736	89.38
280.968	83.38
281.199	84.38
281.431	84.38
281.662	85.38
281.894	80.38
282.125	77.38
282.356	76.38
282.588	86.38
282.819	79.38
283.051	72.38
283.282	84.38
283.513	93.38
283.745	85.38
283.976	80.38
284.207	75.38
284.439	80.38
284.67	83.38
284.901	71.38
285.132	72.38
285.364	81.38
285.595	84.38
285.826	80.38
286.057	72.38
286.288	87.38
286.52	83.38
286.751	87.38
286.982	78.38
287.213	78.38
287.444	90.38
287.675	80.38
287.906	95.38
288.138	82.38
288.369	86.38
288.6	83.38
288.831	70.38
289.062	92.38
289.293	82.38
289.524	81.38
289.755	70.38
289.986	75.38
290.217	86.38
290.448	78.38
290.679	94.38
290.91	93.38
291.141	73.38
291.371	94.38
291.602	88.38
291.833	70.38
292.064	89.38
292.295	81.38
292.526	90.38
292.757	88.38
292.987	82.38
293.218	76.38
293.449	76.38
293.68	93.38
293.91	78.38
294.141	76.38
294.372	99.38
294.603	80.38
294.833	92.38
295.064	76.38
295.295	89.38
295.525	85.38
295.756	82.38
295.987	69.38
296.217	100.38
296.448	78.38
296.679	74.38
296.909	74.38
297.14	82.38
297.37	97.38
297.601	65.38
297.831	85.38
298.062	89.38
298.292	90.38
298.523	86.38
298.753	78.38
298.984	80.38
299.214	77.38
299.445	90.38
299.675	98.38
299.905	81.38
300.136	79.38
300.366	95.38
300.597	84.38
300.827	68.38
301.057	69.38
301.288	71.38
301.518	76.38
301.748	85.38
301.979	63.38
302.209	90.38
302.439	89.38
302.669	90.38
302.9	76.38
303.13	88.38
303.36	83.38
303.59	78.38
303.82	82.38
304.051	69.38
304.281	72.38
304.511	84.38
304.741	84.38
304.971	82.38
305.201	87.38
305.431	88.38
305.661	84.38
305.891	79.38
306.121	81.38
306.352	92.38
306.582	94.38
306.812	86.38
307.042	87.38
307.272	99.38
307.502	87.38
307.731	85.38
307.961	78.38
308.191	79.38
308.421	86.38
308.651	95.38
308.881	81.38
309.111	80.38
309.341	81.38
309.571	74.38
309.8	79.38
310.03	82.38
310.26	84.38
310.49	91.38
310.72	76.38
310.949	98.38
311.179	85.38
311.409	79.38
311.639	98.38
311.868	89.38
312.098	80.38
312.328	87.38
312.557	84.38
312.787	79.38
313.017	79.38
313.246	86.38
313.476	79.38
313.706	82.38
313.935	84.38
314.165	86.38
314.394	80.38
314.624	88.38
314.853	83.38
315.083	95.38
315.312	87.38
315.542	72.38
315.771	90.38
316.001	89.38
316.23	89.38
316.46	97.38
316.689	85.38
316.919	72.38
317.148	88.38
317.377	69.38
317.607	93.38
317.836	84.38
318.065	69.38
318.295	91.38
318.524	96.38
318.753	88.38
318.983	91.38
319.212	99.38
319.441	77.38
319.67	78.38
319.9	87.38
320.129	94.38
320.358	83.38
320.587	88.38
320.816	82.38
321.046	87.38
321.275	85.38
321.504	86.38
321.733	93.38
321.962	76.38
322.191	73.38
322.42	82.38
322.649	75.38
322.878	83.38
323.108	96.38
323.337	81.38
323.566	70.38
323.795	89.38
324.024	76.38
324.253	84.38
324.482	81.38
324.71	75.38
324.939	75.38
325.168	95.38
325.397	93.38
325.626	90.38
325.855	87.38
326.084	82.38
326.313	84.38
326.542	90.38
326.77	91.38
326.999	74.38
327.228	83.38
327.457	78.38
327.686	92.38
327.914	92.38
328.143	88.38
328.372	83.38
328.6	82.38
328.829	75.38
329.058	87.38
329.287	75.38
329.515	82.38
329.744	92.38
329.972	92.38
330.201	79.38
330.43	91.38
330.658	79.38
330.887	78.38
331.115	86.38
331.344	95.38
331.572	85.38
331.801	83.38
332.03	90.38
332.258	82.38
332.486	68.38
332.715	98.38
332.943	92.38
333.172	92.38
333.4	81.38
333.629	100.38
333.857	85.38
334.085	76.38
334.314	71.38
334.542	88.38
334.771	79.38
334.999	90.38
335.227	86.38
335.455	83.38
335.684	84.38
335.912	87.38
336.14	91.38
336.369	99.38
336.597	87.38
336.825	85.38
337.053	62.38
337.281	68.38
337.51	89.38
337.738	72.38
337.966	81.38
338.194	80.38
338.422	82.38
338.65	81.38
338.878	87.38
339.106	96.38
339.334	82.38
339.562	70.38
339.79	78.38
340.018	74.38
340.246	85.38
340.474	66.38
340.702	81.38
340.93	91.38
341.158	87.38
341.386	79.38
341.614	67.38
341.842	80.38
342.07	90.38
342.298	83.38
342.526	94.38
342.754	87.38
342.981	79.38
343.209	82.38
343.437	102.38
343.665	87.38
343.893	82.38
344.12	91.38
344.348	83.38
344.576	83.38
344.804	95.38
345.031	82.38
345.259	90.38
345.487	96.38
345.714	77.38
345.942	80.38
346.17	81.38
346.397	79.38
346.625	93.38
346.853	93.38
347.08	86.38
347.308	81.38
347.535	73.38
347.763	97.38
347.99	79.38
348.218	82.38
348.445	73.38
348.673	99.38
348.9	79.38
349.128	87.38
349.355	86.38
349.583	71.38
349.81	91.38
350.037	79.38
350.265	74.38
350.492	85.38
350.72	74.38
350.947	93.38
351.174	78.38
351.402	86.38
351.629	73.38
351.856	96.38
352.083	91.38
352.311	89.38
352.538	95.38
352.765	94.38
352.992	83.38
353.22	95.38
353.447	93.38
353.674	79.38
353.901	89.38
354.128	97.38
354.355	91.38
354.583	92.38
354.81	71.38
355.037	82.38
355.264	78.38
355.491	83.38
355.718	77.38
355.945	82.38
356.172	89.38
356.399	99.38
356.626	90.38
356.853	83.38
357.08	80.38
357.307	83.38
357.534	78.38
357.761	80.38
357.988	74.38
358.215	91.38
358.441	75.38
358.668	87.38
358.895	87.38
359.122	95.38
359.349	77.38
359.576	82.38
359.802	88.38
360.029	98.38
360.256	89.38
360.483	83.38
360.709	80.38
360.936	76.38
361.163	97.38
361.39	87.38
361.616	104.38
361.843	80.38
362.07	82.38
362.296	92.38
362.523	90.38
362.749	81.38
362.976	80.38
363.203	75.38
363.429	90.38
363.656	99.38
363.882	82.38
364.109	94.38
364.335	92.38
364.562	89.38
364.788	101.38
365.015	80.38
365.241	73.38
365.468	86.38
365.694	85.38
365.92	79.38
366.147	96.38
366.373	74.38
366.599	72.38
366.826	65.38
367.052	70.38
367.278	74.38
367.505	73.38
367.731	82.38
367.957	72.38
368.184	78.38
368.41	81.38
368.636	84.38
368.862	90.38
369.089	88.38
369.315	77.38
369.541	84.38
369.767	93.38
369.993	94.38
370.219	81.38
370.445	89.38
370.672	82.38
370.898	82.38
371.124	85.38
371.35	78.38
371.576	96.38
371.802	81.38
372.028	75.38
372.254	89.38
372.48	75.38
372.706	75.38
372.932	77.38
373.158	77.38
373.384	99.38
373.61	86.38
373.835	85.38
374.061	77.38
374.287	98.38
374.513	91.38
374.739	73.38
374.965	80.38
375.191	73.38
375.416	88.38
375.642	98.38
375.868	72.38
376.094	91.38
376.319	74.38
376.545	73.38
376.771	84.38
376.997	89.38
377.222	79.38
377.448	84.38
377.674	87.38
377.899	79.38
378.125	85.38
378.35	88.38
378.576	86.38
378.802	85.38
379.027	97.38
379.253	84.38
379.478	81.38
379.704	84.38
379.929	88.38
380.155	95.38
380.38	82.38
380.606	90.38
380.831	80.38
381.057	89.38
381.282	83.38
381.507	82.38
381.733	83.38
381.958	94.38
382.184	80.38
382.409	81.38
382.634	91.38
382.86	80.38
383.085	111.38
383.31	96.38
383.535	89.38
383.761	93.38
383.986	94.38
384.211	85.38
384.436	90.38
384.662	86.38
384.887	85.38
385.112	87.38
385.337	91.38
385.562	86.38
385.787	99.38
386.013	105.38
386.238	81.38
386.463	85.38
386.688	77.38
386.913	76.38
387.138	76.38
387.363	89.38
387.588	85.38
387.813	94.38
388.038	84.38
388.263	85.38
388.488	87.38
388.713	67.38
388.938	77.38
389.163	82.38
389.387	80.38
389.612	91.38
389.837	81.38
390.062	79.38
390.287	89.38
390.512	77.38
390.736	72.38
390.961	91.38
391.186	88.38
391.411	80.38
391.636	86.38
391.86	86.38
392.085	79.38
392.31	83.38
392.534	84.38
392.759	76.38
392.984	95.38
393.208	81.38
393.433	92.38
393.658	89.38
393.882	82.38
394.107	98.38
394.331	98.38
394.556	87.38
394.78	82.38
395.005	79.38
395.229	83.38
395.454	76.38
395.678	92.38
395.903	91.38
396.127	86.38
396.352	70.38
396.576	84.38
396.801	84.38
397.025	87.38
397.249	77.38
397.474	89.38
397.698	104.38
397.922	90.38
398.147	86.38
398.371	97.38
398.595	91.38
398.82	91.38
399.044	75.38
399.268	75.38
399.492	88.38
399.717	98.38
399.941	77.38
400.165	100.38
400.389	97.38
400.613	80.38
400.837	79.38
401.062	84.38
401.286	90.38
401.51	94.38
401.734	79.38
401.958	91.38
402.182	88.38
402.406	94.38
402.63	99.38
402.854	87.38
403.078	90.38
403.302	99.38
403.526	84.38
403.75	83.38
403.974	71.38
404.198	82.38
404.422	97.38
404.645	90.38
404.869	89.38
405.093	82.38
405.317	80.38
405.541	90.38
405.765	76.38
405.988	81.38
406.212	80.38
406.436	101.38
406.66	80.38
406.883	86.38
407.107	88.38
407.331	72.38
407.555	81.38
407.778	95.38
408.002	88.38
408.226	91.38
408.449	99.38
408.673	92.38
408.896	81.38
409.12	84.38
409.344	88.38
409.567	79.38
409.791	88.38
410.014	85.38
410.238	98.38
410.461	91.38
410.685	80.38
410.908	91.38
411.132	105.38
411.355	87.38
411.578	96.38
411.802	91.38
412.025	89.38
412.249	87.38
412.472	91.38
412.695	91.38
412.919	97.38
413.142	74.38
413.365	92.38
413.589	96.38
413.812	91.38
414.035	98.38
414.258	78.38
414.482	80.38
414.705	92.38
414.928	97.38
415.151	84.38
415.374	87.38
415.597	92.38
415.821	89.38
416.044	90.38
416.267	97.38
416.49	95.38
416.713	93.38
416.936	89.38
417.159	93.38
417.382	95.38
417.605	106.38
417.828	95.38
418.051	83.38
418.274	89.38
418.497	86.38
418.72	90.38
418.943	97.38
419.166	97.38
419.389	91.38
419.611	90.38
419.834	101.38
420.057	98.38
420.28	82.38
420.503	91.38
420.726	98.38
420.948	99.38
421.171	115.38
421.394	82.38
421.617	87.38
421.839	98.38
422.062	94.38
422.285	110.38
422.507	97.38
422.73	88.38
422.953	88.38
423.175	95.38
423.398	105.38
423.621	74.38
423.843	93.38
424.066	83.38
424.288	106.38
424.511	85.38
424.733	107.38
424.956	87.38
425.178	103.38
425.401	90.38
425.623	101.38
425.846	91.38
426.068	92.38
426.291	87.38
426.513	88.38
426.735	95.38
426.958	96.38
427.18	98.38
427.402	96.38
427.625	98.38
427.847	87.38
428.069	90.38
428.292	80.38
428.514	97.38
428.736	94.38
428.958	94.38
429.181	85.38
429.403	88.38
429.625	91.38
429.847	84.38
430.069	83.38
430.292	95.38
430.514	95.38
430.736	89.38
430.958	94.38
431.18	80.38
431.402	108.38
431.624	87.38
431.846	94.38
432.068	95.38
432.29	63.38
432.512	102.38
432.734	103.38
432.956	92.38
433.178	112.38
433.4	99.38
433.622	102.38
433.844	89.38
434.066	91.38
434.287	86.38
434.509	79.38
434.731	100.38
434.953	72.38
435.175	86.38
435.397	89.38
435.618	94.38
435.84	94.38
436.062	83.38
436.284	88.38
436.505	96.38
436.727	103.38
436.949	99.38
437.17	95.38
437.392	91.38
437.614	85.38
437.835	81.38
438.057	83.38
438.278	89.38
438.5	103.38
438.721	94.38
438.943	92.38
439.165	96.38
439.386	82.38
439.608	94.38
439.829	87.38
440.05	86.38
440.272	100.38
440.493	97.38
440.715	82.38
440.936	99.38
441.158	97.38
441.379	93.38
441.6	98.38
441.822	91.38
442.043	119.38
442.264	97.38
442.486	87.38
442.707	99.38
442.928	106.38
443.149	99.38
443.371	90.38
443.592	96.38
443.813	99.38
444.034	89.38
444.255	101.38
444.476	84.38
444.698	86.38
444.919	96.38
445.14	176.38
445.361	138.38
445.582	100.38
445.803	94.38
446.024	107.38
446.245	107.38
446.466	95.38
446.687	91.38
446.908	99.38
447.129	112.38
447.35	103.38
447.571	100.38
447.792	94.38
448.013	80.38
448.234	90.38
448.455	97.38
448.675	95.38
448.896	91.38
449.117	106.38
449.338	103.38
449.559	98.38
449.779	104.38
450	111.38
450.221	86.38
450.442	85.38
450.662	103.38
450.883	96.38
451.104	84.38
451.324	96.38
451.545	98.38
451.766	103.38
451.986	104.38
452.207	85.38
452.428	88.38
452.648	97.38
452.869	95.38
453.089	88.38
453.31	86.38
453.53	97.38
453.751	87.38
453.971	100.38
454.192	81.38
454.412	102.38
454.633	78.38
454.853	86.38
455.073	86.38
455.294	86.38
455.514	95.38
455.734	80.38
455.955	90.38
456.175	95.38
456.395	90.38
456.616	77.38
456.836	90.38
457.056	87.38
457.276	82.38
457.497	77.38
457.717	95.38
457.937	87.38
458.157	85.38
458.377	75.38
458.598	87.38
458.818	85.38
459.038	72.38
459.258	76.38
459.478	98.38
459.698	69.38
459.918	93.38
460.138	87.38
460.358	97.38
460.578	88.38
460.798	100.38
461.018	83.38
461.238	95.38
461.458	88.38
461.678	100.38
461.898	92.38
462.118	90.38
462.338	84.38
462.558	85.38
462.777	73.38
462.997	85.38
463.217	95.38
463.437	84.38
463.657	94.38
463.876	85.38
464.096	96.38
464.316	88.38
464.536	86.38
464.755	94.38
464.975	84.38
465.195	80.38
465.414	85.38
465.634	95.38
465.854	90.38
466.073	91.38
466.293	108.38
466.512	82.38
466.732	81.38
466.951	93.38
467.171	107.38
467.391	96.38
467.61	97.38
467.829	97.38
468.049	104.38
468.268	93.38
468.488	94.38
468.707	110.38
468.927	92.38
469.146	90.38
469.365	94.38
469.585	106.38
469.804	105.38
470.023	95.38
470.243	86.38
470.462	98.38
470.681	106.38
470.901	100.38
471.12	96.38
471.339	91.38
471.558	102.38
471.777	89.38
471.997	99.38
472.216	90.38
472.435	86.38
472.654	78.38
472.873	90.38
473.092	72.38
473.311	96.38
473.53	85.38
473.749	92.38
473.968	98.38
474.187	82.38
474.406	86.38
474.625	93.38
474.844	94.38
475.063	96.38
475.282	88.38
475.501	90.38
475.72	107.38
475.939	87.38
476.158	86.38
476.377	93.38
476.596	79.38
476.814	88.38
477.033	91.38
477.252	94.38
477.471	89.38
477.69	99.38
477.908	89.38
478.127	98.38
478.346	99.38
478.564	81.38
478.783	94.38
479.002	99.38
479.22	89.38
479.439	99.38
479.658	84.38
479.876	75.38
480.095	85.38
480.313	104.38
480.532	91.38
480.751	105.38
480.969	87.38
481.188	67.38
481.406	79.38
481.624	80.38
481.843	82.38
482.061	88.38
482.28	82.38
482.498	87.38
482.717	96.38
482.935	79.38
483.153	92.38
483.372	107.38
483.59	87.38
483.808	102.38
484.027	99.38
484.245	90.38
484.463	86.38
484.681	98.38
484.9	93.38
485.118	95.38
485.336	88.38
485.554	87.38
485.772	105.38
485.99	85.38
486.209	98.38
486.427	88.38
486.645	102.38
486.863	91.38
487.081	106.38
487.299	94.38
487.517	97.38
487.735	105.38
487.953	108.38
488.171	110.38
488.389	114.38
488.607	93.38
488.825	98.38
489.043	90.38
489.261	89.38
489.479	88.38
489.696	85.38
489.914	93.38
490.132	101.38
490.35	90.38
490.568	96.38
490.786	97.38
491.003	104.38
491.221	108.38
491.439	113.38
491.657	110.38
491.874	104.38
492.092	109.38
492.31	122.38
492.527	130.38
492.745	112.38
492.963	115.38
493.18	116.38
493.398	94.38
493.615	97.38
493.833	100.38
494.05	99.38
494.268	101.38
494.485	109.38
494.703	112.38
494.92	100.38
495.138	109.38
495.355	95.38
495.573	99.38
495.79	102.38
496.008	103.38
496.225	112.38
496.442	109.38
496.66	101.38
496.877	120.38
497.094	101.38
497.312	105.38
497.529	91.38
497.746	97.38
497.963	82.38
498.181	85.38
498.398	89.38
498.615	96.38
498.832	81.38
499.049	88.38
499.267	87.38
499.484	84.38
499.701	92.38
499.918	93.38
500.135	97.38
500.352	100.38
500.569	98.38
500.786	102.38
501.003	107.38
501.22	89.38
501.437	89.38
501.654	88.38
501.871	94.38
502.088	80.38
502.305	87.38
502.522	89.38
502.739	80.38
502.956	112.38
503.172	98.38
503.389	96.38
503.606	100.38
503.823	81.38
504.04	97.38
504.256	84.38
504.473	84.38
504.69	92.38
504.907	96.38
505.123	98.38
505.34	87.38
505.557	97.38
505.773	91.38
505.99	96.38
506.207	88.38
506.423	101.38
506.64	92.38
506.856	93.38
507.073	95.38
507.289	88.38
507.506	90.38
507.722	84.38
507.939	83.38
508.155	94.38
508.372	90.38
508.588	94.38
508.805	85.38
509.021	86.38
509.238	89.38
509.454	68.38
509.67	79.38
509.887	81.38
510.103	98.38
510.319	91.38
510.536	83.38
510.752	95.38
510.968	89.38
511.184	96.38
511.401	86.38
511.617	91.38
511.833	94.38
512.049	85.38
512.265	82.38
512.481	83.38
512.698	77.38
512.914	86.38
513.13	80.38
513.346	94.38
513.562	95.38
513.778	78.38
513.994	82.38
514.21	59.38
514.426	95.38
514.642	74.38
514.858	78.38
515.074	70.38
515.29	83.38
515.506	75.38
515.721	87.38
515.937	83.38
516.153	83.38
516.369	83.38
516.585	78.38
516.801	90.38
517.016	78.38
517.232	96.38
517.448	85.38
517.664	86.38
517.879	85.38
518.095	82.38
