Data from Location5.07152019.Energy5.Lamp.07192019.3%Agarose_HRD10591_15-39-10-390.txt Node
Date: Fri Jul 19 15:39:10 EDT 2019
User: cochatt
Spectrometer: HR+D1059
Trigger mode: 1
Integration Time (sec): 1.000000E-1
Scans to average: 1
Electric dark correction enabled: true
Nonlinearity correction enabled: false
Boxcar width: 0
XAxis mode: Wavelengths
Number of Pixels in Spectrum: 2048
>>>>>Begin Spectral Data<<<<<
223.165	-29.06
223.4	-29.06
223.635	-29.06
223.869	-30.06
224.104	-32.06
224.338	-10.06
224.573	-20.06
224.808	-19.06
225.042	-12.06
225.277	-18.06
225.511	7.94
225.746	19.94
225.98	16.94
226.215	14.94
226.449	19.94
226.683	27.94
226.918	28.94
227.152	33.94
227.387	29.94
227.621	41.94
227.856	42.94
228.09	39.94
228.324	35.94
228.559	67.94
228.793	63.94
229.027	65.94
229.262	52.94
229.496	66.94
229.73	73.94
229.964	65.94
230.199	77.94
230.433	64.94
230.667	64.94
230.901	71.94
231.136	77.94
231.37	72.94
231.604	63.94
231.838	75.94
232.072	90.94
232.306	76.94
232.541	72.94
232.775	87.94
233.009	89.94
233.243	86.94
233.477	88.94
233.711	96.94
233.945	89.94
234.179	73.94
234.413	74.94
234.647	78.94
234.881	81.94
235.115	85.94
235.349	83.94
235.583	89.94
235.817	84.94
236.051	86.94
236.285	86.94
236.519	96.94
236.753	85.94
236.987	79.94
237.221	74.94
237.455	74.94
237.689	73.94
237.922	81.94
238.156	71.94
238.39	72.94
238.624	77.94
238.858	91.94
239.091	82.94
239.325	71.94
239.559	86.94
239.793	70.94
240.027	88.94
240.26	62.94
240.494	83.94
240.728	78.94
240.961	56.94
241.195	71.94
241.429	76.94
241.662	87.94
241.896	69.94
242.13	71.94
242.363	71.94
242.597	73.94
242.83	75.94
243.064	79.94
243.298	75.94
243.531	85.94
243.765	80.94
243.998	75.94
244.232	84.94
244.465	92.94
244.699	87.94
244.932	70.94
245.166	83.94
245.399	75.94
245.633	75.94
245.866	83.94
246.099	98.94
246.333	100.94
246.566	82.94
246.8	72.94
247.033	63.94
247.266	89.94
247.5	92.94
247.733	76.94
247.966	74.94
248.2	88.94
248.433	69.94
248.666	72.94
248.899	78.94
249.133	79.94
249.366	80.94
249.599	80.94
249.832	83.94
250.066	85.94
250.299	73.94
250.532	81.94
250.765	80.94
250.998	84.94
251.231	78.94
251.465	81.94
251.698	91.94
251.931	67.94
252.164	72.94
252.397	93.94
252.63	83.94
252.863	84.94
253.096	75.94
253.329	80.94
253.562	84.94
253.795	78.94
254.028	89.94
254.261	80.94
254.494	74.94
254.727	82.94
254.96	73.94
255.193	79.94
255.426	80.94
255.659	76.94
255.892	60.94
256.124	85.94
256.357	81.94
256.59	75.94
256.823	73.94
257.056	94.94
257.289	73.94
257.521	73.94
257.754	75.94
257.987	75.94
258.22	98.94
258.452	80.94
258.685	86.94
258.918	80.94
259.151	81.94
259.383	86.94
259.616	92.94
259.849	81.94
260.081	92.94
260.314	83.94
260.547	76.94
260.779	85.94
261.012	77.94
261.244	81.94
261.477	87.94
261.71	81.94
261.942	89.94
262.175	90.94
262.407	86.94
262.64	81.94
262.872	86.94
263.105	86.94
263.337	88.94
263.57	75.94
263.802	97.94
264.035	92.94
264.267	74.94
264.499	84.94
264.732	83.94
264.964	76.94
265.197	79.94
265.429	89.94
265.661	81.94
265.894	98.94
266.126	76.94
266.358	90.94
266.591	75.94
266.823	77.94
267.055	73.94
267.287	97.94
267.52	75.94
267.752	79.94
267.984	92.94
268.216	94.94
268.448	94.94
268.681	103.94
268.913	81.94
269.145	82.94
269.377	97.94
269.609	82.94
269.841	64.94
270.073	85.94
270.306	85.94
270.538	71.94
270.77	79.94
271.002	99.94
271.234	82.94
271.466	92.94
271.698	88.94
271.93	71.94
272.162	86.94
272.394	97.94
272.626	89.94
272.858	82.94
273.09	80.94
273.322	80.94
273.553	83.94
273.785	89.94
274.017	78.94
274.249	85.94
274.481	65.94
274.713	87.94
274.945	91.94
275.176	95.94
275.408	93.94
275.64	82.94
275.872	69.94
276.104	84.94
276.335	82.94
276.567	89.94
276.799	80.94
277.031	87.94
277.262	85.94
277.494	88.94
277.726	66.94
277.957	94.94
278.189	94.94
278.421	85.94
278.652	74.94
278.884	67.94
279.115	83.94
279.347	88.94
279.579	90.94
279.81	83.94
280.042	82.94
280.273	81.94
280.505	93.94
280.736	93.94
280.968	88.94
281.199	76.94
281.431	89.94
281.662	72.94
281.894	84.94
282.125	91.94
282.356	86.94
282.588	94.94
282.819	91.94
283.051	95.94
283.282	83.94
283.513	85.94
283.745	81.94
283.976	70.94
284.207	67.94
284.439	87.94
284.67	90.94
284.901	86.94
285.132	88.94
285.364	82.94
285.595	77.94
285.826	84.94
286.057	83.94
286.288	87.94
286.52	82.94
286.751	69.94
286.982	90.94
287.213	79.94
287.444	77.94
287.675	87.94
287.906	90.94
288.138	80.94
288.369	81.94
288.6	94.94
288.831	76.94
289.062	107.94
289.293	82.94
289.524	97.94
289.755	76.94
289.986	93.94
290.217	77.94
290.448	84.94
290.679	77.94
290.91	95.94
291.141	89.94
291.371	88.94
291.602	98.94
291.833	85.94
292.064	88.94
292.295	95.94
292.526	84.94
292.757	81.94
292.987	91.94
293.218	86.94
293.449	88.94
293.68	86.94
293.91	89.94
294.141	101.94
294.372	81.94
294.603	67.94
294.833	85.94
295.064	91.94
295.295	92.94
295.525	97.94
295.756	99.94
295.987	85.94
296.217	94.94
296.448	84.94
296.679	70.94
296.909	78.94
297.14	71.94
297.37	86.94
297.601	93.94
297.831	91.94
298.062	79.94
298.292	83.94
298.523	73.94
298.753	96.94
298.984	87.94
299.214	95.94
299.445	84.94
299.675	83.94
299.905	89.94
300.136	92.94
300.366	86.94
300.597	103.94
300.827	89.94
301.057	91.94
301.288	83.94
301.518	87.94
301.748	91.94
301.979	80.94
302.209	105.94
302.439	92.94
302.669	98.94
302.9	86.94
303.13	101.94
303.36	98.94
303.59	90.94
303.82	94.94
304.051	71.94
304.281	96.94
304.511	95.94
304.741	85.94
304.971	77.94
305.201	83.94
305.431	90.94
305.661	78.94
305.891	86.94
306.121	93.94
306.352	76.94
306.582	85.94
306.812	77.94
307.042	90.94
307.272	87.94
307.502	80.94
307.731	82.94
307.961	91.94
308.191	97.94
308.421	90.94
308.651	97.94
308.881	83.94
309.111	82.94
309.341	90.94
309.571	82.94
309.8	80.94
310.03	85.94
310.26	81.94
310.49	69.94
310.72	76.94
310.949	101.94
311.179	89.94
311.409	92.94
311.639	93.94
311.868	93.94
312.098	98.94
312.328	101.94
312.557	96.94
312.787	77.94
313.017	107.94
313.246	86.94
313.476	83.94
313.706	85.94
313.935	76.94
314.165	90.94
314.394	91.94
314.624	84.94
314.853	88.94
315.083	93.94
315.312	72.94
315.542	81.94
315.771	91.94
316.001	98.94
316.23	88.94
316.46	99.94
316.689	81.94
316.919	90.94
317.148	102.94
317.377	87.94
317.607	81.94
317.836	92.94
318.065	85.94
318.295	84.94
318.524	88.94
318.753	88.94
318.983	84.94
319.212	78.94
319.441	88.94
319.67	88.94
319.9	92.94
320.129	86.94
320.358	86.94
320.587	81.94
320.816	72.94
321.046	91.94
321.275	96.94
321.504	96.94
321.733	85.94
321.962	78.94
322.191	78.94
322.42	86.94
322.649	86.94
322.878	80.94
323.108	98.94
323.337	93.94
323.566	81.94
323.795	89.94
324.024	80.94
324.253	87.94
324.482	100.94
324.71	77.94
324.939	81.94
325.168	98.94
325.397	84.94
325.626	90.94
325.855	87.94
326.084	87.94
326.313	96.94
326.542	84.94
326.77	76.94
326.999	101.94
327.228	84.94
327.457	85.94
327.686	87.94
327.914	89.94
328.143	83.94
328.372	88.94
328.6	75.94
328.829	76.94
329.058	70.94
329.287	92.94
329.515	82.94
329.744	104.94
329.972	86.94
330.201	76.94
330.43	98.94
330.658	91.94
330.887	92.94
331.115	85.94
331.344	92.94
331.572	78.94
331.801	74.94
332.03	87.94
332.258	85.94
332.486	84.94
332.715	96.94
332.943	80.94
333.172	86.94
333.4	86.94
333.629	87.94
333.857	87.94
334.085	96.94
334.314	82.94
334.542	75.94
334.771	83.94
334.999	95.94
335.227	78.94
335.455	86.94
335.684	94.94
335.912	90.94
336.14	86.94
336.369	85.94
336.597	90.94
336.825	81.94
337.053	81.94
337.281	87.94
337.51	74.94
337.738	77.94
337.966	72.94
338.194	81.94
338.422	86.94
338.65	83.94
338.878	103.94
339.106	95.94
339.334	90.94
339.562	91.94
339.79	81.94
340.018	80.94
340.246	92.94
340.474	85.94
340.702	82.94
340.93	88.94
341.158	95.94
341.386	80.94
341.614	92.94
341.842	88.94
342.07	87.94
342.298	92.94
342.526	91.94
342.754	85.94
342.981	85.94
343.209	82.94
343.437	76.94
343.665	89.94
343.893	80.94
344.12	91.94
344.348	90.94
344.576	95.94
344.804	84.94
345.031	78.94
345.259	88.94
345.487	94.94
345.714	90.94
345.942	86.94
346.17	90.94
346.397	81.94
346.625	97.94
346.853	100.94
347.08	76.94
347.308	89.94
347.535	87.94
347.763	81.94
347.99	80.94
348.218	86.94
348.445	85.94
348.673	86.94
348.9	71.94
349.128	78.94
349.355	83.94
349.583	88.94
349.81	92.94
350.037	90.94
350.265	99.94
350.492	82.94
350.72	92.94
350.947	93.94
351.174	80.94
351.402	90.94
351.629	81.94
351.856	94.94
352.083	75.94
352.311	93.94
352.538	91.94
352.765	88.94
352.992	74.94
353.22	82.94
353.447	85.94
353.674	81.94
353.901	88.94
354.128	78.94
354.355	73.94
354.583	68.94
354.81	78.94
355.037	98.94
355.264	93.94
355.491	96.94
355.718	91.94
355.945	96.94
356.172	83.94
356.399	78.94
356.626	88.94
356.853	92.94
357.08	88.94
357.307	85.94
357.534	87.94
357.761	75.94
357.988	88.94
358.215	92.94
358.441	80.94
358.668	84.94
358.895	81.94
359.122	77.94
359.349	82.94
359.576	95.94
359.802	81.94
360.029	74.94
360.256	93.94
360.483	85.94
360.709	85.94
360.936	88.94
361.163	78.94
361.39	78.94
361.616	70.94
361.843	78.94
362.07	92.94
362.296	79.94
362.523	78.94
362.749	78.94
362.976	81.94
363.203	92.94
363.429	78.94
363.656	90.94
363.882	77.94
364.109	76.94
364.335	90.94
364.562	85.94
364.788	89.94
365.015	74.94
365.241	74.94
365.468	86.94
365.694	85.94
365.92	82.94
366.147	87.94
366.373	71.94
366.599	84.94
366.826	77.94
367.052	76.94
367.278	72.94
367.505	72.94
367.731	97.94
367.957	75.94
368.184	82.94
368.41	84.94
368.636	87.94
368.862	98.94
369.089	84.94
369.315	90.94
369.541	84.94
369.767	86.94
369.993	89.94
370.219	98.94
370.445	85.94
370.672	82.94
370.898	75.94
371.124	89.94
371.35	90.94
371.576	93.94
371.802	79.94
372.028	81.94
372.254	94.94
372.48	92.94
372.706	85.94
372.932	93.94
373.158	82.94
373.384	95.94
373.61	75.94
373.835	85.94
374.061	74.94
374.287	76.94
374.513	95.94
374.739	74.94
374.965	84.94
375.191	84.94
375.416	88.94
375.642	91.94
375.868	74.94
376.094	77.94
376.319	91.94
376.545	79.94
376.771	95.94
376.997	103.94
377.222	80.94
377.448	79.94
377.674	73.94
377.899	91.94
378.125	82.94
378.35	76.94
378.576	86.94
378.802	79.94
379.027	91.94
379.253	94.94
379.478	84.94
379.704	90.94
379.929	89.94
380.155	86.94
380.38	88.94
380.606	93.94
380.831	84.94
381.057	92.94
381.282	83.94
381.507	84.94
381.733	69.94
381.958	86.94
382.184	82.94
382.409	69.94
382.634	93.94
382.86	82.94
383.085	100.94
383.31	82.94
383.535	82.94
383.761	84.94
383.986	87.94
384.211	80.94
384.436	88.94
384.662	85.94
384.887	96.94
385.112	91.94
385.337	79.94
385.562	71.94
385.787	100.94
386.013	78.94
386.238	98.94
386.463	107.94
386.688	90.94
386.913	83.94
387.138	88.94
387.363	83.94
387.588	85.94
387.813	97.94
388.038	92.94
388.263	96.94
388.488	87.94
388.713	88.94
388.938	86.94
389.163	76.94
389.387	91.94
389.612	89.94
389.837	84.94
390.062	87.94
390.287	95.94
390.512	95.94
390.736	96.94
390.961	95.94
391.186	80.94
391.411	92.94
391.636	88.94
391.86	88.94
392.085	73.94
392.31	95.94
392.534	88.94
392.759	87.94
392.984	90.94
393.208	91.94
393.433	88.94
393.658	95.94
393.882	73.94
394.107	85.94
394.331	97.94
394.556	88.94
394.78	71.94
395.005	89.94
395.229	90.94
395.454	96.94
395.678	92.94
395.903	91.94
396.127	84.94
396.352	96.94
396.576	84.94
396.801	88.94
397.025	83.94
397.249	96.94
397.474	81.94
397.698	78.94
397.922	76.94
398.147	81.94
398.371	81.94
398.595	83.94
398.82	81.94
399.044	93.94
399.268	80.94
399.492	75.94
399.717	99.94
399.941	87.94
400.165	78.94
400.389	85.94
400.613	85.94
400.837	86.94
401.062	86.94
401.286	100.94
401.51	95.94
401.734	81.94
401.958	85.94
402.182	92.94
402.406	96.94
402.63	98.94
402.854	87.94
403.078	89.94
403.302	97.94
403.526	81.94
403.75	80.94
403.974	94.94
404.198	99.94
404.422	90.94
404.645	92.94
404.869	100.94
405.093	78.94
405.317	93.94
405.541	108.94
405.765	93.94
405.988	83.94
406.212	96.94
406.436	96.94
406.66	87.94
406.883	103.94
407.107	85.94
407.331	89.94
407.555	90.94
407.778	81.94
408.002	101.94
408.226	96.94
408.449	88.94
408.673	93.94
408.896	100.94
409.12	85.94
409.344	67.94
409.567	88.94
409.791	81.94
410.014	84.94
410.238	91.94
410.461	95.94
410.685	92.94
410.908	97.94
411.132	91.94
411.355	74.94
411.578	106.94
411.802	98.94
412.025	92.94
412.249	89.94
412.472	88.94
412.695	79.94
412.919	92.94
413.142	91.94
413.365	80.94
413.589	86.94
413.812	110.94
414.035	102.94
414.258	98.94
414.482	87.94
414.705	89.94
414.928	83.94
415.151	84.94
415.374	80.94
415.597	97.94
415.821	100.94
416.044	82.94
416.267	84.94
416.49	82.94
416.713	85.94
416.936	100.94
417.159	100.94
417.382	97.94
417.605	99.94
417.828	82.94
418.051	93.94
418.274	81.94
418.497	91.94
418.72	98.94
418.943	91.94
419.166	87.94
419.389	99.94
419.611	85.94
419.834	88.94
420.057	83.94
420.28	94.94
420.503	102.94
420.726	103.94
420.948	85.94
421.171	92.94
421.394	88.94
421.617	93.94
421.839	96.94
422.062	96.94
422.285	99.94
422.507	108.94
422.73	86.94
422.953	85.94
423.175	96.94
423.398	95.94
423.621	95.94
423.843	81.94
424.066	104.94
424.288	108.94
424.511	95.94
424.733	106.94
424.956	92.94
425.178	111.94
425.401	85.94
425.623	98.94
425.846	100.94
426.068	107.94
426.291	98.94
426.513	96.94
426.735	87.94
426.958	86.94
427.18	97.94
427.402	88.94
427.625	98.94
427.847	86.94
428.069	94.94
428.292	93.94
428.514	100.94
428.736	91.94
428.958	95.94
429.181	91.94
429.403	79.94
429.625	84.94
429.847	94.94
430.069	93.94
430.292	91.94
430.514	90.94
430.736	82.94
430.958	78.94
431.18	86.94
431.402	87.94
431.624	87.94
431.846	93.94
432.068	106.94
432.29	80.94
432.512	92.94
432.734	91.94
432.956	85.94
433.178	104.94
433.4	95.94
433.622	83.94
433.844	80.94
434.066	94.94
434.287	90.94
434.509	88.94
434.731	88.94
434.953	86.94
435.175	90.94
435.397	98.94
435.618	93.94
435.84	83.94
436.062	66.94
436.284	90.94
436.505	91.94
436.727	90.94
436.949	80.94
437.17	89.94
437.392	97.94
437.614	91.94
437.835	89.94
438.057	85.94
438.278	108.94
438.5	111.94
438.721	95.94
438.943	92.94
439.165	87.94
439.386	102.94
439.608	86.94
439.829	100.94
440.05	94.94
440.272	93.94
440.493	92.94
440.715	88.94
440.936	104.94
441.158	98.94
441.379	96.94
441.6	97.94
441.822	93.94
442.043	85.94
442.264	94.94
442.486	85.94
442.707	88.94
442.928	96.94
443.149	85.94
443.371	108.94
443.592	100.94
443.813	103.94
444.034	96.94
444.255	97.94
444.476	96.94
444.698	94.94
444.919	91.94
445.14	221.94
445.361	162.94
445.582	107.94
445.803	100.94
446.024	107.94
446.245	98.94
446.466	95.94
446.687	101.94
446.908	87.94
447.129	96.94
447.35	105.94
447.571	97.94
447.792	94.94
448.013	101.94
448.234	105.94
448.455	96.94
448.675	96.94
448.896	85.94
449.117	90.94
449.338	77.94
449.559	86.94
449.779	99.94
450	95.94
450.221	93.94
450.442	95.94
450.662	93.94
450.883	102.94
451.104	90.94
451.324	84.94
451.545	76.94
451.766	83.94
451.986	108.94
452.207	96.94
452.428	96.94
452.648	96.94
452.869	98.94
453.089	95.94
453.31	86.94
453.53	86.94
453.751	92.94
453.971	81.94
454.192	90.94
454.412	84.94
454.633	103.94
454.853	74.94
455.073	89.94
455.294	97.94
455.514	95.94
455.734	100.94
455.955	95.94
456.175	107.94
456.395	90.94
456.616	100.94
456.836	86.94
457.056	88.94
457.276	79.94
457.497	84.94
457.717	70.94
457.937	83.94
458.157	91.94
458.377	76.94
458.598	77.94
458.818	80.94
459.038	82.94
459.258	88.94
459.478	95.94
459.698	96.94
459.918	91.94
460.138	84.94
460.358	104.94
460.578	103.94
460.798	104.94
461.018	82.94
461.238	99.94
461.458	90.94
461.678	88.94
461.898	87.94
462.118	88.94
462.338	97.94
462.558	105.94
462.777	102.94
462.997	85.94
463.217	77.94
463.437	80.94
463.657	95.94
463.876	92.94
464.096	86.94
464.316	85.94
464.536	67.94
464.755	90.94
464.975	76.94
465.195	88.94
465.414	81.94
465.634	93.94
465.854	102.94
466.073	89.94
466.293	97.94
466.512	92.94
466.732	92.94
466.951	84.94
467.171	89.94
467.391	87.94
467.61	91.94
467.829	88.94
468.049	105.94
468.268	98.94
468.488	78.94
468.707	96.94
468.927	95.94
469.146	101.94
469.365	100.94
469.585	108.94
469.804	103.94
470.023	91.94
470.243	95.94
470.462	85.94
470.681	88.94
470.901	89.94
471.12	101.94
471.339	99.94
471.558	99.94
471.777	97.94
471.997	97.94
472.216	100.94
472.435	93.94
472.654	82.94
472.873	76.94
473.092	82.94
473.311	79.94
473.53	99.94
473.749	100.94
473.968	96.94
474.187	93.94
474.406	80.94
474.625	99.94
474.844	82.94
475.063	88.94
475.282	77.94
475.501	92.94
475.72	98.94
475.939	99.94
476.158	88.94
476.377	86.94
476.596	83.94
476.814	92.94
477.033	98.94
477.252	79.94
477.471	94.94
477.69	92.94
477.908	83.94
478.127	97.94
478.346	83.94
478.564	99.94
478.783	101.94
479.002	94.94
479.22	95.94
479.439	95.94
479.658	95.94
479.876	88.94
480.095	86.94
480.313	86.94
480.532	94.94
480.751	84.94
480.969	92.94
481.188	98.94
481.406	90.94
481.624	81.94
481.843	92.94
482.061	98.94
482.28	100.94
482.498	84.94
482.717	78.94
482.935	84.94
483.153	96.94
483.372	84.94
483.59	99.94
483.808	98.94
484.027	80.94
484.245	90.94
484.463	95.94
484.681	114.94
484.9	85.94
485.118	93.94
485.336	96.94
485.554	94.94
485.772	88.94
485.99	89.94
486.209	85.94
486.427	92.94
486.645	90.94
486.863	105.94
487.081	84.94
487.299	92.94
487.517	108.94
487.735	100.94
487.953	87.94
488.171	109.94
488.389	106.94
488.607	99.94
488.825	99.94
489.043	85.94
489.261	90.94
489.479	100.94
489.696	93.94
489.914	99.94
490.132	89.94
490.35	96.94
490.568	98.94
490.786	116.94
491.003	105.94
491.221	107.94
491.439	121.94
491.657	120.94
491.874	130.94
492.092	123.94
492.31	117.94
492.527	128.94
492.745	108.94
492.963	102.94
493.18	107.94
493.398	111.94
493.615	93.94
493.833	111.94
494.05	108.94
494.268	102.94
494.485	104.94
494.703	101.94
494.92	124.94
495.138	102.94
495.355	112.94
495.573	111.94
495.79	116.94
496.008	112.94
496.225	94.94
496.442	101.94
496.66	102.94
496.877	95.94
497.094	117.94
497.312	98.94
497.529	107.94
497.746	96.94
497.963	79.94
498.181	92.94
498.398	86.94
498.615	77.94
498.832	89.94
499.049	95.94
499.267	82.94
499.484	75.94
499.701	90.94
499.918	92.94
500.135	103.94
500.352	91.94
500.569	86.94
500.786	110.94
501.003	104.94
501.22	97.94
501.437	93.94
501.654	96.94
501.871	94.94
502.088	89.94
502.305	99.94
502.522	84.94
502.739	95.94
502.956	77.94
503.172	91.94
503.389	87.94
503.606	71.94
503.823	94.94
504.04	91.94
504.256	97.94
504.473	93.94
504.69	95.94
504.907	87.94
505.123	84.94
505.34	91.94
505.557	85.94
505.773	91.94
505.99	73.94
506.207	83.94
506.423	83.94
506.64	78.94
506.856	86.94
507.073	98.94
507.289	93.94
507.506	104.94
507.722	88.94
507.939	92.94
508.155	84.94
508.372	77.94
508.588	84.94
508.805	92.94
509.021	88.94
509.238	95.94
509.454	88.94
509.67	83.94
509.887	86.94
510.103	95.94
510.319	91.94
510.536	85.94
510.752	85.94
510.968	80.94
511.184	64.94
511.401	77.94
511.617	67.94
511.833	87.94
512.049	81.94
512.265	80.94
512.481	81.94
512.698	86.94
512.914	80.94
513.13	88.94
513.346	76.94
513.562	85.94
513.778	91.94
513.994	75.94
514.21	85.94
514.426	78.94
514.642	79.94
514.858	88.94
515.074	90.94
515.29	89.94
515.506	74.94
515.721	85.94
515.937	92.94
516.153	92.94
516.369	80.94
516.585	93.94
516.801	89.94
517.016	94.94
517.232	95.94
517.448	77.94
517.664	90.94
