Data from Location5.07152019.Energy5.Lamp.07192019.3%Agarose_HRD10591_15-37-35-387.txt Node
Date: Fri Jul 19 15:37:35 EDT 2019
User: cochatt
Spectrometer: HR+D1059
Trigger mode: 1
Integration Time (sec): 1.000000E-1
Scans to average: 1
Electric dark correction enabled: true
Nonlinearity correction enabled: false
Boxcar width: 0
XAxis mode: Wavelengths
Number of Pixels in Spectrum: 2048
>>>>>Begin Spectral Data<<<<<
223.165	-17.94
223.4	-17.94
223.635	-17.94
223.869	-9.94
224.104	-5.94
224.338	-19.94
224.573	-10.94
224.808	-6.94
225.042	-21.94
225.277	-17.94
225.511	-4.94
225.746	6.06
225.98	12.06
226.215	18.06
226.449	14.06
226.683	13.06
226.918	21.06
227.152	32.06
227.387	39.06
227.621	42.06
227.856	41.06
228.09	52.06
228.324	62.06
228.559	47.06
228.793	71.06
229.027	66.06
229.262	64.06
229.496	63.06
229.73	71.06
229.964	65.06
230.199	80.06
230.433	74.06
230.667	77.06
230.901	82.06
231.136	73.06
231.37	73.06
231.604	89.06
231.838	96.06
232.072	85.06
232.306	78.06
232.541	82.06
232.775	96.06
233.009	93.06
233.243	97.06
233.477	83.06
233.711	95.06
233.945	68.06
234.179	78.06
234.413	95.06
234.647	76.06
234.881	93.06
235.115	89.06
235.349	85.06
235.583	102.06
235.817	86.06
236.051	98.06
236.285	92.06
236.519	81.06
236.753	102.06
236.987	80.06
237.221	81.06
237.455	82.06
237.689	85.06
237.922	87.06
238.156	79.06
238.39	81.06
238.624	79.06
238.858	73.06
239.091	88.06
239.325	96.06
239.559	84.06
239.793	75.06
240.027	91.06
240.26	87.06
240.494	94.06
240.728	60.06
240.961	67.06
241.195	96.06
241.429	100.06
241.662	83.06
241.896	88.06
242.13	83.06
242.363	82.06
242.597	78.06
242.83	77.06
243.064	77.06
243.298	74.06
243.531	78.06
243.765	100.06
243.998	86.06
244.232	93.06
244.465	82.06
244.699	76.06
244.932	69.06
245.166	88.06
245.399	102.06
245.633	85.06
245.866	74.06
246.099	91.06
246.333	93.06
246.566	80.06
246.8	80.06
247.033	83.06
247.266	86.06
247.5	79.06
247.733	96.06
247.966	95.06
248.2	88.06
248.433	81.06
248.666	79.06
248.899	69.06
249.133	88.06
249.366	87.06
249.599	91.06
249.832	87.06
250.066	94.06
250.299	75.06
250.532	96.06
250.765	81.06
250.998	78.06
251.231	82.06
251.465	88.06
251.698	74.06
251.931	84.06
252.164	80.06
252.397	83.06
252.63	89.06
252.863	78.06
253.096	86.06
253.329	76.06
253.562	91.06
253.795	90.06
254.028	88.06
254.261	79.06
254.494	86.06
254.727	85.06
254.96	84.06
255.193	87.06
255.426	80.06
255.659	102.06
255.892	96.06
256.124	87.06
256.357	94.06
256.59	92.06
256.823	86.06
257.056	93.06
257.289	96.06
257.521	75.06
257.754	88.06
257.987	88.06
258.22	76.06
258.452	80.06
258.685	90.06
258.918	87.06
259.151	76.06
259.383	81.06
259.616	89.06
259.849	96.06
260.081	84.06
260.314	88.06
260.547	88.06
260.779	91.06
261.012	81.06
261.244	95.06
261.477	92.06
261.71	86.06
261.942	85.06
262.175	84.06
262.407	85.06
262.64	81.06
262.872	79.06
263.105	82.06
263.337	91.06
263.57	76.06
263.802	88.06
264.035	85.06
264.267	84.06
264.499	82.06
264.732	89.06
264.964	81.06
265.197	87.06
265.429	100.06
265.661	86.06
265.894	84.06
266.126	100.06
266.358	92.06
266.591	75.06
266.823	91.06
267.055	85.06
267.287	96.06
267.52	95.06
267.752	96.06
267.984	81.06
268.216	81.06
268.448	91.06
268.681	84.06
268.913	81.06
269.145	88.06
269.377	88.06
269.609	82.06
269.841	93.06
270.073	92.06
270.306	79.06
270.538	77.06
270.77	83.06
271.002	86.06
271.234	89.06
271.466	102.06
271.698	80.06
271.93	104.06
272.162	87.06
272.394	88.06
272.626	84.06
272.858	88.06
273.09	97.06
273.322	81.06
273.553	96.06
273.785	81.06
274.017	92.06
274.249	88.06
274.481	76.06
274.713	89.06
274.945	96.06
275.176	98.06
275.408	82.06
275.64	90.06
275.872	98.06
276.104	89.06
276.335	93.06
276.567	85.06
276.799	90.06
277.031	69.06
277.262	78.06
277.494	91.06
277.726	91.06
277.957	99.06
278.189	87.06
278.421	93.06
278.652	102.06
278.884	86.06
279.115	94.06
279.347	100.06
279.579	95.06
279.81	98.06
280.042	89.06
280.273	81.06
280.505	84.06
280.736	91.06
280.968	93.06
281.199	81.06
281.431	99.06
281.662	86.06
281.894	94.06
282.125	86.06
282.356	100.06
282.588	87.06
282.819	88.06
283.051	88.06
283.282	94.06
283.513	79.06
283.745	88.06
283.976	92.06
284.207	92.06
284.439	93.06
284.67	87.06
284.901	91.06
285.132	93.06
285.364	105.06
285.595	97.06
285.826	93.06
286.057	97.06
286.288	83.06
286.52	83.06
286.751	97.06
286.982	88.06
287.213	84.06
287.444	94.06
287.675	89.06
287.906	98.06
288.138	99.06
288.369	86.06
288.6	93.06
288.831	92.06
289.062	97.06
289.293	84.06
289.524	93.06
289.755	95.06
289.986	97.06
290.217	86.06
290.448	90.06
290.679	102.06
290.91	105.06
291.141	87.06
291.371	75.06
291.602	93.06
291.833	91.06
292.064	81.06
292.295	89.06
292.526	105.06
292.757	83.06
292.987	83.06
293.218	92.06
293.449	79.06
293.68	105.06
293.91	91.06
294.141	66.06
294.372	86.06
294.603	88.06
294.833	94.06
295.064	88.06
295.295	94.06
295.525	79.06
295.756	88.06
295.987	81.06
296.217	72.06
296.448	87.06
296.679	98.06
296.909	105.06
297.14	98.06
297.37	108.06
297.601	98.06
297.831	93.06
298.062	78.06
298.292	93.06
298.523	99.06
298.753	80.06
298.984	99.06
299.214	82.06
299.445	92.06
299.675	93.06
299.905	93.06
300.136	82.06
300.366	78.06
300.597	103.06
300.827	102.06
301.057	108.06
301.288	102.06
301.518	76.06
301.748	97.06
301.979	85.06
302.209	87.06
302.439	95.06
302.669	88.06
302.9	103.06
303.13	79.06
303.36	89.06
303.59	80.06
303.82	84.06
304.051	93.06
304.281	95.06
304.511	103.06
304.741	87.06
304.971	98.06
305.201	88.06
305.431	106.06
305.661	92.06
305.891	77.06
306.121	97.06
306.352	95.06
306.582	73.06
306.812	80.06
307.042	94.06
307.272	93.06
307.502	85.06
307.731	84.06
307.961	93.06
308.191	102.06
308.421	94.06
308.651	88.06
308.881	84.06
309.111	95.06
309.341	90.06
309.571	98.06
309.8	103.06
310.03	91.06
310.26	90.06
310.49	102.06
310.72	99.06
310.949	98.06
311.179	93.06
311.409	87.06
311.639	92.06
311.868	85.06
312.098	100.06
312.328	100.06
312.557	86.06
312.787	109.06
313.017	86.06
313.246	84.06
313.476	76.06
313.706	81.06
313.935	98.06
314.165	83.06
314.394	94.06
314.624	88.06
314.853	86.06
315.083	86.06
315.312	92.06
315.542	93.06
315.771	96.06
316.001	90.06
316.23	88.06
316.46	87.06
316.689	94.06
316.919	101.06
317.148	96.06
317.377	93.06
317.607	89.06
317.836	93.06
318.065	89.06
318.295	86.06
318.524	93.06
318.753	103.06
318.983	94.06
319.212	83.06
319.441	87.06
319.67	87.06
319.9	85.06
320.129	99.06
320.358	94.06
320.587	91.06
320.816	85.06
321.046	91.06
321.275	83.06
321.504	90.06
321.733	96.06
321.962	103.06
322.191	86.06
322.42	88.06
322.649	89.06
322.878	89.06
323.108	83.06
323.337	92.06
323.566	88.06
323.795	85.06
324.024	104.06
324.253	94.06
324.482	94.06
324.71	91.06
324.939	114.06
325.168	89.06
325.397	102.06
325.626	96.06
325.855	101.06
326.084	91.06
326.313	103.06
326.542	88.06
326.77	94.06
326.999	88.06
327.228	94.06
327.457	90.06
327.686	81.06
327.914	81.06
328.143	91.06
328.372	93.06
328.6	72.06
328.829	102.06
329.058	97.06
329.287	86.06
329.515	92.06
329.744	77.06
329.972	88.06
330.201	81.06
330.43	89.06
330.658	87.06
330.887	84.06
331.115	93.06
331.344	92.06
331.572	94.06
331.801	101.06
332.03	94.06
332.258	85.06
332.486	86.06
332.715	106.06
332.943	96.06
333.172	85.06
333.4	87.06
333.629	105.06
333.857	90.06
334.085	89.06
334.314	93.06
334.542	89.06
334.771	92.06
334.999	85.06
335.227	86.06
335.455	98.06
335.684	95.06
335.912	84.06
336.14	74.06
336.369	90.06
336.597	105.06
336.825	77.06
337.053	102.06
337.281	90.06
337.51	96.06
337.738	90.06
337.966	87.06
338.194	82.06
338.422	93.06
338.65	89.06
338.878	91.06
339.106	95.06
339.334	93.06
339.562	97.06
339.79	95.06
340.018	84.06
340.246	88.06
340.474	93.06
340.702	85.06
340.93	77.06
341.158	85.06
341.386	74.06
341.614	88.06
341.842	96.06
342.07	91.06
342.298	99.06
342.526	95.06
342.754	89.06
342.981	99.06
343.209	98.06
343.437	93.06
343.665	86.06
343.893	95.06
344.12	97.06
344.348	94.06
344.576	70.06
344.804	94.06
345.031	84.06
345.259	87.06
345.487	100.06
345.714	96.06
345.942	84.06
346.17	83.06
346.397	99.06
346.625	100.06
346.853	74.06
347.08	82.06
347.308	88.06
347.535	86.06
347.763	97.06
347.99	84.06
348.218	95.06
348.445	85.06
348.673	91.06
348.9	92.06
349.128	83.06
349.355	79.06
349.583	88.06
349.81	88.06
350.037	98.06
350.265	95.06
350.492	79.06
350.72	91.06
350.947	101.06
351.174	93.06
351.402	67.06
351.629	92.06
351.856	79.06
352.083	77.06
352.311	92.06
352.538	84.06
352.765	87.06
352.992	104.06
353.22	88.06
353.447	81.06
353.674	95.06
353.901	89.06
354.128	98.06
354.355	89.06
354.583	72.06
354.81	102.06
355.037	87.06
355.264	99.06
355.491	80.06
355.718	92.06
355.945	78.06
356.172	80.06
356.399	109.06
356.626	88.06
356.853	82.06
357.08	81.06
357.307	93.06
357.534	90.06
357.761	74.06
357.988	79.06
358.215	102.06
358.441	95.06
358.668	93.06
358.895	104.06
359.122	85.06
359.349	97.06
359.576	86.06
359.802	96.06
360.029	102.06
360.256	88.06
360.483	84.06
360.709	85.06
360.936	97.06
361.163	91.06
361.39	76.06
361.616	86.06
361.843	102.06
362.07	91.06
362.296	85.06
362.523	96.06
362.749	90.06
362.976	82.06
363.203	99.06
363.429	92.06
363.656	89.06
363.882	88.06
364.109	77.06
364.335	84.06
364.562	92.06
364.788	102.06
365.015	96.06
365.241	84.06
365.468	80.06
365.694	84.06
365.92	87.06
366.147	100.06
366.373	90.06
366.599	104.06
366.826	104.06
367.052	90.06
367.278	77.06
367.505	73.06
367.731	92.06
367.957	85.06
368.184	94.06
368.41	90.06
368.636	76.06
368.862	85.06
369.089	88.06
369.315	85.06
369.541	83.06
369.767	97.06
369.993	109.06
370.219	88.06
370.445	71.06
370.672	83.06
370.898	90.06
371.124	88.06
371.35	92.06
371.576	102.06
371.802	100.06
372.028	82.06
372.254	98.06
372.48	95.06
372.706	95.06
372.932	92.06
373.158	88.06
373.384	93.06
373.61	103.06
373.835	92.06
374.061	89.06
374.287	100.06
374.513	92.06
374.739	88.06
374.965	96.06
375.191	105.06
375.416	93.06
375.642	89.06
375.868	100.06
376.094	99.06
376.319	86.06
376.545	85.06
376.771	80.06
376.997	86.06
377.222	88.06
377.448	94.06
377.674	86.06
377.899	90.06
378.125	79.06
378.35	100.06
378.576	91.06
378.802	87.06
379.027	93.06
379.253	81.06
379.478	95.06
379.704	87.06
379.929	77.06
380.155	84.06
380.38	82.06
380.606	92.06
380.831	91.06
381.057	102.06
381.282	87.06
381.507	77.06
381.733	88.06
381.958	87.06
382.184	83.06
382.409	74.06
382.634	96.06
382.86	91.06
383.085	101.06
383.31	105.06
383.535	87.06
383.761	81.06
383.986	102.06
384.211	77.06
384.436	92.06
384.662	77.06
384.887	96.06
385.112	84.06
385.337	75.06
385.562	97.06
385.787	68.06
386.013	92.06
386.238	94.06
386.463	89.06
386.688	99.06
386.913	90.06
387.138	81.06
387.363	91.06
387.588	102.06
387.813	87.06
388.038	87.06
388.263	98.06
388.488	86.06
388.713	94.06
388.938	80.06
389.163	102.06
389.387	89.06
389.612	86.06
389.837	100.06
390.062	78.06
390.287	94.06
390.512	93.06
390.736	101.06
390.961	94.06
391.186	80.06
391.411	79.06
391.636	93.06
391.86	106.06
392.085	90.06
392.31	105.06
392.534	97.06
392.759	96.06
392.984	77.06
393.208	97.06
393.433	91.06
393.658	94.06
393.882	90.06
394.107	94.06
394.331	89.06
394.556	83.06
394.78	86.06
395.005	86.06
395.229	83.06
395.454	96.06
395.678	93.06
395.903	103.06
396.127	94.06
396.352	92.06
396.576	91.06
396.801	100.06
397.025	86.06
397.249	87.06
397.474	99.06
397.698	100.06
397.922	94.06
398.147	102.06
398.371	93.06
398.595	88.06
398.82	91.06
399.044	86.06
399.268	73.06
399.492	102.06
399.717	92.06
399.941	91.06
400.165	93.06
400.389	97.06
400.613	81.06
400.837	95.06
401.062	89.06
401.286	98.06
401.51	97.06
401.734	84.06
401.958	99.06
402.182	88.06
402.406	90.06
402.63	94.06
402.854	84.06
403.078	95.06
403.302	108.06
403.526	83.06
403.75	79.06
403.974	90.06
404.198	85.06
404.422	97.06
404.645	98.06
404.869	96.06
405.093	96.06
405.317	94.06
405.541	99.06
405.765	82.06
405.988	99.06
406.212	91.06
406.436	95.06
406.66	94.06
406.883	96.06
407.107	97.06
407.331	82.06
407.555	91.06
407.778	86.06
408.002	106.06
408.226	86.06
408.449	89.06
408.673	97.06
408.896	94.06
409.12	88.06
409.344	96.06
409.567	100.06
409.791	93.06
410.014	105.06
410.238	100.06
410.461	92.06
410.685	92.06
410.908	95.06
411.132	98.06
411.355	101.06
411.578	84.06
411.802	84.06
412.025	97.06
412.249	96.06
412.472	92.06
412.695	87.06
412.919	83.06
413.142	78.06
413.365	93.06
413.589	96.06
413.812	92.06
414.035	101.06
414.258	89.06
414.482	103.06
414.705	91.06
414.928	83.06
415.151	98.06
415.374	92.06
415.597	106.06
415.821	94.06
416.044	88.06
416.267	94.06
416.49	110.06
416.713	96.06
416.936	102.06
417.159	97.06
417.382	107.06
417.605	92.06
417.828	105.06
418.051	94.06
418.274	101.06
418.497	102.06
418.72	85.06
418.943	94.06
419.166	86.06
419.389	87.06
419.611	91.06
419.834	105.06
420.057	110.06
420.28	101.06
420.503	103.06
420.726	97.06
420.948	94.06
421.171	101.06
421.394	94.06
421.617	98.06
421.839	106.06
422.062	107.06
422.285	105.06
422.507	102.06
422.73	102.06
422.953	86.06
423.175	103.06
423.398	98.06
423.621	86.06
423.843	111.06
424.066	93.06
424.288	109.06
424.511	103.06
424.733	102.06
424.956	109.06
425.178	100.06
425.401	95.06
425.623	95.06
425.846	85.06
426.068	79.06
426.291	96.06
426.513	102.06
426.735	100.06
426.958	93.06
427.18	84.06
427.402	87.06
427.625	96.06
427.847	111.06
428.069	106.06
428.292	89.06
428.514	106.06
428.736	100.06
428.958	114.06
429.181	110.06
429.403	88.06
429.625	94.06
429.847	102.06
430.069	98.06
430.292	98.06
430.514	98.06
430.736	84.06
430.958	103.06
431.18	89.06
431.402	96.06
431.624	107.06
431.846	77.06
432.068	85.06
432.29	86.06
432.512	85.06
432.734	92.06
432.956	100.06
433.178	93.06
433.4	119.06
433.622	101.06
433.844	104.06
434.066	106.06
434.287	102.06
434.509	104.06
434.731	91.06
434.953	102.06
435.175	99.06
435.397	93.06
435.618	93.06
435.84	93.06
436.062	94.06
436.284	92.06
436.505	97.06
436.727	96.06
436.949	95.06
437.17	98.06
437.392	100.06
437.614	92.06
437.835	89.06
438.057	94.06
438.278	104.06
438.5	98.06
438.721	93.06
438.943	102.06
439.165	93.06
439.386	99.06
439.608	89.06
439.829	94.06
440.05	104.06
440.272	103.06
440.493	111.06
440.715	113.06
440.936	82.06
441.158	108.06
441.379	97.06
441.6	108.06
441.822	100.06
442.043	95.06
442.264	99.06
442.486	97.06
442.707	109.06
442.928	102.06
443.149	109.06
443.371	102.06
443.592	106.06
443.813	99.06
444.034	111.06
444.255	110.06
444.476	90.06
444.698	93.06
444.919	101.06
445.14	229.06
445.361	170.06
445.582	105.06
445.803	101.06
446.024	96.06
446.245	106.06
446.466	120.06
446.687	95.06
446.908	102.06
447.129	109.06
447.35	106.06
447.571	109.06
447.792	103.06
448.013	107.06
448.234	97.06
448.455	109.06
448.675	106.06
448.896	100.06
449.117	102.06
449.338	101.06
449.559	93.06
449.779	101.06
450	82.06
450.221	103.06
450.442	109.06
450.662	92.06
450.883	100.06
451.104	105.06
451.324	105.06
451.545	98.06
451.766	99.06
451.986	111.06
452.207	117.06
452.428	92.06
452.648	106.06
452.869	104.06
453.089	104.06
453.31	105.06
453.53	85.06
453.751	96.06
453.971	98.06
454.192	93.06
454.412	99.06
454.633	106.06
454.853	87.06
455.073	107.06
455.294	103.06
455.514	87.06
455.734	83.06
455.955	99.06
456.175	85.06
456.395	77.06
456.616	96.06
456.836	104.06
457.056	105.06
457.276	93.06
457.497	88.06
457.717	93.06
457.937	105.06
458.157	81.06
458.377	101.06
458.598	92.06
458.818	89.06
459.038	78.06
459.258	90.06
459.478	101.06
459.698	96.06
459.918	102.06
460.138	92.06
460.358	108.06
460.578	96.06
460.798	99.06
461.018	107.06
461.238	96.06
461.458	97.06
461.678	105.06
461.898	113.06
462.118	89.06
462.338	95.06
462.558	98.06
462.777	102.06
462.997	102.06
463.217	100.06
463.437	94.06
463.657	92.06
463.876	95.06
464.096	101.06
464.316	83.06
464.536	101.06
464.755	84.06
464.975	96.06
465.195	103.06
465.414	108.06
465.634	102.06
465.854	102.06
466.073	86.06
466.293	100.06
466.512	89.06
466.732	108.06
466.951	90.06
467.171	118.06
467.391	89.06
467.61	92.06
467.829	97.06
468.049	107.06
468.268	91.06
468.488	108.06
468.707	97.06
468.927	119.06
469.146	99.06
469.365	105.06
469.585	100.06
469.804	114.06
470.023	100.06
470.243	107.06
470.462	101.06
470.681	119.06
470.901	105.06
471.12	103.06
471.339	87.06
471.558	90.06
471.777	111.06
471.997	99.06
472.216	92.06
472.435	82.06
472.654	103.06
472.873	89.06
473.092	90.06
473.311	78.06
473.53	93.06
473.749	91.06
473.968	100.06
474.187	102.06
474.406	104.06
474.625	114.06
474.844	90.06
475.063	88.06
475.282	111.06
475.501	103.06
475.72	106.06
475.939	100.06
476.158	92.06
476.377	94.06
476.596	98.06
476.814	106.06
477.033	96.06
477.252	100.06
477.471	109.06
477.69	101.06
477.908	90.06
478.127	105.06
478.346	94.06
478.564	106.06
478.783	96.06
479.002	102.06
479.22	112.06
479.439	111.06
479.658	103.06
479.876	105.06
480.095	86.06
480.313	95.06
480.532	102.06
480.751	98.06
480.969	90.06
481.188	87.06
481.406	89.06
481.624	97.06
481.843	92.06
482.061	88.06
482.28	104.06
482.498	91.06
482.717	92.06
482.935	108.06
483.153	118.06
483.372	109.06
483.59	108.06
483.808	108.06
484.027	106.06
484.245	98.06
484.463	98.06
484.681	109.06
484.9	101.06
485.118	121.06
485.336	96.06
485.554	103.06
485.772	95.06
485.99	94.06
486.209	86.06
486.427	103.06
486.645	104.06
486.863	105.06
487.081	102.06
487.299	110.06
487.517	105.06
487.735	109.06
487.953	92.06
488.171	111.06
488.389	128.06
488.607	116.06
488.825	93.06
489.043	98.06
489.261	110.06
489.479	98.06
489.696	112.06
489.914	93.06
490.132	106.06
490.35	110.06
490.568	117.06
490.786	124.06
491.003	119.06
491.221	113.06
491.439	116.06
491.657	126.06
491.874	112.06
492.092	128.06
492.31	139.06
492.527	121.06
492.745	126.06
492.963	106.06
493.18	109.06
493.398	103.06
493.615	108.06
493.833	114.06
494.05	117.06
494.268	110.06
494.485	109.06
494.703	102.06
494.92	103.06
495.138	106.06
495.355	123.06
495.573	120.06
495.79	123.06
496.008	123.06
496.225	114.06
496.442	102.06
496.66	114.06
496.877	121.06
497.094	121.06
497.312	108.06
497.529	115.06
497.746	101.06
497.963	119.06
498.181	112.06
498.398	94.06
498.615	103.06
498.832	100.06
499.049	97.06
499.267	100.06
499.484	89.06
499.701	103.06
499.918	113.06
500.135	91.06
500.352	117.06
500.569	102.06
500.786	111.06
501.003	102.06
501.22	104.06
501.437	104.06
501.654	98.06
501.871	109.06
502.088	90.06
502.305	99.06
502.522	87.06
502.739	96.06
502.956	113.06
503.172	111.06
503.389	99.06
503.606	101.06
503.823	103.06
504.04	99.06
504.256	115.06
504.473	106.06
504.69	95.06
504.907	101.06
505.123	111.06
505.34	98.06
505.557	105.06
505.773	88.06
505.99	114.06
506.207	104.06
506.423	99.06
506.64	98.06
506.856	105.06
507.073	94.06
507.289	97.06
507.506	102.06
507.722	75.06
507.939	95.06
508.155	96.06
508.372	101.06
508.588	88.06
508.805	105.06
509.021	104.06
509.238	98.06
509.454	91.06
509.67	79.06
509.887	97.06
510.103	92.06
510.319	106.06
510.536	97.06
510.752	103.06
510.968	89.06
511.184	88.06
511.401	86.06
511.617	86.06
511.833	93.06
512.049	90.06
512.265	90.06
512.481	93.06
512.698	91.06
512.914	94.06
513.13	86.06
513.346	91.06
513.562	94.06
513.778	86.06
513.994	97.06
514.21	94.06
514.426	93.06
514.642	97.06
