Data from Location5.07152019.Energy5.Lamp.07192019.3%Agarose_HRD10591_15-36-53-386.txt Node
Date: Fri Jul 19 15:36:53 EDT 2019
User: cochatt
Spectrometer: HR+D1059
Trigger mode: 1
Integration Time (sec): 1.000000E-1
Scans to average: 1
Electric dark correction enabled: true
Nonlinearity correction enabled: false
Boxcar width: 0
XAxis mode: Wavelengths
Number of Pixels in Spectrum: 2048
>>>>>Begin Spectral Data<<<<<
223.165	-5.44
223.4	-5.44
223.635	-5.44
223.869	-20.44
224.104	-24.44
224.338	-12.44
224.573	-12.44
224.808	-11.44
225.042	-4.44
225.277	-6.44
225.511	-15.44
225.746	-9.44
225.98	10.56
226.215	15.56
226.449	14.56
226.683	29.56
226.918	17.56
227.152	34.56
227.387	32.56
227.621	28.56
227.856	51.56
228.09	36.56
228.324	44.56
228.559	47.56
228.793	66.56
229.027	63.56
229.262	62.56
229.496	79.56
229.73	60.56
229.964	75.56
230.199	73.56
230.433	70.56
230.667	91.56
230.901	64.56
231.136	75.56
231.37	90.56
231.604	80.56
231.838	77.56
232.072	70.56
232.306	77.56
232.541	75.56
232.775	87.56
233.009	84.56
233.243	88.56
233.477	76.56
233.711	92.56
233.945	79.56
234.179	95.56
234.413	82.56
234.647	82.56
234.881	66.56
235.115	86.56
235.349	87.56
235.583	84.56
235.817	73.56
236.051	74.56
236.285	87.56
236.519	82.56
236.753	86.56
236.987	91.56
237.221	83.56
237.455	88.56
237.689	82.56
237.922	81.56
238.156	69.56
238.39	68.56
238.624	67.56
238.858	89.56
239.091	75.56
239.325	79.56
239.559	74.56
239.793	74.56
240.027	76.56
240.26	68.56
240.494	69.56
240.728	84.56
240.961	66.56
241.195	97.56
241.429	79.56
241.662	73.56
241.896	74.56
242.13	73.56
242.363	77.56
242.597	56.56
242.83	79.56
243.064	87.56
243.298	79.56
243.531	75.56
243.765	67.56
243.998	84.56
244.232	72.56
244.465	68.56
244.699	75.56
244.932	89.56
245.166	74.56
245.399	74.56
245.633	64.56
245.866	76.56
246.099	68.56
246.333	72.56
246.566	73.56
246.8	75.56
247.033	82.56
247.266	80.56
247.5	77.56
247.733	84.56
247.966	71.56
248.2	82.56
248.433	79.56
248.666	76.56
248.899	71.56
249.133	75.56
249.366	86.56
249.599	75.56
249.832	79.56
250.066	70.56
250.299	82.56
250.532	80.56
250.765	78.56
250.998	82.56
251.231	75.56
251.465	86.56
251.698	74.56
251.931	77.56
252.164	86.56
252.397	75.56
252.63	86.56
252.863	82.56
253.096	86.56
253.329	87.56
253.562	73.56
253.795	79.56
254.028	75.56
254.261	86.56
254.494	76.56
254.727	80.56
254.96	79.56
255.193	74.56
255.426	75.56
255.659	79.56
255.892	93.56
256.124	80.56
256.357	87.56
256.59	100.56
256.823	68.56
257.056	86.56
257.289	75.56
257.521	95.56
257.754	84.56
257.987	74.56
258.22	76.56
258.452	78.56
258.685	87.56
258.918	86.56
259.151	75.56
259.383	73.56
259.616	86.56
259.849	87.56
260.081	76.56
260.314	90.56
260.547	76.56
260.779	76.56
261.012	80.56
261.244	79.56
261.477	99.56
261.71	102.56
261.942	83.56
262.175	71.56
262.407	91.56
262.64	74.56
262.872	69.56
263.105	98.56
263.337	87.56
263.57	80.56
263.802	92.56
264.035	89.56
264.267	93.56
264.499	82.56
264.732	72.56
264.964	89.56
265.197	72.56
265.429	90.56
265.661	73.56
265.894	72.56
266.126	71.56
266.358	83.56
266.591	87.56
266.823	78.56
267.055	82.56
267.287	83.56
267.52	90.56
267.752	86.56
267.984	86.56
268.216	83.56
268.448	87.56
268.681	71.56
268.913	76.56
269.145	86.56
269.377	82.56
269.609	74.56
269.841	87.56
270.073	82.56
270.306	103.56
270.538	84.56
270.77	84.56
271.002	97.56
271.234	88.56
271.466	85.56
271.698	89.56
271.93	84.56
272.162	86.56
272.394	80.56
272.626	92.56
272.858	72.56
273.09	84.56
273.322	82.56
273.553	75.56
273.785	74.56
274.017	85.56
274.249	82.56
274.481	70.56
274.713	82.56
274.945	76.56
275.176	84.56
275.408	88.56
275.64	68.56
275.872	79.56
276.104	75.56
276.335	78.56
276.567	81.56
276.799	82.56
277.031	76.56
277.262	80.56
277.494	70.56
277.726	97.56
277.957	80.56
278.189	76.56
278.421	80.56
278.652	90.56
278.884	88.56
279.115	91.56
279.347	84.56
279.579	78.56
279.81	86.56
280.042	84.56
280.273	97.56
280.505	86.56
280.736	88.56
280.968	90.56
281.199	92.56
281.431	79.56
281.662	74.56
281.894	88.56
282.125	87.56
282.356	79.56
282.588	83.56
282.819	63.56
283.051	81.56
283.282	72.56
283.513	94.56
283.745	77.56
283.976	84.56
284.207	76.56
284.439	84.56
284.67	94.56
284.901	71.56
285.132	76.56
285.364	86.56
285.595	89.56
285.826	84.56
286.057	89.56
286.288	84.56
286.52	84.56
286.751	83.56
286.982	75.56
287.213	92.56
287.444	88.56
287.675	87.56
287.906	96.56
288.138	92.56
288.369	85.56
288.6	99.56
288.831	97.56
289.062	82.56
289.293	87.56
289.524	88.56
289.755	70.56
289.986	76.56
290.217	78.56
290.448	90.56
290.679	78.56
290.91	74.56
291.141	92.56
291.371	83.56
291.602	84.56
291.833	89.56
292.064	87.56
292.295	93.56
292.526	79.56
292.757	97.56
292.987	90.56
293.218	85.56
293.449	83.56
293.68	83.56
293.91	74.56
294.141	84.56
294.372	94.56
294.603	80.56
294.833	90.56
295.064	91.56
295.295	79.56
295.525	99.56
295.756	80.56
295.987	85.56
296.217	76.56
296.448	75.56
296.679	87.56
296.909	93.56
297.14	97.56
297.37	93.56
297.601	91.56
297.831	98.56
298.062	84.56
298.292	97.56
298.523	91.56
298.753	76.56
298.984	89.56
299.214	80.56
299.445	93.56
299.675	74.56
299.905	89.56
300.136	82.56
300.366	77.56
300.597	85.56
300.827	80.56
301.057	82.56
301.288	75.56
301.518	79.56
301.748	91.56
301.979	79.56
302.209	87.56
302.439	92.56
302.669	75.56
302.9	84.56
303.13	86.56
303.36	92.56
303.59	73.56
303.82	83.56
304.051	73.56
304.281	66.56
304.511	82.56
304.741	80.56
304.971	80.56
305.201	83.56
305.431	80.56
305.661	87.56
305.891	82.56
306.121	87.56
306.352	88.56
306.582	86.56
306.812	88.56
307.042	83.56
307.272	92.56
307.502	85.56
307.731	91.56
307.961	70.56
308.191	83.56
308.421	74.56
308.651	88.56
308.881	89.56
309.111	77.56
309.341	93.56
309.571	86.56
309.8	82.56
310.03	72.56
310.26	93.56
310.49	89.56
310.72	78.56
310.949	89.56
311.179	82.56
311.409	79.56
311.639	98.56
311.868	80.56
312.098	78.56
312.328	82.56
312.557	98.56
312.787	80.56
313.017	80.56
313.246	87.56
313.476	64.56
313.706	79.56
313.935	97.56
314.165	77.56
314.394	86.56
314.624	91.56
314.853	86.56
315.083	95.56
315.312	69.56
315.542	88.56
315.771	87.56
316.001	87.56
316.23	91.56
316.46	83.56
316.689	80.56
316.919	84.56
317.148	90.56
317.377	79.56
317.607	97.56
317.836	83.56
318.065	81.56
318.295	65.56
318.524	89.56
318.753	95.56
318.983	82.56
319.212	80.56
319.441	96.56
319.67	89.56
319.9	88.56
320.129	89.56
320.358	80.56
320.587	85.56
320.816	87.56
321.046	80.56
321.275	92.56
321.504	74.56
321.733	84.56
321.962	80.56
322.191	89.56
322.42	90.56
322.649	88.56
322.878	90.56
323.108	84.56
323.337	81.56
323.566	77.56
323.795	81.56
324.024	91.56
324.253	91.56
324.482	76.56
324.71	87.56
324.939	95.56
325.168	77.56
325.397	73.56
325.626	80.56
325.855	78.56
326.084	90.56
326.313	86.56
326.542	88.56
326.77	75.56
326.999	92.56
327.228	88.56
327.457	100.56
327.686	88.56
327.914	81.56
328.143	83.56
328.372	93.56
328.6	90.56
328.829	96.56
329.058	89.56
329.287	93.56
329.515	80.56
329.744	84.56
329.972	75.56
330.201	87.56
330.43	64.56
330.658	70.56
330.887	75.56
331.115	82.56
331.344	85.56
331.572	96.56
331.801	81.56
332.03	80.56
332.258	90.56
332.486	90.56
332.715	97.56
332.943	85.56
333.172	99.56
333.4	91.56
333.629	85.56
333.857	84.56
334.085	75.56
334.314	85.56
334.542	95.56
334.771	78.56
334.999	84.56
335.227	78.56
335.455	81.56
335.684	98.56
335.912	106.56
336.14	91.56
336.369	88.56
336.597	88.56
336.825	82.56
337.053	75.56
337.281	87.56
337.51	75.56
337.738	102.56
337.966	89.56
338.194	83.56
338.422	83.56
338.65	86.56
338.878	104.56
339.106	95.56
339.334	95.56
339.562	80.56
339.79	100.56
340.018	86.56
340.246	89.56
340.474	82.56
340.702	95.56
340.93	87.56
341.158	88.56
341.386	72.56
341.614	86.56
341.842	83.56
342.07	84.56
342.298	84.56
342.526	81.56
342.754	80.56
342.981	87.56
343.209	102.56
343.437	74.56
343.665	94.56
343.893	89.56
344.12	58.56
344.348	90.56
344.576	75.56
344.804	81.56
345.031	96.56
345.259	92.56
345.487	83.56
345.714	87.56
345.942	88.56
346.17	94.56
346.397	74.56
346.625	82.56
346.853	96.56
347.08	85.56
347.308	83.56
347.535	98.56
347.763	78.56
347.99	85.56
348.218	87.56
348.445	95.56
348.673	82.56
348.9	78.56
349.128	91.56
349.355	81.56
349.583	83.56
349.81	93.56
350.037	79.56
350.265	97.56
350.492	87.56
350.72	87.56
350.947	88.56
351.174	76.56
351.402	59.56
351.629	82.56
351.856	89.56
352.083	94.56
352.311	92.56
352.538	80.56
352.765	96.56
352.992	74.56
353.22	79.56
353.447	94.56
353.674	100.56
353.901	83.56
354.128	91.56
354.355	83.56
354.583	82.56
354.81	88.56
355.037	83.56
355.264	71.56
355.491	62.56
355.718	76.56
355.945	96.56
356.172	88.56
356.399	69.56
356.626	84.56
356.853	82.56
357.08	99.56
357.307	87.56
357.534	83.56
357.761	80.56
357.988	89.56
358.215	92.56
358.441	81.56
358.668	78.56
358.895	85.56
359.122	71.56
359.349	84.56
359.576	94.56
359.802	74.56
360.029	80.56
360.256	91.56
360.483	87.56
360.709	77.56
360.936	80.56
361.163	89.56
361.39	100.56
361.616	84.56
361.843	82.56
362.07	81.56
362.296	77.56
362.523	99.56
362.749	86.56
362.976	90.56
363.203	91.56
363.429	89.56
363.656	86.56
363.882	80.56
364.109	75.56
364.335	80.56
364.562	96.56
364.788	72.56
365.015	87.56
365.241	92.56
365.468	82.56
365.694	80.56
365.92	79.56
366.147	80.56
366.373	84.56
366.599	83.56
366.826	74.56
367.052	83.56
367.278	94.56
367.505	82.56
367.731	88.56
367.957	87.56
368.184	80.56
368.41	99.56
368.636	93.56
368.862	78.56
369.089	83.56
369.315	77.56
369.541	92.56
369.767	82.56
369.993	79.56
370.219	81.56
370.445	76.56
370.672	79.56
370.898	75.56
371.124	83.56
371.35	75.56
371.576	92.56
371.802	86.56
372.028	105.56
372.254	85.56
372.48	85.56
372.706	89.56
372.932	82.56
373.158	83.56
373.384	97.56
373.61	82.56
373.835	67.56
374.061	88.56
374.287	79.56
374.513	64.56
374.739	90.56
374.965	83.56
375.191	94.56
375.416	88.56
375.642	83.56
375.868	87.56
376.094	77.56
376.319	84.56
376.545	95.56
376.771	93.56
376.997	95.56
377.222	74.56
377.448	78.56
377.674	91.56
377.899	87.56
378.125	94.56
378.35	89.56
378.576	89.56
378.802	79.56
379.027	89.56
379.253	82.56
379.478	83.56
379.704	71.56
379.929	77.56
380.155	89.56
380.38	78.56
380.606	94.56
380.831	86.56
381.057	77.56
381.282	88.56
381.507	78.56
381.733	100.56
381.958	82.56
382.184	68.56
382.409	85.56
382.634	82.56
382.86	105.56
383.085	87.56
383.31	96.56
383.535	81.56
383.761	80.56
383.986	86.56
384.211	74.56
384.436	88.56
384.662	92.56
384.887	88.56
385.112	86.56
385.337	83.56
385.562	92.56
385.787	94.56
386.013	99.56
386.238	76.56
386.463	78.56
386.688	93.56
386.913	77.56
387.138	78.56
387.363	87.56
387.588	93.56
387.813	81.56
388.038	80.56
388.263	80.56
388.488	84.56
388.713	85.56
388.938	81.56
389.163	86.56
389.387	83.56
389.612	79.56
389.837	86.56
390.062	95.56
390.287	91.56
390.512	79.56
390.736	85.56
390.961	81.56
391.186	85.56
391.411	82.56
391.636	73.56
391.86	88.56
392.085	90.56
392.31	89.56
392.534	80.56
392.759	84.56
392.984	88.56
393.208	102.56
393.433	93.56
393.658	87.56
393.882	98.56
394.107	100.56
394.331	101.56
394.556	88.56
394.78	84.56
395.005	85.56
395.229	93.56
395.454	86.56
395.678	83.56
395.903	74.56
396.127	86.56
396.352	80.56
396.576	90.56
396.801	87.56
397.025	84.56
397.249	87.56
397.474	81.56
397.698	82.56
397.922	86.56
398.147	79.56
398.371	99.56
398.595	95.56
398.82	95.56
399.044	75.56
399.268	81.56
399.492	90.56
399.717	78.56
399.941	83.56
400.165	84.56
400.389	98.56
400.613	91.56
400.837	88.56
401.062	91.56
401.286	93.56
401.51	93.56
401.734	94.56
401.958	83.56
402.182	97.56
402.406	86.56
402.63	98.56
402.854	95.56
403.078	94.56
403.302	87.56
403.526	110.56
403.75	97.56
403.974	104.56
404.198	96.56
404.422	86.56
404.645	87.56
404.869	84.56
405.093	87.56
405.317	75.56
405.541	75.56
405.765	85.56
405.988	93.56
406.212	104.56
406.436	88.56
406.66	100.56
406.883	89.56
407.107	83.56
407.331	79.56
407.555	98.56
407.778	91.56
408.002	100.56
408.226	77.56
408.449	78.56
408.673	92.56
408.896	87.56
409.12	86.56
409.344	88.56
409.567	90.56
409.791	82.56
410.014	108.56
410.238	88.56
410.461	83.56
410.685	91.56
410.908	80.56
411.132	91.56
411.355	94.56
411.578	104.56
411.802	79.56
412.025	87.56
412.249	82.56
412.472	105.56
412.695	96.56
412.919	94.56
413.142	107.56
413.365	91.56
413.589	87.56
413.812	96.56
414.035	99.56
414.258	100.56
414.482	90.56
414.705	82.56
414.928	84.56
415.151	83.56
415.374	83.56
415.597	88.56
415.821	99.56
416.044	101.56
416.267	86.56
416.49	91.56
416.713	104.56
416.936	96.56
417.159	84.56
417.382	99.56
417.605	88.56
417.828	88.56
418.051	98.56
418.274	85.56
418.497	88.56
418.72	84.56
418.943	102.56
419.166	94.56
419.389	85.56
419.611	84.56
419.834	93.56
420.057	96.56
420.28	74.56
420.503	85.56
420.726	85.56
420.948	96.56
421.171	92.56
421.394	87.56
421.617	107.56
421.839	99.56
422.062	95.56
422.285	82.56
422.507	96.56
422.73	100.56
422.953	83.56
423.175	88.56
423.398	87.56
423.621	89.56
423.843	89.56
424.066	97.56
424.288	91.56
424.511	95.56
424.733	96.56
424.956	91.56
425.178	99.56
425.401	88.56
425.623	99.56
425.846	72.56
426.068	74.56
426.291	73.56
426.513	91.56
426.735	98.56
426.958	94.56
427.18	80.56
427.402	98.56
427.625	103.56
427.847	85.56
428.069	88.56
428.292	92.56
428.514	81.56
428.736	90.56
428.958	85.56
429.181	85.56
429.403	97.56
429.625	91.56
429.847	107.56
430.069	79.56
430.292	87.56
430.514	84.56
430.736	94.56
430.958	92.56
431.18	93.56
431.402	97.56
431.624	93.56
431.846	80.56
432.068	87.56
432.29	73.56
432.512	74.56
432.734	84.56
432.956	101.56
433.178	92.56
433.4	97.56
433.622	90.56
433.844	95.56
434.066	94.56
434.287	81.56
434.509	79.56
434.731	95.56
434.953	82.56
435.175	84.56
435.397	84.56
435.618	104.56
435.84	81.56
436.062	98.56
436.284	84.56
436.505	91.56
436.727	95.56
436.949	88.56
437.17	103.56
437.392	88.56
437.614	89.56
437.835	94.56
438.057	82.56
438.278	79.56
438.5	75.56
438.721	90.56
438.943	97.56
439.165	80.56
439.386	90.56
439.608	107.56
439.829	94.56
440.05	104.56
440.272	90.56
440.493	96.56
440.715	80.56
440.936	84.56
441.158	104.56
441.379	90.56
441.6	90.56
441.822	96.56
442.043	95.56
442.264	90.56
442.486	99.56
442.707	98.56
442.928	95.56
443.149	97.56
443.371	93.56
443.592	87.56
443.813	115.56
444.034	91.56
444.255	105.56
444.476	98.56
444.698	83.56
444.919	96.56
445.14	185.56
445.361	144.56
445.582	85.56
445.803	85.56
446.024	101.56
446.245	105.56
446.466	102.56
446.687	105.56
446.908	96.56
447.129	98.56
447.35	101.56
447.571	104.56
447.792	94.56
448.013	91.56
448.234	93.56
448.455	98.56
448.675	103.56
448.896	98.56
449.117	94.56
449.338	96.56
449.559	84.56
449.779	93.56
450	89.56
450.221	80.56
450.442	99.56
450.662	95.56
450.883	88.56
451.104	83.56
451.324	75.56
451.545	84.56
451.766	73.56
451.986	98.56
452.207	91.56
452.428	74.56
452.648	101.56
452.869	92.56
453.089	90.56
453.31	101.56
453.53	87.56
453.751	87.56
453.971	99.56
454.192	98.56
454.412	92.56
454.633	78.56
454.853	90.56
455.073	100.56
455.294	98.56
455.514	92.56
455.734	92.56
455.955	89.56
456.175	91.56
456.395	81.56
456.616	99.56
456.836	76.56
457.056	73.56
457.276	76.56
457.497	82.56
457.717	87.56
457.937	98.56
458.157	90.56
458.377	74.56
458.598	79.56
458.818	82.56
459.038	82.56
459.258	82.56
459.478	81.56
459.698	71.56
459.918	75.56
460.138	88.56
460.358	90.56
460.578	92.56
460.798	92.56
461.018	86.56
461.238	99.56
461.458	97.56
461.678	103.56
461.898	91.56
462.118	97.56
462.338	87.56
462.558	86.56
462.777	92.56
462.997	94.56
463.217	78.56
463.437	84.56
463.657	87.56
463.876	89.56
464.096	82.56
464.316	89.56
464.536	76.56
464.755	91.56
464.975	89.56
465.195	89.56
465.414	94.56
465.634	83.56
465.854	105.56
466.073	110.56
466.293	85.56
466.512	98.56
466.732	108.56
466.951	93.56
467.171	97.56
467.391	100.56
467.61	104.56
467.829	97.56
468.049	102.56
468.268	98.56
468.488	105.56
468.707	85.56
468.927	85.56
469.146	103.56
469.365	93.56
469.585	100.56
469.804	102.56
470.023	102.56
470.243	100.56
470.462	92.56
470.681	98.56
470.901	88.56
471.12	96.56
471.339	107.56
471.558	101.56
471.777	100.56
471.997	94.56
472.216	89.56
472.435	97.56
472.654	87.56
472.873	87.56
473.092	77.56
473.311	100.56
473.53	103.56
473.749	84.56
473.968	87.56
474.187	104.56
474.406	93.56
474.625	89.56
474.844	114.56
475.063	93.56
475.282	98.56
475.501	85.56
475.72	81.56
475.939	97.56
476.158	86.56
476.377	81.56
476.596	85.56
476.814	81.56
477.033	87.56
477.252	82.56
477.471	91.56
477.69	84.56
477.908	99.56
478.127	98.56
478.346	82.56
478.564	100.56
478.783	89.56
479.002	100.56
479.22	104.56
479.439	101.56
479.658	90.56
479.876	91.56
480.095	97.56
480.313	98.56
480.532	75.56
480.751	91.56
480.969	75.56
481.188	68.56
481.406	79.56
481.624	93.56
481.843	76.56
482.061	86.56
482.28	84.56
482.498	98.56
482.717	76.56
482.935	101.56
483.153	89.56
483.372	111.56
483.59	97.56
483.808	103.56
484.027	97.56
484.245	95.56
484.463	99.56
484.681	106.56
484.9	97.56
485.118	100.56
485.336	101.56
485.554	102.56
485.772	90.56
485.99	99.56
486.209	91.56
486.427	80.56
486.645	97.56
486.863	91.56
487.081	99.56
487.299	108.56
487.517	107.56
487.735	100.56
487.953	108.56
488.171	109.56
488.389	100.56
488.607	90.56
488.825	86.56
489.043	90.56
489.261	82.56
489.479	94.56
489.696	111.56
489.914	91.56
490.132	91.56
490.35	94.56
490.568	108.56
490.786	90.56
491.003	114.56
491.221	112.56
491.439	118.56
491.657	100.56
491.874	116.56
492.092	119.56
492.31	115.56
492.527	118.56
492.745	113.56
492.963	103.56
493.18	94.56
493.398	98.56
493.615	111.56
493.833	104.56
494.05	96.56
494.268	102.56
494.485	114.56
494.703	110.56
494.92	101.56
495.138	94.56
495.355	107.56
495.573	106.56
495.79	92.56
496.008	110.56
496.225	90.56
496.442	94.56
496.66	104.56
496.877	102.56
497.094	100.56
497.312	100.56
497.529	99.56
497.746	92.56
497.963	98.56
498.181	84.56
498.398	89.56
498.615	95.56
498.832	84.56
499.049	90.56
499.267	94.56
499.484	104.56
499.701	92.56
499.918	94.56
500.135	94.56
500.352	107.56
500.569	98.56
500.786	104.56
501.003	101.56
501.22	99.56
501.437	111.56
501.654	107.56
501.871	90.56
502.088	71.56
502.305	105.56
502.522	99.56
502.739	107.56
502.956	101.56
503.172	100.56
503.389	102.56
503.606	88.56
503.823	92.56
504.04	77.56
504.256	104.56
504.473	95.56
504.69	90.56
504.907	91.56
505.123	95.56
505.34	96.56
505.557	89.56
505.773	92.56
505.99	96.56
506.207	90.56
506.423	89.56
506.64	86.56
506.856	89.56
507.073	108.56
507.289	96.56
507.506	94.56
507.722	84.56
507.939	86.56
508.155	91.56
508.372	93.56
508.588	78.56
508.805	96.56
509.021	85.56
509.238	78.56
509.454	70.56
509.67	83.56
509.887	90.56
510.103	97.56
510.319	83.56
510.536	97.56
510.752	92.56
510.968	80.56
511.184	81.56
511.401	76.56
511.617	87.56
511.833	79.56
512.049	83.56
512.265	88.56
512.481	88.56
512.698	83.56
512.914	86.56
513.13	81.56
513.346	95.56
513.562	99.56
513.778	91.56
513.994	80.56
514.21	77.56
514.426	77.56
514.642	87.56
514.858	76.56
515.074	83.56
515.29	72.56
515.506	98.56
515.721	79.56
515.937	83.56
516.153	70.56
516.369	74.56
516.585	73.56
516.801	96.56
517.016	90.56
517.232	88.56
517.448	73.56
517.664	89.56
