Data from Location5.07152019.Energy5.Lamp.07192019.3%Agarose_HRD10591_16-03-18-628.txt Node
Date: Fri Jul 19 16:03:18 EDT 2019
User: cochatt
Spectrometer: HR+D1059
Trigger mode: 1
Integration Time (sec): 1.000000E-1
Scans to average: 1
Electric dark correction enabled: true
Nonlinearity correction enabled: false
Boxcar width: 0
XAxis mode: Wavelengths
Number of Pixels in Spectrum: 2048
>>>>>Begin Spectral Data<<<<<
223.165	-12.62
223.4	-12.62
223.635	-12.62
223.869	-21.62
224.104	-20.62
224.338	-10.62
224.573	-12.62
224.808	-18.62
225.042	-10.62
225.277	2.38
225.511	8.38
225.746	-6.62
225.98	9.38
226.215	13.38
226.449	10.38
226.683	13.38
226.918	27.38
227.152	29.38
227.387	32.38
227.621	38.38
227.856	45.38
228.09	47.38
228.324	51.38
228.559	52.38
228.793	51.38
229.027	61.38
229.262	63.38
229.496	68.38
229.73	78.38
229.964	69.38
230.199	82.38
230.433	81.38
230.667	82.38
230.901	68.38
231.136	73.38
231.37	89.38
231.604	72.38
231.838	85.38
232.072	91.38
232.306	85.38
232.541	92.38
232.775	91.38
233.009	89.38
233.243	88.38
233.477	72.38
233.711	75.38
233.945	66.38
234.179	80.38
234.413	75.38
234.647	88.38
234.881	89.38
235.115	80.38
235.349	82.38
235.583	82.38
235.817	81.38
236.051	81.38
236.285	88.38
236.519	78.38
236.753	70.38
236.987	71.38
237.221	83.38
237.455	76.38
237.689	86.38
237.922	82.38
238.156	88.38
238.39	74.38
238.624	86.38
238.858	81.38
239.091	72.38
239.325	85.38
239.559	80.38
239.793	72.38
240.027	69.38
240.26	88.38
240.494	79.38
240.728	81.38
240.961	82.38
241.195	71.38
241.429	72.38
241.662	84.38
241.896	75.38
242.13	89.38
242.363	67.38
242.597	83.38
242.83	90.38
243.064	82.38
243.298	87.38
243.531	79.38
243.765	85.38
243.998	83.38
244.232	89.38
244.465	82.38
244.699	84.38
244.932	96.38
245.166	81.38
245.399	95.38
245.633	85.38
245.866	96.38
246.099	73.38
246.333	89.38
246.566	85.38
246.8	87.38
247.033	79.38
247.266	83.38
247.5	82.38
247.733	78.38
247.966	74.38
248.2	74.38
248.433	81.38
248.666	72.38
248.899	74.38
249.133	93.38
249.366	80.38
249.599	84.38
249.832	91.38
250.066	85.38
250.299	78.38
250.532	66.38
250.765	95.38
250.998	80.38
251.231	85.38
251.465	89.38
251.698	84.38
251.931	79.38
252.164	77.38
252.397	86.38
252.63	91.38
252.863	80.38
253.096	87.38
253.329	87.38
253.562	70.38
253.795	89.38
254.028	83.38
254.261	71.38
254.494	79.38
254.727	92.38
254.96	91.38
255.193	71.38
255.426	84.38
255.659	76.38
255.892	80.38
256.124	86.38
256.357	87.38
256.59	85.38
256.823	84.38
257.056	79.38
257.289	79.38
257.521	83.38
257.754	84.38
257.987	82.38
258.22	82.38
258.452	82.38
258.685	75.38
258.918	96.38
259.151	77.38
259.383	96.38
259.616	89.38
259.849	75.38
260.081	87.38
260.314	73.38
260.547	73.38
260.779	77.38
261.012	88.38
261.244	85.38
261.477	94.38
261.71	84.38
261.942	88.38
262.175	94.38
262.407	93.38
262.64	106.38
262.872	107.38
263.105	84.38
263.337	96.38
263.57	78.38
263.802	86.38
264.035	84.38
264.267	85.38
264.499	92.38
264.732	79.38
264.964	80.38
265.197	93.38
265.429	82.38
265.661	95.38
265.894	86.38
266.126	93.38
266.358	84.38
266.591	91.38
266.823	96.38
267.055	89.38
267.287	93.38
267.52	76.38
267.752	83.38
267.984	83.38
268.216	75.38
268.448	88.38
268.681	101.38
268.913	81.38
269.145	103.38
269.377	82.38
269.609	90.38
269.841	97.38
270.073	89.38
270.306	85.38
270.538	90.38
270.77	87.38
271.002	95.38
271.234	93.38
271.466	94.38
271.698	95.38
271.93	88.38
272.162	87.38
272.394	90.38
272.626	76.38
272.858	90.38
273.09	88.38
273.322	80.38
273.553	83.38
273.785	90.38
274.017	81.38
274.249	86.38
274.481	93.38
274.713	115.38
274.945	95.38
275.176	90.38
275.408	75.38
275.64	82.38
275.872	83.38
276.104	100.38
276.335	111.38
276.567	102.38
276.799	107.38
277.031	91.38
277.262	100.38
277.494	79.38
277.726	83.38
277.957	92.38
278.189	93.38
278.421	91.38
278.652	89.38
278.884	96.38
279.115	99.38
279.347	93.38
279.579	88.38
279.81	85.38
280.042	99.38
280.273	91.38
280.505	99.38
280.736	95.38
280.968	87.38
281.199	107.38
281.431	86.38
281.662	94.38
281.894	74.38
282.125	79.38
282.356	95.38
282.588	75.38
282.819	89.38
283.051	103.38
283.282	73.38
283.513	77.38
283.745	81.38
283.976	99.38
284.207	85.38
284.439	88.38
284.67	97.38
284.901	90.38
285.132	94.38
285.364	83.38
285.595	104.38
285.826	88.38
286.057	89.38
286.288	83.38
286.52	90.38
286.751	76.38
286.982	88.38
287.213	94.38
287.444	86.38
287.675	97.38
287.906	91.38
288.138	96.38
288.369	90.38
288.6	86.38
288.831	86.38
289.062	92.38
289.293	103.38
289.524	84.38
289.755	82.38
289.986	74.38
290.217	98.38
290.448	101.38
290.679	104.38
290.91	97.38
291.141	84.38
291.371	98.38
291.602	81.38
291.833	78.38
292.064	84.38
292.295	87.38
292.526	88.38
292.757	88.38
292.987	91.38
293.218	92.38
293.449	104.38
293.68	96.38
293.91	95.38
294.141	103.38
294.372	95.38
294.603	90.38
294.833	82.38
295.064	99.38
295.295	95.38
295.525	87.38
295.756	91.38
295.987	79.38
296.217	95.38
296.448	104.38
296.679	88.38
296.909	97.38
297.14	97.38
297.37	98.38
297.601	96.38
297.831	104.38
298.062	89.38
298.292	111.38
298.523	99.38
298.753	98.38
298.984	98.38
299.214	91.38
299.445	83.38
299.675	89.38
299.905	118.38
300.136	87.38
300.366	90.38
300.597	85.38
300.827	92.38
301.057	98.38
301.288	102.38
301.518	94.38
301.748	87.38
301.979	83.38
302.209	104.38
302.439	100.38
302.669	99.38
302.9	109.38
303.13	85.38
303.36	86.38
303.59	95.38
303.82	99.38
304.051	92.38
304.281	98.38
304.511	95.38
304.741	84.38
304.971	91.38
305.201	83.38
305.431	83.38
305.661	94.38
305.891	108.38
306.121	95.38
306.352	97.38
306.582	86.38
306.812	98.38
307.042	105.38
307.272	90.38
307.502	93.38
307.731	89.38
307.961	88.38
308.191	95.38
308.421	103.38
308.651	105.38
308.881	85.38
309.111	102.38
309.341	95.38
309.571	99.38
309.8	99.38
310.03	92.38
310.26	87.38
310.49	86.38
310.72	101.38
310.949	87.38
311.179	96.38
311.409	87.38
311.639	93.38
311.868	102.38
312.098	102.38
312.328	97.38
312.557	88.38
312.787	93.38
313.017	103.38
313.246	99.38
313.476	97.38
313.706	104.38
313.935	87.38
314.165	99.38
314.394	103.38
314.624	89.38
314.853	100.38
315.083	88.38
315.312	80.38
315.542	104.38
315.771	78.38
316.001	100.38
316.23	90.38
316.46	75.38
316.689	90.38
316.919	96.38
317.148	103.38
317.377	95.38
317.607	104.38
317.836	79.38
318.065	101.38
318.295	100.38
318.524	99.38
318.753	88.38
318.983	72.38
319.212	87.38
319.441	96.38
319.67	99.38
319.9	103.38
320.129	99.38
320.358	85.38
320.587	99.38
320.816	88.38
321.046	91.38
321.275	88.38
321.504	87.38
321.733	83.38
321.962	92.38
322.191	102.38
322.42	103.38
322.649	107.38
322.878	90.38
323.108	97.38
323.337	91.38
323.566	94.38
323.795	100.38
324.024	102.38
324.253	91.38
324.482	93.38
324.71	103.38
324.939	113.38
325.168	93.38
325.397	108.38
325.626	95.38
325.855	85.38
326.084	88.38
326.313	80.38
326.542	106.38
326.77	100.38
326.999	96.38
327.228	95.38
327.457	94.38
327.686	101.38
327.914	91.38
328.143	89.38
328.372	96.38
328.6	106.38
328.829	87.38
329.058	91.38
329.287	95.38
329.515	90.38
329.744	83.38
329.972	89.38
330.201	87.38
330.43	82.38
330.658	94.38
330.887	90.38
331.115	108.38
331.344	98.38
331.572	89.38
331.801	97.38
332.03	107.38
332.258	95.38
332.486	91.38
332.715	92.38
332.943	82.38
333.172	106.38
333.4	112.38
333.629	104.38
333.857	99.38
334.085	93.38
334.314	91.38
334.542	101.38
334.771	103.38
334.999	86.38
335.227	103.38
335.455	102.38
335.684	104.38
335.912	88.38
336.14	112.38
336.369	96.38
336.597	106.38
336.825	89.38
337.053	95.38
337.281	98.38
337.51	81.38
337.738	108.38
337.966	100.38
338.194	82.38
338.422	90.38
338.65	101.38
338.878	86.38
339.106	88.38
339.334	86.38
339.562	87.38
339.79	104.38
340.018	85.38
340.246	101.38
340.474	100.38
340.702	82.38
340.93	105.38
341.158	93.38
341.386	89.38
341.614	92.38
341.842	83.38
342.07	93.38
342.298	93.38
342.526	100.38
342.754	80.38
342.981	100.38
343.209	99.38
343.437	92.38
343.665	101.38
343.893	90.38
344.12	101.38
344.348	112.38
344.576	96.38
344.804	113.38
345.031	105.38
345.259	104.38
345.487	111.38
345.714	90.38
345.942	84.38
346.17	82.38
346.397	92.38
346.625	90.38
346.853	96.38
347.08	92.38
347.308	107.38
347.535	97.38
347.763	102.38
347.99	96.38
348.218	100.38
348.445	90.38
348.673	87.38
348.9	84.38
349.128	77.38
349.355	87.38
349.583	96.38
349.81	93.38
350.037	99.38
350.265	99.38
350.492	83.38
350.72	95.38
350.947	94.38
351.174	99.38
351.402	114.38
351.629	100.38
351.856	92.38
352.083	89.38
352.311	91.38
352.538	85.38
352.765	100.38
352.992	82.38
353.22	95.38
353.447	96.38
353.674	86.38
353.901	100.38
354.128	97.38
354.355	92.38
354.583	85.38
354.81	90.38
355.037	93.38
355.264	91.38
355.491	89.38
355.718	85.38
355.945	90.38
356.172	91.38
356.399	102.38
356.626	92.38
356.853	89.38
357.08	92.38
357.307	99.38
357.534	90.38
357.761	86.38
357.988	100.38
358.215	98.38
358.441	76.38
358.668	98.38
358.895	91.38
359.122	100.38
359.349	93.38
359.576	81.38
359.802	97.38
360.029	94.38
360.256	100.38
360.483	89.38
360.709	82.38
360.936	89.38
361.163	100.38
361.39	87.38
361.616	92.38
361.843	93.38
362.07	80.38
362.296	85.38
362.523	84.38
362.749	92.38
362.976	100.38
363.203	100.38
363.429	86.38
363.656	87.38
363.882	102.38
364.109	103.38
364.335	94.38
364.562	95.38
364.788	99.38
365.015	84.38
365.241	101.38
365.468	103.38
365.694	92.38
365.92	94.38
366.147	85.38
366.373	88.38
366.599	95.38
366.826	91.38
367.052	88.38
367.278	101.38
367.505	99.38
367.731	87.38
367.957	94.38
368.184	103.38
368.41	101.38
368.636	97.38
368.862	83.38
369.089	105.38
369.315	91.38
369.541	86.38
369.767	103.38
369.993	90.38
370.219	78.38
370.445	89.38
370.672	102.38
370.898	90.38
371.124	85.38
371.35	97.38
371.576	103.38
371.802	86.38
372.028	111.38
372.254	89.38
372.48	98.38
372.706	84.38
372.932	88.38
373.158	95.38
373.384	95.38
373.61	95.38
373.835	95.38
374.061	81.38
374.287	87.38
374.513	84.38
374.739	105.38
374.965	97.38
375.191	100.38
375.416	95.38
375.642	89.38
375.868	107.38
376.094	117.38
376.319	89.38
376.545	92.38
376.771	89.38
376.997	88.38
377.222	106.38
377.448	82.38
377.674	87.38
377.899	91.38
378.125	90.38
378.35	80.38
378.576	86.38
378.802	94.38
379.027	98.38
379.253	101.38
379.478	90.38
379.704	82.38
379.929	97.38
380.155	89.38
380.38	88.38
380.606	84.38
380.831	101.38
381.057	86.38
381.282	90.38
381.507	94.38
381.733	91.38
381.958	100.38
382.184	83.38
382.409	98.38
382.634	96.38
382.86	76.38
383.085	93.38
383.31	96.38
383.535	99.38
383.761	88.38
383.986	96.38
384.211	93.38
384.436	84.38
384.662	88.38
384.887	101.38
385.112	90.38
385.337	100.38
385.562	91.38
385.787	101.38
386.013	114.38
386.238	94.38
386.463	94.38
386.688	102.38
386.913	101.38
387.138	91.38
387.363	92.38
387.588	104.38
387.813	86.38
388.038	109.38
388.263	103.38
388.488	89.38
388.713	101.38
388.938	90.38
389.163	108.38
389.387	102.38
389.612	88.38
389.837	92.38
390.062	92.38
390.287	81.38
390.512	98.38
390.736	87.38
390.961	78.38
391.186	94.38
391.411	81.38
391.636	93.38
391.86	105.38
392.085	94.38
392.31	86.38
392.534	95.38
392.759	103.38
392.984	98.38
393.208	90.38
393.433	100.38
393.658	96.38
393.882	93.38
394.107	101.38
394.331	109.38
394.556	103.38
394.78	97.38
395.005	101.38
395.229	86.38
395.454	96.38
395.678	102.38
395.903	107.38
396.127	100.38
396.352	88.38
396.576	106.38
396.801	96.38
397.025	92.38
397.249	108.38
397.474	99.38
397.698	85.38
397.922	98.38
398.147	115.38
398.371	92.38
398.595	102.38
398.82	97.38
399.044	85.38
399.268	122.38
399.492	116.38
399.717	110.38
399.941	113.38
400.165	116.38
400.389	107.38
400.613	97.38
400.837	107.38
401.062	88.38
401.286	100.38
401.51	113.38
401.734	81.38
401.958	103.38
402.182	104.38
402.406	108.38
402.63	97.38
402.854	105.38
403.078	97.38
403.302	97.38
403.526	101.38
403.75	99.38
403.974	114.38
404.198	93.38
404.422	108.38
404.645	95.38
404.869	95.38
405.093	93.38
405.317	103.38
405.541	98.38
405.765	109.38
405.988	102.38
406.212	100.38
406.436	103.38
406.66	96.38
406.883	115.38
407.107	99.38
407.331	113.38
407.555	99.38
407.778	105.38
408.002	119.38
408.226	99.38
408.449	93.38
408.673	102.38
408.896	98.38
409.12	107.38
409.344	112.38
409.567	103.38
409.791	97.38
410.014	113.38
410.238	82.38
410.461	108.38
410.685	103.38
410.908	104.38
411.132	103.38
411.355	107.38
411.578	102.38
411.802	91.38
412.025	101.38
412.249	110.38
412.472	94.38
412.695	92.38
412.919	97.38
413.142	91.38
413.365	115.38
413.589	102.38
413.812	96.38
414.035	97.38
414.258	98.38
414.482	105.38
414.705	104.38
414.928	102.38
415.151	105.38
415.374	96.38
415.597	108.38
415.821	97.38
416.044	95.38
416.267	99.38
416.49	97.38
416.713	87.38
416.936	94.38
417.159	96.38
417.382	104.38
417.605	96.38
417.828	96.38
418.051	91.38
418.274	104.38
418.497	95.38
418.72	104.38
418.943	93.38
419.166	96.38
419.389	101.38
419.611	95.38
419.834	118.38
420.057	97.38
420.28	105.38
420.503	101.38
420.726	90.38
420.948	99.38
421.171	92.38
421.394	93.38
421.617	85.38
421.839	105.38
422.062	88.38
422.285	98.38
422.507	110.38
422.73	106.38
422.953	101.38
423.175	100.38
423.398	106.38
423.621	104.38
423.843	104.38
424.066	88.38
424.288	92.38
424.511	111.38
424.733	104.38
424.956	105.38
425.178	105.38
425.401	101.38
425.623	81.38
425.846	95.38
426.068	89.38
426.291	101.38
426.513	101.38
426.735	96.38
426.958	102.38
427.18	91.38
427.402	97.38
427.625	99.38
427.847	91.38
428.069	80.38
428.292	91.38
428.514	85.38
428.736	93.38
428.958	108.38
429.181	104.38
429.403	99.38
429.625	105.38
429.847	97.38
430.069	102.38
430.292	108.38
430.514	92.38
430.736	96.38
430.958	95.38
431.18	83.38
431.402	102.38
431.624	88.38
431.846	97.38
432.068	96.38
432.29	100.38
432.512	101.38
432.734	93.38
432.956	92.38
433.178	81.38
433.4	113.38
433.622	101.38
433.844	101.38
434.066	105.38
434.287	90.38
434.509	85.38
434.731	106.38
434.953	103.38
435.175	98.38
435.397	105.38
435.618	93.38
435.84	95.38
436.062	95.38
436.284	97.38
436.505	100.38
436.727	105.38
436.949	89.38
437.17	99.38
437.392	98.38
437.614	100.38
437.835	84.38
438.057	95.38
438.278	85.38
438.5	96.38
438.721	102.38
438.943	106.38
439.165	97.38
439.386	93.38
439.608	104.38
439.829	93.38
440.05	102.38
440.272	113.38
440.493	111.38
440.715	89.38
440.936	96.38
441.158	99.38
441.379	85.38
441.6	100.38
441.822	97.38
442.043	111.38
442.264	101.38
442.486	88.38
442.707	89.38
442.928	112.38
443.149	96.38
443.371	107.38
443.592	96.38
443.813	106.38
444.034	99.38
444.255	96.38
444.476	114.38
444.698	107.38
444.919	93.38
445.14	218.38
445.361	151.38
445.582	105.38
445.803	101.38
446.024	99.38
446.245	97.38
446.466	103.38
446.687	90.38
446.908	98.38
447.129	96.38
447.35	85.38
447.571	105.38
447.792	92.38
448.013	93.38
448.234	101.38
448.455	102.38
448.675	115.38
448.896	112.38
449.117	99.38
449.338	94.38
449.559	79.38
449.779	88.38
450	99.38
450.221	88.38
450.442	84.38
450.662	100.38
450.883	91.38
451.104	87.38
451.324	96.38
451.545	105.38
451.766	85.38
451.986	90.38
452.207	74.38
452.428	88.38
452.648	107.38
452.869	92.38
453.089	92.38
453.31	92.38
453.53	95.38
453.751	91.38
453.971	106.38
454.192	100.38
454.412	92.38
454.633	96.38
454.853	95.38
455.073	94.38
455.294	87.38
455.514	93.38
455.734	96.38
455.955	95.38
456.175	101.38
456.395	89.38
456.616	94.38
456.836	102.38
457.056	90.38
457.276	72.38
457.497	108.38
457.717	90.38
457.937	92.38
458.157	99.38
458.377	90.38
458.598	97.38
458.818	106.38
459.038	82.38
459.258	91.38
459.478	101.38
459.698	105.38
459.918	112.38
460.138	99.38
460.358	99.38
460.578	107.38
460.798	93.38
461.018	94.38
461.238	102.38
461.458	105.38
461.678	103.38
461.898	103.38
462.118	101.38
462.338	111.38
462.558	104.38
462.777	103.38
462.997	94.38
463.217	93.38
463.437	107.38
463.657	96.38
463.876	97.38
464.096	115.38
464.316	96.38
464.536	101.38
464.755	98.38
464.975	114.38
465.195	99.38
465.414	101.38
465.634	102.38
465.854	102.38
466.073	112.38
466.293	97.38
466.512	106.38
466.732	99.38
466.951	104.38
467.171	101.38
467.391	87.38
467.61	98.38
467.829	99.38
468.049	112.38
468.268	110.38
468.488	101.38
468.707	79.38
468.927	93.38
469.146	107.38
469.365	105.38
469.585	115.38
469.804	95.38
470.023	92.38
470.243	90.38
470.462	100.38
470.681	115.38
470.901	107.38
471.12	109.38
471.339	95.38
471.558	113.38
471.777	86.38
471.997	105.38
472.216	107.38
472.435	108.38
472.654	99.38
472.873	92.38
473.092	103.38
473.311	101.38
473.53	95.38
473.749	103.38
473.968	105.38
474.187	112.38
474.406	107.38
474.625	89.38
474.844	97.38
475.063	101.38
475.282	104.38
475.501	97.38
475.72	99.38
475.939	104.38
476.158	85.38
476.377	97.38
476.596	97.38
476.814	93.38
477.033	105.38
477.252	106.38
477.471	103.38
477.69	101.38
477.908	102.38
478.127	105.38
478.346	92.38
478.564	98.38
478.783	96.38
479.002	103.38
479.22	99.38
479.439	120.38
479.658	118.38
479.876	120.38
480.095	99.38
480.313	111.38
480.532	97.38
480.751	117.38
480.969	102.38
481.188	92.38
481.406	101.38
481.624	95.38
481.843	102.38
482.061	111.38
482.28	93.38
482.498	96.38
482.717	88.38
482.935	113.38
483.153	120.38
483.372	123.38
483.59	122.38
483.808	108.38
484.027	100.38
484.245	106.38
484.463	109.38
484.681	97.38
484.9	104.38
485.118	103.38
485.336	106.38
485.554	113.38
485.772	89.38
485.99	100.38
486.209	124.38
486.427	113.38
486.645	96.38
486.863	105.38
487.081	109.38
487.299	115.38
487.517	112.38
487.735	113.38
487.953	116.38
488.171	115.38
488.389	116.38
488.607	100.38
488.825	96.38
489.043	121.38
489.261	111.38
489.479	105.38
489.696	104.38
489.914	106.38
490.132	105.38
490.35	114.38
490.568	119.38
490.786	120.38
491.003	107.38
491.221	113.38
491.439	104.38
491.657	125.38
491.874	133.38
492.092	116.38
492.31	121.38
492.527	123.38
492.745	123.38
492.963	107.38
493.18	120.38
493.398	115.38
493.615	125.38
493.833	104.38
494.05	113.38
494.268	117.38
494.485	115.38
494.703	98.38
494.92	120.38
495.138	111.38
495.355	115.38
495.573	126.38
495.79	110.38
496.008	100.38
496.225	121.38
496.442	108.38
496.66	121.38
496.877	105.38
497.094	118.38
497.312	112.38
497.529	120.38
497.746	128.38
497.963	105.38
498.181	106.38
498.398	130.38
498.615	120.38
498.832	127.38
499.049	136.38
499.267	119.38
499.484	127.38
499.701	158.38
499.918	141.38
500.135	156.38
500.352	167.38
500.569	166.38
500.786	170.38
501.003	151.38
501.22	129.38
501.437	142.38
501.654	151.38
501.871	128.38
502.088	121.38
502.305	115.38
502.522	106.38
502.739	110.38
502.956	123.38
503.172	121.38
503.389	125.38
503.606	106.38
503.823	115.38
504.04	104.38
504.256	129.38
504.473	123.38
504.69	124.38
504.907	124.38
505.123	103.38
505.34	118.38
505.557	114.38
505.773	125.38
505.99	112.38
506.207	95.38
506.423	98.38
506.64	99.38
506.856	108.38
507.073	119.38
507.289	101.38
507.506	115.38
507.722	109.38
507.939	104.38
508.155	100.38
508.372	96.38
508.588	108.38
508.805	108.38
509.021	119.38
509.238	110.38
509.454	101.38
509.67	104.38
509.887	102.38
510.103	102.38
510.319	98.38
510.536	88.38
510.752	104.38
510.968	98.38
511.184	92.38
511.401	100.38
511.617	103.38
511.833	118.38
512.049	117.38
512.265	101.38
512.481	106.38
512.698	87.38
512.914	107.38
