Data from Location5.07152019.Energy5.Lamp.07192019.3%Agarose_HRD10591_16-03-44-630.txt Node
Date: Fri Jul 19 16:03:44 EDT 2019
User: cochatt
Spectrometer: HR+D1059
Trigger mode: 1
Integration Time (sec): 1.000000E-1
Scans to average: 1
Electric dark correction enabled: true
Nonlinearity correction enabled: false
Boxcar width: 0
XAxis mode: Wavelengths
Number of Pixels in Spectrum: 2048
>>>>>Begin Spectral Data<<<<<
223.165	-18.25
223.4	-18.25
223.635	-18.25
223.869	-26.25
224.104	-17.25
224.338	-10.25
224.573	-22.25
224.808	-10.25
225.042	-3.25
225.277	-7.25
225.511	7.75
225.746	-17.25
225.98	-4.25
226.215	17.75
226.449	17.75
226.683	17.75
226.918	25.75
227.152	49.75
227.387	37.75
227.621	23.75
227.856	54.75
228.09	39.75
228.324	49.75
228.559	45.75
228.793	64.75
229.027	60.75
229.262	70.75
229.496	78.75
229.73	69.75
229.964	77.75
230.199	72.75
230.433	88.75
230.667	62.75
230.901	79.75
231.136	71.75
231.37	88.75
231.604	70.75
231.838	79.75
232.072	82.75
232.306	88.75
232.541	93.75
232.775	82.75
233.009	72.75
233.243	88.75
233.477	78.75
233.711	85.75
233.945	83.75
234.179	78.75
234.413	97.75
234.647	89.75
234.881	83.75
235.115	81.75
235.349	62.75
235.583	84.75
235.817	78.75
236.051	78.75
236.285	71.75
236.519	84.75
236.753	82.75
236.987	78.75
237.221	74.75
237.455	55.75
237.689	83.75
237.922	72.75
238.156	82.75
238.39	66.75
238.624	92.75
238.858	94.75
239.091	65.75
239.325	78.75
239.559	85.75
239.793	73.75
240.027	81.75
240.26	77.75
240.494	85.75
240.728	92.75
240.961	86.75
241.195	69.75
241.429	75.75
241.662	73.75
241.896	74.75
242.13	82.75
242.363	68.75
242.597	83.75
242.83	78.75
243.064	81.75
243.298	72.75
243.531	78.75
243.765	71.75
243.998	75.75
244.232	84.75
244.465	81.75
244.699	74.75
244.932	78.75
245.166	70.75
245.399	88.75
245.633	76.75
245.866	72.75
246.099	77.75
246.333	90.75
246.566	81.75
246.8	85.75
247.033	89.75
247.266	92.75
247.5	77.75
247.733	73.75
247.966	84.75
248.2	87.75
248.433	82.75
248.666	87.75
248.899	76.75
249.133	61.75
249.366	82.75
249.599	74.75
249.832	90.75
250.066	86.75
250.299	81.75
250.532	90.75
250.765	79.75
250.998	89.75
251.231	72.75
251.465	77.75
251.698	89.75
251.931	77.75
252.164	72.75
252.397	82.75
252.63	80.75
252.863	75.75
253.096	92.75
253.329	83.75
253.562	74.75
253.795	87.75
254.028	89.75
254.261	91.75
254.494	84.75
254.727	85.75
254.96	81.75
255.193	82.75
255.426	101.75
255.659	94.75
255.892	75.75
256.124	72.75
256.357	82.75
256.59	81.75
256.823	84.75
257.056	91.75
257.289	97.75
257.521	95.75
257.754	81.75
257.987	79.75
258.22	71.75
258.452	80.75
258.685	83.75
258.918	77.75
259.151	89.75
259.383	74.75
259.616	93.75
259.849	90.75
260.081	83.75
260.314	90.75
260.547	81.75
260.779	82.75
261.012	82.75
261.244	65.75
261.477	83.75
261.71	78.75
261.942	79.75
262.175	78.75
262.407	89.75
262.64	91.75
262.872	90.75
263.105	92.75
263.337	79.75
263.57	85.75
263.802	97.75
264.035	92.75
264.267	92.75
264.499	87.75
264.732	79.75
264.964	94.75
265.197	72.75
265.429	88.75
265.661	85.75
265.894	74.75
266.126	79.75
266.358	99.75
266.591	80.75
266.823	95.75
267.055	83.75
267.287	102.75
267.52	96.75
267.752	93.75
267.984	99.75
268.216	75.75
268.448	76.75
268.681	85.75
268.913	90.75
269.145	79.75
269.377	85.75
269.609	86.75
269.841	92.75
270.073	75.75
270.306	96.75
270.538	84.75
270.77	78.75
271.002	101.75
271.234	85.75
271.466	102.75
271.698	90.75
271.93	80.75
272.162	88.75
272.394	76.75
272.626	102.75
272.858	103.75
273.09	96.75
273.322	85.75
273.553	99.75
273.785	112.75
274.017	82.75
274.249	93.75
274.481	86.75
274.713	89.75
274.945	76.75
275.176	94.75
275.408	83.75
275.64	88.75
275.872	87.75
276.104	93.75
276.335	89.75
276.567	83.75
276.799	90.75
277.031	88.75
277.262	80.75
277.494	95.75
277.726	107.75
277.957	87.75
278.189	89.75
278.421	89.75
278.652	88.75
278.884	84.75
279.115	89.75
279.347	96.75
279.579	103.75
279.81	83.75
280.042	89.75
280.273	87.75
280.505	101.75
280.736	97.75
280.968	85.75
281.199	74.75
281.431	87.75
281.662	88.75
281.894	83.75
282.125	92.75
282.356	94.75
282.588	91.75
282.819	82.75
283.051	75.75
283.282	82.75
283.513	99.75
283.745	93.75
283.976	73.75
284.207	82.75
284.439	86.75
284.67	102.75
284.901	93.75
285.132	81.75
285.364	71.75
285.595	86.75
285.826	84.75
286.057	97.75
286.288	99.75
286.52	96.75
286.751	93.75
286.982	88.75
287.213	89.75
287.444	84.75
287.675	93.75
287.906	81.75
288.138	97.75
288.369	84.75
288.6	92.75
288.831	108.75
289.062	100.75
289.293	89.75
289.524	95.75
289.755	101.75
289.986	94.75
290.217	88.75
290.448	67.75
290.679	96.75
290.91	84.75
291.141	80.75
291.371	102.75
291.602	83.75
291.833	88.75
292.064	97.75
292.295	86.75
292.526	85.75
292.757	98.75
292.987	89.75
293.218	90.75
293.449	89.75
293.68	96.75
293.91	84.75
294.141	96.75
294.372	85.75
294.603	86.75
294.833	91.75
295.064	94.75
295.295	89.75
295.525	96.75
295.756	93.75
295.987	106.75
296.217	94.75
296.448	106.75
296.679	97.75
296.909	96.75
297.14	91.75
297.37	82.75
297.601	101.75
297.831	97.75
298.062	82.75
298.292	95.75
298.523	95.75
298.753	95.75
298.984	97.75
299.214	88.75
299.445	98.75
299.675	96.75
299.905	92.75
300.136	98.75
300.366	96.75
300.597	95.75
300.827	94.75
301.057	102.75
301.288	99.75
301.518	83.75
301.748	96.75
301.979	109.75
302.209	100.75
302.439	89.75
302.669	89.75
302.9	87.75
303.13	105.75
303.36	100.75
303.59	88.75
303.82	94.75
304.051	100.75
304.281	90.75
304.511	92.75
304.741	95.75
304.971	101.75
305.201	93.75
305.431	97.75
305.661	96.75
305.891	96.75
306.121	96.75
306.352	94.75
306.582	92.75
306.812	98.75
307.042	96.75
307.272	101.75
307.502	93.75
307.731	96.75
307.961	101.75
308.191	81.75
308.421	82.75
308.651	95.75
308.881	96.75
309.111	104.75
309.341	100.75
309.571	103.75
309.8	97.75
310.03	86.75
310.26	90.75
310.49	105.75
310.72	102.75
310.949	99.75
311.179	92.75
311.409	89.75
311.639	91.75
311.868	107.75
312.098	93.75
312.328	100.75
312.557	102.75
312.787	96.75
313.017	88.75
313.246	98.75
313.476	98.75
313.706	89.75
313.935	86.75
314.165	98.75
314.394	90.75
314.624	81.75
314.853	95.75
315.083	96.75
315.312	85.75
315.542	92.75
315.771	105.75
316.001	107.75
316.23	82.75
316.46	94.75
316.689	96.75
316.919	93.75
317.148	106.75
317.377	103.75
317.607	98.75
317.836	105.75
318.065	92.75
318.295	86.75
318.524	93.75
318.753	87.75
318.983	97.75
319.212	100.75
319.441	99.75
319.67	100.75
319.9	92.75
320.129	92.75
320.358	90.75
320.587	93.75
320.816	99.75
321.046	92.75
321.275	89.75
321.504	101.75
321.733	90.75
321.962	92.75
322.191	81.75
322.42	85.75
322.649	104.75
322.878	97.75
323.108	97.75
323.337	96.75
323.566	92.75
323.795	93.75
324.024	88.75
324.253	93.75
324.482	91.75
324.71	80.75
324.939	101.75
325.168	112.75
325.397	99.75
325.626	91.75
325.855	96.75
326.084	96.75
326.313	89.75
326.542	95.75
326.77	97.75
326.999	95.75
327.228	88.75
327.457	92.75
327.686	94.75
327.914	88.75
328.143	108.75
328.372	88.75
328.6	92.75
328.829	92.75
329.058	106.75
329.287	94.75
329.515	89.75
329.744	99.75
329.972	97.75
330.201	92.75
330.43	100.75
330.658	93.75
330.887	95.75
331.115	114.75
331.344	97.75
331.572	96.75
331.801	91.75
332.03	94.75
332.258	98.75
332.486	98.75
332.715	94.75
332.943	98.75
333.172	93.75
333.4	99.75
333.629	88.75
333.857	98.75
334.085	94.75
334.314	86.75
334.542	93.75
334.771	90.75
334.999	115.75
335.227	100.75
335.455	100.75
335.684	92.75
335.912	88.75
336.14	93.75
336.369	90.75
336.597	98.75
336.825	99.75
337.053	101.75
337.281	94.75
337.51	99.75
337.738	95.75
337.966	88.75
338.194	78.75
338.422	89.75
338.65	100.75
338.878	98.75
339.106	96.75
339.334	98.75
339.562	90.75
339.79	94.75
340.018	103.75
340.246	89.75
340.474	99.75
340.702	83.75
340.93	80.75
341.158	101.75
341.386	102.75
341.614	109.75
341.842	97.75
342.07	107.75
342.298	94.75
342.526	90.75
342.754	83.75
342.981	99.75
343.209	95.75
343.437	105.75
343.665	86.75
343.893	93.75
344.12	104.75
344.348	102.75
344.576	97.75
344.804	93.75
345.031	99.75
345.259	99.75
345.487	108.75
345.714	86.75
345.942	87.75
346.17	93.75
346.397	99.75
346.625	103.75
346.853	104.75
347.08	89.75
347.308	90.75
347.535	84.75
347.763	101.75
347.99	97.75
348.218	83.75
348.445	96.75
348.673	89.75
348.9	91.75
349.128	97.75
349.355	92.75
349.583	93.75
349.81	91.75
350.037	89.75
350.265	90.75
350.492	87.75
350.72	95.75
350.947	93.75
351.174	111.75
351.402	99.75
351.629	104.75
351.856	102.75
352.083	79.75
352.311	109.75
352.538	90.75
352.765	90.75
352.992	98.75
353.22	91.75
353.447	96.75
353.674	89.75
353.901	105.75
354.128	90.75
354.355	83.75
354.583	90.75
354.81	92.75
355.037	98.75
355.264	100.75
355.491	95.75
355.718	86.75
355.945	103.75
356.172	79.75
356.399	86.75
356.626	94.75
356.853	100.75
357.08	99.75
357.307	89.75
357.534	86.75
357.761	95.75
357.988	94.75
358.215	85.75
358.441	95.75
358.668	88.75
358.895	87.75
359.122	96.75
359.349	98.75
359.576	94.75
359.802	85.75
360.029	90.75
360.256	91.75
360.483	98.75
360.709	104.75
360.936	102.75
361.163	93.75
361.39	105.75
361.616	97.75
361.843	107.75
362.07	93.75
362.296	92.75
362.523	81.75
362.749	90.75
362.976	89.75
363.203	93.75
363.429	86.75
363.656	92.75
363.882	81.75
364.109	84.75
364.335	92.75
364.562	100.75
364.788	104.75
365.015	100.75
365.241	97.75
365.468	90.75
365.694	90.75
365.92	99.75
366.147	96.75
366.373	92.75
366.599	99.75
366.826	103.75
367.052	89.75
367.278	88.75
367.505	88.75
367.731	104.75
367.957	78.75
368.184	110.75
368.41	93.75
368.636	94.75
368.862	91.75
369.089	98.75
369.315	94.75
369.541	109.75
369.767	99.75
369.993	106.75
370.219	99.75
370.445	105.75
370.672	100.75
370.898	93.75
371.124	86.75
371.35	96.75
371.576	94.75
371.802	69.75
372.028	108.75
372.254	100.75
372.48	99.75
372.706	89.75
372.932	108.75
373.158	96.75
373.384	89.75
373.61	97.75
373.835	83.75
374.061	91.75
374.287	98.75
374.513	98.75
374.739	94.75
374.965	96.75
375.191	91.75
375.416	88.75
375.642	103.75
375.868	97.75
376.094	107.75
376.319	89.75
376.545	100.75
376.771	99.75
376.997	92.75
377.222	93.75
377.448	100.75
377.674	97.75
377.899	98.75
378.125	96.75
378.35	94.75
378.576	103.75
378.802	100.75
379.027	93.75
379.253	93.75
379.478	100.75
379.704	85.75
379.929	95.75
380.155	97.75
380.38	105.75
380.606	94.75
380.831	106.75
381.057	98.75
381.282	97.75
381.507	100.75
381.733	103.75
381.958	104.75
382.184	94.75
382.409	106.75
382.634	105.75
382.86	75.75
383.085	89.75
383.31	86.75
383.535	94.75
383.761	101.75
383.986	109.75
384.211	94.75
384.436	88.75
384.662	98.75
384.887	97.75
385.112	100.75
385.337	99.75
385.562	100.75
385.787	99.75
386.013	107.75
386.238	90.75
386.463	100.75
386.688	105.75
386.913	112.75
387.138	97.75
387.363	115.75
387.588	98.75
387.813	100.75
388.038	101.75
388.263	104.75
388.488	102.75
388.713	99.75
388.938	83.75
389.163	92.75
389.387	84.75
389.612	87.75
389.837	89.75
390.062	96.75
390.287	92.75
390.512	94.75
390.736	89.75
390.961	106.75
391.186	97.75
391.411	98.75
391.636	106.75
391.86	112.75
392.085	82.75
392.31	93.75
392.534	88.75
392.759	107.75
392.984	99.75
393.208	94.75
393.433	115.75
393.658	98.75
393.882	100.75
394.107	112.75
394.331	105.75
394.556	105.75
394.78	94.75
395.005	95.75
395.229	93.75
395.454	98.75
395.678	105.75
395.903	94.75
396.127	104.75
396.352	91.75
396.576	105.75
396.801	99.75
397.025	108.75
397.249	99.75
397.474	90.75
397.698	96.75
397.922	101.75
398.147	88.75
398.371	89.75
398.595	85.75
398.82	84.75
399.044	90.75
399.268	102.75
399.492	110.75
399.717	117.75
399.941	120.75
400.165	103.75
400.389	84.75
400.613	99.75
400.837	103.75
401.062	95.75
401.286	95.75
401.51	91.75
401.734	108.75
401.958	102.75
402.182	92.75
402.406	99.75
402.63	91.75
402.854	85.75
403.078	104.75
403.302	107.75
403.526	110.75
403.75	97.75
403.974	95.75
404.198	92.75
404.422	106.75
404.645	113.75
404.869	101.75
405.093	98.75
405.317	104.75
405.541	105.75
405.765	105.75
405.988	101.75
406.212	108.75
406.436	99.75
406.66	102.75
406.883	117.75
407.107	102.75
407.331	104.75
407.555	114.75
407.778	102.75
408.002	118.75
408.226	106.75
408.449	107.75
408.673	108.75
408.896	99.75
409.12	99.75
409.344	100.75
409.567	108.75
409.791	94.75
410.014	110.75
410.238	107.75
410.461	100.75
410.685	108.75
410.908	104.75
411.132	113.75
411.355	108.75
411.578	106.75
411.802	110.75
412.025	91.75
412.249	106.75
412.472	98.75
412.695	93.75
412.919	94.75
413.142	102.75
413.365	99.75
413.589	87.75
413.812	97.75
414.035	119.75
414.258	99.75
414.482	118.75
414.705	107.75
414.928	118.75
415.151	91.75
415.374	109.75
415.597	98.75
415.821	98.75
416.044	89.75
416.267	113.75
416.49	112.75
416.713	93.75
416.936	105.75
417.159	100.75
417.382	88.75
417.605	106.75
417.828	103.75
418.051	105.75
418.274	103.75
418.497	97.75
418.72	109.75
418.943	112.75
419.166	93.75
419.389	107.75
419.611	102.75
419.834	96.75
420.057	109.75
420.28	95.75
420.503	101.75
420.726	107.75
420.948	111.75
421.171	99.75
421.394	88.75
421.617	101.75
421.839	93.75
422.062	105.75
422.285	112.75
422.507	104.75
422.73	93.75
422.953	120.75
423.175	109.75
423.398	97.75
423.621	104.75
423.843	88.75
424.066	114.75
424.288	107.75
424.511	99.75
424.733	100.75
424.956	104.75
425.178	103.75
425.401	92.75
425.623	91.75
425.846	98.75
426.068	97.75
426.291	101.75
426.513	102.75
426.735	90.75
426.958	105.75
427.18	89.75
427.402	93.75
427.625	97.75
427.847	109.75
428.069	83.75
428.292	97.75
428.514	102.75
428.736	98.75
428.958	88.75
429.181	100.75
429.403	101.75
429.625	89.75
429.847	104.75
430.069	78.75
430.292	104.75
430.514	104.75
430.736	104.75
430.958	99.75
431.18	100.75
431.402	100.75
431.624	96.75
431.846	92.75
432.068	97.75
432.29	97.75
432.512	108.75
432.734	95.75
432.956	110.75
433.178	98.75
433.4	96.75
433.622	97.75
433.844	105.75
434.066	94.75
434.287	93.75
434.509	100.75
434.731	89.75
434.953	93.75
435.175	105.75
435.397	116.75
435.618	94.75
435.84	101.75
436.062	94.75
436.284	101.75
436.505	93.75
436.727	95.75
436.949	103.75
437.17	93.75
437.392	91.75
437.614	99.75
437.835	92.75
438.057	98.75
438.278	99.75
438.5	111.75
438.721	103.75
438.943	90.75
439.165	88.75
439.386	95.75
439.608	88.75
439.829	101.75
440.05	105.75
440.272	98.75
440.493	91.75
440.715	95.75
440.936	99.75
441.158	96.75
441.379	97.75
441.6	110.75
441.822	101.75
442.043	94.75
442.264	88.75
442.486	89.75
442.707	116.75
442.928	106.75
443.149	109.75
443.371	93.75
443.592	98.75
443.813	95.75
444.034	93.75
444.255	111.75
444.476	104.75
444.698	93.75
444.919	86.75
445.14	214.75
445.361	148.75
445.582	100.75
445.803	100.75
446.024	89.75
446.245	107.75
446.466	112.75
446.687	89.75
446.908	98.75
447.129	97.75
447.35	92.75
447.571	93.75
447.792	112.75
448.013	102.75
448.234	109.75
448.455	102.75
448.675	98.75
448.896	108.75
449.117	97.75
449.338	98.75
449.559	94.75
449.779	93.75
450	86.75
450.221	70.75
450.442	94.75
450.662	100.75
450.883	106.75
451.104	96.75
451.324	95.75
451.545	104.75
451.766	108.75
451.986	82.75
452.207	101.75
452.428	92.75
452.648	94.75
452.869	100.75
453.089	80.75
453.31	92.75
453.53	87.75
453.751	97.75
453.971	108.75
454.192	101.75
454.412	72.75
454.633	85.75
454.853	97.75
455.073	92.75
455.294	100.75
455.514	96.75
455.734	94.75
455.955	90.75
456.175	88.75
456.395	92.75
456.616	84.75
456.836	89.75
457.056	95.75
457.276	98.75
457.497	90.75
457.717	91.75
457.937	111.75
458.157	92.75
458.377	98.75
458.598	95.75
458.818	100.75
459.038	106.75
459.258	112.75
459.478	94.75
459.698	95.75
459.918	102.75
460.138	99.75
460.358	100.75
460.578	99.75
460.798	116.75
461.018	93.75
461.238	106.75
461.458	91.75
461.678	104.75
461.898	97.75
462.118	98.75
462.338	107.75
462.558	87.75
462.777	110.75
462.997	117.75
463.217	109.75
463.437	120.75
463.657	102.75
463.876	108.75
464.096	91.75
464.316	107.75
464.536	109.75
464.755	105.75
464.975	106.75
465.195	122.75
465.414	89.75
465.634	98.75
465.854	107.75
466.073	100.75
466.293	100.75
466.512	78.75
466.732	89.75
466.951	93.75
467.171	107.75
467.391	102.75
467.61	103.75
467.829	99.75
468.049	102.75
468.268	92.75
468.488	91.75
468.707	98.75
468.927	105.75
469.146	92.75
469.365	96.75
469.585	100.75
469.804	114.75
470.023	100.75
470.243	110.75
470.462	105.75
470.681	100.75
470.901	105.75
471.12	107.75
471.339	104.75
471.558	91.75
471.777	87.75
471.997	108.75
472.216	112.75
472.435	107.75
472.654	110.75
472.873	109.75
473.092	103.75
473.311	98.75
473.53	101.75
473.749	106.75
473.968	104.75
474.187	114.75
474.406	97.75
474.625	107.75
474.844	89.75
475.063	104.75
475.282	100.75
475.501	87.75
475.72	109.75
475.939	97.75
476.158	117.75
476.377	90.75
476.596	92.75
476.814	96.75
477.033	90.75
477.252	100.75
477.471	107.75
477.69	90.75
477.908	112.75
478.127	108.75
478.346	104.75
478.564	99.75
478.783	114.75
479.002	101.75
479.22	101.75
479.439	99.75
479.658	114.75
479.876	110.75
480.095	104.75
480.313	116.75
480.532	88.75
480.751	113.75
480.969	104.75
481.188	119.75
481.406	118.75
481.624	118.75
481.843	105.75
482.061	91.75
482.28	96.75
482.498	105.75
482.717	100.75
482.935	112.75
483.153	112.75
483.372	99.75
483.59	109.75
483.808	100.75
484.027	102.75
484.245	104.75
484.463	111.75
484.681	108.75
484.9	110.75
485.118	100.75
485.336	116.75
485.554	102.75
485.772	103.75
485.99	115.75
486.209	112.75
486.427	105.75
486.645	112.75
486.863	131.75
487.081	104.75
487.299	97.75
487.517	99.75
487.735	99.75
487.953	114.75
488.171	116.75
488.389	116.75
488.607	103.75
488.825	126.75
489.043	104.75
489.261	117.75
489.479	96.75
489.696	109.75
489.914	106.75
490.132	105.75
490.35	105.75
490.568	101.75
490.786	114.75
491.003	109.75
491.221	112.75
491.439	109.75
491.657	112.75
491.874	118.75
492.092	106.75
492.31	116.75
492.527	108.75
492.745	107.75
492.963	109.75
493.18	113.75
493.398	108.75
493.615	107.75
493.833	123.75
494.05	113.75
494.268	106.75
494.485	114.75
494.703	116.75
494.92	108.75
495.138	128.75
495.355	119.75
495.573	117.75
495.79	109.75
496.008	125.75
496.225	120.75
496.442	122.75
496.66	116.75
496.877	110.75
497.094	113.75
497.312	112.75
497.529	123.75
497.746	129.75
497.963	105.75
498.181	115.75
498.398	125.75
498.615	123.75
498.832	108.75
499.049	120.75
499.267	130.75
499.484	130.75
499.701	125.75
499.918	152.75
500.135	172.75
500.352	161.75
500.569	168.75
500.786	169.75
501.003	141.75
501.22	142.75
501.437	150.75
501.654	140.75
501.871	128.75
502.088	108.75
502.305	129.75
502.522	128.75
502.739	122.75
502.956	105.75
503.172	108.75
503.389	110.75
503.606	110.75
503.823	112.75
504.04	112.75
504.256	104.75
504.473	113.75
504.69	102.75
504.907	109.75
505.123	124.75
505.34	95.75
505.557	102.75
505.773	97.75
505.99	116.75
506.207	115.75
506.423	112.75
506.64	117.75
506.856	121.75
507.073	109.75
507.289	95.75
507.506	114.75
507.722	106.75
507.939	119.75
508.155	106.75
508.372	110.75
508.588	126.75
508.805	105.75
509.021	93.75
509.238	107.75
509.454	105.75
509.67	108.75
509.887	120.75
510.103	102.75
510.319	101.75
510.536	101.75
510.752	93.75
510.968	117.75
511.184	103.75
511.401	93.75
511.617	99.75
511.833	103.75
512.049	100.75
512.265	93.75
512.481	102.75
512.698	107.75
512.914	93.75
