Data from Location5.07152019.Energy5.Lamp.07192019.3%Agarose_HRD10591_16-05-24-629.txt Node
Date: Fri Jul 19 16:05:24 EDT 2019
User: cochatt
Spectrometer: HR+D1059
Trigger mode: 1
Integration Time (sec): 1.000000E-1
Scans to average: 1
Electric dark correction enabled: true
Nonlinearity correction enabled: false
Boxcar width: 0
XAxis mode: Wavelengths
Number of Pixels in Spectrum: 2048
>>>>>Begin Spectral Data<<<<<
223.165	-1.44
223.4	-1.44
223.635	-1.44
223.869	-13.44
224.104	-25.44
224.338	-13.44
224.573	-29.44
224.808	-12.44
225.042	-6.44
225.277	-15.44
225.511	-9.44
225.746	3.56
225.98	19.56
226.215	14.56
226.449	17.56
226.683	13.56
226.918	21.56
227.152	36.56
227.387	37.56
227.621	34.56
227.856	41.56
228.09	67.56
228.324	41.56
228.559	47.56
228.793	52.56
229.027	70.56
229.262	55.56
229.496	67.56
229.73	65.56
229.964	65.56
230.199	65.56
230.433	69.56
230.667	81.56
230.901	79.56
231.136	78.56
231.37	84.56
231.604	79.56
231.838	79.56
232.072	81.56
232.306	79.56
232.541	85.56
232.775	90.56
233.009	75.56
233.243	86.56
233.477	78.56
233.711	78.56
233.945	75.56
234.179	86.56
234.413	91.56
234.647	86.56
234.881	79.56
235.115	74.56
235.349	87.56
235.583	86.56
235.817	80.56
236.051	70.56
236.285	84.56
236.519	74.56
236.753	84.56
236.987	58.56
237.221	77.56
237.455	78.56
237.689	81.56
237.922	89.56
238.156	78.56
238.39	76.56
238.624	84.56
238.858	68.56
239.091	69.56
239.325	78.56
239.559	79.56
239.793	82.56
240.027	83.56
240.26	73.56
240.494	80.56
240.728	67.56
240.961	83.56
241.195	74.56
241.429	59.56
241.662	87.56
241.896	80.56
242.13	81.56
242.363	82.56
242.597	81.56
242.83	60.56
243.064	82.56
243.298	77.56
243.531	77.56
243.765	73.56
243.998	89.56
244.232	81.56
244.465	87.56
244.699	81.56
244.932	72.56
245.166	91.56
245.399	82.56
245.633	79.56
245.866	60.56
246.099	68.56
246.333	81.56
246.566	89.56
246.8	68.56
247.033	89.56
247.266	85.56
247.5	98.56
247.733	75.56
247.966	79.56
248.2	81.56
248.433	74.56
248.666	73.56
248.899	81.56
249.133	78.56
249.366	87.56
249.599	68.56
249.832	88.56
250.066	88.56
250.299	88.56
250.532	81.56
250.765	91.56
250.998	83.56
251.231	96.56
251.465	86.56
251.698	89.56
251.931	92.56
252.164	69.56
252.397	72.56
252.63	87.56
252.863	96.56
253.096	71.56
253.329	73.56
253.562	63.56
253.795	66.56
254.028	80.56
254.261	69.56
254.494	78.56
254.727	78.56
254.96	75.56
255.193	83.56
255.426	78.56
255.659	83.56
255.892	87.56
256.124	81.56
256.357	87.56
256.59	73.56
256.823	75.56
257.056	89.56
257.289	83.56
257.521	83.56
257.754	75.56
257.987	97.56
258.22	78.56
258.452	93.56
258.685	84.56
258.918	76.56
259.151	85.56
259.383	88.56
259.616	85.56
259.849	89.56
260.081	85.56
260.314	81.56
260.547	94.56
260.779	79.56
261.012	87.56
261.244	64.56
261.477	79.56
261.71	75.56
261.942	86.56
262.175	63.56
262.407	91.56
262.64	82.56
262.872	83.56
263.105	82.56
263.337	75.56
263.57	80.56
263.802	80.56
264.035	86.56
264.267	81.56
264.499	99.56
264.732	88.56
264.964	99.56
265.197	91.56
265.429	89.56
265.661	77.56
265.894	89.56
266.126	88.56
266.358	82.56
266.591	84.56
266.823	90.56
267.055	88.56
267.287	75.56
267.52	91.56
267.752	75.56
267.984	96.56
268.216	70.56
268.448	69.56
268.681	88.56
268.913	85.56
269.145	95.56
269.377	90.56
269.609	65.56
269.841	75.56
270.073	78.56
270.306	85.56
270.538	79.56
270.77	97.56
271.002	69.56
271.234	75.56
271.466	78.56
271.698	93.56
271.93	86.56
272.162	84.56
272.394	81.56
272.626	87.56
272.858	75.56
273.09	90.56
273.322	85.56
273.553	85.56
273.785	92.56
274.017	89.56
274.249	89.56
274.481	80.56
274.713	83.56
274.945	83.56
275.176	83.56
275.408	98.56
275.64	71.56
275.872	82.56
276.104	106.56
276.335	80.56
276.567	74.56
276.799	97.56
277.031	86.56
277.262	103.56
277.494	90.56
277.726	65.56
277.957	74.56
278.189	81.56
278.421	91.56
278.652	94.56
278.884	85.56
279.115	82.56
279.347	87.56
279.579	77.56
279.81	78.56
280.042	80.56
280.273	90.56
280.505	79.56
280.736	93.56
280.968	97.56
281.199	83.56
281.431	86.56
281.662	98.56
281.894	78.56
282.125	85.56
282.356	88.56
282.588	95.56
282.819	101.56
283.051	89.56
283.282	78.56
283.513	105.56
283.745	75.56
283.976	75.56
284.207	79.56
284.439	96.56
284.67	86.56
284.901	87.56
285.132	88.56
285.364	78.56
285.595	90.56
285.826	80.56
286.057	74.56
286.288	91.56
286.52	94.56
286.751	91.56
286.982	89.56
287.213	82.56
287.444	89.56
287.675	80.56
287.906	84.56
288.138	86.56
288.369	92.56
288.6	90.56
288.831	87.56
289.062	88.56
289.293	85.56
289.524	101.56
289.755	79.56
289.986	83.56
290.217	95.56
290.448	81.56
290.679	90.56
290.91	86.56
291.141	90.56
291.371	96.56
291.602	71.56
291.833	77.56
292.064	104.56
292.295	72.56
292.526	91.56
292.757	90.56
292.987	93.56
293.218	90.56
293.449	91.56
293.68	83.56
293.91	82.56
294.141	88.56
294.372	94.56
294.603	92.56
294.833	89.56
295.064	93.56
295.295	94.56
295.525	84.56
295.756	103.56
295.987	103.56
296.217	87.56
296.448	88.56
296.679	75.56
296.909	85.56
297.14	84.56
297.37	93.56
297.601	88.56
297.831	93.56
298.062	96.56
298.292	82.56
298.523	89.56
298.753	94.56
298.984	82.56
299.214	95.56
299.445	90.56
299.675	87.56
299.905	92.56
300.136	98.56
300.366	97.56
300.597	91.56
300.827	94.56
301.057	77.56
301.288	83.56
301.518	101.56
301.748	91.56
301.979	89.56
302.209	90.56
302.439	90.56
302.669	86.56
302.9	98.56
303.13	77.56
303.36	98.56
303.59	107.56
303.82	95.56
304.051	94.56
304.281	78.56
304.511	95.56
304.741	98.56
304.971	96.56
305.201	90.56
305.431	93.56
305.661	97.56
305.891	98.56
306.121	92.56
306.352	91.56
306.582	83.56
306.812	73.56
307.042	98.56
307.272	90.56
307.502	87.56
307.731	94.56
307.961	98.56
308.191	96.56
308.421	94.56
308.651	80.56
308.881	72.56
309.111	98.56
309.341	85.56
309.571	74.56
309.8	94.56
310.03	92.56
310.26	95.56
310.49	104.56
310.72	86.56
310.949	99.56
311.179	99.56
311.409	87.56
311.639	74.56
311.868	86.56
312.098	63.56
312.328	94.56
312.557	99.56
312.787	97.56
313.017	101.56
313.246	87.56
313.476	90.56
313.706	97.56
313.935	97.56
314.165	103.56
314.394	109.56
314.624	101.56
314.853	100.56
315.083	87.56
315.312	83.56
315.542	97.56
315.771	89.56
316.001	83.56
316.23	87.56
316.46	83.56
316.689	77.56
316.919	77.56
317.148	109.56
317.377	89.56
317.607	102.56
317.836	82.56
318.065	83.56
318.295	87.56
318.524	106.56
318.753	90.56
318.983	88.56
319.212	90.56
319.441	95.56
319.67	101.56
319.9	97.56
320.129	88.56
320.358	102.56
320.587	93.56
320.816	104.56
321.046	85.56
321.275	76.56
321.504	87.56
321.733	82.56
321.962	84.56
322.191	84.56
322.42	92.56
322.649	86.56
322.878	98.56
323.108	94.56
323.337	85.56
323.566	84.56
323.795	93.56
324.024	97.56
324.253	99.56
324.482	90.56
324.71	98.56
324.939	97.56
325.168	105.56
325.397	99.56
325.626	71.56
325.855	100.56
326.084	90.56
326.313	93.56
326.542	90.56
326.77	86.56
326.999	86.56
327.228	86.56
327.457	112.56
327.686	101.56
327.914	89.56
328.143	74.56
328.372	89.56
328.6	96.56
328.829	95.56
329.058	104.56
329.287	105.56
329.515	99.56
329.744	100.56
329.972	83.56
330.201	92.56
330.43	78.56
330.658	92.56
330.887	82.56
331.115	87.56
331.344	100.56
331.572	102.56
331.801	84.56
332.03	99.56
332.258	93.56
332.486	92.56
332.715	107.56
332.943	95.56
333.172	99.56
333.4	94.56
333.629	93.56
333.857	111.56
334.085	97.56
334.314	84.56
334.542	83.56
334.771	75.56
334.999	78.56
335.227	98.56
335.455	80.56
335.684	92.56
335.912	85.56
336.14	97.56
336.369	106.56
336.597	82.56
336.825	103.56
337.053	79.56
337.281	86.56
337.51	93.56
337.738	103.56
337.966	90.56
338.194	93.56
338.422	86.56
338.65	93.56
338.878	100.56
339.106	96.56
339.334	89.56
339.562	74.56
339.79	87.56
340.018	89.56
340.246	92.56
340.474	95.56
340.702	82.56
340.93	84.56
341.158	95.56
341.386	105.56
341.614	87.56
341.842	97.56
342.07	88.56
342.298	87.56
342.526	85.56
342.754	92.56
342.981	90.56
343.209	92.56
343.437	89.56
343.665	102.56
343.893	85.56
344.12	109.56
344.348	93.56
344.576	94.56
344.804	105.56
345.031	99.56
345.259	95.56
345.487	81.56
345.714	74.56
345.942	95.56
346.17	98.56
346.397	106.56
346.625	90.56
346.853	89.56
347.08	96.56
347.308	100.56
347.535	88.56
347.763	86.56
347.99	94.56
348.218	109.56
348.445	87.56
348.673	88.56
348.9	81.56
349.128	102.56
349.355	92.56
349.583	102.56
349.81	82.56
350.037	94.56
350.265	94.56
350.492	83.56
350.72	87.56
350.947	95.56
351.174	88.56
351.402	84.56
351.629	90.56
351.856	109.56
352.083	95.56
352.311	82.56
352.538	99.56
352.765	87.56
352.992	84.56
353.22	80.56
353.447	78.56
353.674	98.56
353.901	90.56
354.128	84.56
354.355	90.56
354.583	86.56
354.81	94.56
355.037	83.56
355.264	81.56
355.491	96.56
355.718	89.56
355.945	82.56
356.172	86.56
356.399	113.56
356.626	81.56
356.853	69.56
357.08	98.56
357.307	100.56
357.534	97.56
357.761	92.56
357.988	96.56
358.215	76.56
358.441	88.56
358.668	99.56
358.895	96.56
359.122	91.56
359.349	81.56
359.576	92.56
359.802	84.56
360.029	85.56
360.256	98.56
360.483	87.56
360.709	85.56
360.936	90.56
361.163	98.56
361.39	88.56
361.616	84.56
361.843	80.56
362.07	85.56
362.296	79.56
362.523	88.56
362.749	93.56
362.976	80.56
363.203	100.56
363.429	75.56
363.656	93.56
363.882	88.56
364.109	92.56
364.335	86.56
364.562	90.56
364.788	87.56
365.015	81.56
365.241	80.56
365.468	83.56
365.694	85.56
365.92	86.56
366.147	90.56
366.373	84.56
366.599	100.56
366.826	95.56
367.052	86.56
367.278	75.56
367.505	96.56
367.731	95.56
367.957	90.56
368.184	100.56
368.41	65.56
368.636	99.56
368.862	85.56
369.089	80.56
369.315	93.56
369.541	93.56
369.767	85.56
369.993	87.56
370.219	84.56
370.445	95.56
370.672	75.56
370.898	94.56
371.124	98.56
371.35	88.56
371.576	91.56
371.802	100.56
372.028	103.56
372.254	89.56
372.48	72.56
372.706	89.56
372.932	93.56
373.158	89.56
373.384	91.56
373.61	86.56
373.835	85.56
374.061	80.56
374.287	88.56
374.513	94.56
374.739	81.56
374.965	98.56
375.191	90.56
375.416	102.56
375.642	79.56
375.868	99.56
376.094	78.56
376.319	100.56
376.545	79.56
376.771	73.56
376.997	80.56
377.222	92.56
377.448	92.56
377.674	100.56
377.899	102.56
378.125	96.56
378.35	83.56
378.576	100.56
378.802	93.56
379.027	89.56
379.253	111.56
379.478	87.56
379.704	93.56
379.929	91.56
380.155	77.56
380.38	93.56
380.606	101.56
380.831	100.56
381.057	88.56
381.282	109.56
381.507	83.56
381.733	100.56
381.958	96.56
382.184	85.56
382.409	93.56
382.634	80.56
382.86	85.56
383.085	96.56
383.31	93.56
383.535	101.56
383.761	96.56
383.986	84.56
384.211	96.56
384.436	83.56
384.662	109.56
384.887	87.56
385.112	103.56
385.337	93.56
385.562	97.56
385.787	98.56
386.013	99.56
386.238	97.56
386.463	88.56
386.688	92.56
386.913	93.56
387.138	106.56
387.363	91.56
387.588	98.56
387.813	102.56
388.038	90.56
388.263	93.56
388.488	95.56
388.713	99.56
388.938	90.56
389.163	90.56
389.387	84.56
389.612	70.56
389.837	85.56
390.062	90.56
390.287	94.56
390.512	90.56
390.736	85.56
390.961	103.56
391.186	97.56
391.411	79.56
391.636	90.56
391.86	83.56
392.085	97.56
392.31	87.56
392.534	110.56
392.759	86.56
392.984	99.56
393.208	106.56
393.433	102.56
393.658	88.56
393.882	88.56
394.107	99.56
394.331	89.56
394.556	89.56
394.78	99.56
395.005	87.56
395.229	87.56
395.454	99.56
395.678	92.56
395.903	100.56
396.127	94.56
396.352	90.56
396.576	98.56
396.801	85.56
397.025	91.56
397.249	97.56
397.474	89.56
397.698	88.56
397.922	95.56
398.147	92.56
398.371	112.56
398.595	101.56
398.82	98.56
399.044	92.56
399.268	101.56
399.492	105.56
399.717	106.56
399.941	112.56
400.165	96.56
400.389	98.56
400.613	108.56
400.837	89.56
401.062	98.56
401.286	107.56
401.51	98.56
401.734	91.56
401.958	93.56
402.182	90.56
402.406	95.56
402.63	102.56
402.854	96.56
403.078	97.56
403.302	96.56
403.526	94.56
403.75	91.56
403.974	93.56
404.198	103.56
404.422	111.56
404.645	96.56
404.869	95.56
405.093	99.56
405.317	107.56
405.541	95.56
405.765	93.56
405.988	94.56
406.212	91.56
406.436	103.56
406.66	87.56
406.883	105.56
407.107	106.56
407.331	86.56
407.555	93.56
407.778	104.56
408.002	100.56
408.226	85.56
408.449	82.56
408.673	83.56
408.896	96.56
409.12	111.56
409.344	84.56
409.567	113.56
409.791	95.56
410.014	104.56
410.238	106.56
410.461	97.56
410.685	93.56
410.908	95.56
411.132	99.56
411.355	114.56
411.578	94.56
411.802	90.56
412.025	99.56
412.249	111.56
412.472	105.56
412.695	93.56
412.919	90.56
413.142	89.56
413.365	100.56
413.589	100.56
413.812	81.56
414.035	103.56
414.258	109.56
414.482	109.56
414.705	90.56
414.928	92.56
415.151	91.56
415.374	88.56
415.597	95.56
415.821	89.56
416.044	108.56
416.267	83.56
416.49	101.56
416.713	97.56
416.936	89.56
417.159	86.56
417.382	82.56
417.605	83.56
417.828	92.56
418.051	91.56
418.274	112.56
418.497	97.56
418.72	96.56
418.943	103.56
419.166	95.56
419.389	95.56
419.611	100.56
419.834	98.56
420.057	93.56
420.28	97.56
420.503	99.56
420.726	95.56
420.948	105.56
421.171	94.56
421.394	91.56
421.617	88.56
421.839	77.56
422.062	99.56
422.285	102.56
422.507	86.56
422.73	77.56
422.953	101.56
423.175	90.56
423.398	103.56
423.621	104.56
423.843	96.56
424.066	96.56
424.288	87.56
424.511	99.56
424.733	87.56
424.956	98.56
425.178	96.56
425.401	100.56
425.623	110.56
425.846	97.56
426.068	94.56
426.291	83.56
426.513	81.56
426.735	98.56
426.958	94.56
427.18	94.56
427.402	98.56
427.625	101.56
427.847	83.56
428.069	90.56
428.292	91.56
428.514	78.56
428.736	102.56
428.958	98.56
429.181	91.56
429.403	105.56
429.625	93.56
429.847	89.56
430.069	91.56
430.292	88.56
430.514	94.56
430.736	90.56
430.958	97.56
431.18	97.56
431.402	96.56
431.624	98.56
431.846	96.56
432.068	94.56
432.29	82.56
432.512	90.56
432.734	93.56
432.956	97.56
433.178	87.56
433.4	93.56
433.622	92.56
433.844	98.56
434.066	109.56
434.287	86.56
434.509	93.56
434.731	87.56
434.953	101.56
435.175	91.56
435.397	96.56
435.618	111.56
435.84	81.56
436.062	85.56
436.284	99.56
436.505	83.56
436.727	97.56
436.949	98.56
437.17	81.56
437.392	96.56
437.614	96.56
437.835	89.56
438.057	85.56
438.278	94.56
438.5	92.56
438.721	99.56
438.943	102.56
439.165	109.56
439.386	101.56
439.608	92.56
439.829	89.56
440.05	91.56
440.272	94.56
440.493	89.56
440.715	92.56
440.936	100.56
441.158	103.56
441.379	102.56
441.6	90.56
441.822	91.56
442.043	96.56
442.264	84.56
442.486	96.56
442.707	116.56
442.928	95.56
443.149	76.56
443.371	103.56
443.592	102.56
443.813	111.56
444.034	91.56
444.255	100.56
444.476	100.56
444.698	110.56
444.919	101.56
445.14	205.56
445.361	150.56
445.582	91.56
445.803	87.56
446.024	83.56
446.245	96.56
446.466	113.56
446.687	93.56
446.908	101.56
447.129	101.56
447.35	102.56
447.571	115.56
447.792	95.56
448.013	73.56
448.234	92.56
448.455	85.56
448.675	78.56
448.896	90.56
449.117	92.56
449.338	102.56
449.559	97.56
449.779	93.56
450	105.56
450.221	83.56
450.442	86.56
450.662	84.56
450.883	94.56
451.104	106.56
451.324	88.56
451.545	104.56
451.766	104.56
451.986	101.56
452.207	102.56
452.428	80.56
452.648	98.56
452.869	95.56
453.089	98.56
453.31	85.56
453.53	91.56
453.751	84.56
453.971	97.56
454.192	102.56
454.412	89.56
454.633	87.56
454.853	84.56
455.073	97.56
455.294	97.56
455.514	95.56
455.734	93.56
455.955	100.56
456.175	83.56
456.395	92.56
456.616	100.56
456.836	86.56
457.056	81.56
457.276	98.56
457.497	97.56
457.717	106.56
457.937	83.56
458.157	95.56
458.377	88.56
458.598	93.56
458.818	85.56
459.038	98.56
459.258	100.56
459.478	98.56
459.698	88.56
459.918	111.56
460.138	85.56
460.358	102.56
460.578	102.56
460.798	87.56
461.018	99.56
461.238	94.56
461.458	89.56
461.678	100.56
461.898	102.56
462.118	98.56
462.338	118.56
462.558	103.56
462.777	97.56
462.997	110.56
463.217	99.56
463.437	106.56
463.657	91.56
463.876	106.56
464.096	98.56
464.316	109.56
464.536	97.56
464.755	98.56
464.975	99.56
465.195	95.56
465.414	105.56
465.634	105.56
465.854	103.56
466.073	106.56
466.293	108.56
466.512	96.56
466.732	107.56
466.951	93.56
467.171	83.56
467.391	95.56
467.61	98.56
467.829	97.56
468.049	83.56
468.268	98.56
468.488	108.56
468.707	102.56
468.927	101.56
469.146	95.56
469.365	90.56
469.585	104.56
469.804	93.56
470.023	112.56
470.243	111.56
470.462	98.56
470.681	90.56
470.901	95.56
471.12	89.56
471.339	106.56
471.558	97.56
471.777	111.56
471.997	95.56
472.216	91.56
472.435	103.56
472.654	85.56
472.873	105.56
473.092	96.56
473.311	100.56
473.53	93.56
473.749	91.56
473.968	95.56
474.187	100.56
474.406	103.56
474.625	95.56
474.844	106.56
475.063	97.56
475.282	100.56
475.501	110.56
475.72	84.56
475.939	101.56
476.158	94.56
476.377	97.56
476.596	107.56
476.814	101.56
477.033	88.56
477.252	87.56
477.471	101.56
477.69	100.56
477.908	107.56
478.127	106.56
478.346	93.56
478.564	102.56
478.783	84.56
479.002	109.56
479.22	115.56
479.439	126.56
479.658	111.56
479.876	107.56
480.095	109.56
480.313	109.56
480.532	111.56
480.751	104.56
480.969	102.56
481.188	101.56
481.406	91.56
481.624	95.56
481.843	104.56
482.061	88.56
482.28	97.56
482.498	99.56
482.717	101.56
482.935	97.56
483.153	104.56
483.372	100.56
483.59	105.56
483.808	89.56
484.027	99.56
484.245	111.56
484.463	98.56
484.681	111.56
484.9	109.56
485.118	103.56
485.336	111.56
485.554	106.56
485.772	99.56
485.99	90.56
486.209	100.56
486.427	112.56
486.645	104.56
486.863	109.56
487.081	109.56
487.299	113.56
487.517	103.56
487.735	115.56
487.953	115.56
488.171	118.56
488.389	105.56
488.607	109.56
488.825	99.56
489.043	91.56
489.261	105.56
489.479	101.56
489.696	91.56
489.914	109.56
490.132	115.56
490.35	115.56
490.568	106.56
490.786	96.56
491.003	115.56
491.221	113.56
491.439	114.56
491.657	120.56
491.874	99.56
492.092	111.56
492.31	109.56
492.527	113.56
492.745	121.56
492.963	121.56
493.18	122.56
493.398	106.56
493.615	113.56
493.833	102.56
494.05	103.56
494.268	106.56
494.485	119.56
494.703	109.56
494.92	110.56
495.138	109.56
495.355	116.56
495.573	106.56
495.79	108.56
496.008	114.56
496.225	113.56
496.442	126.56
496.66	127.56
496.877	113.56
497.094	109.56
497.312	104.56
497.529	120.56
497.746	121.56
497.963	114.56
498.181	113.56
498.398	111.56
498.615	119.56
498.832	108.56
499.049	133.56
499.267	109.56
499.484	118.56
499.701	127.56
499.918	141.56
500.135	147.56
500.352	160.56
500.569	153.56
500.786	148.56
501.003	143.56
501.22	137.56
501.437	123.56
501.654	133.56
501.871	111.56
502.088	104.56
502.305	121.56
502.522	118.56
502.739	123.56
502.956	121.56
503.172	114.56
503.389	127.56
503.606	118.56
503.823	106.56
504.04	99.56
504.256	107.56
504.473	107.56
504.69	107.56
504.907	131.56
505.123	113.56
505.34	112.56
505.557	111.56
505.773	97.56
505.99	94.56
506.207	110.56
506.423	97.56
506.64	89.56
506.856	102.56
507.073	107.56
507.289	98.56
507.506	91.56
507.722	109.56
507.939	105.56
508.155	119.56
508.372	105.56
508.588	107.56
508.805	114.56
509.021	95.56
509.238	108.56
509.454	110.56
509.67	105.56
509.887	88.56
510.103	97.56
510.319	110.56
510.536	101.56
510.752	91.56
510.968	102.56
511.184	105.56
511.401	97.56
511.617	108.56
511.833	112.56
512.049	94.56
512.265	102.56
512.481	89.56
512.698	101.56
512.914	114.56
513.13	111.56
513.346	101.56
513.562	105.56
513.778	90.56
513.994	100.56
514.21	101.56
514.426	78.56
514.642	87.56
514.858	105.56
