Data from Location5.07152019.Energy5.Lamp.07192019.3%Agarose_HRD10591_15-39-32-388.txt Node
Date: Fri Jul 19 15:39:32 EDT 2019
User: cochatt
Spectrometer: HR+D1059
Trigger mode: 1
Integration Time (sec): 1.000000E-1
Scans to average: 1
Electric dark correction enabled: true
Nonlinearity correction enabled: false
Boxcar width: 0
XAxis mode: Wavelengths
Number of Pixels in Spectrum: 2048
>>>>>Begin Spectral Data<<<<<
223.165	-12.69
223.4	-12.69
223.635	-12.69
223.869	-20.69
224.104	-8.69
224.338	-8.69
224.573	-10.69
224.808	-24.69
225.042	-24.69
225.277	-2.69
225.511	6.31
225.746	-0.69
225.98	-0.69
226.215	18.31
226.449	25.31
226.683	14.31
226.918	21.31
227.152	29.31
227.387	39.31
227.621	32.31
227.856	45.31
228.09	30.31
228.324	36.31
228.559	63.31
228.793	54.31
229.027	58.31
229.262	62.31
229.496	62.31
229.73	73.31
229.964	68.31
230.199	71.31
230.433	69.31
230.667	82.31
230.901	65.31
231.136	71.31
231.37	78.31
231.604	71.31
231.838	88.31
232.072	97.31
232.306	94.31
232.541	88.31
232.775	86.31
233.009	91.31
233.243	81.31
233.477	76.31
233.711	78.31
233.945	95.31
234.179	88.31
234.413	87.31
234.647	86.31
234.881	82.31
235.115	77.31
235.349	77.31
235.583	70.31
235.817	67.31
236.051	67.31
236.285	74.31
236.519	76.31
236.753	72.31
236.987	76.31
237.221	80.31
237.455	84.31
237.689	77.31
237.922	85.31
238.156	76.31
238.39	72.31
238.624	78.31
238.858	65.31
239.091	80.31
239.325	81.31
239.559	90.31
239.793	79.31
240.027	73.31
240.26	83.31
240.494	62.31
240.728	82.31
240.961	78.31
241.195	61.31
241.429	77.31
241.662	72.31
241.896	78.31
242.13	75.31
242.363	78.31
242.597	77.31
242.83	68.31
243.064	71.31
243.298	74.31
243.531	77.31
243.765	91.31
243.998	81.31
244.232	82.31
244.465	77.31
244.699	76.31
244.932	94.31
245.166	75.31
245.399	93.31
245.633	76.31
245.866	78.31
246.099	81.31
246.333	58.31
246.566	81.31
246.8	82.31
247.033	76.31
247.266	76.31
247.5	73.31
247.733	71.31
247.966	72.31
248.2	74.31
248.433	71.31
248.666	89.31
248.899	106.31
249.133	74.31
249.366	84.31
249.599	79.31
249.832	72.31
250.066	82.31
250.299	86.31
250.532	76.31
250.765	76.31
250.998	71.31
251.231	88.31
251.465	83.31
251.698	81.31
251.931	87.31
252.164	68.31
252.397	65.31
252.63	70.31
252.863	83.31
253.096	70.31
253.329	88.31
253.562	72.31
253.795	64.31
254.028	63.31
254.261	73.31
254.494	65.31
254.727	82.31
254.96	88.31
255.193	75.31
255.426	77.31
255.659	91.31
255.892	79.31
256.124	81.31
256.357	90.31
256.59	84.31
256.823	79.31
257.056	77.31
257.289	102.31
257.521	86.31
257.754	74.31
257.987	69.31
258.22	74.31
258.452	83.31
258.685	69.31
258.918	84.31
259.151	77.31
259.383	84.31
259.616	72.31
259.849	67.31
260.081	70.31
260.314	87.31
260.547	81.31
260.779	70.31
261.012	76.31
261.244	68.31
261.477	80.31
261.71	70.31
261.942	65.31
262.175	89.31
262.407	75.31
262.64	69.31
262.872	71.31
263.105	85.31
263.337	89.31
263.57	73.31
263.802	63.31
264.035	93.31
264.267	82.31
264.499	64.31
264.732	88.31
264.964	64.31
265.197	76.31
265.429	87.31
265.661	86.31
265.894	84.31
266.126	75.31
266.358	84.31
266.591	81.31
266.823	95.31
267.055	80.31
267.287	75.31
267.52	64.31
267.752	75.31
267.984	69.31
268.216	77.31
268.448	90.31
268.681	66.31
268.913	74.31
269.145	92.31
269.377	67.31
269.609	81.31
269.841	89.31
270.073	70.31
270.306	81.31
270.538	77.31
270.77	86.31
271.002	89.31
271.234	66.31
271.466	81.31
271.698	85.31
271.93	79.31
272.162	89.31
272.394	92.31
272.626	99.31
272.858	76.31
273.09	91.31
273.322	74.31
273.553	84.31
273.785	84.31
274.017	82.31
274.249	78.31
274.481	98.31
274.713	79.31
274.945	87.31
275.176	69.31
275.408	80.31
275.64	73.31
275.872	87.31
276.104	101.31
276.335	95.31
276.567	81.31
276.799	81.31
277.031	81.31
277.262	86.31
277.494	93.31
277.726	65.31
277.957	83.31
278.189	97.31
278.421	82.31
278.652	85.31
278.884	82.31
279.115	93.31
279.347	77.31
279.579	73.31
279.81	71.31
280.042	70.31
280.273	78.31
280.505	75.31
280.736	75.31
280.968	85.31
281.199	88.31
281.431	87.31
281.662	81.31
281.894	83.31
282.125	79.31
282.356	79.31
282.588	93.31
282.819	89.31
283.051	84.31
283.282	82.31
283.513	104.31
283.745	81.31
283.976	88.31
284.207	74.31
284.439	63.31
284.67	78.31
284.901	83.31
285.132	85.31
285.364	94.31
285.595	81.31
285.826	70.31
286.057	80.31
286.288	88.31
286.52	86.31
286.751	81.31
286.982	82.31
287.213	90.31
287.444	78.31
287.675	79.31
287.906	86.31
288.138	75.31
288.369	97.31
288.6	75.31
288.831	81.31
289.062	99.31
289.293	91.31
289.524	86.31
289.755	80.31
289.986	82.31
290.217	95.31
290.448	80.31
290.679	91.31
290.91	90.31
291.141	84.31
291.371	87.31
291.602	72.31
291.833	88.31
292.064	80.31
292.295	90.31
292.526	85.31
292.757	77.31
292.987	70.31
293.218	84.31
293.449	97.31
293.68	69.31
293.91	79.31
294.141	71.31
294.372	86.31
294.603	97.31
294.833	73.31
295.064	71.31
295.295	89.31
295.525	79.31
295.756	86.31
295.987	71.31
296.217	81.31
296.448	81.31
296.679	105.31
296.909	80.31
297.14	97.31
297.37	97.31
297.601	75.31
297.831	64.31
298.062	75.31
298.292	91.31
298.523	100.31
298.753	79.31
298.984	75.31
299.214	88.31
299.445	80.31
299.675	86.31
299.905	80.31
300.136	98.31
300.366	81.31
300.597	83.31
300.827	74.31
301.057	88.31
301.288	99.31
301.518	85.31
301.748	77.31
301.979	91.31
302.209	78.31
302.439	82.31
302.669	78.31
302.9	73.31
303.13	92.31
303.36	85.31
303.59	83.31
303.82	80.31
304.051	80.31
304.281	79.31
304.511	86.31
304.741	80.31
304.971	78.31
305.201	82.31
305.431	78.31
305.661	89.31
305.891	95.31
306.121	86.31
306.352	67.31
306.582	63.31
306.812	82.31
307.042	74.31
307.272	86.31
307.502	81.31
307.731	81.31
307.961	89.31
308.191	83.31
308.421	75.31
308.651	97.31
308.881	73.31
309.111	80.31
309.341	81.31
309.571	70.31
309.8	71.31
310.03	81.31
310.26	88.31
310.49	83.31
310.72	83.31
310.949	97.31
311.179	89.31
311.409	74.31
311.639	91.31
311.868	94.31
312.098	71.31
312.328	75.31
312.557	93.31
312.787	74.31
313.017	91.31
313.246	77.31
313.476	75.31
313.706	75.31
313.935	80.31
314.165	69.31
314.394	75.31
314.624	87.31
314.853	80.31
315.083	89.31
315.312	78.31
315.542	76.31
315.771	81.31
316.001	89.31
316.23	83.31
316.46	72.31
316.689	88.31
316.919	94.31
317.148	91.31
317.377	74.31
317.607	89.31
317.836	89.31
318.065	79.31
318.295	89.31
318.524	90.31
318.753	86.31
318.983	84.31
319.212	102.31
319.441	81.31
319.67	79.31
319.9	90.31
320.129	88.31
320.358	83.31
320.587	93.31
320.816	81.31
321.046	88.31
321.275	94.31
321.504	64.31
321.733	87.31
321.962	85.31
322.191	88.31
322.42	86.31
322.649	75.31
322.878	86.31
323.108	59.31
323.337	73.31
323.566	77.31
323.795	92.31
324.024	87.31
324.253	72.31
324.482	94.31
324.71	77.31
324.939	98.31
325.168	83.31
325.397	72.31
325.626	90.31
325.855	79.31
326.084	93.31
326.313	88.31
326.542	89.31
326.77	92.31
326.999	94.31
327.228	85.31
327.457	82.31
327.686	90.31
327.914	85.31
328.143	83.31
328.372	81.31
328.6	85.31
328.829	89.31
329.058	96.31
329.287	74.31
329.515	87.31
329.744	95.31
329.972	87.31
330.201	70.31
330.43	78.31
330.658	70.31
330.887	69.31
331.115	92.31
331.344	94.31
331.572	97.31
331.801	76.31
332.03	90.31
332.258	75.31
332.486	72.31
332.715	74.31
332.943	90.31
333.172	81.31
333.4	94.31
333.629	66.31
333.857	85.31
334.085	75.31
334.314	98.31
334.542	87.31
334.771	86.31
334.999	74.31
335.227	72.31
335.455	72.31
335.684	76.31
335.912	79.31
336.14	83.31
336.369	93.31
336.597	80.31
336.825	75.31
337.053	77.31
337.281	66.31
337.51	84.31
337.738	90.31
337.966	88.31
338.194	73.31
338.422	91.31
338.65	73.31
338.878	80.31
339.106	90.31
339.334	92.31
339.562	75.31
339.79	87.31
340.018	89.31
340.246	75.31
340.474	77.31
340.702	76.31
340.93	87.31
341.158	75.31
341.386	99.31
341.614	82.31
341.842	84.31
342.07	73.31
342.298	81.31
342.526	68.31
342.754	84.31
342.981	74.31
343.209	60.31
343.437	77.31
343.665	71.31
343.893	80.31
344.12	82.31
344.348	85.31
344.576	78.31
344.804	79.31
345.031	68.31
345.259	69.31
345.487	90.31
345.714	74.31
345.942	86.31
346.17	75.31
346.397	88.31
346.625	81.31
346.853	64.31
347.08	68.31
347.308	96.31
347.535	85.31
347.763	81.31
347.99	81.31
348.218	81.31
348.445	86.31
348.673	75.31
348.9	86.31
349.128	79.31
349.355	87.31
349.583	75.31
349.81	82.31
350.037	81.31
350.265	68.31
350.492	80.31
350.72	87.31
350.947	74.31
351.174	74.31
351.402	69.31
351.629	76.31
351.856	91.31
352.083	85.31
352.311	77.31
352.538	81.31
352.765	83.31
352.992	80.31
353.22	78.31
353.447	76.31
353.674	81.31
353.901	83.31
354.128	71.31
354.355	69.31
354.583	75.31
354.81	95.31
355.037	96.31
355.264	75.31
355.491	81.31
355.718	65.31
355.945	90.31
356.172	83.31
356.399	77.31
356.626	89.31
356.853	81.31
357.08	87.31
357.307	73.31
357.534	66.31
357.761	77.31
357.988	84.31
358.215	77.31
358.441	81.31
358.668	78.31
358.895	81.31
359.122	85.31
359.349	69.31
359.576	61.31
359.802	85.31
360.029	80.31
360.256	80.31
360.483	73.31
360.709	73.31
360.936	89.31
361.163	80.31
361.39	88.31
361.616	73.31
361.843	82.31
362.07	73.31
362.296	87.31
362.523	83.31
362.749	77.31
362.976	85.31
363.203	81.31
363.429	81.31
363.656	78.31
363.882	72.31
364.109	79.31
364.335	85.31
364.562	99.31
364.788	82.31
365.015	86.31
365.241	82.31
365.468	72.31
365.694	89.31
365.92	83.31
366.147	81.31
366.373	78.31
366.599	77.31
366.826	74.31
367.052	70.31
367.278	78.31
367.505	78.31
367.731	84.31
367.957	71.31
368.184	98.31
368.41	82.31
368.636	83.31
368.862	81.31
369.089	72.31
369.315	87.31
369.541	82.31
369.767	85.31
369.993	74.31
370.219	82.31
370.445	82.31
370.672	85.31
370.898	71.31
371.124	80.31
371.35	93.31
371.576	90.31
371.802	74.31
372.028	85.31
372.254	78.31
372.48	80.31
372.706	86.31
372.932	79.31
373.158	80.31
373.384	76.31
373.61	88.31
373.835	80.31
374.061	80.31
374.287	76.31
374.513	66.31
374.739	84.31
374.965	75.31
375.191	80.31
375.416	86.31
375.642	81.31
375.868	86.31
376.094	82.31
376.319	70.31
376.545	74.31
376.771	94.31
376.997	89.31
377.222	81.31
377.448	79.31
377.674	78.31
377.899	85.31
378.125	79.31
378.35	68.31
378.576	83.31
378.802	93.31
379.027	71.31
379.253	69.31
379.478	80.31
379.704	73.31
379.929	89.31
380.155	83.31
380.38	91.31
380.606	84.31
380.831	64.31
381.057	98.31
381.282	79.31
381.507	85.31
381.733	76.31
381.958	87.31
382.184	83.31
382.409	69.31
382.634	80.31
382.86	75.31
383.085	85.31
383.31	73.31
383.535	87.31
383.761	80.31
383.986	93.31
384.211	77.31
384.436	75.31
384.662	88.31
384.887	71.31
385.112	76.31
385.337	73.31
385.562	87.31
385.787	84.31
386.013	79.31
386.238	80.31
386.463	95.31
386.688	89.31
386.913	77.31
387.138	74.31
387.363	85.31
387.588	79.31
387.813	73.31
388.038	69.31
388.263	78.31
388.488	79.31
388.713	93.31
388.938	86.31
389.163	91.31
389.387	83.31
389.612	82.31
389.837	75.31
390.062	82.31
390.287	73.31
390.512	77.31
390.736	82.31
390.961	87.31
391.186	85.31
391.411	83.31
391.636	80.31
391.86	88.31
392.085	79.31
392.31	82.31
392.534	86.31
392.759	79.31
392.984	87.31
393.208	80.31
393.433	75.31
393.658	84.31
393.882	92.31
394.107	97.31
394.331	82.31
394.556	80.31
394.78	86.31
395.005	78.31
395.229	73.31
395.454	80.31
395.678	66.31
395.903	77.31
396.127	89.31
396.352	74.31
396.576	93.31
396.801	86.31
397.025	87.31
397.249	88.31
397.474	81.31
397.698	83.31
397.922	75.31
398.147	85.31
398.371	86.31
398.595	84.31
398.82	88.31
399.044	85.31
399.268	78.31
399.492	87.31
399.717	80.31
399.941	74.31
400.165	82.31
400.389	98.31
400.613	85.31
400.837	80.31
401.062	88.31
401.286	82.31
401.51	89.31
401.734	83.31
401.958	80.31
402.182	89.31
402.406	82.31
402.63	93.31
402.854	110.31
403.078	95.31
403.302	91.31
403.526	83.31
403.75	89.31
403.974	82.31
404.198	70.31
404.422	90.31
404.645	74.31
404.869	91.31
405.093	72.31
405.317	75.31
405.541	82.31
405.765	79.31
405.988	82.31
406.212	81.31
406.436	73.31
406.66	98.31
406.883	78.31
407.107	81.31
407.331	89.31
407.555	88.31
407.778	82.31
408.002	87.31
408.226	88.31
408.449	86.31
408.673	93.31
408.896	86.31
409.12	81.31
409.344	97.31
409.567	67.31
409.791	94.31
410.014	84.31
410.238	81.31
410.461	103.31
410.685	91.31
410.908	93.31
411.132	80.31
411.355	82.31
411.578	94.31
411.802	77.31
412.025	69.31
412.249	86.31
412.472	79.31
412.695	88.31
412.919	78.31
413.142	100.31
413.365	88.31
413.589	82.31
413.812	95.31
414.035	75.31
414.258	84.31
414.482	90.31
414.705	88.31
414.928	83.31
415.151	70.31
415.374	91.31
415.597	84.31
415.821	103.31
416.044	94.31
416.267	94.31
416.49	93.31
416.713	95.31
416.936	73.31
417.159	96.31
417.382	88.31
417.605	98.31
417.828	84.31
418.051	79.31
418.274	96.31
418.497	94.31
418.72	95.31
418.943	78.31
419.166	86.31
419.389	84.31
419.611	94.31
419.834	96.31
420.057	75.31
420.28	83.31
420.503	88.31
420.726	69.31
420.948	79.31
421.171	102.31
421.394	75.31
421.617	94.31
421.839	99.31
422.062	87.31
422.285	87.31
422.507	94.31
422.73	85.31
422.953	88.31
423.175	90.31
423.398	86.31
423.621	93.31
423.843	85.31
424.066	85.31
424.288	95.31
424.511	96.31
424.733	85.31
424.956	91.31
425.178	86.31
425.401	86.31
425.623	97.31
425.846	85.31
426.068	96.31
426.291	87.31
426.513	98.31
426.735	95.31
426.958	85.31
427.18	89.31
427.402	103.31
427.625	100.31
427.847	77.31
428.069	73.31
428.292	82.31
428.514	71.31
428.736	92.31
428.958	83.31
429.181	95.31
429.403	99.31
429.625	96.31
429.847	91.31
430.069	100.31
430.292	86.31
430.514	87.31
430.736	81.31
430.958	95.31
431.18	86.31
431.402	82.31
431.624	85.31
431.846	88.31
432.068	64.31
432.29	95.31
432.512	106.31
432.734	93.31
432.956	87.31
433.178	102.31
433.4	90.31
433.622	97.31
433.844	85.31
434.066	90.31
434.287	83.31
434.509	74.31
434.731	97.31
434.953	71.31
435.175	91.31
435.397	87.31
435.618	93.31
435.84	88.31
436.062	81.31
436.284	82.31
436.505	85.31
436.727	93.31
436.949	93.31
437.17	73.31
437.392	94.31
437.614	94.31
437.835	95.31
438.057	88.31
438.278	89.31
438.5	81.31
438.721	99.31
438.943	97.31
439.165	89.31
439.386	92.31
439.608	100.31
439.829	97.31
440.05	81.31
440.272	95.31
440.493	84.31
440.715	80.31
440.936	85.31
441.158	89.31
441.379	88.31
441.6	109.31
441.822	84.31
442.043	103.31
442.264	96.31
442.486	100.31
442.707	100.31
442.928	99.31
443.149	77.31
443.371	90.31
443.592	85.31
443.813	105.31
444.034	95.31
444.255	83.31
444.476	102.31
444.698	97.31
444.919	87.31
445.14	230.31
445.361	157.31
445.582	104.31
445.803	91.31
446.024	99.31
446.245	95.31
446.466	106.31
446.687	114.31
446.908	93.31
447.129	103.31
447.35	91.31
447.571	99.31
447.792	85.31
448.013	95.31
448.234	85.31
448.455	86.31
448.675	99.31
448.896	97.31
449.117	89.31
449.338	81.31
449.559	102.31
449.779	93.31
450	94.31
450.221	91.31
450.442	99.31
450.662	92.31
450.883	90.31
451.104	86.31
451.324	88.31
451.545	94.31
451.766	85.31
451.986	78.31
452.207	87.31
452.428	93.31
452.648	114.31
452.869	106.31
453.089	82.31
453.31	75.31
453.53	78.31
453.751	96.31
453.971	73.31
454.192	82.31
454.412	92.31
454.633	91.31
454.853	86.31
455.073	81.31
455.294	98.31
455.514	93.31
455.734	91.31
455.955	80.31
456.175	82.31
456.395	89.31
456.616	82.31
456.836	75.31
457.056	85.31
457.276	86.31
457.497	81.31
457.717	89.31
457.937	79.31
458.157	74.31
458.377	90.31
458.598	71.31
458.818	75.31
459.038	72.31
459.258	74.31
459.478	79.31
459.698	76.31
459.918	79.31
460.138	87.31
460.358	84.31
460.578	91.31
460.798	91.31
461.018	89.31
461.238	93.31
461.458	104.31
461.678	104.31
461.898	100.31
462.118	87.31
462.338	84.31
462.558	83.31
462.777	93.31
462.997	82.31
463.217	82.31
463.437	86.31
463.657	96.31
463.876	81.31
464.096	77.31
464.316	86.31
464.536	89.31
464.755	89.31
464.975	82.31
465.195	75.31
465.414	91.31
465.634	72.31
465.854	92.31
466.073	100.31
466.293	96.31
466.512	81.31
466.732	75.31
466.951	87.31
467.171	85.31
467.391	85.31
467.61	92.31
467.829	96.31
468.049	82.31
468.268	89.31
468.488	82.31
468.707	104.31
468.927	93.31
469.146	96.31
469.365	88.31
469.585	107.31
469.804	87.31
470.023	77.31
470.243	106.31
470.462	92.31
470.681	96.31
470.901	74.31
471.12	77.31
471.339	112.31
471.558	81.31
471.777	98.31
471.997	95.31
472.216	81.31
472.435	102.31
472.654	82.31
472.873	85.31
473.092	88.31
473.311	81.31
473.53	98.31
473.749	98.31
473.968	84.31
474.187	110.31
474.406	88.31
474.625	78.31
474.844	101.31
475.063	111.31
475.282	88.31
475.501	90.31
475.72	95.31
475.939	86.31
476.158	88.31
476.377	82.31
476.596	100.31
476.814	89.31
477.033	93.31
477.252	89.31
477.471	87.31
477.69	93.31
477.908	87.31
478.127	96.31
478.346	96.31
478.564	93.31
478.783	94.31
479.002	93.31
479.22	88.31
479.439	105.31
479.658	90.31
479.876	74.31
480.095	90.31
480.313	84.31
480.532	88.31
480.751	87.31
480.969	83.31
481.188	87.31
481.406	95.31
481.624	81.31
481.843	91.31
482.061	83.31
482.28	78.31
482.498	93.31
482.717	84.31
482.935	103.31
483.153	88.31
483.372	81.31
483.59	101.31
483.808	94.31
484.027	90.31
484.245	87.31
484.463	96.31
484.681	103.31
484.9	89.31
485.118	88.31
485.336	84.31
485.554	94.31
485.772	97.31
485.99	90.31
486.209	86.31
486.427	81.31
486.645	74.31
486.863	90.31
487.081	83.31
487.299	82.31
487.517	102.31
487.735	95.31
487.953	107.31
488.171	105.31
488.389	112.31
488.607	96.31
488.825	84.31
489.043	94.31
489.261	95.31
489.479	87.31
489.696	83.31
489.914	101.31
490.132	118.31
490.35	93.31
490.568	111.31
490.786	96.31
491.003	117.31
491.221	115.31
491.439	112.31
491.657	111.31
491.874	118.31
492.092	130.31
492.31	132.31
492.527	123.31
492.745	113.31
492.963	127.31
493.18	112.31
493.398	116.31
493.615	97.31
493.833	104.31
494.05	103.31
494.268	112.31
494.485	117.31
494.703	117.31
494.92	106.31
495.138	108.31
495.355	109.31
495.573	109.31
495.79	115.31
496.008	106.31
496.225	117.31
496.442	102.31
496.66	108.31
496.877	101.31
497.094	92.31
497.312	89.31
497.529	109.31
497.746	110.31
497.963	92.31
498.181	90.31
498.398	90.31
498.615	91.31
498.832	85.31
499.049	93.31
499.267	89.31
499.484	98.31
499.701	92.31
499.918	92.31
500.135	92.31
500.352	97.31
500.569	97.31
500.786	111.31
501.003	115.31
501.22	94.31
501.437	99.31
501.654	106.31
501.871	99.31
502.088	89.31
502.305	85.31
502.522	99.31
502.739	98.31
502.956	86.31
503.172	114.31
503.389	95.31
503.606	92.31
503.823	98.31
504.04	82.31
504.256	87.31
504.473	90.31
504.69	94.31
504.907	86.31
505.123	80.31
505.34	83.31
505.557	74.31
505.773	102.31
505.99	79.31
506.207	99.31
506.423	90.31
506.64	109.31
506.856	91.31
507.073	86.31
507.289	99.31
507.506	94.31
507.722	91.31
507.939	92.31
508.155	97.31
508.372	71.31
508.588	91.31
508.805	93.31
509.021	93.31
509.238	81.31
509.454	98.31
509.67	76.31
509.887	90.31
510.103	91.31
510.319	86.31
510.536	90.31
510.752	85.31
510.968	90.31
511.184	72.31
511.401	93.31
511.617	81.31
511.833	78.31
512.049	90.31
512.265	80.31
512.481	75.31
512.698	92.31
512.914	95.31
513.13	93.31
513.346	92.31
513.562	80.31
513.778	99.31
513.994	70.31
514.21	79.31
514.426	89.31
514.642	93.31
514.858	86.31
515.074	94.31
515.29	95.31
515.506	89.31
515.721	94.31
515.937	78.31
516.153	82.31
516.369	70.31
516.585	79.31
516.801	86.31
517.016	85.31
517.232	75.31
517.448	104.31
517.664	94.31
517.879	86.31
518.095	76.31
