Data from Location5.07152019.Energy5.Lamp.07192019.3%Agarose_HRD10591_16-05-17-630.txt Node
Date: Fri Jul 19 16:05:17 EDT 2019
User: cochatt
Spectrometer: HR+D1059
Trigger mode: 1
Integration Time (sec): 1.000000E-1
Scans to average: 1
Electric dark correction enabled: true
Nonlinearity correction enabled: false
Boxcar width: 0
XAxis mode: Wavelengths
Number of Pixels in Spectrum: 2048
>>>>>Begin Spectral Data<<<<<
223.165	-8.81
223.4	-8.81
223.635	-8.81
223.869	-14.81
224.104	-14.81
224.338	-10.81
224.573	-11.81
224.808	3.19
225.042	-16.81
225.277	-14.81
225.511	-8.81
225.746	-0.81
225.98	5.19
226.215	7.19
226.449	15.19
226.683	11.19
226.918	19.19
227.152	41.19
227.387	27.19
227.621	35.19
227.856	41.19
228.09	42.19
228.324	58.19
228.559	65.19
228.793	73.19
229.027	60.19
229.262	78.19
229.496	67.19
229.73	74.19
229.964	84.19
230.199	81.19
230.433	79.19
230.667	69.19
230.901	69.19
231.136	87.19
231.37	86.19
231.604	79.19
231.838	89.19
232.072	80.19
232.306	77.19
232.541	93.19
232.775	73.19
233.009	84.19
233.243	85.19
233.477	91.19
233.711	90.19
233.945	68.19
234.179	75.19
234.413	95.19
234.647	84.19
234.881	90.19
235.115	78.19
235.349	89.19
235.583	89.19
235.817	86.19
236.051	75.19
236.285	72.19
236.519	88.19
236.753	70.19
236.987	78.19
237.221	88.19
237.455	81.19
237.689	78.19
237.922	83.19
238.156	79.19
238.39	73.19
238.624	89.19
238.858	84.19
239.091	84.19
239.325	86.19
239.559	82.19
239.793	89.19
240.027	79.19
240.26	79.19
240.494	83.19
240.728	81.19
240.961	75.19
241.195	79.19
241.429	97.19
241.662	59.19
241.896	89.19
242.13	75.19
242.363	62.19
242.597	61.19
242.83	88.19
243.064	74.19
243.298	74.19
243.531	72.19
243.765	86.19
243.998	72.19
244.232	82.19
244.465	76.19
244.699	77.19
244.932	77.19
245.166	87.19
245.399	78.19
245.633	79.19
245.866	82.19
246.099	88.19
246.333	87.19
246.566	88.19
246.8	69.19
247.033	81.19
247.266	74.19
247.5	85.19
247.733	75.19
247.966	79.19
248.2	82.19
248.433	81.19
248.666	91.19
248.899	91.19
249.133	92.19
249.366	75.19
249.599	83.19
249.832	83.19
250.066	77.19
250.299	90.19
250.532	91.19
250.765	84.19
250.998	89.19
251.231	95.19
251.465	86.19
251.698	71.19
251.931	76.19
252.164	69.19
252.397	83.19
252.63	96.19
252.863	77.19
253.096	75.19
253.329	77.19
253.562	78.19
253.795	79.19
254.028	82.19
254.261	77.19
254.494	77.19
254.727	75.19
254.96	93.19
255.193	100.19
255.426	79.19
255.659	92.19
255.892	91.19
256.124	81.19
256.357	74.19
256.59	92.19
256.823	87.19
257.056	86.19
257.289	92.19
257.521	85.19
257.754	82.19
257.987	80.19
258.22	93.19
258.452	88.19
258.685	88.19
258.918	85.19
259.151	93.19
259.383	89.19
259.616	85.19
259.849	90.19
260.081	82.19
260.314	74.19
260.547	82.19
260.779	81.19
261.012	86.19
261.244	86.19
261.477	89.19
261.71	75.19
261.942	73.19
262.175	90.19
262.407	82.19
262.64	85.19
262.872	77.19
263.105	91.19
263.337	86.19
263.57	88.19
263.802	84.19
264.035	88.19
264.267	90.19
264.499	86.19
264.732	77.19
264.964	83.19
265.197	83.19
265.429	76.19
265.661	98.19
265.894	86.19
266.126	95.19
266.358	74.19
266.591	73.19
266.823	86.19
267.055	86.19
267.287	92.19
267.52	88.19
267.752	99.19
267.984	87.19
268.216	74.19
268.448	80.19
268.681	88.19
268.913	84.19
269.145	87.19
269.377	90.19
269.609	90.19
269.841	88.19
270.073	97.19
270.306	91.19
270.538	83.19
270.77	100.19
271.002	91.19
271.234	86.19
271.466	75.19
271.698	89.19
271.93	85.19
272.162	88.19
272.394	85.19
272.626	92.19
272.858	79.19
273.09	78.19
273.322	99.19
273.553	89.19
273.785	86.19
274.017	81.19
274.249	93.19
274.481	89.19
274.713	92.19
274.945	90.19
275.176	86.19
275.408	93.19
275.64	88.19
275.872	80.19
276.104	101.19
276.335	85.19
276.567	86.19
276.799	88.19
277.031	100.19
277.262	92.19
277.494	100.19
277.726	84.19
277.957	88.19
278.189	87.19
278.421	78.19
278.652	86.19
278.884	89.19
279.115	104.19
279.347	94.19
279.579	83.19
279.81	83.19
280.042	99.19
280.273	84.19
280.505	94.19
280.736	89.19
280.968	72.19
281.199	67.19
281.431	87.19
281.662	91.19
281.894	84.19
282.125	86.19
282.356	76.19
282.588	94.19
282.819	88.19
283.051	85.19
283.282	99.19
283.513	83.19
283.745	100.19
283.976	86.19
284.207	99.19
284.439	97.19
284.67	88.19
284.901	92.19
285.132	91.19
285.364	84.19
285.595	93.19
285.826	84.19
286.057	100.19
286.288	94.19
286.52	83.19
286.751	92.19
286.982	81.19
287.213	94.19
287.444	96.19
287.675	82.19
287.906	80.19
288.138	95.19
288.369	92.19
288.6	105.19
288.831	83.19
289.062	93.19
289.293	102.19
289.524	92.19
289.755	90.19
289.986	96.19
290.217	95.19
290.448	105.19
290.679	87.19
290.91	78.19
291.141	92.19
291.371	85.19
291.602	90.19
291.833	97.19
292.064	88.19
292.295	84.19
292.526	93.19
292.757	106.19
292.987	83.19
293.218	98.19
293.449	89.19
293.68	98.19
293.91	84.19
294.141	90.19
294.372	89.19
294.603	80.19
294.833	90.19
295.064	84.19
295.295	100.19
295.525	89.19
295.756	93.19
295.987	107.19
296.217	76.19
296.448	89.19
296.679	88.19
296.909	92.19
297.14	86.19
297.37	94.19
297.601	81.19
297.831	97.19
298.062	101.19
298.292	95.19
298.523	80.19
298.753	89.19
298.984	96.19
299.214	87.19
299.445	92.19
299.675	97.19
299.905	110.19
300.136	85.19
300.366	88.19
300.597	98.19
300.827	90.19
301.057	89.19
301.288	92.19
301.518	89.19
301.748	100.19
301.979	97.19
302.209	97.19
302.439	79.19
302.669	94.19
302.9	95.19
303.13	86.19
303.36	98.19
303.59	97.19
303.82	91.19
304.051	75.19
304.281	92.19
304.511	90.19
304.741	97.19
304.971	86.19
305.201	95.19
305.431	85.19
305.661	95.19
305.891	94.19
306.121	92.19
306.352	93.19
306.582	102.19
306.812	95.19
307.042	90.19
307.272	93.19
307.502	83.19
307.731	97.19
307.961	96.19
308.191	83.19
308.421	88.19
308.651	99.19
308.881	86.19
309.111	93.19
309.341	78.19
309.571	86.19
309.8	92.19
310.03	89.19
310.26	93.19
310.49	86.19
310.72	94.19
310.949	100.19
311.179	90.19
311.409	84.19
311.639	86.19
311.868	90.19
312.098	110.19
312.328	86.19
312.557	92.19
312.787	75.19
313.017	87.19
313.246	92.19
313.476	99.19
313.706	89.19
313.935	97.19
314.165	88.19
314.394	93.19
314.624	94.19
314.853	109.19
315.083	100.19
315.312	99.19
315.542	106.19
315.771	92.19
316.001	93.19
316.23	83.19
316.46	89.19
316.689	81.19
316.919	84.19
317.148	105.19
317.377	101.19
317.607	91.19
317.836	80.19
318.065	84.19
318.295	85.19
318.524	95.19
318.753	93.19
318.983	95.19
319.212	94.19
319.441	89.19
319.67	96.19
319.9	84.19
320.129	83.19
320.358	89.19
320.587	100.19
320.816	87.19
321.046	97.19
321.275	93.19
321.504	83.19
321.733	90.19
321.962	104.19
322.191	93.19
322.42	95.19
322.649	95.19
322.878	90.19
323.108	112.19
323.337	92.19
323.566	88.19
323.795	103.19
324.024	88.19
324.253	98.19
324.482	95.19
324.71	85.19
324.939	101.19
325.168	95.19
325.397	89.19
325.626	89.19
325.855	94.19
326.084	92.19
326.313	79.19
326.542	104.19
326.77	88.19
326.999	94.19
327.228	95.19
327.457	80.19
327.686	93.19
327.914	103.19
328.143	100.19
328.372	90.19
328.6	93.19
328.829	105.19
329.058	93.19
329.287	95.19
329.515	96.19
329.744	105.19
329.972	87.19
330.201	98.19
330.43	77.19
330.658	96.19
330.887	85.19
331.115	94.19
331.344	89.19
331.572	83.19
331.801	99.19
332.03	100.19
332.258	93.19
332.486	103.19
332.715	100.19
332.943	89.19
333.172	102.19
333.4	95.19
333.629	108.19
333.857	91.19
334.085	107.19
334.314	98.19
334.542	87.19
334.771	98.19
334.999	99.19
335.227	88.19
335.455	99.19
335.684	89.19
335.912	93.19
336.14	91.19
336.369	90.19
336.597	98.19
336.825	88.19
337.053	96.19
337.281	89.19
337.51	101.19
337.738	75.19
337.966	90.19
338.194	77.19
338.422	103.19
338.65	83.19
338.878	82.19
339.106	90.19
339.334	103.19
339.562	89.19
339.79	73.19
340.018	87.19
340.246	80.19
340.474	91.19
340.702	110.19
340.93	79.19
341.158	102.19
341.386	95.19
341.614	108.19
341.842	84.19
342.07	84.19
342.298	88.19
342.526	92.19
342.754	90.19
342.981	90.19
343.209	79.19
343.437	98.19
343.665	83.19
343.893	106.19
344.12	100.19
344.348	76.19
344.576	82.19
344.804	87.19
345.031	94.19
345.259	106.19
345.487	94.19
345.714	97.19
345.942	100.19
346.17	99.19
346.397	79.19
346.625	89.19
346.853	84.19
347.08	83.19
347.308	93.19
347.535	93.19
347.763	97.19
347.99	100.19
348.218	88.19
348.445	94.19
348.673	101.19
348.9	91.19
349.128	92.19
349.355	99.19
349.583	95.19
349.81	87.19
350.037	86.19
350.265	107.19
350.492	90.19
350.72	87.19
350.947	94.19
351.174	87.19
351.402	93.19
351.629	77.19
351.856	89.19
352.083	92.19
352.311	87.19
352.538	90.19
352.765	99.19
352.992	79.19
353.22	85.19
353.447	69.19
353.674	90.19
353.901	101.19
354.128	99.19
354.355	99.19
354.583	78.19
354.81	89.19
355.037	78.19
355.264	96.19
355.491	105.19
355.718	92.19
355.945	79.19
356.172	85.19
356.399	97.19
356.626	102.19
356.853	97.19
357.08	100.19
357.307	81.19
357.534	105.19
357.761	79.19
357.988	94.19
358.215	96.19
358.441	75.19
358.668	86.19
358.895	99.19
359.122	92.19
359.349	94.19
359.576	97.19
359.802	94.19
360.029	77.19
360.256	102.19
360.483	91.19
360.709	90.19
360.936	87.19
361.163	95.19
361.39	79.19
361.616	84.19
361.843	96.19
362.07	91.19
362.296	97.19
362.523	98.19
362.749	99.19
362.976	91.19
363.203	100.19
363.429	100.19
363.656	100.19
363.882	90.19
364.109	89.19
364.335	96.19
364.562	89.19
364.788	80.19
365.015	91.19
365.241	95.19
365.468	83.19
365.694	79.19
365.92	90.19
366.147	89.19
366.373	86.19
366.599	82.19
366.826	98.19
367.052	88.19
367.278	89.19
367.505	86.19
367.731	88.19
367.957	82.19
368.184	91.19
368.41	87.19
368.636	100.19
368.862	97.19
369.089	77.19
369.315	94.19
369.541	84.19
369.767	100.19
369.993	103.19
370.219	103.19
370.445	92.19
370.672	87.19
370.898	87.19
371.124	89.19
371.35	87.19
371.576	92.19
371.802	95.19
372.028	90.19
372.254	86.19
372.48	97.19
372.706	91.19
372.932	87.19
373.158	95.19
373.384	89.19
373.61	81.19
373.835	94.19
374.061	90.19
374.287	100.19
374.513	94.19
374.739	91.19
374.965	94.19
375.191	86.19
375.416	105.19
375.642	91.19
375.868	86.19
376.094	75.19
376.319	85.19
376.545	84.19
376.771	84.19
376.997	77.19
377.222	111.19
377.448	83.19
377.674	94.19
377.899	87.19
378.125	77.19
378.35	98.19
378.576	83.19
378.802	96.19
379.027	97.19
379.253	111.19
379.478	88.19
379.704	90.19
379.929	109.19
380.155	98.19
380.38	92.19
380.606	89.19
380.831	81.19
381.057	105.19
381.282	106.19
381.507	92.19
381.733	93.19
381.958	99.19
382.184	89.19
382.409	79.19
382.634	80.19
382.86	90.19
383.085	86.19
383.31	89.19
383.535	92.19
383.761	93.19
383.986	105.19
384.211	98.19
384.436	73.19
384.662	91.19
384.887	97.19
385.112	106.19
385.337	106.19
385.562	94.19
385.787	86.19
386.013	98.19
386.238	96.19
386.463	94.19
386.688	105.19
386.913	92.19
387.138	85.19
387.363	93.19
387.588	88.19
387.813	82.19
388.038	94.19
388.263	103.19
388.488	86.19
388.713	103.19
388.938	94.19
389.163	79.19
389.387	87.19
389.612	99.19
389.837	98.19
390.062	99.19
390.287	99.19
390.512	93.19
390.736	86.19
390.961	76.19
391.186	81.19
391.411	96.19
391.636	92.19
391.86	107.19
392.085	99.19
392.31	99.19
392.534	94.19
392.759	101.19
392.984	100.19
393.208	91.19
393.433	87.19
393.658	93.19
393.882	100.19
394.107	98.19
394.331	89.19
394.556	87.19
394.78	97.19
395.005	101.19
395.229	92.19
395.454	95.19
395.678	90.19
395.903	96.19
396.127	90.19
396.352	83.19
396.576	96.19
396.801	113.19
397.025	92.19
397.249	89.19
397.474	105.19
397.698	94.19
397.922	93.19
398.147	97.19
398.371	105.19
398.595	102.19
398.82	94.19
399.044	97.19
399.268	99.19
399.492	98.19
399.717	116.19
399.941	97.19
400.165	92.19
400.389	97.19
400.613	100.19
400.837	93.19
401.062	99.19
401.286	94.19
401.51	101.19
401.734	87.19
401.958	102.19
402.182	97.19
402.406	104.19
402.63	102.19
402.854	110.19
403.078	88.19
403.302	87.19
403.526	101.19
403.75	95.19
403.974	97.19
404.198	106.19
404.422	108.19
404.645	99.19
404.869	96.19
405.093	106.19
405.317	101.19
405.541	90.19
405.765	93.19
405.988	101.19
406.212	118.19
406.436	90.19
406.66	89.19
406.883	74.19
407.107	97.19
407.331	102.19
407.555	117.19
407.778	108.19
408.002	86.19
408.226	93.19
408.449	102.19
408.673	100.19
408.896	94.19
409.12	84.19
409.344	84.19
409.567	80.19
409.791	91.19
410.014	88.19
410.238	86.19
410.461	97.19
410.685	93.19
410.908	90.19
411.132	109.19
411.355	100.19
411.578	94.19
411.802	88.19
412.025	86.19
412.249	94.19
412.472	98.19
412.695	105.19
412.919	93.19
413.142	89.19
413.365	95.19
413.589	86.19
413.812	77.19
414.035	91.19
414.258	93.19
414.482	94.19
414.705	80.19
414.928	102.19
415.151	101.19
415.374	95.19
415.597	102.19
415.821	97.19
416.044	97.19
416.267	88.19
416.49	85.19
416.713	91.19
416.936	95.19
417.159	90.19
417.382	98.19
417.605	107.19
417.828	97.19
418.051	91.19
418.274	89.19
418.497	96.19
418.72	94.19
418.943	103.19
419.166	106.19
419.389	90.19
419.611	92.19
419.834	93.19
420.057	91.19
420.28	87.19
420.503	94.19
420.726	95.19
420.948	79.19
421.171	90.19
421.394	92.19
421.617	106.19
421.839	92.19
422.062	95.19
422.285	84.19
422.507	89.19
422.73	85.19
422.953	80.19
423.175	87.19
423.398	86.19
423.621	96.19
423.843	88.19
424.066	91.19
424.288	100.19
424.511	83.19
424.733	91.19
424.956	109.19
425.178	84.19
425.401	89.19
425.623	98.19
425.846	96.19
426.068	80.19
426.291	99.19
426.513	94.19
426.735	93.19
426.958	96.19
427.18	92.19
427.402	93.19
427.625	78.19
427.847	84.19
428.069	104.19
428.292	96.19
428.514	100.19
428.736	84.19
428.958	89.19
429.181	87.19
429.403	102.19
429.625	95.19
429.847	99.19
430.069	87.19
430.292	93.19
430.514	76.19
430.736	94.19
430.958	108.19
431.18	104.19
431.402	88.19
431.624	78.19
431.846	84.19
432.068	111.19
432.29	84.19
432.512	107.19
432.734	105.19
432.956	89.19
433.178	91.19
433.4	93.19
433.622	82.19
433.844	93.19
434.066	106.19
434.287	90.19
434.509	77.19
434.731	92.19
434.953	83.19
435.175	85.19
435.397	79.19
435.618	94.19
435.84	88.19
436.062	88.19
436.284	104.19
436.505	99.19
436.727	89.19
436.949	74.19
437.17	87.19
437.392	95.19
437.614	82.19
437.835	92.19
438.057	98.19
438.278	104.19
438.5	95.19
438.721	98.19
438.943	98.19
439.165	100.19
439.386	91.19
439.608	79.19
439.829	69.19
440.05	101.19
440.272	86.19
440.493	97.19
440.715	95.19
440.936	83.19
441.158	83.19
441.379	102.19
441.6	93.19
441.822	93.19
442.043	95.19
442.264	76.19
442.486	77.19
442.707	101.19
442.928	80.19
443.149	88.19
443.371	99.19
443.592	96.19
443.813	87.19
444.034	87.19
444.255	98.19
444.476	94.19
444.698	95.19
444.919	68.19
445.14	210.19
445.361	150.19
445.582	101.19
445.803	84.19
446.024	87.19
446.245	86.19
446.466	94.19
446.687	95.19
446.908	85.19
447.129	97.19
447.35	96.19
447.571	98.19
447.792	87.19
448.013	81.19
448.234	90.19
448.455	88.19
448.675	77.19
448.896	90.19
449.117	85.19
449.338	82.19
449.559	93.19
449.779	93.19
450	90.19
450.221	94.19
450.442	102.19
450.662	84.19
450.883	73.19
451.104	93.19
451.324	92.19
451.545	90.19
451.766	113.19
451.986	100.19
452.207	85.19
452.428	81.19
452.648	94.19
452.869	95.19
453.089	92.19
453.31	73.19
453.53	78.19
453.751	87.19
453.971	90.19
454.192	88.19
454.412	109.19
454.633	92.19
454.853	98.19
455.073	69.19
455.294	86.19
455.514	79.19
455.734	101.19
455.955	90.19
456.175	86.19
456.395	75.19
456.616	95.19
456.836	74.19
457.056	95.19
457.276	99.19
457.497	93.19
457.717	89.19
457.937	86.19
458.157	102.19
458.377	87.19
458.598	102.19
458.818	94.19
459.038	86.19
459.258	96.19
459.478	88.19
459.698	87.19
459.918	90.19
460.138	96.19
460.358	98.19
460.578	98.19
460.798	101.19
461.018	113.19
461.238	97.19
461.458	85.19
461.678	102.19
461.898	95.19
462.118	92.19
462.338	92.19
462.558	103.19
462.777	92.19
462.997	103.19
463.217	108.19
463.437	99.19
463.657	89.19
463.876	88.19
464.096	95.19
464.316	100.19
464.536	91.19
464.755	117.19
464.975	90.19
465.195	91.19
465.414	86.19
465.634	87.19
465.854	94.19
466.073	109.19
466.293	93.19
466.512	110.19
466.732	84.19
466.951	84.19
467.171	99.19
467.391	94.19
467.61	84.19
467.829	93.19
468.049	99.19
468.268	97.19
468.488	104.19
468.707	93.19
468.927	84.19
469.146	100.19
469.365	118.19
469.585	107.19
469.804	83.19
470.023	102.19
470.243	84.19
470.462	90.19
470.681	95.19
470.901	100.19
471.12	103.19
471.339	101.19
471.558	104.19
471.777	96.19
471.997	104.19
472.216	103.19
472.435	96.19
472.654	90.19
472.873	75.19
473.092	93.19
473.311	63.19
473.53	104.19
473.749	102.19
473.968	92.19
474.187	95.19
474.406	118.19
474.625	101.19
474.844	102.19
475.063	104.19
475.282	105.19
475.501	96.19
475.72	109.19
475.939	107.19
476.158	90.19
476.377	94.19
476.596	94.19
476.814	89.19
477.033	98.19
477.252	91.19
477.471	97.19
477.69	99.19
477.908	102.19
478.127	92.19
478.346	99.19
478.564	105.19
478.783	102.19
479.002	83.19
479.22	105.19
479.439	111.19
479.658	105.19
479.876	98.19
480.095	115.19
480.313	91.19
480.532	95.19
480.751	91.19
480.969	100.19
481.188	100.19
481.406	107.19
481.624	102.19
481.843	89.19
482.061	93.19
482.28	95.19
482.498	96.19
482.717	86.19
482.935	99.19
483.153	101.19
483.372	76.19
483.59	105.19
483.808	105.19
484.027	108.19
484.245	113.19
484.463	91.19
484.681	102.19
484.9	93.19
485.118	111.19
485.336	91.19
485.554	94.19
485.772	101.19
485.99	99.19
486.209	92.19
486.427	110.19
486.645	110.19
486.863	89.19
487.081	104.19
487.299	98.19
487.517	106.19
487.735	101.19
487.953	92.19
488.171	92.19
488.389	96.19
488.607	103.19
488.825	85.19
489.043	98.19
489.261	105.19
489.479	102.19
489.696	97.19
489.914	103.19
490.132	117.19
490.35	102.19
490.568	113.19
490.786	108.19
491.003	112.19
491.221	95.19
491.439	105.19
491.657	100.19
491.874	108.19
492.092	121.19
492.31	126.19
492.527	117.19
492.745	113.19
492.963	95.19
493.18	106.19
493.398	108.19
493.615	110.19
493.833	124.19
494.05	93.19
494.268	114.19
494.485	106.19
494.703	98.19
494.92	133.19
495.138	111.19
495.355	108.19
495.573	109.19
495.79	102.19
496.008	114.19
496.225	108.19
496.442	102.19
496.66	106.19
496.877	121.19
497.094	126.19
497.312	99.19
497.529	103.19
497.746	123.19
497.963	106.19
498.181	106.19
498.398	95.19
498.615	99.19
498.832	105.19
499.049	114.19
499.267	122.19
499.484	105.19
499.701	121.19
499.918	124.19
500.135	124.19
500.352	132.19
500.569	147.19
500.786	151.19
501.003	128.19
501.22	116.19
501.437	131.19
501.654	103.19
501.871	119.19
502.088	121.19
502.305	118.19
502.522	120.19
502.739	122.19
502.956	114.19
503.172	103.19
503.389	106.19
503.606	115.19
503.823	116.19
504.04	115.19
504.256	111.19
504.473	104.19
504.69	107.19
504.907	121.19
505.123	113.19
505.34	113.19
505.557	118.19
505.773	101.19
505.99	107.19
506.207	110.19
506.423	95.19
506.64	99.19
506.856	97.19
507.073	89.19
507.289	129.19
507.506	100.19
507.722	104.19
507.939	104.19
508.155	102.19
508.372	114.19
508.588	113.19
508.805	99.19
509.021	95.19
509.238	101.19
509.454	99.19
509.67	94.19
509.887	92.19
510.103	96.19
510.319	110.19
510.536	104.19
510.752	111.19
510.968	98.19
511.184	93.19
511.401	103.19
511.617	90.19
511.833	93.19
512.049	100.19
512.265	102.19
512.481	96.19
512.698	101.19
512.914	95.19
513.13	111.19
513.346	89.19
513.562	107.19
513.778	110.19
513.994	90.19
514.21	97.19
514.426	102.19
514.642	103.19
514.858	106.19
515.074	110.19
515.29	92.19
