Data from Location5.07152019.Energy5.Lamp.07192019.3%Agarose_HRD10591_15-37-34-387.txt Node
Date: Fri Jul 19 15:37:34 EDT 2019
User: cochatt
Spectrometer: HR+D1059
Trigger mode: 1
Integration Time (sec): 1.000000E-1
Scans to average: 1
Electric dark correction enabled: true
Nonlinearity correction enabled: false
Boxcar width: 0
XAxis mode: Wavelengths
Number of Pixels in Spectrum: 2048
>>>>>Begin Spectral Data<<<<<
223.165	-14.06
223.4	-14.06
223.635	-14.06
223.869	-18.06
224.104	-23.06
224.338	-5.06
224.573	-18.06
224.808	-26.06
225.042	1.94
225.277	-2.06
225.511	-2.06
225.746	7.94
225.98	5.94
226.215	13.94
226.449	19.94
226.683	11.94
226.918	14.94
227.152	31.94
227.387	30.94
227.621	42.94
227.856	46.94
228.09	46.94
228.324	35.94
228.559	38.94
228.793	51.94
229.027	59.94
229.262	63.94
229.496	60.94
229.73	65.94
229.964	50.94
230.199	49.94
230.433	68.94
230.667	73.94
230.901	72.94
231.136	79.94
231.37	77.94
231.604	76.94
231.838	88.94
232.072	75.94
232.306	82.94
232.541	61.94
232.775	89.94
233.009	81.94
233.243	94.94
233.477	84.94
233.711	86.94
233.945	78.94
234.179	69.94
234.413	77.94
234.647	78.94
234.881	72.94
235.115	85.94
235.349	77.94
235.583	78.94
235.817	81.94
236.051	69.94
236.285	68.94
236.519	78.94
236.753	63.94
236.987	81.94
237.221	81.94
237.455	78.94
237.689	81.94
237.922	73.94
238.156	71.94
238.39	78.94
238.624	73.94
238.858	66.94
239.091	64.94
239.325	75.94
239.559	58.94
239.793	70.94
240.027	67.94
240.26	52.94
240.494	79.94
240.728	70.94
240.961	74.94
241.195	82.94
241.429	95.94
241.662	63.94
241.896	69.94
242.13	78.94
242.363	71.94
242.597	80.94
242.83	73.94
243.064	63.94
243.298	74.94
243.531	71.94
243.765	78.94
243.998	78.94
244.232	71.94
244.465	63.94
244.699	81.94
244.932	63.94
245.166	80.94
245.399	76.94
245.633	75.94
245.866	87.94
246.099	90.94
246.333	81.94
246.566	54.94
246.8	72.94
247.033	83.94
247.266	79.94
247.5	69.94
247.733	76.94
247.966	78.94
248.2	67.94
248.433	69.94
248.666	77.94
248.899	79.94
249.133	75.94
249.366	91.94
249.599	84.94
249.832	67.94
250.066	78.94
250.299	67.94
250.532	73.94
250.765	74.94
250.998	67.94
251.231	90.94
251.465	77.94
251.698	70.94
251.931	77.94
252.164	70.94
252.397	63.94
252.63	76.94
252.863	76.94
253.096	80.94
253.329	91.94
253.562	79.94
253.795	62.94
254.028	78.94
254.261	78.94
254.494	77.94
254.727	79.94
254.96	65.94
255.193	66.94
255.426	82.94
255.659	91.94
255.892	81.94
256.124	82.94
256.357	65.94
256.59	84.94
256.823	83.94
257.056	70.94
257.289	79.94
257.521	71.94
257.754	74.94
257.987	86.94
258.22	83.94
258.452	76.94
258.685	90.94
258.918	76.94
259.151	71.94
259.383	78.94
259.616	78.94
259.849	88.94
260.081	72.94
260.314	76.94
260.547	79.94
260.779	79.94
261.012	66.94
261.244	79.94
261.477	70.94
261.71	84.94
261.942	90.94
262.175	82.94
262.407	67.94
262.64	68.94
262.872	70.94
263.105	83.94
263.337	78.94
263.57	77.94
263.802	83.94
264.035	74.94
264.267	74.94
264.499	87.94
264.732	82.94
264.964	81.94
265.197	88.94
265.429	77.94
265.661	72.94
265.894	86.94
266.126	87.94
266.358	68.94
266.591	82.94
266.823	89.94
267.055	79.94
267.287	81.94
267.52	78.94
267.752	93.94
267.984	84.94
268.216	81.94
268.448	81.94
268.681	91.94
268.913	66.94
269.145	79.94
269.377	79.94
269.609	70.94
269.841	81.94
270.073	77.94
270.306	77.94
270.538	63.94
270.77	71.94
271.002	61.94
271.234	67.94
271.466	81.94
271.698	75.94
271.93	82.94
272.162	75.94
272.394	83.94
272.626	65.94
272.858	64.94
273.09	76.94
273.322	83.94
273.553	89.94
273.785	72.94
274.017	83.94
274.249	86.94
274.481	84.94
274.713	94.94
274.945	86.94
275.176	80.94
275.408	83.94
275.64	75.94
275.872	92.94
276.104	95.94
276.335	86.94
276.567	78.94
276.799	89.94
277.031	86.94
277.262	85.94
277.494	90.94
277.726	81.94
277.957	62.94
278.189	66.94
278.421	83.94
278.652	79.94
278.884	83.94
279.115	69.94
279.347	101.94
279.579	77.94
279.81	79.94
280.042	85.94
280.273	67.94
280.505	77.94
280.736	74.94
280.968	79.94
281.199	76.94
281.431	75.94
281.662	71.94
281.894	83.94
282.125	86.94
282.356	76.94
282.588	71.94
282.819	74.94
283.051	73.94
283.282	77.94
283.513	86.94
283.745	64.94
283.976	78.94
284.207	78.94
284.439	80.94
284.67	88.94
284.901	83.94
285.132	75.94
285.364	85.94
285.595	78.94
285.826	77.94
286.057	66.94
286.288	77.94
286.52	65.94
286.751	75.94
286.982	71.94
287.213	54.94
287.444	76.94
287.675	74.94
287.906	84.94
288.138	73.94
288.369	76.94
288.6	87.94
288.831	81.94
289.062	83.94
289.293	77.94
289.524	79.94
289.755	76.94
289.986	81.94
290.217	78.94
290.448	81.94
290.679	74.94
290.91	72.94
291.141	68.94
291.371	93.94
291.602	72.94
291.833	82.94
292.064	68.94
292.295	83.94
292.526	78.94
292.757	84.94
292.987	80.94
293.218	87.94
293.449	76.94
293.68	75.94
293.91	72.94
294.141	92.94
294.372	94.94
294.603	82.94
294.833	83.94
295.064	81.94
295.295	79.94
295.525	74.94
295.756	79.94
295.987	60.94
296.217	73.94
296.448	78.94
296.679	71.94
296.909	74.94
297.14	87.94
297.37	68.94
297.601	78.94
297.831	70.94
298.062	81.94
298.292	74.94
298.523	75.94
298.753	77.94
298.984	84.94
299.214	83.94
299.445	76.94
299.675	92.94
299.905	89.94
300.136	84.94
300.366	79.94
300.597	84.94
300.827	84.94
301.057	91.94
301.288	73.94
301.518	85.94
301.748	78.94
301.979	70.94
302.209	92.94
302.439	79.94
302.669	82.94
302.9	74.94
303.13	82.94
303.36	85.94
303.59	79.94
303.82	90.94
304.051	92.94
304.281	93.94
304.511	95.94
304.741	83.94
304.971	71.94
305.201	79.94
305.431	80.94
305.661	86.94
305.891	80.94
306.121	94.94
306.352	80.94
306.582	91.94
306.812	74.94
307.042	81.94
307.272	71.94
307.502	85.94
307.731	73.94
307.961	81.94
308.191	87.94
308.421	82.94
308.651	91.94
308.881	85.94
309.111	78.94
309.341	78.94
309.571	63.94
309.8	71.94
310.03	80.94
310.26	84.94
310.49	87.94
310.72	80.94
310.949	65.94
311.179	88.94
311.409	72.94
311.639	81.94
311.868	71.94
312.098	74.94
312.328	85.94
312.557	79.94
312.787	81.94
313.017	77.94
313.246	81.94
313.476	86.94
313.706	75.94
313.935	83.94
314.165	65.94
314.394	71.94
314.624	83.94
314.853	90.94
315.083	85.94
315.312	96.94
315.542	86.94
315.771	78.94
316.001	67.94
316.23	67.94
316.46	83.94
316.689	79.94
316.919	81.94
317.148	87.94
317.377	82.94
317.607	81.94
317.836	91.94
318.065	98.94
318.295	83.94
318.524	76.94
318.753	83.94
318.983	74.94
319.212	97.94
319.441	67.94
319.67	80.94
319.9	90.94
320.129	80.94
320.358	87.94
320.587	75.94
320.816	77.94
321.046	75.94
321.275	78.94
321.504	78.94
321.733	93.94
321.962	80.94
322.191	90.94
322.42	78.94
322.649	87.94
322.878	86.94
323.108	89.94
323.337	74.94
323.566	85.94
323.795	85.94
324.024	94.94
324.253	94.94
324.482	73.94
324.71	81.94
324.939	94.94
325.168	73.94
325.397	85.94
325.626	77.94
325.855	76.94
326.084	82.94
326.313	74.94
326.542	80.94
326.77	87.94
326.999	77.94
327.228	85.94
327.457	49.94
327.686	79.94
327.914	70.94
328.143	75.94
328.372	85.94
328.6	75.94
328.829	68.94
329.058	79.94
329.287	76.94
329.515	84.94
329.744	85.94
329.972	78.94
330.201	78.94
330.43	86.94
330.658	73.94
330.887	90.94
331.115	79.94
331.344	86.94
331.572	78.94
331.801	77.94
332.03	79.94
332.258	83.94
332.486	74.94
332.715	72.94
332.943	87.94
333.172	71.94
333.4	88.94
333.629	72.94
333.857	87.94
334.085	85.94
334.314	82.94
334.542	73.94
334.771	77.94
334.999	75.94
335.227	79.94
335.455	87.94
335.684	83.94
335.912	72.94
336.14	72.94
336.369	71.94
336.597	80.94
336.825	83.94
337.053	75.94
337.281	78.94
337.51	78.94
337.738	68.94
337.966	73.94
338.194	58.94
338.422	71.94
338.65	83.94
338.878	76.94
339.106	75.94
339.334	75.94
339.562	74.94
339.79	74.94
340.018	75.94
340.246	91.94
340.474	83.94
340.702	82.94
340.93	78.94
341.158	77.94
341.386	71.94
341.614	71.94
341.842	90.94
342.07	77.94
342.298	74.94
342.526	62.94
342.754	89.94
342.981	80.94
343.209	78.94
343.437	88.94
343.665	93.94
343.893	78.94
344.12	87.94
344.348	87.94
344.576	88.94
344.804	71.94
345.031	73.94
345.259	83.94
345.487	70.94
345.714	78.94
345.942	74.94
346.17	83.94
346.397	80.94
346.625	83.94
346.853	82.94
347.08	76.94
347.308	88.94
347.535	91.94
347.763	73.94
347.99	78.94
348.218	87.94
348.445	79.94
348.673	74.94
348.9	90.94
349.128	85.94
349.355	94.94
349.583	84.94
349.81	93.94
350.037	72.94
350.265	78.94
350.492	85.94
350.72	79.94
350.947	68.94
351.174	74.94
351.402	98.94
351.629	80.94
351.856	82.94
352.083	74.94
352.311	78.94
352.538	83.94
352.765	79.94
352.992	78.94
353.22	85.94
353.447	74.94
353.674	81.94
353.901	80.94
354.128	89.94
354.355	80.94
354.583	66.94
354.81	86.94
355.037	78.94
355.264	74.94
355.491	81.94
355.718	79.94
355.945	74.94
356.172	63.94
356.399	96.94
356.626	75.94
356.853	84.94
357.08	91.94
357.307	78.94
357.534	75.94
357.761	72.94
357.988	96.94
358.215	86.94
358.441	79.94
358.668	91.94
358.895	90.94
359.122	85.94
359.349	89.94
359.576	83.94
359.802	78.94
360.029	76.94
360.256	84.94
360.483	74.94
360.709	82.94
360.936	78.94
361.163	83.94
361.39	67.94
361.616	84.94
361.843	67.94
362.07	67.94
362.296	79.94
362.523	80.94
362.749	69.94
362.976	73.94
363.203	86.94
363.429	66.94
363.656	69.94
363.882	76.94
364.109	93.94
364.335	84.94
364.562	85.94
364.788	74.94
365.015	80.94
365.241	91.94
365.468	85.94
365.694	77.94
365.92	79.94
366.147	63.94
366.373	74.94
366.599	68.94
366.826	82.94
367.052	82.94
367.278	88.94
367.505	85.94
367.731	74.94
367.957	64.94
368.184	72.94
368.41	79.94
368.636	79.94
368.862	81.94
369.089	73.94
369.315	85.94
369.541	83.94
369.767	77.94
369.993	74.94
370.219	87.94
370.445	68.94
370.672	68.94
370.898	83.94
371.124	76.94
371.35	80.94
371.576	82.94
371.802	73.94
372.028	100.94
372.254	91.94
372.48	98.94
372.706	76.94
372.932	88.94
373.158	89.94
373.384	78.94
373.61	85.94
373.835	82.94
374.061	87.94
374.287	86.94
374.513	65.94
374.739	80.94
374.965	74.94
375.191	77.94
375.416	81.94
375.642	79.94
375.868	89.94
376.094	80.94
376.319	78.94
376.545	89.94
376.771	86.94
376.997	80.94
377.222	81.94
377.448	71.94
377.674	67.94
377.899	72.94
378.125	80.94
378.35	87.94
378.576	97.94
378.802	70.94
379.027	79.94
379.253	68.94
379.478	78.94
379.704	83.94
379.929	68.94
380.155	73.94
380.38	83.94
380.606	81.94
380.831	73.94
381.057	82.94
381.282	72.94
381.507	85.94
381.733	85.94
381.958	66.94
382.184	73.94
382.409	83.94
382.634	80.94
382.86	76.94
383.085	84.94
383.31	88.94
383.535	74.94
383.761	74.94
383.986	86.94
384.211	76.94
384.436	75.94
384.662	78.94
384.887	84.94
385.112	76.94
385.337	82.94
385.562	85.94
385.787	80.94
386.013	92.94
386.238	86.94
386.463	61.94
386.688	84.94
386.913	76.94
387.138	78.94
387.363	86.94
387.588	73.94
387.813	78.94
388.038	81.94
388.263	78.94
388.488	84.94
388.713	90.94
388.938	79.94
389.163	92.94
389.387	68.94
389.612	71.94
389.837	79.94
390.062	74.94
390.287	71.94
390.512	70.94
390.736	76.94
390.961	82.94
391.186	77.94
391.411	84.94
391.636	77.94
391.86	61.94
392.085	80.94
392.31	76.94
392.534	81.94
392.759	87.94
392.984	73.94
393.208	81.94
393.433	74.94
393.658	98.94
393.882	75.94
394.107	89.94
394.331	88.94
394.556	94.94
394.78	89.94
395.005	69.94
395.229	69.94
395.454	77.94
395.678	63.94
395.903	82.94
396.127	84.94
396.352	97.94
396.576	88.94
396.801	85.94
397.025	77.94
397.249	92.94
397.474	84.94
397.698	80.94
397.922	87.94
398.147	102.94
398.371	82.94
398.595	77.94
398.82	71.94
399.044	85.94
399.268	80.94
399.492	76.94
399.717	73.94
399.941	74.94
400.165	83.94
400.389	73.94
400.613	90.94
400.837	88.94
401.062	81.94
401.286	80.94
401.51	78.94
401.734	83.94
401.958	82.94
402.182	78.94
402.406	87.94
402.63	100.94
402.854	66.94
403.078	77.94
403.302	90.94
403.526	80.94
403.75	70.94
403.974	83.94
404.198	86.94
404.422	74.94
404.645	85.94
404.869	73.94
405.093	77.94
405.317	92.94
405.541	86.94
405.765	79.94
405.988	92.94
406.212	93.94
406.436	87.94
406.66	90.94
406.883	82.94
407.107	80.94
407.331	88.94
407.555	90.94
407.778	91.94
408.002	87.94
408.226	84.94
408.449	90.94
408.673	79.94
408.896	86.94
409.12	90.94
409.344	79.94
409.567	82.94
409.791	79.94
410.014	87.94
410.238	77.94
410.461	71.94
410.685	79.94
410.908	91.94
411.132	97.94
411.355	90.94
411.578	70.94
411.802	70.94
412.025	84.94
412.249	87.94
412.472	65.94
412.695	83.94
412.919	84.94
413.142	93.94
413.365	86.94
413.589	74.94
413.812	79.94
414.035	83.94
414.258	90.94
414.482	76.94
414.705	77.94
414.928	89.94
415.151	81.94
415.374	97.94
415.597	93.94
415.821	79.94
416.044	81.94
416.267	93.94
416.49	83.94
416.713	83.94
416.936	78.94
417.159	85.94
417.382	90.94
417.605	67.94
417.828	83.94
418.051	86.94
418.274	94.94
418.497	88.94
418.72	90.94
418.943	92.94
419.166	98.94
419.389	86.94
419.611	91.94
419.834	85.94
420.057	91.94
420.28	87.94
420.503	77.94
420.726	95.94
420.948	74.94
421.171	90.94
421.394	77.94
421.617	85.94
421.839	75.94
422.062	94.94
422.285	91.94
422.507	86.94
422.73	86.94
422.953	84.94
423.175	77.94
423.398	85.94
423.621	79.94
423.843	83.94
424.066	85.94
424.288	81.94
424.511	91.94
424.733	85.94
424.956	89.94
425.178	82.94
425.401	109.94
425.623	81.94
425.846	87.94
426.068	96.94
426.291	88.94
426.513	82.94
426.735	90.94
426.958	84.94
427.18	76.94
427.402	85.94
427.625	91.94
427.847	82.94
428.069	81.94
428.292	97.94
428.514	89.94
428.736	90.94
428.958	86.94
429.181	91.94
429.403	87.94
429.625	94.94
429.847	93.94
430.069	84.94
430.292	83.94
430.514	85.94
430.736	80.94
430.958	82.94
431.18	80.94
431.402	85.94
431.624	78.94
431.846	96.94
432.068	75.94
432.29	75.94
432.512	78.94
432.734	87.94
432.956	93.94
433.178	92.94
433.4	92.94
433.622	98.94
433.844	81.94
434.066	71.94
434.287	77.94
434.509	68.94
434.731	83.94
434.953	73.94
435.175	88.94
435.397	89.94
435.618	87.94
435.84	89.94
436.062	77.94
436.284	79.94
436.505	93.94
436.727	81.94
436.949	77.94
437.17	84.94
437.392	89.94
437.614	77.94
437.835	85.94
438.057	72.94
438.278	98.94
438.5	97.94
438.721	92.94
438.943	84.94
439.165	78.94
439.386	82.94
439.608	90.94
439.829	81.94
440.05	87.94
440.272	87.94
440.493	75.94
440.715	98.94
440.936	98.94
441.158	83.94
441.379	97.94
441.6	96.94
441.822	91.94
442.043	86.94
442.264	92.94
442.486	79.94
442.707	84.94
442.928	79.94
443.149	91.94
443.371	91.94
443.592	94.94
443.813	100.94
444.034	85.94
444.255	89.94
444.476	77.94
444.698	92.94
444.919	82.94
445.14	208.94
445.361	141.94
445.582	78.94
445.803	98.94
446.024	79.94
446.245	102.94
446.466	107.94
446.687	85.94
446.908	94.94
447.129	100.94
447.35	90.94
447.571	92.94
447.792	88.94
448.013	93.94
448.234	94.94
448.455	89.94
448.675	86.94
448.896	98.94
449.117	83.94
449.338	90.94
449.559	86.94
449.779	94.94
450	93.94
450.221	92.94
450.442	89.94
450.662	83.94
450.883	82.94
451.104	79.94
451.324	79.94
451.545	88.94
451.766	87.94
451.986	67.94
452.207	85.94
452.428	84.94
452.648	88.94
452.869	88.94
453.089	86.94
453.31	68.94
453.53	68.94
453.751	80.94
453.971	76.94
454.192	88.94
454.412	85.94
454.633	76.94
454.853	78.94
455.073	84.94
455.294	92.94
455.514	89.94
455.734	80.94
455.955	93.94
456.175	93.94
456.395	80.94
456.616	93.94
456.836	95.94
457.056	71.94
457.276	84.94
457.497	89.94
457.717	80.94
457.937	83.94
458.157	93.94
458.377	75.94
458.598	69.94
458.818	76.94
459.038	74.94
459.258	78.94
459.478	79.94
459.698	74.94
459.918	83.94
460.138	77.94
460.358	84.94
460.578	85.94
460.798	79.94
461.018	89.94
461.238	89.94
461.458	89.94
461.678	93.94
461.898	83.94
462.118	73.94
462.338	92.94
462.558	88.94
462.777	78.94
462.997	83.94
463.217	81.94
463.437	63.94
463.657	85.94
463.876	79.94
464.096	82.94
464.316	78.94
464.536	79.94
464.755	88.94
464.975	92.94
465.195	86.94
465.414	85.94
465.634	80.94
465.854	82.94
466.073	84.94
466.293	87.94
466.512	89.94
466.732	72.94
466.951	77.94
467.171	83.94
467.391	90.94
467.61	83.94
467.829	95.94
468.049	78.94
468.268	85.94
468.488	92.94
468.707	95.94
468.927	84.94
469.146	92.94
469.365	102.94
469.585	83.94
469.804	91.94
470.023	104.94
470.243	81.94
470.462	92.94
470.681	101.94
470.901	81.94
471.12	91.94
471.339	107.94
471.558	100.94
471.777	105.94
471.997	89.94
472.216	84.94
472.435	81.94
472.654	71.94
472.873	90.94
473.092	92.94
473.311	94.94
473.53	91.94
473.749	90.94
473.968	71.94
474.187	97.94
474.406	95.94
474.625	94.94
474.844	84.94
475.063	90.94
475.282	86.94
475.501	77.94
475.72	90.94
475.939	98.94
476.158	87.94
476.377	82.94
476.596	89.94
476.814	76.94
477.033	79.94
477.252	81.94
477.471	90.94
477.69	86.94
477.908	89.94
478.127	94.94
478.346	84.94
478.564	87.94
478.783	89.94
479.002	92.94
479.22	98.94
479.439	82.94
479.658	77.94
479.876	98.94
480.095	81.94
480.313	75.94
480.532	84.94
480.751	101.94
480.969	75.94
481.188	65.94
481.406	90.94
481.624	87.94
481.843	83.94
482.061	82.94
482.28	79.94
482.498	77.94
482.717	79.94
482.935	88.94
483.153	110.94
483.372	92.94
483.59	74.94
483.808	91.94
484.027	95.94
484.245	82.94
484.463	79.94
484.681	90.94
484.9	116.94
485.118	81.94
485.336	84.94
485.554	95.94
485.772	97.94
485.99	82.94
486.209	85.94
486.427	77.94
486.645	87.94
486.863	87.94
487.081	95.94
487.299	97.94
487.517	113.94
487.735	100.94
487.953	103.94
488.171	98.94
488.389	103.94
488.607	93.94
488.825	91.94
489.043	91.94
489.261	89.94
489.479	98.94
489.696	95.94
489.914	93.94
490.132	102.94
490.35	111.94
490.568	99.94
490.786	91.94
491.003	80.94
491.221	107.94
491.439	115.94
491.657	109.94
491.874	91.94
492.092	113.94
492.31	118.94
492.527	115.94
492.745	112.94
492.963	117.94
493.18	110.94
493.398	112.94
493.615	109.94
493.833	101.94
494.05	99.94
494.268	110.94
494.485	101.94
494.703	101.94
494.92	101.94
495.138	108.94
495.355	109.94
495.573	85.94
495.79	93.94
496.008	95.94
496.225	105.94
496.442	116.94
496.66	110.94
496.877	94.94
497.094	102.94
497.312	100.94
497.529	91.94
497.746	97.94
497.963	79.94
498.181	85.94
498.398	84.94
498.615	87.94
498.832	96.94
499.049	93.94
499.267	86.94
499.484	102.94
499.701	85.94
499.918	109.94
500.135	95.94
500.352	98.94
500.569	98.94
500.786	101.94
501.003	91.94
501.22	95.94
501.437	85.94
501.654	94.94
501.871	86.94
502.088	95.94
502.305	89.94
502.522	94.94
502.739	80.94
502.956	88.94
503.172	87.94
503.389	89.94
503.606	70.94
503.823	73.94
504.04	90.94
504.256	90.94
504.473	91.94
504.69	97.94
504.907	84.94
505.123	89.94
505.34	97.94
505.557	86.94
505.773	90.94
505.99	93.94
506.207	84.94
506.423	96.94
506.64	98.94
506.856	90.94
507.073	86.94
507.289	93.94
507.506	86.94
507.722	76.94
507.939	94.94
508.155	109.94
508.372	76.94
508.588	92.94
508.805	97.94
509.021	95.94
509.238	76.94
509.454	90.94
509.67	95.94
509.887	76.94
510.103	90.94
510.319	79.94
510.536	81.94
510.752	78.94
510.968	67.94
511.184	87.94
511.401	90.94
511.617	77.94
511.833	74.94
512.049	81.94
512.265	79.94
512.481	86.94
512.698	81.94
512.914	97.94
513.13	70.94
513.346	63.94
513.562	76.94
513.778	87.94
513.994	91.94
514.21	80.94
514.426	68.94
514.642	76.94
514.858	86.94
515.074	83.94
515.29	94.94
515.506	82.94
515.721	80.94
515.937	83.94
516.153	74.94
516.369	84.94
516.585	88.94
516.801	73.94
517.016	99.94
517.232	86.94
517.448	75.94
517.664	77.94
517.879	84.94
518.095	92.94
518.311	89.94
518.527	78.94
518.742	83.94
