Data from Location5.07152019.Energy5.Lamp.07192019.3%Agarose_HRD10591_15-36-56-387.txt Node
Date: Fri Jul 19 15:36:56 EDT 2019
User: cochatt
Spectrometer: HR+D1059
Trigger mode: 1
Integration Time (sec): 1.000000E-1
Scans to average: 1
Electric dark correction enabled: true
Nonlinearity correction enabled: false
Boxcar width: 0
XAxis mode: Wavelengths
Number of Pixels in Spectrum: 2048
>>>>>Begin Spectral Data<<<<<
223.165	1.5
223.4	1.5
223.635	1.5
223.869	-14.5
224.104	-22.5
224.338	-3.5
224.573	-19.5
224.808	-23.5
225.042	-8.5
225.277	4.5
225.511	13.5
225.746	8.5
225.98	-5.5
226.215	7.5
226.449	6.5
226.683	15.5
226.918	26.5
227.152	13.5
227.387	32.5
227.621	34.5
227.856	37.5
228.09	49.5
228.324	50.5
228.559	52.5
228.793	60.5
229.027	56.5
229.262	65.5
229.496	66.5
229.73	68.5
229.964	82.5
230.199	64.5
230.433	75.5
230.667	85.5
230.901	97.5
231.136	82.5
231.37	68.5
231.604	82.5
231.838	72.5
232.072	79.5
232.306	75.5
232.541	74.5
232.775	89.5
233.009	87.5
233.243	77.5
233.477	83.5
233.711	71.5
233.945	91.5
234.179	85.5
234.413	70.5
234.647	82.5
234.881	71.5
235.115	80.5
235.349	86.5
235.583	59.5
235.817	89.5
236.051	72.5
236.285	85.5
236.519	88.5
236.753	82.5
236.987	87.5
237.221	80.5
237.455	80.5
237.689	79.5
237.922	58.5
238.156	76.5
238.39	74.5
238.624	86.5
238.858	80.5
239.091	79.5
239.325	84.5
239.559	69.5
239.793	81.5
240.027	75.5
240.26	75.5
240.494	74.5
240.728	81.5
240.961	83.5
241.195	58.5
241.429	72.5
241.662	86.5
241.896	77.5
242.13	73.5
242.363	82.5
242.597	73.5
242.83	85.5
243.064	97.5
243.298	61.5
243.531	70.5
243.765	79.5
243.998	69.5
244.232	68.5
244.465	79.5
244.699	77.5
244.932	80.5
245.166	73.5
245.399	78.5
245.633	74.5
245.866	71.5
246.099	75.5
246.333	72.5
246.566	74.5
246.8	81.5
247.033	87.5
247.266	74.5
247.5	73.5
247.733	74.5
247.966	63.5
248.2	68.5
248.433	80.5
248.666	78.5
248.899	79.5
249.133	54.5
249.366	72.5
249.599	80.5
249.832	84.5
250.066	90.5
250.299	77.5
250.532	74.5
250.765	79.5
250.998	85.5
251.231	75.5
251.465	83.5
251.698	76.5
251.931	68.5
252.164	82.5
252.397	78.5
252.63	63.5
252.863	76.5
253.096	78.5
253.329	74.5
253.562	79.5
253.795	79.5
254.028	77.5
254.261	89.5
254.494	96.5
254.727	89.5
254.96	68.5
255.193	82.5
255.426	85.5
255.659	82.5
255.892	69.5
256.124	85.5
256.357	74.5
256.59	64.5
256.823	80.5
257.056	82.5
257.289	68.5
257.521	79.5
257.754	68.5
257.987	80.5
258.22	85.5
258.452	67.5
258.685	83.5
258.918	73.5
259.151	72.5
259.383	88.5
259.616	74.5
259.849	64.5
260.081	83.5
260.314	85.5
260.547	85.5
260.779	82.5
261.012	93.5
261.244	74.5
261.477	83.5
261.71	88.5
261.942	80.5
262.175	86.5
262.407	73.5
262.64	77.5
262.872	86.5
263.105	85.5
263.337	80.5
263.57	83.5
263.802	70.5
264.035	79.5
264.267	74.5
264.499	83.5
264.732	81.5
264.964	83.5
265.197	80.5
265.429	71.5
265.661	82.5
265.894	90.5
266.126	70.5
266.358	71.5
266.591	77.5
266.823	79.5
267.055	68.5
267.287	73.5
267.52	79.5
267.752	94.5
267.984	86.5
268.216	91.5
268.448	90.5
268.681	60.5
268.913	84.5
269.145	75.5
269.377	84.5
269.609	80.5
269.841	74.5
270.073	83.5
270.306	86.5
270.538	80.5
270.77	77.5
271.002	85.5
271.234	76.5
271.466	77.5
271.698	69.5
271.93	81.5
272.162	89.5
272.394	99.5
272.626	77.5
272.858	80.5
273.09	73.5
273.322	70.5
273.553	82.5
273.785	87.5
274.017	71.5
274.249	82.5
274.481	85.5
274.713	81.5
274.945	80.5
275.176	77.5
275.408	76.5
275.64	71.5
275.872	75.5
276.104	90.5
276.335	81.5
276.567	90.5
276.799	85.5
277.031	86.5
277.262	75.5
277.494	85.5
277.726	88.5
277.957	79.5
278.189	79.5
278.421	87.5
278.652	79.5
278.884	90.5
279.115	86.5
279.347	86.5
279.579	72.5
279.81	97.5
280.042	93.5
280.273	77.5
280.505	80.5
280.736	78.5
280.968	85.5
281.199	60.5
281.431	69.5
281.662	73.5
281.894	81.5
282.125	77.5
282.356	82.5
282.588	80.5
282.819	90.5
283.051	72.5
283.282	88.5
283.513	86.5
283.745	85.5
283.976	76.5
284.207	97.5
284.439	86.5
284.67	84.5
284.901	87.5
285.132	80.5
285.364	79.5
285.595	82.5
285.826	75.5
286.057	92.5
286.288	82.5
286.52	85.5
286.751	87.5
286.982	82.5
287.213	74.5
287.444	82.5
287.675	91.5
287.906	87.5
288.138	89.5
288.369	80.5
288.6	71.5
288.831	81.5
289.062	83.5
289.293	82.5
289.524	75.5
289.755	90.5
289.986	74.5
290.217	78.5
290.448	89.5
290.679	92.5
290.91	89.5
291.141	77.5
291.371	82.5
291.602	82.5
291.833	60.5
292.064	78.5
292.295	85.5
292.526	91.5
292.757	87.5
292.987	70.5
293.218	58.5
293.449	95.5
293.68	87.5
293.91	79.5
294.141	85.5
294.372	76.5
294.603	79.5
294.833	81.5
295.064	80.5
295.295	93.5
295.525	88.5
295.756	82.5
295.987	80.5
296.217	69.5
296.448	71.5
296.679	77.5
296.909	83.5
297.14	70.5
297.37	90.5
297.601	87.5
297.831	89.5
298.062	87.5
298.292	80.5
298.523	80.5
298.753	88.5
298.984	80.5
299.214	77.5
299.445	86.5
299.675	80.5
299.905	93.5
300.136	97.5
300.366	71.5
300.597	81.5
300.827	94.5
301.057	75.5
301.288	88.5
301.518	87.5
301.748	78.5
301.979	85.5
302.209	94.5
302.439	77.5
302.669	75.5
302.9	84.5
303.13	83.5
303.36	89.5
303.59	79.5
303.82	79.5
304.051	82.5
304.281	94.5
304.511	88.5
304.741	84.5
304.971	79.5
305.201	90.5
305.431	73.5
305.661	78.5
305.891	94.5
306.121	75.5
306.352	75.5
306.582	99.5
306.812	88.5
307.042	89.5
307.272	90.5
307.502	85.5
307.731	56.5
307.961	85.5
308.191	74.5
308.421	81.5
308.651	85.5
308.881	82.5
309.111	87.5
309.341	81.5
309.571	88.5
309.8	82.5
310.03	90.5
310.26	95.5
310.49	94.5
310.72	68.5
310.949	89.5
311.179	98.5
311.409	92.5
311.639	78.5
311.868	73.5
312.098	85.5
312.328	93.5
312.557	72.5
312.787	81.5
313.017	77.5
313.246	94.5
313.476	92.5
313.706	70.5
313.935	80.5
314.165	90.5
314.394	93.5
314.624	95.5
314.853	81.5
315.083	86.5
315.312	90.5
315.542	83.5
315.771	74.5
316.001	85.5
316.23	77.5
316.46	79.5
316.689	85.5
316.919	83.5
317.148	79.5
317.377	82.5
317.607	98.5
317.836	75.5
318.065	97.5
318.295	74.5
318.524	76.5
318.753	71.5
318.983	79.5
319.212	87.5
319.441	85.5
319.67	84.5
319.9	85.5
320.129	88.5
320.358	77.5
320.587	78.5
320.816	71.5
321.046	94.5
321.275	83.5
321.504	93.5
321.733	87.5
321.962	82.5
322.191	81.5
322.42	68.5
322.649	94.5
322.878	83.5
323.108	91.5
323.337	84.5
323.566	78.5
323.795	83.5
324.024	98.5
324.253	80.5
324.482	67.5
324.71	80.5
324.939	86.5
325.168	85.5
325.397	75.5
325.626	76.5
325.855	87.5
326.084	91.5
326.313	80.5
326.542	92.5
326.77	75.5
326.999	88.5
327.228	71.5
327.457	95.5
327.686	71.5
327.914	102.5
328.143	102.5
328.372	77.5
328.6	82.5
328.829	97.5
329.058	79.5
329.287	90.5
329.515	85.5
329.744	83.5
329.972	75.5
330.201	81.5
330.43	94.5
330.658	81.5
330.887	83.5
331.115	81.5
331.344	65.5
331.572	68.5
331.801	75.5
332.03	82.5
332.258	72.5
332.486	75.5
332.715	86.5
332.943	70.5
333.172	79.5
333.4	79.5
333.629	69.5
333.857	90.5
334.085	81.5
334.314	88.5
334.542	80.5
334.771	87.5
334.999	84.5
335.227	76.5
335.455	82.5
335.684	88.5
335.912	91.5
336.14	76.5
336.369	81.5
336.597	88.5
336.825	72.5
337.053	86.5
337.281	87.5
337.51	82.5
337.738	87.5
337.966	98.5
338.194	93.5
338.422	92.5
338.65	81.5
338.878	88.5
339.106	70.5
339.334	66.5
339.562	84.5
339.79	87.5
340.018	82.5
340.246	83.5
340.474	82.5
340.702	76.5
340.93	89.5
341.158	72.5
341.386	83.5
341.614	80.5
341.842	86.5
342.07	87.5
342.298	84.5
342.526	85.5
342.754	80.5
342.981	83.5
343.209	77.5
343.437	80.5
343.665	79.5
343.893	89.5
344.12	77.5
344.348	91.5
344.576	84.5
344.804	84.5
345.031	78.5
345.259	82.5
345.487	74.5
345.714	86.5
345.942	67.5
346.17	93.5
346.397	73.5
346.625	88.5
346.853	86.5
347.08	76.5
347.308	87.5
347.535	85.5
347.763	86.5
347.99	85.5
348.218	91.5
348.445	89.5
348.673	82.5
348.9	84.5
349.128	88.5
349.355	85.5
349.583	92.5
349.81	79.5
350.037	94.5
350.265	71.5
350.492	90.5
350.72	86.5
350.947	79.5
351.174	74.5
351.402	87.5
351.629	73.5
351.856	76.5
352.083	93.5
352.311	93.5
352.538	68.5
352.765	76.5
352.992	85.5
353.22	90.5
353.447	79.5
353.674	86.5
353.901	72.5
354.128	94.5
354.355	81.5
354.583	70.5
354.81	79.5
355.037	78.5
355.264	85.5
355.491	97.5
355.718	73.5
355.945	87.5
356.172	78.5
356.399	92.5
356.626	89.5
356.853	74.5
357.08	90.5
357.307	75.5
357.534	93.5
357.761	82.5
357.988	70.5
358.215	78.5
358.441	72.5
358.668	85.5
358.895	81.5
359.122	78.5
359.349	88.5
359.576	81.5
359.802	73.5
360.029	73.5
360.256	71.5
360.483	74.5
360.709	84.5
360.936	96.5
361.163	78.5
361.39	89.5
361.616	90.5
361.843	87.5
362.07	71.5
362.296	70.5
362.523	75.5
362.749	78.5
362.976	78.5
363.203	80.5
363.429	85.5
363.656	86.5
363.882	72.5
364.109	91.5
364.335	86.5
364.562	86.5
364.788	93.5
365.015	76.5
365.241	80.5
365.468	89.5
365.694	62.5
365.92	81.5
366.147	79.5
366.373	83.5
366.599	83.5
366.826	79.5
367.052	88.5
367.278	79.5
367.505	80.5
367.731	78.5
367.957	74.5
368.184	75.5
368.41	81.5
368.636	74.5
368.862	82.5
369.089	73.5
369.315	74.5
369.541	88.5
369.767	85.5
369.993	83.5
370.219	85.5
370.445	83.5
370.672	87.5
370.898	82.5
371.124	83.5
371.35	98.5
371.576	91.5
371.802	69.5
372.028	68.5
372.254	84.5
372.48	95.5
372.706	89.5
372.932	81.5
373.158	89.5
373.384	102.5
373.61	73.5
373.835	87.5
374.061	83.5
374.287	92.5
374.513	56.5
374.739	84.5
374.965	80.5
375.191	71.5
375.416	102.5
375.642	86.5
375.868	91.5
376.094	80.5
376.319	82.5
376.545	68.5
376.771	85.5
376.997	93.5
377.222	89.5
377.448	73.5
377.674	91.5
377.899	82.5
378.125	77.5
378.35	89.5
378.576	86.5
378.802	80.5
379.027	89.5
379.253	88.5
379.478	93.5
379.704	94.5
379.929	72.5
380.155	80.5
380.38	95.5
380.606	80.5
380.831	74.5
381.057	69.5
381.282	83.5
381.507	78.5
381.733	82.5
381.958	87.5
382.184	74.5
382.409	75.5
382.634	86.5
382.86	74.5
383.085	88.5
383.31	95.5
383.535	84.5
383.761	91.5
383.986	80.5
384.211	79.5
384.436	93.5
384.662	83.5
384.887	67.5
385.112	68.5
385.337	85.5
385.562	86.5
385.787	80.5
386.013	87.5
386.238	84.5
386.463	69.5
386.688	85.5
386.913	75.5
387.138	88.5
387.363	82.5
387.588	87.5
387.813	97.5
388.038	86.5
388.263	89.5
388.488	78.5
388.713	86.5
388.938	79.5
389.163	88.5
389.387	99.5
389.612	76.5
389.837	99.5
390.062	92.5
390.287	79.5
390.512	83.5
390.736	89.5
390.961	85.5
391.186	82.5
391.411	93.5
391.636	106.5
391.86	93.5
392.085	97.5
392.31	92.5
392.534	70.5
392.759	94.5
392.984	85.5
393.208	72.5
393.433	84.5
393.658	90.5
393.882	85.5
394.107	84.5
394.331	103.5
394.556	83.5
394.78	87.5
395.005	75.5
395.229	75.5
395.454	81.5
395.678	90.5
395.903	87.5
396.127	95.5
396.352	90.5
396.576	87.5
396.801	87.5
397.025	82.5
397.249	94.5
397.474	78.5
397.698	79.5
397.922	91.5
398.147	82.5
398.371	81.5
398.595	99.5
398.82	99.5
399.044	73.5
399.268	82.5
399.492	91.5
399.717	90.5
399.941	80.5
400.165	98.5
400.389	83.5
400.613	75.5
400.837	89.5
401.062	87.5
401.286	96.5
401.51	89.5
401.734	90.5
401.958	93.5
402.182	83.5
402.406	75.5
402.63	85.5
402.854	78.5
403.078	84.5
403.302	89.5
403.526	95.5
403.75	80.5
403.974	90.5
404.198	86.5
404.422	82.5
404.645	85.5
404.869	85.5
405.093	85.5
405.317	96.5
405.541	86.5
405.765	100.5
405.988	87.5
406.212	95.5
406.436	98.5
406.66	90.5
406.883	82.5
407.107	78.5
407.331	86.5
407.555	90.5
407.778	82.5
408.002	85.5
408.226	82.5
408.449	93.5
408.673	99.5
408.896	84.5
409.12	97.5
409.344	90.5
409.567	82.5
409.791	84.5
410.014	91.5
410.238	87.5
410.461	83.5
410.685	84.5
410.908	93.5
411.132	95.5
411.355	87.5
411.578	94.5
411.802	90.5
412.025	85.5
412.249	95.5
412.472	96.5
412.695	86.5
412.919	87.5
413.142	91.5
413.365	92.5
413.589	90.5
413.812	91.5
414.035	103.5
414.258	95.5
414.482	94.5
414.705	106.5
414.928	89.5
415.151	75.5
415.374	78.5
415.597	98.5
415.821	90.5
416.044	91.5
416.267	100.5
416.49	102.5
416.713	89.5
416.936	90.5
417.159	97.5
417.382	94.5
417.605	78.5
417.828	86.5
418.051	81.5
418.274	91.5
418.497	99.5
418.72	90.5
418.943	84.5
419.166	79.5
419.389	99.5
419.611	74.5
419.834	89.5
420.057	97.5
420.28	86.5
420.503	83.5
420.726	95.5
420.948	85.5
421.171	93.5
421.394	82.5
421.617	85.5
421.839	99.5
422.062	87.5
422.285	84.5
422.507	85.5
422.73	84.5
422.953	91.5
423.175	101.5
423.398	96.5
423.621	103.5
423.843	89.5
424.066	112.5
424.288	91.5
424.511	94.5
424.733	84.5
424.956	74.5
425.178	100.5
425.401	91.5
425.623	97.5
425.846	72.5
426.068	84.5
426.291	97.5
426.513	80.5
426.735	89.5
426.958	82.5
427.18	91.5
427.402	100.5
427.625	85.5
427.847	91.5
428.069	87.5
428.292	88.5
428.514	84.5
428.736	94.5
428.958	75.5
429.181	84.5
429.403	98.5
429.625	95.5
429.847	110.5
430.069	89.5
430.292	104.5
430.514	104.5
430.736	91.5
430.958	93.5
431.18	95.5
431.402	113.5
431.624	78.5
431.846	93.5
432.068	86.5
432.29	80.5
432.512	95.5
432.734	94.5
432.956	97.5
433.178	85.5
433.4	86.5
433.622	100.5
433.844	85.5
434.066	101.5
434.287	77.5
434.509	83.5
434.731	93.5
434.953	81.5
435.175	95.5
435.397	72.5
435.618	78.5
435.84	86.5
436.062	84.5
436.284	94.5
436.505	89.5
436.727	97.5
436.949	91.5
437.17	100.5
437.392	93.5
437.614	74.5
437.835	96.5
438.057	81.5
438.278	85.5
438.5	98.5
438.721	83.5
438.943	89.5
439.165	96.5
439.386	93.5
439.608	96.5
439.829	100.5
440.05	81.5
440.272	101.5
440.493	105.5
440.715	81.5
440.936	78.5
441.158	97.5
441.379	91.5
441.6	101.5
441.822	78.5
442.043	95.5
442.264	96.5
442.486	92.5
442.707	90.5
442.928	103.5
443.149	90.5
443.371	95.5
443.592	94.5
443.813	86.5
444.034	91.5
444.255	83.5
444.476	96.5
444.698	92.5
444.919	97.5
445.14	177.5
445.361	133.5
445.582	103.5
445.803	95.5
446.024	93.5
446.245	101.5
446.466	92.5
446.687	93.5
446.908	102.5
447.129	88.5
447.35	96.5
447.571	110.5
447.792	94.5
448.013	80.5
448.234	97.5
448.455	98.5
448.675	97.5
448.896	88.5
449.117	102.5
449.338	100.5
449.559	79.5
449.779	96.5
450	103.5
450.221	104.5
450.442	88.5
450.662	87.5
450.883	75.5
451.104	89.5
451.324	93.5
451.545	69.5
451.766	85.5
451.986	92.5
452.207	87.5
452.428	83.5
452.648	94.5
452.869	92.5
453.089	86.5
453.31	81.5
453.53	90.5
453.751	80.5
453.971	82.5
454.192	81.5
454.412	93.5
454.633	83.5
454.853	95.5
455.073	82.5
455.294	91.5
455.514	86.5
455.734	90.5
455.955	80.5
456.175	93.5
456.395	71.5
456.616	85.5
456.836	85.5
457.056	96.5
457.276	84.5
457.497	85.5
457.717	96.5
457.937	82.5
458.157	85.5
458.377	85.5
458.598	78.5
458.818	94.5
459.038	69.5
459.258	67.5
459.478	87.5
459.698	80.5
459.918	79.5
460.138	73.5
460.358	90.5
460.578	98.5
460.798	92.5
461.018	78.5
461.238	84.5
461.458	70.5
461.678	69.5
461.898	95.5
462.118	85.5
462.338	86.5
462.558	94.5
462.777	84.5
462.997	84.5
463.217	86.5
463.437	95.5
463.657	91.5
463.876	81.5
464.096	92.5
464.316	90.5
464.536	72.5
464.755	84.5
464.975	98.5
465.195	90.5
465.414	85.5
465.634	75.5
465.854	78.5
466.073	89.5
466.293	89.5
466.512	89.5
466.732	83.5
466.951	89.5
467.171	94.5
467.391	91.5
467.61	110.5
467.829	91.5
468.049	82.5
468.268	102.5
468.488	88.5
468.707	105.5
468.927	93.5
469.146	97.5
469.365	95.5
469.585	92.5
469.804	97.5
470.023	95.5
470.243	87.5
470.462	95.5
470.681	99.5
470.901	100.5
471.12	104.5
471.339	99.5
471.558	76.5
471.777	95.5
471.997	98.5
472.216	102.5
472.435	87.5
472.654	86.5
472.873	98.5
473.092	92.5
473.311	93.5
473.53	92.5
473.749	98.5
473.968	85.5
474.187	89.5
474.406	77.5
474.625	94.5
474.844	84.5
475.063	91.5
475.282	90.5
475.501	82.5
475.72	96.5
475.939	70.5
476.158	85.5
476.377	82.5
476.596	81.5
476.814	73.5
477.033	97.5
477.252	88.5
477.471	86.5
477.69	91.5
477.908	94.5
478.127	106.5
478.346	95.5
478.564	91.5
478.783	93.5
479.002	92.5
479.22	101.5
479.439	98.5
479.658	81.5
479.876	73.5
480.095	86.5
480.313	79.5
480.532	82.5
480.751	84.5
480.969	77.5
481.188	85.5
481.406	99.5
481.624	75.5
481.843	74.5
482.061	95.5
482.28	81.5
482.498	102.5
482.717	94.5
482.935	97.5
483.153	86.5
483.372	86.5
483.59	106.5
483.808	95.5
484.027	98.5
484.245	93.5
484.463	94.5
484.681	101.5
484.9	95.5
485.118	84.5
485.336	91.5
485.554	89.5
485.772	82.5
485.99	85.5
486.209	88.5
486.427	75.5
486.645	82.5
486.863	95.5
487.081	102.5
487.299	99.5
487.517	94.5
487.735	96.5
487.953	105.5
488.171	97.5
488.389	97.5
488.607	112.5
488.825	104.5
489.043	85.5
489.261	80.5
489.479	89.5
489.696	83.5
489.914	99.5
490.132	112.5
490.35	97.5
490.568	99.5
490.786	103.5
491.003	99.5
491.221	111.5
491.439	97.5
491.657	111.5
491.874	118.5
492.092	116.5
492.31	121.5
492.527	114.5
492.745	121.5
492.963	106.5
493.18	104.5
493.398	118.5
493.615	91.5
493.833	103.5
494.05	110.5
494.268	114.5
494.485	101.5
494.703	97.5
494.92	108.5
495.138	102.5
495.355	101.5
495.573	98.5
495.79	102.5
496.008	92.5
496.225	101.5
496.442	105.5
496.66	93.5
496.877	91.5
497.094	104.5
497.312	93.5
497.529	102.5
497.746	101.5
497.963	105.5
498.181	90.5
498.398	80.5
498.615	98.5
498.832	90.5
499.049	85.5
499.267	89.5
499.484	92.5
499.701	90.5
499.918	109.5
500.135	103.5
500.352	83.5
500.569	89.5
500.786	104.5
501.003	94.5
501.22	115.5
501.437	110.5
501.654	79.5
501.871	79.5
502.088	91.5
502.305	95.5
502.522	93.5
502.739	99.5
502.956	80.5
503.172	94.5
503.389	92.5
503.606	85.5
503.823	101.5
504.04	98.5
504.256	93.5
504.473	91.5
504.69	86.5
504.907	82.5
505.123	98.5
505.34	89.5
505.557	99.5
505.773	93.5
505.99	92.5
506.207	93.5
506.423	90.5
506.64	79.5
506.856	93.5
507.073	105.5
507.289	101.5
507.506	90.5
507.722	98.5
507.939	95.5
508.155	76.5
508.372	84.5
508.588	82.5
508.805	94.5
509.021	81.5
509.238	90.5
509.454	98.5
509.67	84.5
509.887	84.5
510.103	89.5
510.319	84.5
510.536	80.5
510.752	91.5
510.968	79.5
511.184	89.5
511.401	81.5
511.617	93.5
511.833	80.5
512.049	95.5
512.265	72.5
512.481	92.5
512.698	87.5
512.914	81.5
513.13	74.5
513.346	96.5
513.562	89.5
513.778	89.5
513.994	74.5
514.21	82.5
514.426	78.5
514.642	70.5
514.858	72.5
515.074	73.5
515.29	84.5
515.506	72.5
515.721	74.5
515.937	72.5
516.153	85.5
516.369	91.5
516.585	83.5
516.801	71.5
517.016	86.5
517.232	87.5
517.448	85.5
517.664	98.5
517.879	91.5
518.095	82.5
518.311	80.5
518.527	92.5
518.742	80.5
518.958	80.5
519.173	90.5
519.389	78.5
519.605	80.5
519.82	92.5
520.036	90.5
520.251	74.5
520.467	93.5
520.682	90.5
520.898	103.5
521.113	80.5
521.329	77.5
521.544	74.5
521.76	81.5
521.975	97.5
522.19	94.5
522.406	78.5
522.621	83.5
522.836	88.5
523.052	95.5
523.267	100.5
523.482	81.5
523.698	83.5
523.913	79.5
524.128	87.5
524.343	103.5
524.559	78.5
524.774	89.5
524.989	103.5
525.204	100.5
525.419	74.5
525.634	81.5
525.849	81.5
526.064	91.5
526.28	90.5
526.495	79.5
526.71	80.5
526.925	90.5
527.14	78.5
527.355	78.5
527.57	79.5
527.785	85.5
527.999	84.5
528.214	83.5
528.429	82.5
528.644	91.5
528.859	88.5
529.074	103.5
529.289	101.5
529.503	102.5
529.718	97.5
529.933	73.5
530.148	78.5
530.363	78.5
530.577	57.5
530.792	78.5
531.007	101.5
531.221	80.5
531.436	69.5
531.651	89.5
531.865	90.5
532.08	79.5
532.295	84.5
532.509	90.5
532.724	84.5
532.938	88.5
533.153	89.5
533.367	87.5
533.582	98.5
533.796	86.5
534.011	88.5
534.225	80.5
534.44	86.5
534.654	91.5
534.868	98.5
535.083	85.5
535.297	93.5
535.511	89.5
535.726	79.5
535.94	93.5
536.154	80.5
536.369	69.5
536.583	75.5
536.797	95.5
537.011	82.5
537.225	84.5
537.44	87.5
537.654	81.5
537.868	86.5
538.082	91.5
538.296	86.5
538.51	93.5
