Data from Location5.07152019.Energy5.Lamp.07192019.3%Agarose_HRD10591_16-04-55-629.txt Node
Date: Fri Jul 19 16:04:55 EDT 2019
User: cochatt
Spectrometer: HR+D1059
Trigger mode: 1
Integration Time (sec): 1.000000E-1
Scans to average: 1
Electric dark correction enabled: true
Nonlinearity correction enabled: false
Boxcar width: 0
XAxis mode: Wavelengths
Number of Pixels in Spectrum: 2048
>>>>>Begin Spectral Data<<<<<
223.165	0.44
223.4	0.44
223.635	0.44
223.869	-10.56
224.104	-4.56
224.338	-21.56
224.573	-1.56
224.808	-7.56
225.042	-22.56
225.277	-11.56
225.511	0.44
225.746	1.44
225.98	12.44
226.215	1.44
226.449	22.44
226.683	5.44
226.918	23.44
227.152	12.44
227.387	30.44
227.621	37.44
227.856	42.44
228.09	41.44
228.324	54.44
228.559	62.44
228.793	47.44
229.027	55.44
229.262	65.44
229.496	55.44
229.73	73.44
229.964	78.44
230.199	63.44
230.433	75.44
230.667	72.44
230.901	82.44
231.136	70.44
231.37	81.44
231.604	86.44
231.838	80.44
232.072	95.44
232.306	84.44
232.541	86.44
232.775	74.44
233.009	89.44
233.243	88.44
233.477	80.44
233.711	88.44
233.945	89.44
234.179	74.44
234.413	85.44
234.647	81.44
234.881	96.44
235.115	84.44
235.349	87.44
235.583	91.44
235.817	81.44
236.051	63.44
236.285	73.44
236.519	80.44
236.753	82.44
236.987	88.44
237.221	73.44
237.455	77.44
237.689	76.44
237.922	79.44
238.156	71.44
238.39	74.44
238.624	68.44
238.858	77.44
239.091	83.44
239.325	79.44
239.559	74.44
239.793	82.44
240.027	89.44
240.26	70.44
240.494	82.44
240.728	68.44
240.961	78.44
241.195	80.44
241.429	76.44
241.662	69.44
241.896	89.44
242.13	76.44
242.363	80.44
242.597	84.44
242.83	68.44
243.064	74.44
243.298	74.44
243.531	74.44
243.765	86.44
243.998	86.44
244.232	81.44
244.465	86.44
244.699	87.44
244.932	81.44
245.166	76.44
245.399	73.44
245.633	91.44
245.866	85.44
246.099	90.44
246.333	62.44
246.566	84.44
246.8	79.44
247.033	87.44
247.266	74.44
247.5	66.44
247.733	63.44
247.966	82.44
248.2	75.44
248.433	83.44
248.666	70.44
248.899	72.44
249.133	86.44
249.366	71.44
249.599	84.44
249.832	92.44
250.066	80.44
250.299	81.44
250.532	89.44
250.765	71.44
250.998	76.44
251.231	88.44
251.465	87.44
251.698	88.44
251.931	94.44
252.164	83.44
252.397	78.44
252.63	69.44
252.863	88.44
253.096	75.44
253.329	76.44
253.562	83.44
253.795	72.44
254.028	89.44
254.261	92.44
254.494	76.44
254.727	88.44
254.96	74.44
255.193	60.44
255.426	90.44
255.659	91.44
255.892	85.44
256.124	68.44
256.357	83.44
256.59	75.44
256.823	83.44
257.056	81.44
257.289	89.44
257.521	83.44
257.754	92.44
257.987	84.44
258.22	73.44
258.452	75.44
258.685	75.44
258.918	88.44
259.151	79.44
259.383	92.44
259.616	77.44
259.849	95.44
260.081	89.44
260.314	81.44
260.547	95.44
260.779	93.44
261.012	79.44
261.244	86.44
261.477	78.44
261.71	76.44
261.942	76.44
262.175	84.44
262.407	83.44
262.64	84.44
262.872	80.44
263.105	92.44
263.337	98.44
263.57	74.44
263.802	82.44
264.035	81.44
264.267	91.44
264.499	81.44
264.732	91.44
264.964	83.44
265.197	94.44
265.429	90.44
265.661	91.44
265.894	81.44
266.126	91.44
266.358	95.44
266.591	85.44
266.823	72.44
267.055	86.44
267.287	81.44
267.52	76.44
267.752	95.44
267.984	84.44
268.216	81.44
268.448	67.44
268.681	84.44
268.913	99.44
269.145	90.44
269.377	84.44
269.609	69.44
269.841	88.44
270.073	78.44
270.306	90.44
270.538	90.44
270.77	82.44
271.002	100.44
271.234	104.44
271.466	82.44
271.698	80.44
271.93	62.44
272.162	86.44
272.394	81.44
272.626	86.44
272.858	88.44
273.09	83.44
273.322	79.44
273.553	80.44
273.785	103.44
274.017	84.44
274.249	84.44
274.481	90.44
274.713	79.44
274.945	87.44
275.176	83.44
275.408	79.44
275.64	88.44
275.872	72.44
276.104	92.44
276.335	84.44
276.567	81.44
276.799	84.44
277.031	90.44
277.262	86.44
277.494	86.44
277.726	81.44
277.957	98.44
278.189	79.44
278.421	85.44
278.652	86.44
278.884	89.44
279.115	75.44
279.347	84.44
279.579	88.44
279.81	90.44
280.042	84.44
280.273	98.44
280.505	78.44
280.736	84.44
280.968	95.44
281.199	90.44
281.431	72.44
281.662	83.44
281.894	87.44
282.125	92.44
282.356	75.44
282.588	85.44
282.819	101.44
283.051	88.44
283.282	94.44
283.513	99.44
283.745	88.44
283.976	83.44
284.207	77.44
284.439	86.44
284.67	57.44
284.901	96.44
285.132	84.44
285.364	90.44
285.595	79.44
285.826	83.44
286.057	74.44
286.288	93.44
286.52	94.44
286.751	79.44
286.982	70.44
287.213	89.44
287.444	82.44
287.675	103.44
287.906	99.44
288.138	99.44
288.369	89.44
288.6	82.44
288.831	82.44
289.062	83.44
289.293	95.44
289.524	95.44
289.755	87.44
289.986	95.44
290.217	88.44
290.448	88.44
290.679	86.44
290.91	81.44
291.141	77.44
291.371	100.44
291.602	89.44
291.833	91.44
292.064	75.44
292.295	88.44
292.526	97.44
292.757	82.44
292.987	85.44
293.218	88.44
293.449	91.44
293.68	94.44
293.91	84.44
294.141	83.44
294.372	86.44
294.603	91.44
294.833	86.44
295.064	91.44
295.295	103.44
295.525	82.44
295.756	88.44
295.987	95.44
296.217	82.44
296.448	88.44
296.679	103.44
296.909	80.44
297.14	81.44
297.37	84.44
297.601	86.44
297.831	86.44
298.062	90.44
298.292	98.44
298.523	75.44
298.753	87.44
298.984	91.44
299.214	90.44
299.445	95.44
299.675	102.44
299.905	104.44
300.136	92.44
300.366	99.44
300.597	91.44
300.827	93.44
301.057	84.44
301.288	83.44
301.518	86.44
301.748	89.44
301.979	91.44
302.209	87.44
302.439	82.44
302.669	71.44
302.9	94.44
303.13	90.44
303.36	93.44
303.59	86.44
303.82	79.44
304.051	87.44
304.281	91.44
304.511	89.44
304.741	86.44
304.971	88.44
305.201	75.44
305.431	95.44
305.661	85.44
305.891	78.44
306.121	96.44
306.352	93.44
306.582	102.44
306.812	105.44
307.042	83.44
307.272	90.44
307.502	104.44
307.731	80.44
307.961	90.44
308.191	95.44
308.421	91.44
308.651	90.44
308.881	90.44
309.111	91.44
309.341	90.44
309.571	84.44
309.8	83.44
310.03	80.44
310.26	89.44
310.49	86.44
310.72	90.44
310.949	96.44
311.179	72.44
311.409	88.44
311.639	105.44
311.868	91.44
312.098	94.44
312.328	91.44
312.557	83.44
312.787	97.44
313.017	82.44
313.246	102.44
313.476	90.44
313.706	78.44
313.935	103.44
314.165	91.44
314.394	81.44
314.624	90.44
314.853	89.44
315.083	96.44
315.312	89.44
315.542	105.44
315.771	92.44
316.001	88.44
316.23	84.44
316.46	74.44
316.689	90.44
316.919	73.44
317.148	78.44
317.377	106.44
317.607	99.44
317.836	74.44
318.065	89.44
318.295	80.44
318.524	82.44
318.753	91.44
318.983	84.44
319.212	96.44
319.441	89.44
319.67	95.44
319.9	86.44
320.129	71.44
320.358	83.44
320.587	87.44
320.816	83.44
321.046	95.44
321.275	91.44
321.504	86.44
321.733	97.44
321.962	106.44
322.191	93.44
322.42	88.44
322.649	97.44
322.878	96.44
323.108	90.44
323.337	108.44
323.566	99.44
323.795	81.44
324.024	89.44
324.253	86.44
324.482	89.44
324.71	82.44
324.939	93.44
325.168	89.44
325.397	100.44
325.626	80.44
325.855	95.44
326.084	80.44
326.313	83.44
326.542	89.44
326.77	88.44
326.999	94.44
327.228	95.44
327.457	111.44
327.686	96.44
327.914	91.44
328.143	101.44
328.372	87.44
328.6	103.44
328.829	84.44
329.058	100.44
329.287	102.44
329.515	81.44
329.744	71.44
329.972	101.44
330.201	108.44
330.43	96.44
330.658	85.44
330.887	82.44
331.115	88.44
331.344	103.44
331.572	93.44
331.801	101.44
332.03	98.44
332.258	102.44
332.486	88.44
332.715	76.44
332.943	86.44
333.172	83.44
333.4	89.44
333.629	97.44
333.857	99.44
334.085	89.44
334.314	98.44
334.542	85.44
334.771	71.44
334.999	92.44
335.227	95.44
335.455	107.44
335.684	90.44
335.912	105.44
336.14	94.44
336.369	110.44
336.597	88.44
336.825	89.44
337.053	98.44
337.281	73.44
337.51	87.44
337.738	98.44
337.966	83.44
338.194	84.44
338.422	83.44
338.65	84.44
338.878	75.44
339.106	89.44
339.334	98.44
339.562	100.44
339.79	88.44
340.018	92.44
340.246	86.44
340.474	98.44
340.702	84.44
340.93	89.44
341.158	97.44
341.386	78.44
341.614	83.44
341.842	83.44
342.07	89.44
342.298	101.44
342.526	102.44
342.754	93.44
342.981	91.44
343.209	90.44
343.437	99.44
343.665	97.44
343.893	95.44
344.12	92.44
344.348	95.44
344.576	89.44
344.804	79.44
345.031	83.44
345.259	107.44
345.487	86.44
345.714	84.44
345.942	89.44
346.17	105.44
346.397	75.44
346.625	98.44
346.853	83.44
347.08	86.44
347.308	86.44
347.535	96.44
347.763	97.44
347.99	85.44
348.218	88.44
348.445	75.44
348.673	98.44
348.9	88.44
349.128	88.44
349.355	84.44
349.583	90.44
349.81	80.44
350.037	77.44
350.265	91.44
350.492	74.44
350.72	94.44
350.947	79.44
351.174	84.44
351.402	77.44
351.629	85.44
351.856	95.44
352.083	100.44
352.311	88.44
352.538	86.44
352.765	81.44
352.992	96.44
353.22	89.44
353.447	72.44
353.674	88.44
353.901	92.44
354.128	82.44
354.355	87.44
354.583	82.44
354.81	84.44
355.037	90.44
355.264	85.44
355.491	92.44
355.718	79.44
355.945	84.44
356.172	102.44
356.399	92.44
356.626	92.44
356.853	99.44
357.08	98.44
357.307	100.44
357.534	92.44
357.761	88.44
357.988	84.44
358.215	92.44
358.441	79.44
358.668	81.44
358.895	83.44
359.122	85.44
359.349	99.44
359.576	79.44
359.802	85.44
360.029	90.44
360.256	95.44
360.483	83.44
360.709	88.44
360.936	91.44
361.163	78.44
361.39	91.44
361.616	99.44
361.843	92.44
362.07	89.44
362.296	89.44
362.523	96.44
362.749	86.44
362.976	99.44
363.203	94.44
363.429	95.44
363.656	99.44
363.882	88.44
364.109	93.44
364.335	83.44
364.562	97.44
364.788	89.44
365.015	95.44
365.241	86.44
365.468	100.44
365.694	86.44
365.92	97.44
366.147	75.44
366.373	93.44
366.599	78.44
366.826	89.44
367.052	81.44
367.278	94.44
367.505	92.44
367.731	96.44
367.957	112.44
368.184	75.44
368.41	112.44
368.636	85.44
368.862	81.44
369.089	79.44
369.315	96.44
369.541	88.44
369.767	81.44
369.993	75.44
370.219	84.44
370.445	85.44
370.672	93.44
370.898	83.44
371.124	83.44
371.35	86.44
371.576	79.44
371.802	106.44
372.028	91.44
372.254	107.44
372.48	94.44
372.706	82.44
372.932	96.44
373.158	104.44
373.384	93.44
373.61	82.44
373.835	84.44
374.061	82.44
374.287	101.44
374.513	91.44
374.739	88.44
374.965	111.44
375.191	89.44
375.416	93.44
375.642	93.44
375.868	98.44
376.094	89.44
376.319	97.44
376.545	84.44
376.771	89.44
376.997	70.44
377.222	89.44
377.448	100.44
377.674	92.44
377.899	89.44
378.125	82.44
378.35	110.44
378.576	84.44
378.802	84.44
379.027	80.44
379.253	91.44
379.478	89.44
379.704	75.44
379.929	96.44
380.155	114.44
380.38	94.44
380.606	78.44
380.831	80.44
381.057	88.44
381.282	95.44
381.507	91.44
381.733	86.44
381.958	87.44
382.184	87.44
382.409	86.44
382.634	79.44
382.86	85.44
383.085	84.44
383.31	87.44
383.535	85.44
383.761	91.44
383.986	86.44
384.211	83.44
384.436	89.44
384.662	96.44
384.887	95.44
385.112	103.44
385.337	95.44
385.562	97.44
385.787	92.44
386.013	98.44
386.238	91.44
386.463	102.44
386.688	82.44
386.913	88.44
387.138	89.44
387.363	89.44
387.588	101.44
387.813	93.44
388.038	106.44
388.263	88.44
388.488	89.44
388.713	93.44
388.938	99.44
389.163	104.44
389.387	86.44
389.612	82.44
389.837	97.44
390.062	85.44
390.287	94.44
390.512	96.44
390.736	76.44
390.961	91.44
391.186	87.44
391.411	73.44
391.636	101.44
391.86	94.44
392.085	87.44
392.31	89.44
392.534	86.44
392.759	93.44
392.984	94.44
393.208	94.44
393.433	83.44
393.658	98.44
393.882	101.44
394.107	86.44
394.331	86.44
394.556	92.44
394.78	90.44
395.005	103.44
395.229	88.44
395.454	95.44
395.678	66.44
395.903	97.44
396.127	87.44
396.352	101.44
396.576	92.44
396.801	108.44
397.025	84.44
397.249	87.44
397.474	92.44
397.698	92.44
397.922	94.44
398.147	105.44
398.371	95.44
398.595	80.44
398.82	84.44
399.044	97.44
399.268	95.44
399.492	90.44
399.717	86.44
399.941	96.44
400.165	103.44
400.389	87.44
400.613	101.44
400.837	95.44
401.062	99.44
401.286	93.44
401.51	86.44
401.734	82.44
401.958	98.44
402.182	105.44
402.406	88.44
402.63	106.44
402.854	86.44
403.078	93.44
403.302	102.44
403.526	86.44
403.75	80.44
403.974	95.44
404.198	87.44
404.422	90.44
404.645	100.44
404.869	92.44
405.093	95.44
405.317	99.44
405.541	80.44
405.765	90.44
405.988	93.44
406.212	88.44
406.436	86.44
406.66	102.44
406.883	104.44
407.107	104.44
407.331	75.44
407.555	100.44
407.778	99.44
408.002	84.44
408.226	78.44
408.449	75.44
408.673	96.44
408.896	88.44
409.12	97.44
409.344	99.44
409.567	84.44
409.791	97.44
410.014	95.44
410.238	72.44
410.461	79.44
410.685	99.44
410.908	99.44
411.132	95.44
411.355	86.44
411.578	89.44
411.802	82.44
412.025	88.44
412.249	100.44
412.472	90.44
412.695	79.44
412.919	91.44
413.142	99.44
413.365	98.44
413.589	96.44
413.812	102.44
414.035	87.44
414.258	98.44
414.482	91.44
414.705	78.44
414.928	99.44
415.151	86.44
415.374	90.44
415.597	103.44
415.821	93.44
416.044	90.44
416.267	90.44
416.49	89.44
416.713	64.44
416.936	91.44
417.159	86.44
417.382	89.44
417.605	80.44
417.828	89.44
418.051	96.44
418.274	84.44
418.497	86.44
418.72	75.44
418.943	87.44
419.166	90.44
419.389	91.44
419.611	86.44
419.834	79.44
420.057	92.44
420.28	89.44
420.503	98.44
420.726	82.44
420.948	88.44
421.171	101.44
421.394	90.44
421.617	77.44
421.839	94.44
422.062	93.44
422.285	82.44
422.507	93.44
422.73	89.44
422.953	72.44
423.175	86.44
423.398	100.44
423.621	96.44
423.843	85.44
424.066	95.44
424.288	97.44
424.511	82.44
424.733	91.44
424.956	102.44
425.178	94.44
425.401	82.44
425.623	75.44
425.846	87.44
426.068	84.44
426.291	95.44
426.513	88.44
426.735	89.44
426.958	96.44
427.18	88.44
427.402	91.44
427.625	99.44
427.847	103.44
428.069	92.44
428.292	97.44
428.514	92.44
428.736	87.44
428.958	98.44
429.181	78.44
429.403	78.44
429.625	104.44
429.847	79.44
430.069	96.44
430.292	87.44
430.514	81.44
430.736	91.44
430.958	87.44
431.18	84.44
431.402	83.44
431.624	83.44
431.846	85.44
432.068	84.44
432.29	80.44
432.512	85.44
432.734	86.44
432.956	96.44
433.178	89.44
433.4	82.44
433.622	83.44
433.844	84.44
434.066	83.44
434.287	89.44
434.509	100.44
434.731	94.44
434.953	90.44
435.175	98.44
435.397	102.44
435.618	89.44
435.84	93.44
436.062	87.44
436.284	88.44
436.505	98.44
436.727	94.44
436.949	99.44
437.17	81.44
437.392	90.44
437.614	78.44
437.835	82.44
438.057	83.44
438.278	97.44
438.5	87.44
438.721	94.44
438.943	92.44
439.165	89.44
439.386	84.44
439.608	98.44
439.829	86.44
440.05	96.44
440.272	92.44
440.493	96.44
440.715	92.44
440.936	75.44
441.158	88.44
441.379	99.44
441.6	84.44
441.822	74.44
442.043	102.44
442.264	99.44
442.486	94.44
442.707	91.44
442.928	96.44
443.149	80.44
443.371	95.44
443.592	83.44
443.813	92.44
444.034	90.44
444.255	100.44
444.476	99.44
444.698	90.44
444.919	102.44
445.14	214.44
445.361	153.44
445.582	94.44
445.803	87.44
446.024	113.44
446.245	81.44
446.466	89.44
446.687	82.44
446.908	87.44
447.129	84.44
447.35	91.44
447.571	85.44
447.792	105.44
448.013	89.44
448.234	98.44
448.455	79.44
448.675	81.44
448.896	89.44
449.117	79.44
449.338	90.44
449.559	89.44
449.779	91.44
450	82.44
450.221	87.44
450.442	106.44
450.662	100.44
450.883	83.44
451.104	101.44
451.324	100.44
451.545	98.44
451.766	85.44
451.986	80.44
452.207	86.44
452.428	88.44
452.648	93.44
452.869	85.44
453.089	78.44
453.31	87.44
453.53	81.44
453.751	85.44
453.971	81.44
454.192	95.44
454.412	76.44
454.633	81.44
454.853	101.44
455.073	99.44
455.294	84.44
455.514	87.44
455.734	83.44
455.955	82.44
456.175	94.44
456.395	88.44
456.616	88.44
456.836	87.44
457.056	79.44
457.276	79.44
457.497	89.44
457.717	88.44
457.937	90.44
458.157	91.44
458.377	84.44
458.598	71.44
458.818	84.44
459.038	85.44
459.258	85.44
459.478	103.44
459.698	83.44
459.918	87.44
460.138	95.44
460.358	83.44
460.578	92.44
460.798	88.44
461.018	85.44
461.238	76.44
461.458	97.44
461.678	110.44
461.898	102.44
462.118	94.44
462.338	94.44
462.558	97.44
462.777	106.44
462.997	83.44
463.217	103.44
463.437	72.44
463.657	105.44
463.876	80.44
464.096	90.44
464.316	100.44
464.536	87.44
464.755	97.44
464.975	80.44
465.195	94.44
465.414	86.44
465.634	92.44
465.854	96.44
466.073	83.44
466.293	104.44
466.512	81.44
466.732	79.44
466.951	76.44
467.171	87.44
467.391	91.44
467.61	90.44
467.829	80.44
468.049	86.44
468.268	97.44
468.488	105.44
468.707	105.44
468.927	109.44
469.146	97.44
469.365	91.44
469.585	92.44
469.804	84.44
470.023	107.44
470.243	96.44
470.462	89.44
470.681	82.44
470.901	96.44
471.12	110.44
471.339	107.44
471.558	100.44
471.777	81.44
471.997	107.44
472.216	98.44
472.435	95.44
472.654	80.44
472.873	97.44
473.092	97.44
473.311	93.44
473.53	95.44
473.749	91.44
473.968	102.44
474.187	86.44
474.406	78.44
474.625	99.44
474.844	111.44
475.063	96.44
475.282	105.44
475.501	88.44
475.72	98.44
475.939	95.44
476.158	90.44
476.377	99.44
476.596	84.44
476.814	82.44
477.033	98.44
477.252	100.44
477.471	107.44
477.69	89.44
477.908	110.44
478.127	79.44
478.346	110.44
478.564	96.44
478.783	98.44
479.002	90.44
479.22	96.44
479.439	108.44
479.658	97.44
479.876	96.44
480.095	88.44
480.313	95.44
480.532	81.44
480.751	116.44
480.969	102.44
481.188	91.44
481.406	105.44
481.624	103.44
481.843	106.44
482.061	82.44
482.28	96.44
482.498	109.44
482.717	103.44
482.935	98.44
483.153	109.44
483.372	105.44
483.59	92.44
483.808	99.44
484.027	92.44
484.245	87.44
484.463	98.44
484.681	111.44
484.9	90.44
485.118	96.44
485.336	101.44
485.554	98.44
485.772	107.44
485.99	88.44
486.209	93.44
486.427	103.44
486.645	93.44
486.863	92.44
487.081	96.44
487.299	93.44
487.517	96.44
487.735	115.44
487.953	107.44
488.171	109.44
488.389	103.44
488.607	102.44
488.825	96.44
489.043	89.44
489.261	96.44
489.479	114.44
489.696	110.44
489.914	105.44
490.132	110.44
490.35	94.44
490.568	95.44
490.786	99.44
491.003	95.44
491.221	82.44
491.439	96.44
491.657	114.44
491.874	115.44
492.092	119.44
492.31	94.44
492.527	99.44
492.745	97.44
492.963	105.44
493.18	105.44
493.398	112.44
493.615	122.44
493.833	103.44
494.05	95.44
494.268	101.44
494.485	107.44
494.703	96.44
494.92	100.44
495.138	113.44
495.355	114.44
495.573	95.44
495.79	96.44
496.008	98.44
496.225	98.44
496.442	107.44
496.66	98.44
496.877	107.44
497.094	111.44
497.312	102.44
497.529	103.44
497.746	105.44
497.963	103.44
498.181	102.44
498.398	111.44
498.615	99.44
498.832	93.44
499.049	113.44
499.267	108.44
499.484	122.44
499.701	116.44
499.918	123.44
500.135	127.44
500.352	131.44
500.569	131.44
500.786	126.44
501.003	119.44
501.22	129.44
501.437	123.44
501.654	93.44
501.871	108.44
502.088	109.44
502.305	113.44
502.522	120.44
502.739	123.44
502.956	107.44
503.172	107.44
503.389	106.44
503.606	92.44
503.823	101.44
504.04	110.44
504.256	114.44
504.473	115.44
504.69	105.44
504.907	95.44
505.123	93.44
505.34	90.44
505.557	90.44
505.773	105.44
505.99	100.44
506.207	99.44
506.423	94.44
506.64	99.44
506.856	106.44
507.073	101.44
507.289	100.44
507.506	99.44
507.722	108.44
507.939	93.44
508.155	102.44
508.372	117.44
508.588	96.44
508.805	92.44
509.021	97.44
509.238	91.44
509.454	103.44
509.67	85.44
509.887	102.44
510.103	84.44
510.319	89.44
510.536	94.44
510.752	80.44
510.968	96.44
511.184	85.44
511.401	100.44
511.617	110.44
511.833	96.44
512.049	86.44
512.265	86.44
512.481	102.44
512.698	100.44
512.914	94.44
513.13	87.44
513.346	85.44
513.562	102.44
513.778	96.44
513.994	113.44
514.21	93.44
514.426	98.44
514.642	96.44
514.858	99.44
515.074	93.44
515.29	96.44
515.506	87.44
515.721	103.44
515.937	98.44
516.153	83.44
516.369	97.44
516.585	98.44
516.801	94.44
