Data from Location5.07152019.Energy5.Lamp.07192019.3%Agarose_HRD10591_16-03-02-628.txt Node
Date: Fri Jul 19 16:03:02 EDT 2019
User: cochatt
Spectrometer: HR+D1059
Trigger mode: 1
Integration Time (sec): 1.000000E-1
Scans to average: 1
Electric dark correction enabled: true
Nonlinearity correction enabled: false
Boxcar width: 0
XAxis mode: Wavelengths
Number of Pixels in Spectrum: 2048
>>>>>Begin Spectral Data<<<<<
223.165	-17.38
223.4	-17.38
223.635	-17.38
223.869	-20.38
224.104	-5.38
224.338	-17.38
224.573	-21.38
224.808	-24.38
225.042	-12.38
225.277	-6.38
225.511	4.62
225.746	10.62
225.98	7.62
226.215	11.62
226.449	16.62
226.683	9.62
226.918	22.62
227.152	41.62
227.387	30.62
227.621	36.62
227.856	40.62
228.09	52.62
228.324	50.62
228.559	54.62
228.793	70.62
229.027	65.62
229.262	52.62
229.496	73.62
229.73	68.62
229.964	64.62
230.199	76.62
230.433	82.62
230.667	69.62
230.901	84.62
231.136	70.62
231.37	74.62
231.604	77.62
231.838	82.62
232.072	70.62
232.306	75.62
232.541	81.62
232.775	86.62
233.009	90.62
233.243	81.62
233.477	76.62
233.711	72.62
233.945	73.62
234.179	78.62
234.413	76.62
234.647	87.62
234.881	78.62
235.115	63.62
235.349	81.62
235.583	94.62
235.817	83.62
236.051	67.62
236.285	86.62
236.519	64.62
236.753	67.62
236.987	80.62
237.221	82.62
237.455	86.62
237.689	75.62
237.922	85.62
238.156	80.62
238.39	76.62
238.624	88.62
238.858	76.62
239.091	84.62
239.325	75.62
239.559	76.62
239.793	82.62
240.027	76.62
240.26	92.62
240.494	68.62
240.728	76.62
240.961	73.62
241.195	81.62
241.429	80.62
241.662	81.62
241.896	75.62
242.13	81.62
242.363	72.62
242.597	71.62
242.83	89.62
243.064	74.62
243.298	83.62
243.531	77.62
243.765	85.62
243.998	68.62
244.232	90.62
244.465	76.62
244.699	81.62
244.932	77.62
245.166	90.62
245.399	88.62
245.633	78.62
245.866	78.62
246.099	89.62
246.333	68.62
246.566	80.62
246.8	81.62
247.033	96.62
247.266	66.62
247.5	97.62
247.733	97.62
247.966	91.62
248.2	71.62
248.433	76.62
248.666	79.62
248.899	82.62
249.133	79.62
249.366	76.62
249.599	87.62
249.832	84.62
250.066	86.62
250.299	89.62
250.532	86.62
250.765	72.62
250.998	75.62
251.231	82.62
251.465	83.62
251.698	97.62
251.931	81.62
252.164	59.62
252.397	83.62
252.63	94.62
252.863	82.62
253.096	69.62
253.329	95.62
253.562	74.62
253.795	80.62
254.028	62.62
254.261	81.62
254.494	81.62
254.727	78.62
254.96	81.62
255.193	95.62
255.426	104.62
255.659	77.62
255.892	100.62
256.124	76.62
256.357	89.62
256.59	84.62
256.823	86.62
257.056	91.62
257.289	95.62
257.521	85.62
257.754	81.62
257.987	79.62
258.22	71.62
258.452	70.62
258.685	81.62
258.918	74.62
259.151	90.62
259.383	86.62
259.616	79.62
259.849	80.62
260.081	74.62
260.314	67.62
260.547	72.62
260.779	84.62
261.012	92.62
261.244	81.62
261.477	86.62
261.71	81.62
261.942	84.62
262.175	74.62
262.407	80.62
262.64	83.62
262.872	81.62
263.105	83.62
263.337	87.62
263.57	83.62
263.802	92.62
264.035	82.62
264.267	78.62
264.499	86.62
264.732	82.62
264.964	77.62
265.197	79.62
265.429	95.62
265.661	87.62
265.894	82.62
266.126	73.62
266.358	75.62
266.591	99.62
266.823	85.62
267.055	71.62
267.287	82.62
267.52	86.62
267.752	74.62
267.984	74.62
268.216	93.62
268.448	76.62
268.681	76.62
268.913	80.62
269.145	77.62
269.377	89.62
269.609	81.62
269.841	97.62
270.073	87.62
270.306	88.62
270.538	96.62
270.77	91.62
271.002	82.62
271.234	91.62
271.466	97.62
271.698	76.62
271.93	89.62
272.162	76.62
272.394	84.62
272.626	93.62
272.858	89.62
273.09	88.62
273.322	86.62
273.553	75.62
273.785	100.62
274.017	86.62
274.249	102.62
274.481	96.62
274.713	80.62
274.945	82.62
275.176	88.62
275.408	84.62
275.64	85.62
275.872	75.62
276.104	77.62
276.335	94.62
276.567	77.62
276.799	77.62
277.031	85.62
277.262	95.62
277.494	88.62
277.726	92.62
277.957	99.62
278.189	85.62
278.421	81.62
278.652	85.62
278.884	81.62
279.115	77.62
279.347	85.62
279.579	104.62
279.81	98.62
280.042	100.62
280.273	100.62
280.505	91.62
280.736	88.62
280.968	80.62
281.199	92.62
281.431	84.62
281.662	97.62
281.894	94.62
282.125	92.62
282.356	99.62
282.588	95.62
282.819	82.62
283.051	76.62
283.282	88.62
283.513	82.62
283.745	94.62
283.976	103.62
284.207	77.62
284.439	92.62
284.67	97.62
284.901	88.62
285.132	98.62
285.364	79.62
285.595	72.62
285.826	79.62
286.057	82.62
286.288	89.62
286.52	84.62
286.751	89.62
286.982	94.62
287.213	90.62
287.444	91.62
287.675	95.62
287.906	96.62
288.138	88.62
288.369	76.62
288.6	99.62
288.831	79.62
289.062	84.62
289.293	93.62
289.524	76.62
289.755	97.62
289.986	86.62
290.217	82.62
290.448	98.62
290.679	108.62
290.91	84.62
291.141	98.62
291.371	92.62
291.602	81.62
291.833	91.62
292.064	84.62
292.295	89.62
292.526	81.62
292.757	85.62
292.987	91.62
293.218	91.62
293.449	91.62
293.68	83.62
293.91	84.62
294.141	96.62
294.372	92.62
294.603	101.62
294.833	89.62
295.064	72.62
295.295	84.62
295.525	96.62
295.756	91.62
295.987	98.62
296.217	90.62
296.448	101.62
296.679	92.62
296.909	107.62
297.14	105.62
297.37	85.62
297.601	71.62
297.831	74.62
298.062	103.62
298.292	89.62
298.523	86.62
298.753	93.62
298.984	90.62
299.214	100.62
299.445	85.62
299.675	97.62
299.905	90.62
300.136	101.62
300.366	93.62
300.597	97.62
300.827	100.62
301.057	88.62
301.288	95.62
301.518	105.62
301.748	87.62
301.979	88.62
302.209	88.62
302.439	93.62
302.669	88.62
302.9	87.62
303.13	92.62
303.36	103.62
303.59	91.62
303.82	96.62
304.051	67.62
304.281	76.62
304.511	95.62
304.741	98.62
304.971	102.62
305.201	83.62
305.431	88.62
305.661	96.62
305.891	93.62
306.121	83.62
306.352	81.62
306.582	95.62
306.812	104.62
307.042	82.62
307.272	91.62
307.502	97.62
307.731	99.62
307.961	85.62
308.191	84.62
308.421	105.62
308.651	91.62
308.881	94.62
309.111	85.62
309.341	72.62
309.571	80.62
309.8	78.62
310.03	91.62
310.26	87.62
310.49	99.62
310.72	79.62
310.949	87.62
311.179	88.62
311.409	81.62
311.639	88.62
311.868	99.62
312.098	76.62
312.328	103.62
312.557	88.62
312.787	92.62
313.017	100.62
313.246	88.62
313.476	93.62
313.706	75.62
313.935	91.62
314.165	86.62
314.394	98.62
314.624	96.62
314.853	80.62
315.083	96.62
315.312	86.62
315.542	100.62
315.771	101.62
316.001	96.62
316.23	91.62
316.46	82.62
316.689	99.62
316.919	88.62
317.148	78.62
317.377	92.62
317.607	83.62
317.836	99.62
318.065	81.62
318.295	104.62
318.524	91.62
318.753	85.62
318.983	93.62
319.212	98.62
319.441	90.62
319.67	97.62
319.9	76.62
320.129	97.62
320.358	93.62
320.587	84.62
320.816	97.62
321.046	106.62
321.275	92.62
321.504	103.62
321.733	86.62
321.962	86.62
322.191	74.62
322.42	83.62
322.649	92.62
322.878	102.62
323.108	93.62
323.337	89.62
323.566	86.62
323.795	107.62
324.024	84.62
324.253	99.62
324.482	91.62
324.71	91.62
324.939	95.62
325.168	93.62
325.397	85.62
325.626	91.62
325.855	95.62
326.084	96.62
326.313	85.62
326.542	92.62
326.77	91.62
326.999	88.62
327.228	90.62
327.457	87.62
327.686	95.62
327.914	83.62
328.143	102.62
328.372	88.62
328.6	85.62
328.829	82.62
329.058	94.62
329.287	86.62
329.515	90.62
329.744	95.62
329.972	102.62
330.201	119.62
330.43	114.62
330.658	93.62
330.887	91.62
331.115	77.62
331.344	91.62
331.572	97.62
331.801	81.62
332.03	89.62
332.258	94.62
332.486	91.62
332.715	102.62
332.943	102.62
333.172	93.62
333.4	82.62
333.629	90.62
333.857	96.62
334.085	93.62
334.314	87.62
334.542	93.62
334.771	88.62
334.999	86.62
335.227	91.62
335.455	87.62
335.684	80.62
335.912	89.62
336.14	94.62
336.369	94.62
336.597	100.62
336.825	101.62
337.053	104.62
337.281	91.62
337.51	98.62
337.738	86.62
337.966	81.62
338.194	88.62
338.422	83.62
338.65	98.62
338.878	93.62
339.106	81.62
339.334	98.62
339.562	79.62
339.79	87.62
340.018	83.62
340.246	82.62
340.474	76.62
340.702	86.62
340.93	99.62
341.158	91.62
341.386	101.62
341.614	99.62
341.842	102.62
342.07	96.62
342.298	77.62
342.526	96.62
342.754	89.62
342.981	82.62
343.209	96.62
343.437	96.62
343.665	83.62
343.893	109.62
344.12	96.62
344.348	97.62
344.576	96.62
344.804	86.62
345.031	78.62
345.259	96.62
345.487	95.62
345.714	92.62
345.942	83.62
346.17	95.62
346.397	82.62
346.625	86.62
346.853	85.62
347.08	94.62
347.308	103.62
347.535	99.62
347.763	103.62
347.99	93.62
348.218	115.62
348.445	82.62
348.673	101.62
348.9	90.62
349.128	85.62
349.355	85.62
349.583	90.62
349.81	94.62
350.037	98.62
350.265	88.62
350.492	90.62
350.72	93.62
350.947	94.62
351.174	99.62
351.402	81.62
351.629	95.62
351.856	79.62
352.083	79.62
352.311	80.62
352.538	87.62
352.765	86.62
352.992	81.62
353.22	105.62
353.447	99.62
353.674	93.62
353.901	85.62
354.128	82.62
354.355	86.62
354.583	94.62
354.81	80.62
355.037	77.62
355.264	85.62
355.491	87.62
355.718	96.62
355.945	91.62
356.172	95.62
356.399	83.62
356.626	83.62
356.853	96.62
357.08	92.62
357.307	96.62
357.534	89.62
357.761	92.62
357.988	90.62
358.215	104.62
358.441	77.62
358.668	80.62
358.895	75.62
359.122	97.62
359.349	98.62
359.576	97.62
359.802	102.62
360.029	98.62
360.256	105.62
360.483	100.62
360.709	100.62
360.936	92.62
361.163	95.62
361.39	98.62
361.616	90.62
361.843	96.62
362.07	90.62
362.296	111.62
362.523	88.62
362.749	100.62
362.976	85.62
363.203	94.62
363.429	99.62
363.656	98.62
363.882	84.62
364.109	92.62
364.335	83.62
364.562	84.62
364.788	93.62
365.015	103.62
365.241	100.62
365.468	102.62
365.694	84.62
365.92	82.62
366.147	96.62
366.373	91.62
366.599	86.62
366.826	89.62
367.052	79.62
367.278	90.62
367.505	102.62
367.731	84.62
367.957	101.62
368.184	82.62
368.41	88.62
368.636	96.62
368.862	95.62
369.089	72.62
369.315	85.62
369.541	84.62
369.767	83.62
369.993	94.62
370.219	102.62
370.445	91.62
370.672	99.62
370.898	94.62
371.124	75.62
371.35	83.62
371.576	84.62
371.802	102.62
372.028	82.62
372.254	91.62
372.48	94.62
372.706	81.62
372.932	103.62
373.158	84.62
373.384	106.62
373.61	88.62
373.835	83.62
374.061	92.62
374.287	88.62
374.513	97.62
374.739	90.62
374.965	87.62
375.191	106.62
375.416	98.62
375.642	92.62
375.868	99.62
376.094	76.62
376.319	95.62
376.545	89.62
376.771	94.62
376.997	92.62
377.222	96.62
377.448	97.62
377.674	101.62
377.899	97.62
378.125	84.62
378.35	90.62
378.576	92.62
378.802	102.62
379.027	87.62
379.253	82.62
379.478	97.62
379.704	99.62
379.929	91.62
380.155	74.62
380.38	90.62
380.606	94.62
380.831	84.62
381.057	105.62
381.282	89.62
381.507	86.62
381.733	96.62
381.958	90.62
382.184	84.62
382.409	85.62
382.634	97.62
382.86	83.62
383.085	95.62
383.31	97.62
383.535	83.62
383.761	96.62
383.986	101.62
384.211	94.62
384.436	84.62
384.662	88.62
384.887	97.62
385.112	100.62
385.337	90.62
385.562	84.62
385.787	89.62
386.013	116.62
386.238	92.62
386.463	92.62
386.688	92.62
386.913	90.62
387.138	81.62
387.363	82.62
387.588	94.62
387.813	115.62
388.038	106.62
388.263	102.62
388.488	95.62
388.713	87.62
388.938	94.62
389.163	69.62
389.387	99.62
389.612	91.62
389.837	95.62
390.062	91.62
390.287	85.62
390.512	78.62
390.736	91.62
390.961	90.62
391.186	105.62
391.411	92.62
391.636	89.62
391.86	100.62
392.085	115.62
392.31	96.62
392.534	92.62
392.759	94.62
392.984	89.62
393.208	99.62
393.433	97.62
393.658	101.62
393.882	100.62
394.107	86.62
394.331	90.62
394.556	95.62
394.78	94.62
395.005	98.62
395.229	92.62
395.454	110.62
395.678	106.62
395.903	90.62
396.127	98.62
396.352	90.62
396.576	104.62
396.801	98.62
397.025	98.62
397.249	93.62
397.474	104.62
397.698	98.62
397.922	98.62
398.147	89.62
398.371	94.62
398.595	96.62
398.82	95.62
399.044	108.62
399.268	90.62
399.492	89.62
399.717	116.62
399.941	104.62
400.165	110.62
400.389	100.62
400.613	99.62
400.837	107.62
401.062	100.62
401.286	105.62
401.51	96.62
401.734	88.62
401.958	82.62
402.182	110.62
402.406	97.62
402.63	88.62
402.854	103.62
403.078	97.62
403.302	95.62
403.526	97.62
403.75	115.62
403.974	87.62
404.198	99.62
404.422	97.62
404.645	94.62
404.869	99.62
405.093	117.62
405.317	107.62
405.541	106.62
405.765	98.62
405.988	96.62
406.212	126.62
406.436	103.62
406.66	105.62
406.883	107.62
407.107	102.62
407.331	88.62
407.555	99.62
407.778	109.62
408.002	109.62
408.226	116.62
408.449	106.62
408.673	104.62
408.896	109.62
409.12	97.62
409.344	97.62
409.567	107.62
409.791	86.62
410.014	93.62
410.238	107.62
410.461	101.62
410.685	87.62
410.908	90.62
411.132	85.62
411.355	90.62
411.578	110.62
411.802	120.62
412.025	95.62
412.249	108.62
412.472	99.62
412.695	96.62
412.919	98.62
413.142	104.62
413.365	94.62
413.589	97.62
413.812	108.62
414.035	90.62
414.258	97.62
414.482	93.62
414.705	102.62
414.928	98.62
415.151	95.62
415.374	93.62
415.597	99.62
415.821	92.62
416.044	99.62
416.267	102.62
416.49	100.62
416.713	98.62
416.936	113.62
417.159	96.62
417.382	99.62
417.605	104.62
417.828	109.62
418.051	89.62
418.274	96.62
418.497	107.62
418.72	85.62
418.943	74.62
419.166	98.62
419.389	96.62
419.611	91.62
419.834	75.62
420.057	91.62
420.28	111.62
420.503	97.62
420.726	95.62
420.948	89.62
421.171	83.62
421.394	85.62
421.617	101.62
421.839	97.62
422.062	112.62
422.285	105.62
422.507	90.62
422.73	97.62
422.953	104.62
423.175	96.62
423.398	84.62
423.621	91.62
423.843	98.62
424.066	87.62
424.288	108.62
424.511	115.62
424.733	100.62
424.956	98.62
425.178	103.62
425.401	100.62
425.623	98.62
425.846	93.62
426.068	92.62
426.291	91.62
426.513	96.62
426.735	97.62
426.958	92.62
427.18	97.62
427.402	94.62
427.625	89.62
427.847	107.62
428.069	98.62
428.292	91.62
428.514	100.62
428.736	93.62
428.958	99.62
429.181	94.62
429.403	100.62
429.625	96.62
429.847	86.62
430.069	92.62
430.292	92.62
430.514	83.62
430.736	109.62
430.958	106.62
431.18	91.62
431.402	93.62
431.624	111.62
431.846	100.62
432.068	110.62
432.29	96.62
432.512	104.62
432.734	89.62
432.956	87.62
433.178	99.62
433.4	84.62
433.622	95.62
433.844	99.62
434.066	93.62
434.287	95.62
434.509	87.62
434.731	103.62
434.953	88.62
435.175	102.62
435.397	100.62
435.618	111.62
435.84	108.62
436.062	96.62
436.284	97.62
436.505	98.62
436.727	91.62
436.949	98.62
437.17	102.62
437.392	91.62
437.614	95.62
437.835	85.62
438.057	95.62
438.278	98.62
438.5	91.62
438.721	100.62
438.943	108.62
439.165	97.62
439.386	90.62
439.608	93.62
439.829	90.62
440.05	91.62
440.272	93.62
440.493	92.62
440.715	100.62
440.936	99.62
441.158	110.62
441.379	89.62
441.6	95.62
441.822	106.62
442.043	96.62
442.264	104.62
442.486	89.62
442.707	97.62
442.928	91.62
443.149	94.62
443.371	98.62
443.592	86.62
443.813	101.62
444.034	107.62
444.255	95.62
444.476	103.62
444.698	93.62
444.919	105.62
445.14	231.62
445.361	155.62
445.582	96.62
445.803	95.62
446.024	111.62
446.245	100.62
446.466	105.62
446.687	93.62
446.908	98.62
447.129	89.62
447.35	87.62
447.571	95.62
447.792	97.62
448.013	105.62
448.234	107.62
448.455	100.62
448.675	87.62
448.896	94.62
449.117	89.62
449.338	103.62
449.559	96.62
449.779	87.62
450	92.62
450.221	95.62
450.442	98.62
450.662	91.62
450.883	94.62
451.104	88.62
451.324	99.62
451.545	88.62
451.766	94.62
451.986	97.62
452.207	86.62
452.428	102.62
452.648	86.62
452.869	91.62
453.089	86.62
453.31	84.62
453.53	86.62
453.751	103.62
453.971	116.62
454.192	99.62
454.412	90.62
454.633	95.62
454.853	98.62
455.073	97.62
455.294	78.62
455.514	82.62
455.734	90.62
455.955	97.62
456.175	96.62
456.395	100.62
456.616	102.62
456.836	88.62
457.056	93.62
457.276	94.62
457.497	94.62
457.717	99.62
457.937	95.62
458.157	86.62
458.377	88.62
458.598	92.62
458.818	103.62
459.038	82.62
459.258	93.62
459.478	92.62
459.698	95.62
459.918	100.62
460.138	98.62
460.358	97.62
460.578	103.62
460.798	95.62
461.018	95.62
461.238	111.62
461.458	102.62
461.678	96.62
461.898	96.62
462.118	97.62
462.338	103.62
462.558	112.62
462.777	90.62
462.997	107.62
463.217	104.62
463.437	120.62
463.657	94.62
463.876	110.62
464.096	114.62
464.316	108.62
464.536	102.62
464.755	111.62
464.975	100.62
465.195	97.62
465.414	112.62
465.634	105.62
465.854	105.62
466.073	102.62
466.293	91.62
466.512	81.62
466.732	95.62
466.951	105.62
467.171	98.62
467.391	115.62
467.61	106.62
467.829	110.62
468.049	98.62
468.268	99.62
468.488	105.62
468.707	99.62
468.927	105.62
469.146	105.62
469.365	83.62
469.585	104.62
469.804	89.62
470.023	107.62
470.243	88.62
470.462	102.62
470.681	89.62
470.901	102.62
471.12	106.62
471.339	92.62
471.558	98.62
471.777	99.62
471.997	92.62
472.216	111.62
472.435	94.62
472.654	103.62
472.873	107.62
473.092	101.62
473.311	89.62
473.53	117.62
473.749	97.62
473.968	110.62
474.187	96.62
474.406	97.62
474.625	99.62
474.844	112.62
475.063	93.62
475.282	92.62
475.501	96.62
475.72	114.62
475.939	100.62
476.158	97.62
476.377	84.62
476.596	95.62
476.814	94.62
477.033	90.62
477.252	106.62
477.471	98.62
477.69	91.62
477.908	114.62
478.127	90.62
478.346	107.62
478.564	89.62
478.783	100.62
479.002	111.62
479.22	107.62
479.439	102.62
479.658	88.62
479.876	100.62
480.095	99.62
480.313	100.62
480.532	112.62
480.751	103.62
480.969	93.62
481.188	103.62
481.406	107.62
481.624	95.62
481.843	89.62
482.061	110.62
482.28	114.62
482.498	97.62
482.717	98.62
482.935	96.62
483.153	98.62
483.372	102.62
483.59	105.62
483.808	107.62
484.027	100.62
484.245	106.62
484.463	89.62
484.681	104.62
484.9	107.62
485.118	103.62
485.336	107.62
485.554	100.62
485.772	91.62
485.99	102.62
486.209	100.62
486.427	107.62
486.645	108.62
486.863	111.62
487.081	105.62
487.299	110.62
487.517	97.62
487.735	110.62
487.953	106.62
488.171	115.62
488.389	106.62
488.607	126.62
488.825	98.62
489.043	120.62
489.261	107.62
489.479	96.62
489.696	108.62
489.914	110.62
490.132	103.62
490.35	102.62
490.568	97.62
490.786	98.62
491.003	116.62
491.221	106.62
491.439	105.62
491.657	108.62
491.874	103.62
492.092	104.62
492.31	120.62
492.527	103.62
492.745	121.62
492.963	106.62
493.18	121.62
493.398	102.62
493.615	100.62
493.833	96.62
494.05	99.62
494.268	118.62
494.485	107.62
494.703	118.62
494.92	107.62
495.138	109.62
495.355	112.62
495.573	103.62
495.79	114.62
496.008	114.62
496.225	111.62
496.442	107.62
496.66	105.62
496.877	115.62
497.094	103.62
497.312	119.62
497.529	120.62
497.746	108.62
497.963	119.62
498.181	116.62
498.398	107.62
498.615	104.62
498.832	106.62
499.049	125.62
499.267	126.62
499.484	130.62
499.701	145.62
499.918	140.62
500.135	138.62
500.352	169.62
500.569	154.62
500.786	148.62
501.003	137.62
501.22	147.62
501.437	150.62
501.654	126.62
501.871	120.62
502.088	120.62
502.305	125.62
502.522	104.62
502.739	105.62
502.956	111.62
503.172	100.62
503.389	102.62
503.606	121.62
503.823	120.62
504.04	122.62
504.256	123.62
504.473	113.62
504.69	102.62
504.907	106.62
505.123	125.62
505.34	130.62
505.557	115.62
505.773	114.62
505.99	114.62
506.207	100.62
506.423	104.62
506.64	123.62
506.856	101.62
507.073	88.62
507.289	106.62
507.506	115.62
507.722	97.62
507.939	99.62
508.155	105.62
508.372	99.62
508.588	106.62
508.805	88.62
509.021	100.62
509.238	105.62
509.454	103.62
509.67	99.62
509.887	98.62
510.103	107.62
510.319	96.62
510.536	105.62
510.752	94.62
510.968	106.62
511.184	95.62
511.401	97.62
511.617	104.62
511.833	104.62
512.049	112.62
512.265	111.62
512.481	95.62
512.698	89.62
512.914	99.62
513.13	98.62
513.346	101.62
513.562	94.62
513.778	102.62
513.994	118.62
514.21	104.62
514.426	92.62
514.642	98.62
