Data from Location5.07152019.Energy5.Lamp.07192019.3%Agarose_HRD10591_15-37-06-390.txt Node
Date: Fri Jul 19 15:37:06 EDT 2019
User: cochatt
Spectrometer: HR+D1059
Trigger mode: 1
Integration Time (sec): 1.000000E-1
Scans to average: 1
Electric dark correction enabled: true
Nonlinearity correction enabled: false
Boxcar width: 0
XAxis mode: Wavelengths
Number of Pixels in Spectrum: 2048
>>>>>Begin Spectral Data<<<<<
223.165	-25.81
223.4	-25.81
223.635	-25.81
223.869	-12.81
224.104	-12.81
224.338	-14.81
224.573	-5.81
224.808	-8.81
225.042	-9.81
225.277	-15.81
225.511	-5.81
225.746	-2.81
225.98	23.19
226.215	11.19
226.449	18.19
226.683	11.19
226.918	30.19
227.152	21.19
227.387	30.19
227.621	25.19
227.856	38.19
228.09	43.19
228.324	59.19
228.559	48.19
228.793	59.19
229.027	61.19
229.262	65.19
229.496	67.19
229.73	68.19
229.964	79.19
230.199	60.19
230.433	59.19
230.667	70.19
230.901	80.19
231.136	67.19
231.37	81.19
231.604	78.19
231.838	83.19
232.072	83.19
232.306	80.19
232.541	77.19
232.775	90.19
233.009	82.19
233.243	85.19
233.477	69.19
233.711	69.19
233.945	74.19
234.179	88.19
234.413	84.19
234.647	84.19
234.881	81.19
235.115	72.19
235.349	76.19
235.583	84.19
235.817	71.19
236.051	76.19
236.285	79.19
236.519	76.19
236.753	88.19
236.987	76.19
237.221	85.19
237.455	75.19
237.689	85.19
237.922	71.19
238.156	81.19
238.39	79.19
238.624	74.19
238.858	85.19
239.091	81.19
239.325	79.19
239.559	77.19
239.793	70.19
240.027	60.19
240.26	78.19
240.494	72.19
240.728	75.19
240.961	65.19
241.195	69.19
241.429	70.19
241.662	63.19
241.896	82.19
242.13	67.19
242.363	69.19
242.597	77.19
242.83	71.19
243.064	92.19
243.298	72.19
243.531	85.19
243.765	66.19
243.998	83.19
244.232	80.19
244.465	73.19
244.699	69.19
244.932	68.19
245.166	70.19
245.399	82.19
245.633	75.19
245.866	75.19
246.099	78.19
246.333	75.19
246.566	71.19
246.8	72.19
247.033	85.19
247.266	69.19
247.5	75.19
247.733	81.19
247.966	70.19
248.2	67.19
248.433	74.19
248.666	73.19
248.899	74.19
249.133	67.19
249.366	87.19
249.599	66.19
249.832	84.19
250.066	77.19
250.299	74.19
250.532	81.19
250.765	79.19
250.998	78.19
251.231	76.19
251.465	76.19
251.698	84.19
251.931	76.19
252.164	82.19
252.397	79.19
252.63	74.19
252.863	75.19
253.096	75.19
253.329	77.19
253.562	86.19
253.795	88.19
254.028	71.19
254.261	83.19
254.494	78.19
254.727	81.19
254.96	79.19
255.193	70.19
255.426	82.19
255.659	84.19
255.892	82.19
256.124	93.19
256.357	80.19
256.59	74.19
256.823	80.19
257.056	76.19
257.289	71.19
257.521	75.19
257.754	86.19
257.987	87.19
258.22	84.19
258.452	66.19
258.685	81.19
258.918	93.19
259.151	75.19
259.383	84.19
259.616	92.19
259.849	82.19
260.081	82.19
260.314	94.19
260.547	74.19
260.779	83.19
261.012	101.19
261.244	75.19
261.477	86.19
261.71	85.19
261.942	80.19
262.175	85.19
262.407	85.19
262.64	75.19
262.872	72.19
263.105	83.19
263.337	93.19
263.57	74.19
263.802	98.19
264.035	71.19
264.267	95.19
264.499	82.19
264.732	78.19
264.964	87.19
265.197	77.19
265.429	75.19
265.661	75.19
265.894	83.19
266.126	86.19
266.358	79.19
266.591	86.19
266.823	83.19
267.055	73.19
267.287	74.19
267.52	81.19
267.752	83.19
267.984	84.19
268.216	85.19
268.448	85.19
268.681	80.19
268.913	75.19
269.145	87.19
269.377	78.19
269.609	66.19
269.841	61.19
270.073	77.19
270.306	97.19
270.538	66.19
270.77	86.19
271.002	83.19
271.234	86.19
271.466	84.19
271.698	71.19
271.93	74.19
272.162	86.19
272.394	75.19
272.626	81.19
272.858	77.19
273.09	90.19
273.322	86.19
273.553	77.19
273.785	93.19
274.017	66.19
274.249	80.19
274.481	83.19
274.713	76.19
274.945	93.19
275.176	74.19
275.408	98.19
275.64	85.19
275.872	95.19
276.104	75.19
276.335	75.19
276.567	82.19
276.799	77.19
277.031	85.19
277.262	83.19
277.494	80.19
277.726	78.19
277.957	90.19
278.189	94.19
278.421	79.19
278.652	72.19
278.884	82.19
279.115	86.19
279.347	75.19
279.579	82.19
279.81	95.19
280.042	93.19
280.273	76.19
280.505	89.19
280.736	84.19
280.968	87.19
281.199	81.19
281.431	76.19
281.662	83.19
281.894	111.19
282.125	87.19
282.356	89.19
282.588	81.19
282.819	77.19
283.051	84.19
283.282	88.19
283.513	81.19
283.745	81.19
283.976	86.19
284.207	82.19
284.439	85.19
284.67	85.19
284.901	81.19
285.132	78.19
285.364	79.19
285.595	78.19
285.826	82.19
286.057	62.19
286.288	76.19
286.52	78.19
286.751	53.19
286.982	83.19
287.213	86.19
287.444	79.19
287.675	75.19
287.906	74.19
288.138	67.19
288.369	79.19
288.6	74.19
288.831	69.19
289.062	90.19
289.293	74.19
289.524	90.19
289.755	70.19
289.986	82.19
290.217	96.19
290.448	78.19
290.679	72.19
290.91	94.19
291.141	80.19
291.371	86.19
291.602	90.19
291.833	86.19
292.064	90.19
292.295	85.19
292.526	98.19
292.757	81.19
292.987	95.19
293.218	85.19
293.449	89.19
293.68	87.19
293.91	66.19
294.141	83.19
294.372	61.19
294.603	76.19
294.833	90.19
295.064	75.19
295.295	71.19
295.525	94.19
295.756	90.19
295.987	81.19
296.217	76.19
296.448	90.19
296.679	85.19
296.909	75.19
297.14	63.19
297.37	73.19
297.601	68.19
297.831	78.19
298.062	95.19
298.292	78.19
298.523	84.19
298.753	77.19
298.984	72.19
299.214	71.19
299.445	85.19
299.675	79.19
299.905	83.19
300.136	89.19
300.366	81.19
300.597	84.19
300.827	93.19
301.057	80.19
301.288	78.19
301.518	92.19
301.748	81.19
301.979	83.19
302.209	96.19
302.439	67.19
302.669	80.19
302.9	82.19
303.13	75.19
303.36	81.19
303.59	88.19
303.82	89.19
304.051	86.19
304.281	72.19
304.511	77.19
304.741	78.19
304.971	90.19
305.201	79.19
305.431	82.19
305.661	77.19
305.891	94.19
306.121	90.19
306.352	83.19
306.582	89.19
306.812	73.19
307.042	86.19
307.272	87.19
307.502	81.19
307.731	87.19
307.961	75.19
308.191	85.19
308.421	73.19
308.651	85.19
308.881	94.19
309.111	87.19
309.341	87.19
309.571	68.19
309.8	79.19
310.03	81.19
310.26	90.19
310.49	88.19
310.72	81.19
310.949	70.19
311.179	90.19
311.409	83.19
311.639	73.19
311.868	79.19
312.098	87.19
312.328	91.19
312.557	83.19
312.787	89.19
313.017	82.19
313.246	66.19
313.476	82.19
313.706	83.19
313.935	85.19
314.165	68.19
314.394	73.19
314.624	89.19
314.853	90.19
315.083	89.19
315.312	84.19
315.542	76.19
315.771	74.19
316.001	89.19
316.23	75.19
316.46	78.19
316.689	89.19
316.919	100.19
317.148	99.19
317.377	80.19
317.607	80.19
317.836	76.19
318.065	88.19
318.295	77.19
318.524	73.19
318.753	83.19
318.983	81.19
319.212	98.19
319.441	75.19
319.67	77.19
319.9	85.19
320.129	74.19
320.358	89.19
320.587	85.19
320.816	78.19
321.046	88.19
321.275	105.19
321.504	78.19
321.733	79.19
321.962	82.19
322.191	79.19
322.42	83.19
322.649	98.19
322.878	86.19
323.108	101.19
323.337	85.19
323.566	93.19
323.795	79.19
324.024	101.19
324.253	96.19
324.482	83.19
324.71	91.19
324.939	91.19
325.168	106.19
325.397	79.19
325.626	92.19
325.855	74.19
326.084	78.19
326.313	94.19
326.542	82.19
326.77	79.19
326.999	98.19
327.228	81.19
327.457	80.19
327.686	85.19
327.914	87.19
328.143	82.19
328.372	86.19
328.6	95.19
328.829	84.19
329.058	92.19
329.287	94.19
329.515	80.19
329.744	83.19
329.972	79.19
330.201	84.19
330.43	71.19
330.658	90.19
330.887	81.19
331.115	103.19
331.344	89.19
331.572	83.19
331.801	80.19
332.03	85.19
332.258	72.19
332.486	83.19
332.715	90.19
332.943	85.19
333.172	83.19
333.4	72.19
333.629	101.19
333.857	93.19
334.085	75.19
334.314	78.19
334.542	85.19
334.771	89.19
334.999	85.19
335.227	88.19
335.455	89.19
335.684	91.19
335.912	82.19
336.14	70.19
336.369	73.19
336.597	88.19
336.825	87.19
337.053	83.19
337.281	78.19
337.51	90.19
337.738	85.19
337.966	75.19
338.194	82.19
338.422	77.19
338.65	79.19
338.878	67.19
339.106	59.19
339.334	78.19
339.562	88.19
339.79	80.19
340.018	72.19
340.246	84.19
340.474	86.19
340.702	65.19
340.93	83.19
341.158	69.19
341.386	80.19
341.614	87.19
341.842	86.19
342.07	89.19
342.298	96.19
342.526	74.19
342.754	79.19
342.981	87.19
343.209	78.19
343.437	84.19
343.665	93.19
343.893	87.19
344.12	86.19
344.348	92.19
344.576	78.19
344.804	81.19
345.031	80.19
345.259	83.19
345.487	75.19
345.714	91.19
345.942	78.19
346.17	93.19
346.397	74.19
346.625	95.19
346.853	80.19
347.08	89.19
347.308	79.19
347.535	75.19
347.763	81.19
347.99	80.19
348.218	95.19
348.445	72.19
348.673	80.19
348.9	77.19
349.128	80.19
349.355	82.19
349.583	88.19
349.81	84.19
350.037	95.19
350.265	85.19
350.492	85.19
350.72	100.19
350.947	85.19
351.174	79.19
351.402	95.19
351.629	88.19
351.856	81.19
352.083	90.19
352.311	82.19
352.538	80.19
352.765	86.19
352.992	82.19
353.22	89.19
353.447	77.19
353.674	78.19
353.901	75.19
354.128	87.19
354.355	101.19
354.583	80.19
354.81	75.19
355.037	82.19
355.264	91.19
355.491	85.19
355.718	82.19
355.945	77.19
356.172	87.19
356.399	72.19
356.626	78.19
356.853	79.19
357.08	85.19
357.307	83.19
357.534	72.19
357.761	97.19
357.988	80.19
358.215	83.19
358.441	78.19
358.668	84.19
358.895	74.19
359.122	94.19
359.349	92.19
359.576	82.19
359.802	83.19
360.029	84.19
360.256	85.19
360.483	86.19
360.709	78.19
360.936	95.19
361.163	70.19
361.39	77.19
361.616	69.19
361.843	91.19
362.07	87.19
362.296	82.19
362.523	89.19
362.749	85.19
362.976	77.19
363.203	91.19
363.429	95.19
363.656	86.19
363.882	88.19
364.109	83.19
364.335	92.19
364.562	88.19
364.788	90.19
365.015	88.19
365.241	66.19
365.468	80.19
365.694	73.19
365.92	82.19
366.147	79.19
366.373	94.19
366.599	90.19
366.826	84.19
367.052	90.19
367.278	84.19
367.505	95.19
367.731	72.19
367.957	76.19
368.184	76.19
368.41	75.19
368.636	88.19
368.862	71.19
369.089	88.19
369.315	79.19
369.541	96.19
369.767	89.19
369.993	90.19
370.219	77.19
370.445	78.19
370.672	86.19
370.898	80.19
371.124	80.19
371.35	100.19
371.576	82.19
371.802	84.19
372.028	94.19
372.254	79.19
372.48	71.19
372.706	77.19
372.932	88.19
373.158	72.19
373.384	79.19
373.61	81.19
373.835	78.19
374.061	83.19
374.287	95.19
374.513	89.19
374.739	95.19
374.965	78.19
375.191	71.19
375.416	89.19
375.642	83.19
375.868	75.19
376.094	70.19
376.319	81.19
376.545	73.19
376.771	83.19
376.997	97.19
377.222	94.19
377.448	90.19
377.674	70.19
377.899	81.19
378.125	81.19
378.35	73.19
378.576	76.19
378.802	93.19
379.027	76.19
379.253	94.19
379.478	93.19
379.704	83.19
379.929	95.19
380.155	83.19
380.38	78.19
380.606	83.19
380.831	88.19
381.057	83.19
381.282	78.19
381.507	72.19
381.733	82.19
381.958	79.19
382.184	81.19
382.409	82.19
382.634	81.19
382.86	89.19
383.085	73.19
383.31	88.19
383.535	82.19
383.761	84.19
383.986	89.19
384.211	75.19
384.436	79.19
384.662	77.19
384.887	80.19
385.112	86.19
385.337	87.19
385.562	97.19
385.787	74.19
386.013	90.19
386.238	92.19
386.463	84.19
386.688	78.19
386.913	79.19
387.138	73.19
387.363	93.19
387.588	85.19
387.813	75.19
388.038	77.19
388.263	87.19
388.488	90.19
388.713	72.19
388.938	92.19
389.163	72.19
389.387	82.19
389.612	86.19
389.837	71.19
390.062	94.19
390.287	87.19
390.512	97.19
390.736	84.19
390.961	88.19
391.186	93.19
391.411	87.19
391.636	78.19
391.86	94.19
392.085	90.19
392.31	82.19
392.534	93.19
392.759	84.19
392.984	87.19
393.208	99.19
393.433	87.19
393.658	91.19
393.882	70.19
394.107	76.19
394.331	76.19
394.556	80.19
394.78	83.19
395.005	76.19
395.229	81.19
395.454	83.19
395.678	67.19
395.903	78.19
396.127	93.19
396.352	87.19
396.576	93.19
396.801	83.19
397.025	89.19
397.249	92.19
397.474	94.19
397.698	81.19
397.922	82.19
398.147	84.19
398.371	83.19
398.595	82.19
398.82	77.19
399.044	81.19
399.268	80.19
399.492	84.19
399.717	90.19
399.941	83.19
400.165	78.19
400.389	83.19
400.613	86.19
400.837	88.19
401.062	102.19
401.286	84.19
401.51	86.19
401.734	84.19
401.958	90.19
402.182	82.19
402.406	91.19
402.63	79.19
402.854	76.19
403.078	74.19
403.302	83.19
403.526	99.19
403.75	65.19
403.974	85.19
404.198	83.19
404.422	92.19
404.645	87.19
404.869	100.19
405.093	92.19
405.317	96.19
405.541	99.19
405.765	93.19
405.988	85.19
406.212	99.19
406.436	81.19
406.66	82.19
406.883	95.19
407.107	92.19
407.331	97.19
407.555	87.19
407.778	96.19
408.002	88.19
408.226	77.19
408.449	75.19
408.673	64.19
408.896	81.19
409.12	88.19
409.344	77.19
409.567	90.19
409.791	83.19
410.014	83.19
410.238	88.19
410.461	93.19
410.685	85.19
410.908	79.19
411.132	91.19
411.355	92.19
411.578	89.19
411.802	88.19
412.025	79.19
412.249	88.19
412.472	90.19
412.695	98.19
412.919	92.19
413.142	82.19
413.365	96.19
413.589	93.19
413.812	93.19
414.035	99.19
414.258	81.19
414.482	84.19
414.705	80.19
414.928	91.19
415.151	88.19
415.374	82.19
415.597	79.19
415.821	74.19
416.044	81.19
416.267	83.19
416.49	90.19
416.713	87.19
416.936	90.19
417.159	82.19
417.382	90.19
417.605	98.19
417.828	94.19
418.051	84.19
418.274	96.19
418.497	80.19
418.72	87.19
418.943	101.19
419.166	96.19
419.389	85.19
419.611	86.19
419.834	88.19
420.057	91.19
420.28	107.19
420.503	109.19
420.726	79.19
420.948	89.19
421.171	96.19
421.394	91.19
421.617	101.19
421.839	86.19
422.062	98.19
422.285	88.19
422.507	100.19
422.73	85.19
422.953	89.19
423.175	90.19
423.398	90.19
423.621	82.19
423.843	86.19
424.066	82.19
424.288	87.19
424.511	93.19
424.733	65.19
424.956	100.19
425.178	98.19
425.401	74.19
425.623	87.19
425.846	89.19
426.068	81.19
426.291	100.19
426.513	89.19
426.735	92.19
426.958	86.19
427.18	86.19
427.402	87.19
427.625	104.19
427.847	74.19
428.069	94.19
428.292	87.19
428.514	79.19
428.736	88.19
428.958	107.19
429.181	99.19
429.403	90.19
429.625	99.19
429.847	84.19
430.069	94.19
430.292	92.19
430.514	99.19
430.736	91.19
430.958	102.19
431.18	91.19
431.402	95.19
431.624	81.19
431.846	84.19
432.068	94.19
432.29	89.19
432.512	101.19
432.734	82.19
432.956	80.19
433.178	85.19
433.4	106.19
433.622	86.19
433.844	86.19
434.066	87.19
434.287	93.19
434.509	68.19
434.731	93.19
434.953	104.19
435.175	92.19
435.397	80.19
435.618	85.19
435.84	104.19
436.062	81.19
436.284	106.19
436.505	87.19
436.727	101.19
436.949	96.19
437.17	88.19
437.392	94.19
437.614	102.19
437.835	93.19
438.057	89.19
438.278	95.19
438.5	104.19
438.721	103.19
438.943	86.19
439.165	93.19
439.386	89.19
439.608	116.19
439.829	84.19
440.05	92.19
440.272	86.19
440.493	89.19
440.715	83.19
440.936	107.19
441.158	101.19
441.379	107.19
441.6	100.19
441.822	108.19
442.043	97.19
442.264	94.19
442.486	88.19
442.707	83.19
442.928	97.19
443.149	97.19
443.371	114.19
443.592	97.19
443.813	113.19
444.034	82.19
444.255	99.19
444.476	100.19
444.698	101.19
444.919	96.19
445.14	184.19
445.361	137.19
445.582	93.19
445.803	93.19
446.024	85.19
446.245	99.19
446.466	93.19
446.687	92.19
446.908	112.19
447.129	113.19
447.35	97.19
447.571	98.19
447.792	89.19
448.013	88.19
448.234	97.19
448.455	87.19
448.675	102.19
448.896	89.19
449.117	90.19
449.338	91.19
449.559	94.19
449.779	88.19
450	90.19
450.221	93.19
450.442	113.19
450.662	87.19
450.883	95.19
451.104	109.19
451.324	90.19
451.545	86.19
451.766	91.19
451.986	97.19
452.207	97.19
452.428	89.19
452.648	105.19
452.869	77.19
453.089	85.19
453.31	88.19
453.53	74.19
453.751	89.19
453.971	85.19
454.192	99.19
454.412	96.19
454.633	95.19
454.853	101.19
455.073	86.19
455.294	87.19
455.514	93.19
455.734	89.19
455.955	89.19
456.175	119.19
456.395	81.19
456.616	79.19
456.836	85.19
457.056	89.19
457.276	79.19
457.497	92.19
457.717	82.19
457.937	82.19
458.157	68.19
458.377	95.19
458.598	93.19
458.818	70.19
459.038	77.19
459.258	85.19
459.478	80.19
459.698	89.19
459.918	82.19
460.138	83.19
460.358	73.19
460.578	99.19
460.798	93.19
461.018	96.19
461.238	88.19
461.458	93.19
461.678	80.19
461.898	90.19
462.118	93.19
462.338	87.19
462.558	85.19
462.777	83.19
462.997	80.19
463.217	83.19
463.437	82.19
463.657	100.19
463.876	87.19
464.096	80.19
464.316	86.19
464.536	97.19
464.755	91.19
464.975	99.19
465.195	86.19
465.414	82.19
465.634	83.19
465.854	92.19
466.073	78.19
466.293	78.19
466.512	92.19
466.732	73.19
466.951	92.19
467.171	84.19
467.391	115.19
467.61	104.19
467.829	84.19
468.049	81.19
468.268	118.19
468.488	99.19
468.707	103.19
468.927	96.19
469.146	92.19
469.365	100.19
469.585	99.19
469.804	108.19
470.023	105.19
470.243	102.19
470.462	98.19
470.681	85.19
470.901	81.19
471.12	97.19
471.339	97.19
471.558	94.19
471.777	88.19
471.997	99.19
472.216	77.19
472.435	99.19
472.654	91.19
472.873	88.19
473.092	88.19
473.311	89.19
473.53	100.19
473.749	112.19
473.968	93.19
474.187	84.19
474.406	99.19
474.625	88.19
474.844	93.19
475.063	84.19
475.282	82.19
475.501	81.19
475.72	95.19
475.939	87.19
476.158	96.19
476.377	90.19
476.596	93.19
476.814	77.19
477.033	91.19
477.252	86.19
477.471	86.19
477.69	93.19
477.908	87.19
478.127	76.19
478.346	90.19
478.564	95.19
478.783	86.19
479.002	81.19
479.22	81.19
479.439	98.19
479.658	81.19
479.876	86.19
480.095	89.19
480.313	89.19
480.532	79.19
480.751	85.19
480.969	75.19
481.188	79.19
481.406	109.19
481.624	80.19
481.843	85.19
482.061	93.19
482.28	103.19
482.498	81.19
482.717	87.19
482.935	94.19
483.153	79.19
483.372	90.19
483.59	111.19
483.808	91.19
484.027	91.19
484.245	92.19
484.463	94.19
484.681	103.19
484.9	100.19
485.118	88.19
485.336	93.19
485.554	94.19
485.772	87.19
485.99	95.19
486.209	83.19
486.427	85.19
486.645	95.19
486.863	90.19
487.081	93.19
487.299	88.19
487.517	105.19
487.735	111.19
487.953	110.19
488.171	109.19
488.389	103.19
488.607	102.19
488.825	101.19
489.043	81.19
489.261	95.19
489.479	89.19
489.696	104.19
489.914	90.19
490.132	97.19
490.35	103.19
490.568	99.19
490.786	107.19
491.003	105.19
491.221	100.19
491.439	101.19
491.657	103.19
491.874	102.19
492.092	116.19
492.31	121.19
492.527	113.19
492.745	106.19
492.963	113.19
493.18	99.19
493.398	96.19
493.615	103.19
493.833	109.19
494.05	110.19
494.268	86.19
494.485	113.19
494.703	98.19
494.92	114.19
495.138	119.19
495.355	104.19
495.573	103.19
495.79	116.19
496.008	96.19
496.225	99.19
496.442	105.19
496.66	103.19
496.877	100.19
497.094	111.19
497.312	99.19
497.529	90.19
497.746	97.19
497.963	113.19
498.181	102.19
498.398	103.19
498.615	83.19
498.832	86.19
499.049	109.19
499.267	95.19
499.484	91.19
499.701	103.19
499.918	85.19
500.135	104.19
500.352	96.19
500.569	100.19
500.786	103.19
501.003	98.19
501.22	77.19
501.437	89.19
501.654	86.19
501.871	81.19
502.088	81.19
502.305	90.19
502.522	84.19
502.739	99.19
502.956	79.19
503.172	87.19
503.389	83.19
503.606	88.19
503.823	97.19
504.04	88.19
504.256	84.19
504.473	86.19
504.69	88.19
504.907	99.19
505.123	101.19
505.34	98.19
505.557	89.19
505.773	83.19
505.99	96.19
506.207	94.19
506.423	94.19
506.64	85.19
506.856	79.19
507.073	91.19
507.289	91.19
507.506	96.19
507.722	86.19
507.939	82.19
508.155	95.19
508.372	85.19
508.588	90.19
508.805	88.19
509.021	89.19
509.238	79.19
509.454	77.19
509.67	94.19
509.887	76.19
510.103	94.19
510.319	93.19
510.536	85.19
510.752	77.19
510.968	81.19
511.184	87.19
511.401	72.19
511.617	77.19
511.833	84.19
512.049	99.19
512.265	84.19
512.481	77.19
512.698	80.19
512.914	82.19
513.13	79.19
513.346	80.19
513.562	97.19
513.778	81.19
513.994	79.19
514.21	81.19
514.426	101.19
514.642	90.19
514.858	94.19
515.074	84.19
515.29	79.19
515.506	78.19
515.721	81.19
515.937	89.19
516.153	85.19
516.369	70.19
516.585	65.19
516.801	73.19
517.016	100.19
517.232	81.19
517.448	80.19
517.664	87.19
517.879	79.19
