Data from Location5.07152019.Energy5.Lamp.07192019.3%Agarose_HRD10591_16-05-13-629.txt Node
Date: Fri Jul 19 16:05:13 EDT 2019
User: cochatt
Spectrometer: HR+D1059
Trigger mode: 1
Integration Time (sec): 1.000000E-1
Scans to average: 1
Electric dark correction enabled: true
Nonlinearity correction enabled: false
Boxcar width: 0
XAxis mode: Wavelengths
Number of Pixels in Spectrum: 2048
>>>>>Begin Spectral Data<<<<<
223.165	-22.69
223.4	-22.69
223.635	-22.69
223.869	-22.69
224.104	-16.69
224.338	-15.69
224.573	-8.69
224.808	-10.69
225.042	-14.69
225.277	-7.69
225.511	5.31
225.746	0.31
225.98	4.31
226.215	14.31
226.449	27.31
226.683	13.31
226.918	29.31
227.152	25.31
227.387	30.31
227.621	42.31
227.856	47.31
228.09	39.31
228.324	43.31
228.559	68.31
228.793	63.31
229.027	68.31
229.262	56.31
229.496	58.31
229.73	67.31
229.964	73.31
230.199	82.31
230.433	81.31
230.667	61.31
230.901	91.31
231.136	77.31
231.37	89.31
231.604	75.31
231.838	71.31
232.072	81.31
232.306	86.31
232.541	72.31
232.775	79.31
233.009	79.31
233.243	74.31
233.477	76.31
233.711	76.31
233.945	69.31
234.179	73.31
234.413	74.31
234.647	87.31
234.881	60.31
235.115	81.31
235.349	76.31
235.583	65.31
235.817	71.31
236.051	72.31
236.285	68.31
236.519	94.31
236.753	83.31
236.987	69.31
237.221	79.31
237.455	87.31
237.689	81.31
237.922	74.31
238.156	64.31
238.39	71.31
238.624	72.31
238.858	86.31
239.091	72.31
239.325	79.31
239.559	87.31
239.793	69.31
240.027	68.31
240.26	75.31
240.494	69.31
240.728	76.31
240.961	74.31
241.195	69.31
241.429	70.31
241.662	69.31
241.896	73.31
242.13	70.31
242.363	86.31
242.597	81.31
242.83	84.31
243.064	81.31
243.298	76.31
243.531	79.31
243.765	69.31
243.998	75.31
244.232	66.31
244.465	75.31
244.699	84.31
244.932	76.31
245.166	58.31
245.399	70.31
245.633	76.31
245.866	85.31
246.099	84.31
246.333	87.31
246.566	77.31
246.8	70.31
247.033	67.31
247.266	65.31
247.5	81.31
247.733	76.31
247.966	57.31
248.2	91.31
248.433	78.31
248.666	71.31
248.899	72.31
249.133	79.31
249.366	74.31
249.599	74.31
249.832	64.31
250.066	87.31
250.299	70.31
250.532	71.31
250.765	74.31
250.998	86.31
251.231	88.31
251.465	81.31
251.698	78.31
251.931	85.31
252.164	65.31
252.397	80.31
252.63	87.31
252.863	85.31
253.096	87.31
253.329	82.31
253.562	65.31
253.795	75.31
254.028	89.31
254.261	81.31
254.494	77.31
254.727	76.31
254.96	76.31
255.193	67.31
255.426	72.31
255.659	73.31
255.892	84.31
256.124	68.31
256.357	64.31
256.59	89.31
256.823	95.31
257.056	69.31
257.289	78.31
257.521	88.31
257.754	79.31
257.987	83.31
258.22	82.31
258.452	89.31
258.685	79.31
258.918	85.31
259.151	79.31
259.383	91.31
259.616	77.31
259.849	69.31
260.081	72.31
260.314	74.31
260.547	65.31
260.779	69.31
261.012	69.31
261.244	67.31
261.477	82.31
261.71	80.31
261.942	86.31
262.175	80.31
262.407	85.31
262.64	89.31
262.872	79.31
263.105	83.31
263.337	83.31
263.57	82.31
263.802	69.31
264.035	90.31
264.267	70.31
264.499	71.31
264.732	90.31
264.964	76.31
265.197	83.31
265.429	81.31
265.661	97.31
265.894	72.31
266.126	102.31
266.358	81.31
266.591	76.31
266.823	98.31
267.055	74.31
267.287	87.31
267.52	94.31
267.752	86.31
267.984	100.31
268.216	89.31
268.448	92.31
268.681	81.31
268.913	80.31
269.145	77.31
269.377	85.31
269.609	90.31
269.841	78.31
270.073	79.31
270.306	92.31
270.538	80.31
270.77	86.31
271.002	77.31
271.234	87.31
271.466	63.31
271.698	69.31
271.93	81.31
272.162	86.31
272.394	88.31
272.626	84.31
272.858	90.31
273.09	90.31
273.322	83.31
273.553	79.31
273.785	86.31
274.017	81.31
274.249	85.31
274.481	82.31
274.713	90.31
274.945	80.31
275.176	83.31
275.408	89.31
275.64	95.31
275.872	70.31
276.104	81.31
276.335	85.31
276.567	76.31
276.799	71.31
277.031	78.31
277.262	86.31
277.494	76.31
277.726	77.31
277.957	97.31
278.189	83.31
278.421	82.31
278.652	92.31
278.884	93.31
279.115	80.31
279.347	96.31
279.579	91.31
279.81	77.31
280.042	95.31
280.273	94.31
280.505	77.31
280.736	85.31
280.968	96.31
281.199	92.31
281.431	67.31
281.662	74.31
281.894	84.31
282.125	88.31
282.356	85.31
282.588	96.31
282.819	77.31
283.051	93.31
283.282	76.31
283.513	70.31
283.745	88.31
283.976	87.31
284.207	96.31
284.439	83.31
284.67	77.31
284.901	87.31
285.132	87.31
285.364	83.31
285.595	80.31
285.826	81.31
286.057	95.31
286.288	81.31
286.52	86.31
286.751	91.31
286.982	92.31
287.213	88.31
287.444	82.31
287.675	85.31
287.906	101.31
288.138	89.31
288.369	79.31
288.6	87.31
288.831	87.31
289.062	87.31
289.293	83.31
289.524	83.31
289.755	92.31
289.986	87.31
290.217	96.31
290.448	80.31
290.679	80.31
290.91	88.31
291.141	89.31
291.371	92.31
291.602	98.31
291.833	87.31
292.064	82.31
292.295	84.31
292.526	103.31
292.757	85.31
292.987	74.31
293.218	86.31
293.449	78.31
293.68	84.31
293.91	91.31
294.141	90.31
294.372	78.31
294.603	91.31
294.833	92.31
295.064	86.31
295.295	68.31
295.525	72.31
295.756	95.31
295.987	95.31
296.217	82.31
296.448	101.31
296.679	88.31
296.909	89.31
297.14	93.31
297.37	89.31
297.601	94.31
297.831	93.31
298.062	88.31
298.292	96.31
298.523	105.31
298.753	89.31
298.984	87.31
299.214	73.31
299.445	79.31
299.675	99.31
299.905	89.31
300.136	86.31
300.366	92.31
300.597	83.31
300.827	99.31
301.057	75.31
301.288	92.31
301.518	97.31
301.748	76.31
301.979	76.31
302.209	90.31
302.439	85.31
302.669	90.31
302.9	84.31
303.13	88.31
303.36	88.31
303.59	76.31
303.82	97.31
304.051	91.31
304.281	102.31
304.511	92.31
304.741	72.31
304.971	83.31
305.201	91.31
305.431	80.31
305.661	95.31
305.891	97.31
306.121	77.31
306.352	90.31
306.582	80.31
306.812	86.31
307.042	84.31
307.272	86.31
307.502	92.31
307.731	96.31
307.961	101.31
308.191	72.31
308.421	81.31
308.651	81.31
308.881	87.31
309.111	99.31
309.341	81.31
309.571	85.31
309.8	80.31
310.03	91.31
310.26	93.31
310.49	78.31
310.72	79.31
310.949	85.31
311.179	79.31
311.409	68.31
311.639	91.31
311.868	86.31
312.098	95.31
312.328	82.31
312.557	94.31
312.787	80.31
313.017	90.31
313.246	79.31
313.476	84.31
313.706	84.31
313.935	76.31
314.165	103.31
314.394	69.31
314.624	91.31
314.853	97.31
315.083	87.31
315.312	87.31
315.542	71.31
315.771	82.31
316.001	90.31
316.23	79.31
316.46	79.31
316.689	88.31
316.919	85.31
317.148	91.31
317.377	89.31
317.607	84.31
317.836	76.31
318.065	86.31
318.295	91.31
318.524	84.31
318.753	86.31
318.983	100.31
319.212	90.31
319.441	79.31
319.67	91.31
319.9	87.31
320.129	85.31
320.358	97.31
320.587	96.31
320.816	78.31
321.046	94.31
321.275	79.31
321.504	73.31
321.733	87.31
321.962	78.31
322.191	77.31
322.42	83.31
322.649	94.31
322.878	81.31
323.108	82.31
323.337	98.31
323.566	83.31
323.795	96.31
324.024	88.31
324.253	92.31
324.482	97.31
324.71	85.31
324.939	102.31
325.168	84.31
325.397	95.31
325.626	92.31
325.855	95.31
326.084	92.31
326.313	91.31
326.542	80.31
326.77	80.31
326.999	88.31
327.228	70.31
327.457	87.31
327.686	85.31
327.914	86.31
328.143	94.31
328.372	78.31
328.6	78.31
328.829	100.31
329.058	92.31
329.287	90.31
329.515	95.31
329.744	82.31
329.972	87.31
330.201	85.31
330.43	91.31
330.658	78.31
330.887	98.31
331.115	74.31
331.344	83.31
331.572	79.31
331.801	87.31
332.03	68.31
332.258	93.31
332.486	92.31
332.715	89.31
332.943	93.31
333.172	80.31
333.4	79.31
333.629	93.31
333.857	88.31
334.085	91.31
334.314	91.31
334.542	89.31
334.771	98.31
334.999	88.31
335.227	86.31
335.455	91.31
335.684	87.31
335.912	93.31
336.14	88.31
336.369	77.31
336.597	73.31
336.825	88.31
337.053	94.31
337.281	83.31
337.51	90.31
337.738	104.31
337.966	98.31
338.194	86.31
338.422	88.31
338.65	99.31
338.878	88.31
339.106	88.31
339.334	89.31
339.562	79.31
339.79	87.31
340.018	88.31
340.246	79.31
340.474	89.31
340.702	93.31
340.93	86.31
341.158	81.31
341.386	85.31
341.614	82.31
341.842	68.31
342.07	95.31
342.298	95.31
342.526	88.31
342.754	89.31
342.981	86.31
343.209	98.31
343.437	92.31
343.665	83.31
343.893	79.31
344.12	86.31
344.348	84.31
344.576	90.31
344.804	91.31
345.031	87.31
345.259	115.31
345.487	80.31
345.714	85.31
345.942	87.31
346.17	91.31
346.397	89.31
346.625	96.31
346.853	89.31
347.08	92.31
347.308	98.31
347.535	84.31
347.763	92.31
347.99	92.31
348.218	86.31
348.445	89.31
348.673	81.31
348.9	87.31
349.128	82.31
349.355	76.31
349.583	91.31
349.81	93.31
350.037	97.31
350.265	96.31
350.492	85.31
350.72	87.31
350.947	85.31
351.174	103.31
351.402	88.31
351.629	95.31
351.856	89.31
352.083	82.31
352.311	87.31
352.538	74.31
352.765	84.31
352.992	91.31
353.22	72.31
353.447	100.31
353.674	93.31
353.901	92.31
354.128	93.31
354.355	85.31
354.583	80.31
354.81	90.31
355.037	93.31
355.264	80.31
355.491	85.31
355.718	83.31
355.945	82.31
356.172	96.31
356.399	96.31
356.626	85.31
356.853	85.31
357.08	87.31
357.307	79.31
357.534	91.31
357.761	94.31
357.988	101.31
358.215	88.31
358.441	79.31
358.668	83.31
358.895	93.31
359.122	87.31
359.349	69.31
359.576	94.31
359.802	103.31
360.029	88.31
360.256	92.31
360.483	84.31
360.709	65.31
360.936	93.31
361.163	85.31
361.39	89.31
361.616	92.31
361.843	85.31
362.07	98.31
362.296	95.31
362.523	79.31
362.749	88.31
362.976	72.31
363.203	98.31
363.429	79.31
363.656	100.31
363.882	82.31
364.109	89.31
364.335	83.31
364.562	83.31
364.788	87.31
365.015	76.31
365.241	92.31
365.468	83.31
365.694	78.31
365.92	79.31
366.147	99.31
366.373	68.31
366.599	79.31
366.826	84.31
367.052	82.31
367.278	91.31
367.505	76.31
367.731	76.31
367.957	95.31
368.184	90.31
368.41	86.31
368.636	88.31
368.862	88.31
369.089	99.31
369.315	100.31
369.541	82.31
369.767	99.31
369.993	92.31
370.219	80.31
370.445	93.31
370.672	78.31
370.898	77.31
371.124	83.31
371.35	86.31
371.576	80.31
371.802	96.31
372.028	91.31
372.254	79.31
372.48	93.31
372.706	93.31
372.932	91.31
373.158	86.31
373.384	89.31
373.61	87.31
373.835	87.31
374.061	91.31
374.287	86.31
374.513	99.31
374.739	84.31
374.965	95.31
375.191	78.31
375.416	101.31
375.642	76.31
375.868	95.31
376.094	84.31
376.319	67.31
376.545	84.31
376.771	68.31
376.997	100.31
377.222	92.31
377.448	85.31
377.674	98.31
377.899	86.31
378.125	80.31
378.35	88.31
378.576	100.31
378.802	87.31
379.027	71.31
379.253	97.31
379.478	93.31
379.704	91.31
379.929	98.31
380.155	78.31
380.38	83.31
380.606	87.31
380.831	87.31
381.057	89.31
381.282	69.31
381.507	91.31
381.733	85.31
381.958	82.31
382.184	80.31
382.409	80.31
382.634	88.31
382.86	94.31
383.085	79.31
383.31	70.31
383.535	84.31
383.761	96.31
383.986	91.31
384.211	83.31
384.436	84.31
384.662	95.31
384.887	93.31
385.112	88.31
385.337	99.31
385.562	95.31
385.787	81.31
386.013	101.31
386.238	84.31
386.463	89.31
386.688	91.31
386.913	94.31
387.138	86.31
387.363	81.31
387.588	99.31
387.813	85.31
388.038	82.31
388.263	92.31
388.488	87.31
388.713	90.31
388.938	80.31
389.163	91.31
389.387	95.31
389.612	91.31
389.837	86.31
390.062	86.31
390.287	85.31
390.512	79.31
390.736	79.31
390.961	89.31
391.186	93.31
391.411	96.31
391.636	90.31
391.86	94.31
392.085	83.31
392.31	77.31
392.534	79.31
392.759	96.31
392.984	84.31
393.208	81.31
393.433	90.31
393.658	80.31
393.882	77.31
394.107	87.31
394.331	95.31
394.556	72.31
394.78	77.31
395.005	82.31
395.229	92.31
395.454	87.31
395.678	94.31
395.903	89.31
396.127	97.31
396.352	87.31
396.576	94.31
396.801	76.31
397.025	86.31
397.249	100.31
397.474	93.31
397.698	101.31
397.922	89.31
398.147	83.31
398.371	101.31
398.595	83.31
398.82	72.31
399.044	91.31
399.268	84.31
399.492	101.31
399.717	113.31
399.941	94.31
400.165	81.31
400.389	98.31
400.613	81.31
400.837	99.31
401.062	84.31
401.286	88.31
401.51	98.31
401.734	100.31
401.958	105.31
402.182	91.31
402.406	94.31
402.63	85.31
402.854	92.31
403.078	93.31
403.302	93.31
403.526	95.31
403.75	110.31
403.974	95.31
404.198	94.31
404.422	96.31
404.645	88.31
404.869	105.31
405.093	84.31
405.317	92.31
405.541	103.31
405.765	94.31
405.988	86.31
406.212	97.31
406.436	100.31
406.66	92.31
406.883	96.31
407.107	93.31
407.331	84.31
407.555	94.31
407.778	86.31
408.002	82.31
408.226	86.31
408.449	95.31
408.673	93.31
408.896	85.31
409.12	90.31
409.344	105.31
409.567	83.31
409.791	81.31
410.014	91.31
410.238	75.31
410.461	77.31
410.685	83.31
410.908	102.31
411.132	95.31
411.355	97.31
411.578	84.31
411.802	87.31
412.025	84.31
412.249	75.31
412.472	97.31
412.695	98.31
412.919	78.31
413.142	85.31
413.365	100.31
413.589	87.31
413.812	88.31
414.035	99.31
414.258	92.31
414.482	103.31
414.705	97.31
414.928	86.31
415.151	84.31
415.374	94.31
415.597	92.31
415.821	98.31
416.044	98.31
416.267	91.31
416.49	99.31
416.713	84.31
416.936	77.31
417.159	98.31
417.382	86.31
417.605	96.31
417.828	98.31
418.051	89.31
418.274	92.31
418.497	99.31
418.72	87.31
418.943	85.31
419.166	87.31
419.389	88.31
419.611	84.31
419.834	96.31
420.057	83.31
420.28	84.31
420.503	81.31
420.726	90.31
420.948	79.31
421.171	90.31
421.394	96.31
421.617	84.31
421.839	83.31
422.062	82.31
422.285	95.31
422.507	71.31
422.73	80.31
422.953	98.31
423.175	88.31
423.398	96.31
423.621	94.31
423.843	92.31
424.066	85.31
424.288	93.31
424.511	73.31
424.733	92.31
424.956	92.31
425.178	93.31
425.401	84.31
425.623	94.31
425.846	71.31
426.068	99.31
426.291	92.31
426.513	101.31
426.735	91.31
426.958	86.31
427.18	103.31
427.402	83.31
427.625	88.31
427.847	86.31
428.069	100.31
428.292	90.31
428.514	97.31
428.736	79.31
428.958	84.31
429.181	87.31
429.403	84.31
429.625	100.31
429.847	101.31
430.069	81.31
430.292	83.31
430.514	92.31
430.736	93.31
430.958	78.31
431.18	80.31
431.402	77.31
431.624	85.31
431.846	81.31
432.068	86.31
432.29	88.31
432.512	84.31
432.734	94.31
432.956	93.31
433.178	96.31
433.4	86.31
433.622	97.31
433.844	97.31
434.066	86.31
434.287	92.31
434.509	85.31
434.731	78.31
434.953	97.31
435.175	94.31
435.397	81.31
435.618	89.31
435.84	83.31
436.062	83.31
436.284	97.31
436.505	93.31
436.727	82.31
436.949	94.31
437.17	77.31
437.392	99.31
437.614	80.31
437.835	87.31
438.057	81.31
438.278	92.31
438.5	84.31
438.721	80.31
438.943	92.31
439.165	92.31
439.386	76.31
439.608	88.31
439.829	91.31
440.05	84.31
440.272	114.31
440.493	95.31
440.715	92.31
440.936	79.31
441.158	96.31
441.379	91.31
441.6	86.31
441.822	106.31
442.043	89.31
442.264	107.31
442.486	95.31
442.707	88.31
442.928	91.31
443.149	97.31
443.371	86.31
443.592	85.31
443.813	91.31
444.034	74.31
444.255	97.31
444.476	97.31
444.698	88.31
444.919	93.31
445.14	228.31
445.361	141.31
445.582	91.31
445.803	81.31
446.024	87.31
446.245	80.31
446.466	92.31
446.687	83.31
446.908	81.31
447.129	81.31
447.35	82.31
447.571	91.31
447.792	91.31
448.013	96.31
448.234	83.31
448.455	86.31
448.675	86.31
448.896	84.31
449.117	96.31
449.338	85.31
449.559	87.31
449.779	85.31
450	83.31
450.221	77.31
450.442	78.31
450.662	75.31
450.883	75.31
451.104	94.31
451.324	89.31
451.545	74.31
451.766	75.31
451.986	76.31
452.207	88.31
452.428	78.31
452.648	93.31
452.869	94.31
453.089	75.31
453.31	81.31
453.53	76.31
453.751	91.31
453.971	83.31
454.192	73.31
454.412	95.31
454.633	85.31
454.853	87.31
455.073	88.31
455.294	89.31
455.514	79.31
455.734	80.31
455.955	78.31
456.175	67.31
456.395	86.31
456.616	90.31
456.836	85.31
457.056	101.31
457.276	98.31
457.497	101.31
457.717	83.31
457.937	95.31
458.157	78.31
458.377	83.31
458.598	95.31
458.818	85.31
459.038	93.31
459.258	91.31
459.478	98.31
459.698	84.31
459.918	81.31
460.138	93.31
460.358	83.31
460.578	87.31
460.798	87.31
461.018	92.31
461.238	101.31
461.458	100.31
461.678	92.31
461.898	93.31
462.118	96.31
462.338	93.31
462.558	95.31
462.777	93.31
462.997	100.31
463.217	88.31
463.437	91.31
463.657	101.31
463.876	93.31
464.096	92.31
464.316	97.31
464.536	106.31
464.755	94.31
464.975	102.31
465.195	91.31
465.414	85.31
465.634	101.31
465.854	91.31
466.073	95.31
466.293	80.31
466.512	96.31
466.732	93.31
466.951	87.31
467.171	95.31
467.391	85.31
467.61	86.31
467.829	89.31
468.049	91.31
468.268	97.31
468.488	88.31
468.707	83.31
468.927	83.31
469.146	83.31
469.365	85.31
469.585	98.31
469.804	97.31
470.023	91.31
470.243	92.31
470.462	91.31
470.681	94.31
470.901	90.31
471.12	73.31
471.339	78.31
471.558	88.31
471.777	88.31
471.997	95.31
472.216	99.31
472.435	89.31
472.654	79.31
472.873	108.31
473.092	103.31
473.311	76.31
473.53	89.31
473.749	86.31
473.968	86.31
474.187	96.31
474.406	99.31
474.625	94.31
474.844	82.31
475.063	79.31
475.282	101.31
475.501	101.31
475.72	80.31
475.939	98.31
476.158	95.31
476.377	95.31
476.596	96.31
476.814	88.31
477.033	81.31
477.252	107.31
477.471	93.31
477.69	93.31
477.908	89.31
478.127	98.31
478.346	95.31
478.564	101.31
478.783	99.31
479.002	89.31
479.22	95.31
479.439	103.31
479.658	96.31
479.876	103.31
480.095	91.31
480.313	109.31
480.532	94.31
480.751	98.31
480.969	94.31
481.188	90.31
481.406	88.31
481.624	95.31
481.843	88.31
482.061	78.31
482.28	99.31
482.498	85.31
482.717	89.31
482.935	95.31
483.153	91.31
483.372	96.31
483.59	94.31
483.808	93.31
484.027	78.31
484.245	87.31
484.463	103.31
484.681	113.31
484.9	86.31
485.118	86.31
485.336	97.31
485.554	99.31
485.772	91.31
485.99	104.31
486.209	87.31
486.427	94.31
486.645	110.31
486.863	96.31
487.081	97.31
487.299	92.31
487.517	105.31
487.735	108.31
487.953	115.31
488.171	102.31
488.389	101.31
488.607	85.31
488.825	85.31
489.043	102.31
489.261	91.31
489.479	82.31
489.696	101.31
489.914	106.31
490.132	111.31
490.35	100.31
490.568	95.31
490.786	96.31
491.003	104.31
491.221	109.31
491.439	99.31
491.657	111.31
491.874	95.31
492.092	118.31
492.31	109.31
492.527	110.31
492.745	103.31
492.963	102.31
493.18	99.31
493.398	101.31
493.615	126.31
493.833	106.31
494.05	100.31
494.268	103.31
494.485	102.31
494.703	112.31
494.92	107.31
495.138	99.31
495.355	117.31
495.573	100.31
495.79	91.31
496.008	106.31
496.225	100.31
496.442	97.31
496.66	116.31
496.877	105.31
497.094	109.31
497.312	113.31
497.529	102.31
497.746	111.31
497.963	98.31
498.181	111.31
498.398	105.31
498.615	104.31
498.832	118.31
499.049	101.31
499.267	117.31
499.484	112.31
499.701	113.31
499.918	129.31
500.135	136.31
500.352	125.31
500.569	137.31
500.786	141.31
501.003	146.31
501.22	140.31
501.437	115.31
501.654	111.31
501.871	111.31
502.088	109.31
502.305	113.31
502.522	93.31
502.739	107.31
502.956	106.31
503.172	103.31
503.389	100.31
503.606	102.31
503.823	98.31
504.04	103.31
504.256	116.31
504.473	82.31
504.69	106.31
504.907	108.31
505.123	84.31
505.34	109.31
505.557	93.31
505.773	99.31
505.99	95.31
506.207	108.31
506.423	91.31
506.64	98.31
506.856	110.31
507.073	117.31
507.289	85.31
507.506	84.31
507.722	93.31
507.939	101.31
508.155	90.31
508.372	96.31
508.588	98.31
508.805	85.31
509.021	94.31
509.238	90.31
509.454	84.31
509.67	83.31
509.887	105.31
510.103	90.31
510.319	107.31
510.536	86.31
510.752	88.31
510.968	93.31
511.184	105.31
511.401	92.31
511.617	111.31
511.833	97.31
512.049	87.31
512.265	92.31
512.481	97.31
512.698	87.31
512.914	93.31
513.13	100.31
513.346	99.31
513.562	101.31
513.778	94.31
513.994	87.31
514.21	89.31
514.426	97.31
514.642	77.31
514.858	102.31
515.074	92.31
515.29	102.31
515.506	104.31
515.721	100.31
515.937	100.31
516.153	99.31
516.369	87.31
516.585	104.31
516.801	112.31
517.016	89.31
517.232	97.31
