Data from Location5.07152019.Energy5.Lamp.07192019.3%Agarose_HRD10591_16-04-19-630.txt Node
Date: Fri Jul 19 16:04:19 EDT 2019
User: cochatt
Spectrometer: HR+D1059
Trigger mode: 1
Integration Time (sec): 1.000000E-1
Scans to average: 1
Electric dark correction enabled: true
Nonlinearity correction enabled: false
Boxcar width: 0
XAxis mode: Wavelengths
Number of Pixels in Spectrum: 2048
>>>>>Begin Spectral Data<<<<<
223.165	-25.81
223.4	-25.81
223.635	-25.81
223.869	-29.81
224.104	-17.81
224.338	-21.81
224.573	-4.81
224.808	1.19
225.042	-2.81
225.277	-13.81
225.511	-11.81
225.746	11.19
225.98	11.19
226.215	3.19
226.449	19.19
226.683	15.19
226.918	27.19
227.152	40.19
227.387	29.19
227.621	27.19
227.856	49.19
228.09	30.19
228.324	45.19
228.559	57.19
228.793	56.19
229.027	64.19
229.262	66.19
229.496	64.19
229.73	66.19
229.964	70.19
230.199	60.19
230.433	70.19
230.667	79.19
230.901	85.19
231.136	73.19
231.37	74.19
231.604	86.19
231.838	81.19
232.072	86.19
232.306	72.19
232.541	77.19
232.775	86.19
233.009	86.19
233.243	83.19
233.477	82.19
233.711	80.19
233.945	87.19
234.179	88.19
234.413	91.19
234.647	74.19
234.881	78.19
235.115	78.19
235.349	82.19
235.583	86.19
235.817	77.19
236.051	78.19
236.285	70.19
236.519	85.19
236.753	85.19
236.987	82.19
237.221	86.19
237.455	84.19
237.689	71.19
237.922	79.19
238.156	77.19
238.39	78.19
238.624	69.19
238.858	77.19
239.091	75.19
239.325	71.19
239.559	60.19
239.793	75.19
240.027	91.19
240.26	78.19
240.494	74.19
240.728	81.19
240.961	81.19
241.195	69.19
241.429	78.19
241.662	59.19
241.896	67.19
242.13	85.19
242.363	77.19
242.597	71.19
242.83	61.19
243.064	73.19
243.298	69.19
243.531	74.19
243.765	72.19
243.998	93.19
244.232	78.19
244.465	65.19
244.699	81.19
244.932	80.19
245.166	87.19
245.399	87.19
245.633	80.19
245.866	64.19
246.099	80.19
246.333	82.19
246.566	74.19
246.8	82.19
247.033	81.19
247.266	85.19
247.5	73.19
247.733	61.19
247.966	89.19
248.2	74.19
248.433	97.19
248.666	83.19
248.899	83.19
249.133	81.19
249.366	85.19
249.599	86.19
249.832	82.19
250.066	97.19
250.299	79.19
250.532	85.19
250.765	84.19
250.998	75.19
251.231	85.19
251.465	78.19
251.698	79.19
251.931	79.19
252.164	88.19
252.397	83.19
252.63	77.19
252.863	72.19
253.096	65.19
253.329	89.19
253.562	70.19
253.795	71.19
254.028	80.19
254.261	75.19
254.494	65.19
254.727	83.19
254.96	88.19
255.193	76.19
255.426	89.19
255.659	74.19
255.892	91.19
256.124	86.19
256.357	71.19
256.59	91.19
256.823	81.19
257.056	70.19
257.289	93.19
257.521	87.19
257.754	86.19
257.987	83.19
258.22	95.19
258.452	84.19
258.685	75.19
258.918	90.19
259.151	87.19
259.383	90.19
259.616	89.19
259.849	83.19
260.081	85.19
260.314	91.19
260.547	87.19
260.779	83.19
261.012	69.19
261.244	82.19
261.477	85.19
261.71	79.19
261.942	86.19
262.175	98.19
262.407	91.19
262.64	84.19
262.872	77.19
263.105	78.19
263.337	87.19
263.57	73.19
263.802	87.19
264.035	96.19
264.267	72.19
264.499	74.19
264.732	95.19
264.964	81.19
265.197	79.19
265.429	79.19
265.661	84.19
265.894	88.19
266.126	94.19
266.358	87.19
266.591	80.19
266.823	93.19
267.055	84.19
267.287	82.19
267.52	83.19
267.752	86.19
267.984	83.19
268.216	89.19
268.448	81.19
268.681	81.19
268.913	85.19
269.145	84.19
269.377	78.19
269.609	78.19
269.841	86.19
270.073	96.19
270.306	84.19
270.538	86.19
270.77	76.19
271.002	82.19
271.234	87.19
271.466	80.19
271.698	85.19
271.93	93.19
272.162	98.19
272.394	83.19
272.626	90.19
272.858	79.19
273.09	77.19
273.322	74.19
273.553	83.19
273.785	80.19
274.017	81.19
274.249	83.19
274.481	69.19
274.713	76.19
274.945	95.19
275.176	86.19
275.408	88.19
275.64	99.19
275.872	91.19
276.104	97.19
276.335	81.19
276.567	78.19
276.799	90.19
277.031	85.19
277.262	91.19
277.494	83.19
277.726	78.19
277.957	72.19
278.189	87.19
278.421	86.19
278.652	78.19
278.884	76.19
279.115	91.19
279.347	87.19
279.579	81.19
279.81	92.19
280.042	84.19
280.273	101.19
280.505	87.19
280.736	89.19
280.968	75.19
281.199	87.19
281.431	86.19
281.662	77.19
281.894	75.19
282.125	101.19
282.356	82.19
282.588	94.19
282.819	90.19
283.051	96.19
283.282	102.19
283.513	85.19
283.745	88.19
283.976	88.19
284.207	88.19
284.439	85.19
284.67	102.19
284.901	96.19
285.132	91.19
285.364	78.19
285.595	94.19
285.826	89.19
286.057	104.19
286.288	91.19
286.52	96.19
286.751	82.19
286.982	91.19
287.213	90.19
287.444	102.19
287.675	82.19
287.906	76.19
288.138	92.19
288.369	72.19
288.6	82.19
288.831	89.19
289.062	90.19
289.293	86.19
289.524	78.19
289.755	92.19
289.986	75.19
290.217	99.19
290.448	95.19
290.679	87.19
290.91	83.19
291.141	87.19
291.371	90.19
291.602	93.19
291.833	82.19
292.064	83.19
292.295	99.19
292.526	88.19
292.757	85.19
292.987	82.19
293.218	99.19
293.449	102.19
293.68	87.19
293.91	90.19
294.141	94.19
294.372	90.19
294.603	101.19
294.833	81.19
295.064	75.19
295.295	95.19
295.525	90.19
295.756	92.19
295.987	90.19
296.217	88.19
296.448	82.19
296.679	94.19
296.909	87.19
297.14	80.19
297.37	96.19
297.601	85.19
297.831	94.19
298.062	99.19
298.292	90.19
298.523	97.19
298.753	85.19
298.984	103.19
299.214	98.19
299.445	102.19
299.675	83.19
299.905	90.19
300.136	92.19
300.366	97.19
300.597	89.19
300.827	74.19
301.057	84.19
301.288	103.19
301.518	117.19
301.748	83.19
301.979	98.19
302.209	87.19
302.439	95.19
302.669	94.19
302.9	78.19
303.13	81.19
303.36	85.19
303.59	95.19
303.82	92.19
304.051	85.19
304.281	82.19
304.511	94.19
304.741	80.19
304.971	88.19
305.201	93.19
305.431	97.19
305.661	80.19
305.891	94.19
306.121	94.19
306.352	90.19
306.582	96.19
306.812	93.19
307.042	84.19
307.272	88.19
307.502	89.19
307.731	73.19
307.961	82.19
308.191	76.19
308.421	96.19
308.651	93.19
308.881	95.19
309.111	91.19
309.341	93.19
309.571	87.19
309.8	88.19
310.03	81.19
310.26	92.19
310.49	92.19
310.72	78.19
310.949	94.19
311.179	95.19
311.409	100.19
311.639	83.19
311.868	90.19
312.098	93.19
312.328	97.19
312.557	88.19
312.787	99.19
313.017	91.19
313.246	94.19
313.476	90.19
313.706	95.19
313.935	73.19
314.165	80.19
314.394	94.19
314.624	86.19
314.853	91.19
315.083	87.19
315.312	99.19
315.542	85.19
315.771	78.19
316.001	75.19
316.23	94.19
316.46	92.19
316.689	94.19
316.919	87.19
317.148	102.19
317.377	91.19
317.607	103.19
317.836	95.19
318.065	89.19
318.295	103.19
318.524	89.19
318.753	88.19
318.983	84.19
319.212	102.19
319.441	107.19
319.67	92.19
319.9	79.19
320.129	88.19
320.358	79.19
320.587	86.19
320.816	93.19
321.046	97.19
321.275	101.19
321.504	90.19
321.733	95.19
321.962	92.19
322.191	95.19
322.42	82.19
322.649	80.19
322.878	81.19
323.108	110.19
323.337	99.19
323.566	97.19
323.795	92.19
324.024	101.19
324.253	93.19
324.482	93.19
324.71	95.19
324.939	93.19
325.168	97.19
325.397	85.19
325.626	103.19
325.855	95.19
326.084	103.19
326.313	90.19
326.542	96.19
326.77	87.19
326.999	87.19
327.228	102.19
327.457	91.19
327.686	97.19
327.914	86.19
328.143	90.19
328.372	92.19
328.6	77.19
328.829	93.19
329.058	89.19
329.287	93.19
329.515	90.19
329.744	92.19
329.972	99.19
330.201	97.19
330.43	79.19
330.658	95.19
330.887	104.19
331.115	102.19
331.344	97.19
331.572	93.19
331.801	69.19
332.03	87.19
332.258	103.19
332.486	88.19
332.715	92.19
332.943	97.19
333.172	100.19
333.4	87.19
333.629	88.19
333.857	92.19
334.085	93.19
334.314	93.19
334.542	92.19
334.771	103.19
334.999	94.19
335.227	83.19
335.455	90.19
335.684	97.19
335.912	109.19
336.14	107.19
336.369	98.19
336.597	81.19
336.825	97.19
337.053	88.19
337.281	95.19
337.51	85.19
337.738	104.19
337.966	82.19
338.194	96.19
338.422	87.19
338.65	97.19
338.878	85.19
339.106	93.19
339.334	97.19
339.562	91.19
339.79	96.19
340.018	101.19
340.246	78.19
340.474	88.19
340.702	93.19
340.93	80.19
341.158	82.19
341.386	94.19
341.614	96.19
341.842	93.19
342.07	85.19
342.298	81.19
342.526	84.19
342.754	91.19
342.981	81.19
343.209	95.19
343.437	89.19
343.665	95.19
343.893	90.19
344.12	116.19
344.348	97.19
344.576	95.19
344.804	94.19
345.031	96.19
345.259	90.19
345.487	93.19
345.714	91.19
345.942	94.19
346.17	91.19
346.397	75.19
346.625	88.19
346.853	83.19
347.08	91.19
347.308	97.19
347.535	83.19
347.763	111.19
347.99	92.19
348.218	85.19
348.445	89.19
348.673	102.19
348.9	102.19
349.128	82.19
349.355	98.19
349.583	89.19
349.81	87.19
350.037	74.19
350.265	88.19
350.492	99.19
350.72	91.19
350.947	90.19
351.174	100.19
351.402	89.19
351.629	78.19
351.856	96.19
352.083	90.19
352.311	85.19
352.538	75.19
352.765	93.19
352.992	84.19
353.22	86.19
353.447	89.19
353.674	96.19
353.901	85.19
354.128	75.19
354.355	82.19
354.583	91.19
354.81	84.19
355.037	94.19
355.264	95.19
355.491	98.19
355.718	103.19
355.945	74.19
356.172	97.19
356.399	97.19
356.626	90.19
356.853	91.19
357.08	101.19
357.307	104.19
357.534	94.19
357.761	91.19
357.988	107.19
358.215	97.19
358.441	87.19
358.668	89.19
358.895	105.19
359.122	89.19
359.349	81.19
359.576	92.19
359.802	86.19
360.029	94.19
360.256	99.19
360.483	94.19
360.709	81.19
360.936	90.19
361.163	77.19
361.39	89.19
361.616	92.19
361.843	84.19
362.07	86.19
362.296	97.19
362.523	80.19
362.749	90.19
362.976	86.19
363.203	85.19
363.429	85.19
363.656	93.19
363.882	87.19
364.109	90.19
364.335	101.19
364.562	89.19
364.788	90.19
365.015	89.19
365.241	88.19
365.468	78.19
365.694	101.19
365.92	81.19
366.147	104.19
366.373	88.19
366.599	96.19
366.826	102.19
367.052	78.19
367.278	93.19
367.505	89.19
367.731	87.19
367.957	81.19
368.184	97.19
368.41	94.19
368.636	105.19
368.862	95.19
369.089	97.19
369.315	88.19
369.541	82.19
369.767	89.19
369.993	69.19
370.219	86.19
370.445	85.19
370.672	97.19
370.898	95.19
371.124	98.19
371.35	95.19
371.576	105.19
371.802	84.19
372.028	102.19
372.254	91.19
372.48	101.19
372.706	90.19
372.932	86.19
373.158	83.19
373.384	87.19
373.61	81.19
373.835	73.19
374.061	93.19
374.287	94.19
374.513	86.19
374.739	96.19
374.965	94.19
375.191	98.19
375.416	98.19
375.642	91.19
375.868	88.19
376.094	91.19
376.319	83.19
376.545	95.19
376.771	98.19
376.997	98.19
377.222	76.19
377.448	80.19
377.674	101.19
377.899	90.19
378.125	83.19
378.35	97.19
378.576	82.19
378.802	80.19
379.027	103.19
379.253	84.19
379.478	103.19
379.704	86.19
379.929	96.19
380.155	98.19
380.38	87.19
380.606	81.19
380.831	109.19
381.057	91.19
381.282	86.19
381.507	89.19
381.733	89.19
381.958	90.19
382.184	98.19
382.409	101.19
382.634	84.19
382.86	89.19
383.085	82.19
383.31	98.19
383.535	92.19
383.761	98.19
383.986	99.19
384.211	84.19
384.436	94.19
384.662	98.19
384.887	97.19
385.112	84.19
385.337	86.19
385.562	88.19
385.787	90.19
386.013	89.19
386.238	97.19
386.463	94.19
386.688	106.19
386.913	85.19
387.138	94.19
387.363	93.19
387.588	96.19
387.813	106.19
388.038	88.19
388.263	85.19
388.488	87.19
388.713	73.19
388.938	104.19
389.163	95.19
389.387	91.19
389.612	93.19
389.837	83.19
390.062	107.19
390.287	87.19
390.512	92.19
390.736	89.19
390.961	83.19
391.186	94.19
391.411	98.19
391.636	86.19
391.86	101.19
392.085	98.19
392.31	93.19
392.534	94.19
392.759	99.19
392.984	89.19
393.208	87.19
393.433	95.19
393.658	94.19
393.882	90.19
394.107	96.19
394.331	95.19
394.556	104.19
394.78	98.19
395.005	91.19
395.229	94.19
395.454	97.19
395.678	90.19
395.903	92.19
396.127	102.19
396.352	93.19
396.576	99.19
396.801	77.19
397.025	98.19
397.249	94.19
397.474	82.19
397.698	76.19
397.922	82.19
398.147	106.19
398.371	100.19
398.595	82.19
398.82	95.19
399.044	99.19
399.268	105.19
399.492	103.19
399.717	98.19
399.941	93.19
400.165	105.19
400.389	99.19
400.613	89.19
400.837	93.19
401.062	93.19
401.286	87.19
401.51	85.19
401.734	86.19
401.958	96.19
402.182	76.19
402.406	98.19
402.63	110.19
402.854	101.19
403.078	97.19
403.302	87.19
403.526	96.19
403.75	103.19
403.974	85.19
404.198	95.19
404.422	99.19
404.645	100.19
404.869	109.19
405.093	109.19
405.317	88.19
405.541	88.19
405.765	95.19
405.988	113.19
406.212	101.19
406.436	91.19
406.66	87.19
406.883	86.19
407.107	90.19
407.331	92.19
407.555	98.19
407.778	112.19
408.002	121.19
408.226	96.19
408.449	95.19
408.673	102.19
408.896	100.19
409.12	97.19
409.344	107.19
409.567	91.19
409.791	102.19
410.014	110.19
410.238	91.19
410.461	114.19
410.685	98.19
410.908	88.19
411.132	98.19
411.355	89.19
411.578	85.19
411.802	100.19
412.025	102.19
412.249	113.19
412.472	97.19
412.695	97.19
412.919	104.19
413.142	101.19
413.365	105.19
413.589	94.19
413.812	101.19
414.035	99.19
414.258	94.19
414.482	89.19
414.705	108.19
414.928	97.19
415.151	103.19
415.374	110.19
415.597	93.19
415.821	98.19
416.044	99.19
416.267	77.19
416.49	100.19
416.713	85.19
416.936	100.19
417.159	98.19
417.382	97.19
417.605	80.19
417.828	96.19
418.051	101.19
418.274	98.19
418.497	107.19
418.72	109.19
418.943	93.19
419.166	95.19
419.389	105.19
419.611	98.19
419.834	75.19
420.057	84.19
420.28	81.19
420.503	96.19
420.726	93.19
420.948	101.19
421.171	94.19
421.394	91.19
421.617	102.19
421.839	77.19
422.062	92.19
422.285	95.19
422.507	99.19
422.73	94.19
422.953	98.19
423.175	93.19
423.398	95.19
423.621	95.19
423.843	87.19
424.066	96.19
424.288	102.19
424.511	112.19
424.733	91.19
424.956	95.19
425.178	93.19
425.401	97.19
425.623	91.19
425.846	80.19
426.068	87.19
426.291	102.19
426.513	92.19
426.735	104.19
426.958	89.19
427.18	96.19
427.402	99.19
427.625	89.19
427.847	90.19
428.069	89.19
428.292	98.19
428.514	94.19
428.736	97.19
428.958	95.19
429.181	102.19
429.403	83.19
429.625	102.19
429.847	115.19
430.069	96.19
430.292	91.19
430.514	87.19
430.736	101.19
430.958	105.19
431.18	99.19
431.402	101.19
431.624	93.19
431.846	93.19
432.068	85.19
432.29	84.19
432.512	113.19
432.734	104.19
432.956	93.19
433.178	94.19
433.4	90.19
433.622	88.19
433.844	91.19
434.066	98.19
434.287	88.19
434.509	90.19
434.731	94.19
434.953	93.19
435.175	99.19
435.397	97.19
435.618	97.19
435.84	94.19
436.062	92.19
436.284	90.19
436.505	74.19
436.727	92.19
436.949	79.19
437.17	91.19
437.392	86.19
437.614	99.19
437.835	82.19
438.057	79.19
438.278	85.19
438.5	92.19
438.721	104.19
438.943	111.19
439.165	105.19
439.386	89.19
439.608	94.19
439.829	106.19
440.05	100.19
440.272	87.19
440.493	89.19
440.715	84.19
440.936	98.19
441.158	106.19
441.379	104.19
441.6	88.19
441.822	115.19
442.043	96.19
442.264	78.19
442.486	91.19
442.707	96.19
442.928	96.19
443.149	81.19
443.371	95.19
443.592	83.19
443.813	91.19
444.034	110.19
444.255	90.19
444.476	93.19
444.698	100.19
444.919	102.19
445.14	200.19
445.361	153.19
445.582	113.19
445.803	95.19
446.024	97.19
446.245	93.19
446.466	93.19
446.687	94.19
446.908	107.19
447.129	91.19
447.35	86.19
447.571	83.19
447.792	98.19
448.013	80.19
448.234	93.19
448.455	98.19
448.675	97.19
448.896	86.19
449.117	106.19
449.338	88.19
449.559	103.19
449.779	90.19
450	96.19
450.221	102.19
450.442	89.19
450.662	96.19
450.883	87.19
451.104	107.19
451.324	98.19
451.545	94.19
451.766	87.19
451.986	78.19
452.207	84.19
452.428	98.19
452.648	107.19
452.869	101.19
453.089	94.19
453.31	99.19
453.53	99.19
453.751	96.19
453.971	95.19
454.192	89.19
454.412	81.19
454.633	107.19
454.853	100.19
455.073	91.19
455.294	99.19
455.514	87.19
455.734	89.19
455.955	105.19
456.175	89.19
456.395	85.19
456.616	97.19
456.836	86.19
457.056	87.19
457.276	92.19
457.497	80.19
457.717	95.19
457.937	87.19
458.157	77.19
458.377	110.19
458.598	96.19
458.818	113.19
459.038	82.19
459.258	103.19
459.478	83.19
459.698	105.19
459.918	96.19
460.138	84.19
460.358	80.19
460.578	94.19
460.798	106.19
461.018	94.19
461.238	98.19
461.458	103.19
461.678	103.19
461.898	79.19
462.118	98.19
462.338	101.19
462.558	97.19
462.777	88.19
462.997	114.19
463.217	105.19
463.437	111.19
463.657	97.19
463.876	101.19
464.096	92.19
464.316	81.19
464.536	99.19
464.755	101.19
464.975	111.19
465.195	100.19
465.414	90.19
465.634	86.19
465.854	96.19
466.073	90.19
466.293	97.19
466.512	95.19
466.732	83.19
466.951	78.19
467.171	95.19
467.391	115.19
467.61	95.19
467.829	104.19
468.049	90.19
468.268	82.19
468.488	93.19
468.707	92.19
468.927	90.19
469.146	103.19
469.365	108.19
469.585	86.19
469.804	109.19
470.023	89.19
470.243	94.19
470.462	84.19
470.681	91.19
470.901	87.19
471.12	105.19
471.339	94.19
471.558	109.19
471.777	113.19
471.997	99.19
472.216	92.19
472.435	99.19
472.654	100.19
472.873	98.19
473.092	100.19
473.311	104.19
473.53	92.19
473.749	102.19
473.968	104.19
474.187	81.19
474.406	91.19
474.625	107.19
474.844	82.19
475.063	94.19
475.282	82.19
475.501	99.19
475.72	95.19
475.939	87.19
476.158	85.19
476.377	94.19
476.596	95.19
476.814	104.19
477.033	106.19
477.252	95.19
477.471	83.19
477.69	98.19
477.908	109.19
478.127	105.19
478.346	86.19
478.564	100.19
478.783	98.19
479.002	99.19
479.22	105.19
479.439	105.19
479.658	98.19
479.876	105.19
480.095	93.19
480.313	97.19
480.532	102.19
480.751	101.19
480.969	87.19
481.188	91.19
481.406	95.19
481.624	82.19
481.843	92.19
482.061	92.19
482.28	102.19
482.498	101.19
482.717	97.19
482.935	104.19
483.153	86.19
483.372	87.19
483.59	106.19
483.808	92.19
484.027	89.19
484.245	113.19
484.463	90.19
484.681	111.19
484.9	103.19
485.118	103.19
485.336	96.19
485.554	99.19
485.772	91.19
485.99	85.19
486.209	104.19
486.427	99.19
486.645	102.19
486.863	96.19
487.081	114.19
487.299	101.19
487.517	115.19
487.735	121.19
487.953	103.19
488.171	105.19
488.389	95.19
488.607	104.19
488.825	111.19
489.043	96.19
489.261	88.19
489.479	101.19
489.696	101.19
489.914	110.19
490.132	99.19
490.35	115.19
490.568	114.19
490.786	105.19
491.003	91.19
491.221	97.19
491.439	96.19
491.657	105.19
491.874	112.19
492.092	115.19
492.31	113.19
492.527	117.19
492.745	99.19
492.963	103.19
493.18	104.19
493.398	102.19
493.615	122.19
493.833	97.19
494.05	111.19
494.268	104.19
494.485	101.19
494.703	104.19
494.92	99.19
495.138	107.19
495.355	115.19
495.573	113.19
495.79	114.19
496.008	100.19
496.225	104.19
496.442	107.19
496.66	124.19
496.877	103.19
497.094	107.19
497.312	118.19
497.529	105.19
497.746	109.19
497.963	103.19
498.181	101.19
498.398	103.19
498.615	106.19
498.832	122.19
499.049	115.19
499.267	115.19
499.484	113.19
499.701	127.19
499.918	143.19
500.135	123.19
500.352	153.19
500.569	153.19
500.786	155.19
501.003	153.19
501.22	135.19
501.437	136.19
501.654	113.19
501.871	110.19
502.088	114.19
502.305	114.19
502.522	112.19
502.739	111.19
502.956	115.19
503.172	109.19
503.389	95.19
503.606	107.19
503.823	103.19
504.04	116.19
504.256	98.19
504.473	107.19
504.69	100.19
504.907	110.19
505.123	104.19
505.34	108.19
505.557	93.19
505.773	85.19
505.99	103.19
506.207	110.19
506.423	103.19
506.64	113.19
506.856	115.19
507.073	91.19
507.289	93.19
507.506	100.19
507.722	115.19
507.939	99.19
508.155	104.19
508.372	104.19
508.588	105.19
508.805	98.19
509.021	104.19
509.238	106.19
509.454	98.19
509.67	96.19
509.887	97.19
510.103	89.19
510.319	81.19
510.536	97.19
510.752	83.19
510.968	92.19
511.184	96.19
511.401	103.19
511.617	84.19
511.833	106.19
512.049	87.19
512.265	103.19
512.481	75.19
512.698	95.19
512.914	98.19
513.13	87.19
513.346	89.19
513.562	92.19
513.778	89.19
513.994	94.19
514.21	102.19
514.426	114.19
514.642	84.19
514.858	96.19
515.074	101.19
515.29	100.19
515.506	108.19
