Data from Location5.07152019.Energy5.Lamp.07192019.3%Agarose_HRD10591_16-05-10-629.txt Node
Date: Fri Jul 19 16:05:10 EDT 2019
User: cochatt
Spectrometer: HR+D1059
Trigger mode: 1
Integration Time (sec): 1.000000E-1
Scans to average: 1
Electric dark correction enabled: true
Nonlinearity correction enabled: false
Boxcar width: 0
XAxis mode: Wavelengths
Number of Pixels in Spectrum: 2048
>>>>>Begin Spectral Data<<<<<
223.165	-21.81
223.4	-21.81
223.635	-21.81
223.869	3.19
224.104	-19.81
224.338	-9.81
224.573	-6.81
224.808	-15.81
225.042	-11.81
225.277	3.19
225.511	-2.81
225.746	4.19
225.98	-0.81
226.215	16.19
226.449	11.19
226.683	13.19
226.918	14.19
227.152	24.19
227.387	47.19
227.621	41.19
227.856	44.19
228.09	52.19
228.324	63.19
228.559	57.19
228.793	74.19
229.027	55.19
229.262	73.19
229.496	60.19
229.73	85.19
229.964	71.19
230.199	73.19
230.433	95.19
230.667	78.19
230.901	72.19
231.136	91.19
231.37	80.19
231.604	100.19
231.838	93.19
232.072	92.19
232.306	85.19
232.541	93.19
232.775	75.19
233.009	77.19
233.243	86.19
233.477	101.19
233.711	91.19
233.945	86.19
234.179	92.19
234.413	84.19
234.647	88.19
234.881	87.19
235.115	82.19
235.349	85.19
235.583	81.19
235.817	63.19
236.051	79.19
236.285	79.19
236.519	84.19
236.753	77.19
236.987	79.19
237.221	76.19
237.455	80.19
237.689	81.19
237.922	82.19
238.156	97.19
238.39	94.19
238.624	84.19
238.858	84.19
239.091	72.19
239.325	85.19
239.559	74.19
239.793	73.19
240.027	78.19
240.26	89.19
240.494	83.19
240.728	84.19
240.961	80.19
241.195	85.19
241.429	78.19
241.662	85.19
241.896	67.19
242.13	81.19
242.363	77.19
242.597	72.19
242.83	89.19
243.064	85.19
243.298	89.19
243.531	83.19
243.765	84.19
243.998	90.19
244.232	78.19
244.465	69.19
244.699	92.19
244.932	87.19
245.166	70.19
245.399	87.19
245.633	77.19
245.866	82.19
246.099	69.19
246.333	92.19
246.566	84.19
246.8	82.19
247.033	86.19
247.266	85.19
247.5	73.19
247.733	95.19
247.966	84.19
248.2	71.19
248.433	86.19
248.666	83.19
248.899	93.19
249.133	85.19
249.366	83.19
249.599	72.19
249.832	85.19
250.066	95.19
250.299	92.19
250.532	80.19
250.765	84.19
250.998	88.19
251.231	84.19
251.465	84.19
251.698	88.19
251.931	87.19
252.164	82.19
252.397	87.19
252.63	82.19
252.863	83.19
253.096	85.19
253.329	82.19
253.562	90.19
253.795	99.19
254.028	77.19
254.261	71.19
254.494	85.19
254.727	70.19
254.96	83.19
255.193	113.19
255.426	100.19
255.659	86.19
255.892	79.19
256.124	90.19
256.357	89.19
256.59	89.19
256.823	84.19
257.056	101.19
257.289	86.19
257.521	85.19
257.754	92.19
257.987	91.19
258.22	82.19
258.452	90.19
258.685	92.19
258.918	91.19
259.151	92.19
259.383	88.19
259.616	80.19
259.849	87.19
260.081	88.19
260.314	99.19
260.547	99.19
260.779	84.19
261.012	78.19
261.244	88.19
261.477	83.19
261.71	99.19
261.942	81.19
262.175	81.19
262.407	81.19
262.64	100.19
262.872	103.19
263.105	88.19
263.337	81.19
263.57	93.19
263.802	96.19
264.035	95.19
264.267	95.19
264.499	89.19
264.732	96.19
264.964	77.19
265.197	99.19
265.429	83.19
265.661	86.19
265.894	72.19
266.126	88.19
266.358	80.19
266.591	92.19
266.823	84.19
267.055	99.19
267.287	101.19
267.52	97.19
267.752	101.19
267.984	85.19
268.216	88.19
268.448	96.19
268.681	100.19
268.913	103.19
269.145	93.19
269.377	91.19
269.609	97.19
269.841	93.19
270.073	78.19
270.306	90.19
270.538	77.19
270.77	90.19
271.002	89.19
271.234	99.19
271.466	97.19
271.698	88.19
271.93	81.19
272.162	86.19
272.394	97.19
272.626	86.19
272.858	86.19
273.09	90.19
273.322	88.19
273.553	87.19
273.785	85.19
274.017	78.19
274.249	97.19
274.481	84.19
274.713	87.19
274.945	94.19
275.176	90.19
275.408	82.19
275.64	94.19
275.872	87.19
276.104	98.19
276.335	83.19
276.567	89.19
276.799	79.19
277.031	80.19
277.262	90.19
277.494	92.19
277.726	86.19
277.957	100.19
278.189	86.19
278.421	89.19
278.652	94.19
278.884	91.19
279.115	86.19
279.347	101.19
279.579	87.19
279.81	96.19
280.042	99.19
280.273	79.19
280.505	102.19
280.736	96.19
280.968	102.19
281.199	72.19
281.431	88.19
281.662	97.19
281.894	88.19
282.125	106.19
282.356	84.19
282.588	100.19
282.819	82.19
283.051	88.19
283.282	105.19
283.513	72.19
283.745	93.19
283.976	94.19
284.207	94.19
284.439	90.19
284.67	94.19
284.901	88.19
285.132	92.19
285.364	86.19
285.595	91.19
285.826	96.19
286.057	88.19
286.288	90.19
286.52	89.19
286.751	97.19
286.982	93.19
287.213	89.19
287.444	95.19
287.675	99.19
287.906	80.19
288.138	93.19
288.369	94.19
288.6	85.19
288.831	86.19
289.062	93.19
289.293	99.19
289.524	89.19
289.755	89.19
289.986	96.19
290.217	92.19
290.448	102.19
290.679	87.19
290.91	86.19
291.141	92.19
291.371	91.19
291.602	86.19
291.833	94.19
292.064	106.19
292.295	100.19
292.526	90.19
292.757	80.19
292.987	93.19
293.218	90.19
293.449	87.19
293.68	107.19
293.91	74.19
294.141	88.19
294.372	111.19
294.603	80.19
294.833	89.19
295.064	83.19
295.295	103.19
295.525	100.19
295.756	90.19
295.987	104.19
296.217	94.19
296.448	111.19
296.679	97.19
296.909	105.19
297.14	95.19
297.37	91.19
297.601	103.19
297.831	81.19
298.062	85.19
298.292	99.19
298.523	97.19
298.753	93.19
298.984	89.19
299.214	94.19
299.445	90.19
299.675	87.19
299.905	83.19
300.136	88.19
300.366	103.19
300.597	84.19
300.827	86.19
301.057	92.19
301.288	92.19
301.518	98.19
301.748	96.19
301.979	90.19
302.209	97.19
302.439	103.19
302.669	96.19
302.9	94.19
303.13	104.19
303.36	85.19
303.59	86.19
303.82	99.19
304.051	92.19
304.281	103.19
304.511	102.19
304.741	80.19
304.971	88.19
305.201	104.19
305.431	104.19
305.661	102.19
305.891	83.19
306.121	101.19
306.352	77.19
306.582	78.19
306.812	109.19
307.042	86.19
307.272	104.19
307.502	104.19
307.731	93.19
307.961	97.19
308.191	91.19
308.421	93.19
308.651	96.19
308.881	90.19
309.111	102.19
309.341	96.19
309.571	101.19
309.8	97.19
310.03	86.19
310.26	106.19
310.49	92.19
310.72	104.19
310.949	92.19
311.179	92.19
311.409	86.19
311.639	101.19
311.868	91.19
312.098	98.19
312.328	108.19
312.557	99.19
312.787	105.19
313.017	105.19
313.246	105.19
313.476	95.19
313.706	93.19
313.935	80.19
314.165	100.19
314.394	102.19
314.624	95.19
314.853	96.19
315.083	100.19
315.312	96.19
315.542	104.19
315.771	80.19
316.001	104.19
316.23	107.19
316.46	85.19
316.689	100.19
316.919	99.19
317.148	110.19
317.377	83.19
317.607	88.19
317.836	97.19
318.065	102.19
318.295	89.19
318.524	100.19
318.753	99.19
318.983	98.19
319.212	89.19
319.441	99.19
319.67	92.19
319.9	87.19
320.129	108.19
320.358	98.19
320.587	89.19
320.816	103.19
321.046	93.19
321.275	100.19
321.504	96.19
321.733	92.19
321.962	119.19
322.191	100.19
322.42	81.19
322.649	92.19
322.878	99.19
323.108	108.19
323.337	92.19
323.566	102.19
323.795	99.19
324.024	81.19
324.253	107.19
324.482	92.19
324.71	99.19
324.939	92.19
325.168	95.19
325.397	102.19
325.626	94.19
325.855	90.19
326.084	97.19
326.313	102.19
326.542	103.19
326.77	93.19
326.999	97.19
327.228	100.19
327.457	100.19
327.686	93.19
327.914	102.19
328.143	99.19
328.372	101.19
328.6	101.19
328.829	94.19
329.058	93.19
329.287	69.19
329.515	92.19
329.744	96.19
329.972	90.19
330.201	93.19
330.43	107.19
330.658	119.19
330.887	87.19
331.115	91.19
331.344	109.19
331.572	90.19
331.801	91.19
332.03	95.19
332.258	104.19
332.486	89.19
332.715	102.19
332.943	95.19
333.172	92.19
333.4	110.19
333.629	104.19
333.857	109.19
334.085	108.19
334.314	100.19
334.542	79.19
334.771	96.19
334.999	103.19
335.227	108.19
335.455	92.19
335.684	103.19
335.912	104.19
336.14	98.19
336.369	92.19
336.597	88.19
336.825	101.19
337.053	95.19
337.281	101.19
337.51	101.19
337.738	102.19
337.966	92.19
338.194	103.19
338.422	91.19
338.65	96.19
338.878	94.19
339.106	99.19
339.334	100.19
339.562	100.19
339.79	97.19
340.018	92.19
340.246	89.19
340.474	90.19
340.702	89.19
340.93	92.19
341.158	107.19
341.386	101.19
341.614	95.19
341.842	101.19
342.07	85.19
342.298	91.19
342.526	92.19
342.754	92.19
342.981	92.19
343.209	108.19
343.437	83.19
343.665	105.19
343.893	94.19
344.12	103.19
344.348	99.19
344.576	87.19
344.804	98.19
345.031	101.19
345.259	91.19
345.487	94.19
345.714	95.19
345.942	95.19
346.17	97.19
346.397	94.19
346.625	91.19
346.853	93.19
347.08	98.19
347.308	87.19
347.535	105.19
347.763	92.19
347.99	100.19
348.218	102.19
348.445	101.19
348.673	98.19
348.9	93.19
349.128	95.19
349.355	82.19
349.583	95.19
349.81	99.19
350.037	100.19
350.265	94.19
350.492	105.19
350.72	88.19
350.947	98.19
351.174	103.19
351.402	102.19
351.629	97.19
351.856	101.19
352.083	81.19
352.311	99.19
352.538	100.19
352.765	88.19
352.992	100.19
353.22	95.19
353.447	105.19
353.674	90.19
353.901	86.19
354.128	95.19
354.355	94.19
354.583	100.19
354.81	89.19
355.037	97.19
355.264	106.19
355.491	97.19
355.718	100.19
355.945	96.19
356.172	88.19
356.399	96.19
356.626	110.19
356.853	92.19
357.08	108.19
357.307	89.19
357.534	88.19
357.761	104.19
357.988	99.19
358.215	97.19
358.441	94.19
358.668	87.19
358.895	94.19
359.122	108.19
359.349	93.19
359.576	108.19
359.802	84.19
360.029	97.19
360.256	92.19
360.483	90.19
360.709	83.19
360.936	103.19
361.163	98.19
361.39	82.19
361.616	101.19
361.843	92.19
362.07	89.19
362.296	89.19
362.523	98.19
362.749	96.19
362.976	87.19
363.203	84.19
363.429	99.19
363.656	92.19
363.882	104.19
364.109	96.19
364.335	106.19
364.562	96.19
364.788	94.19
365.015	102.19
365.241	113.19
365.468	83.19
365.694	89.19
365.92	89.19
366.147	95.19
366.373	99.19
366.599	88.19
366.826	105.19
367.052	93.19
367.278	89.19
367.505	98.19
367.731	107.19
367.957	102.19
368.184	88.19
368.41	96.19
368.636	97.19
368.862	88.19
369.089	94.19
369.315	92.19
369.541	91.19
369.767	91.19
369.993	117.19
370.219	105.19
370.445	97.19
370.672	91.19
370.898	95.19
371.124	84.19
371.35	88.19
371.576	86.19
371.802	91.19
372.028	78.19
372.254	98.19
372.48	88.19
372.706	103.19
372.932	90.19
373.158	101.19
373.384	108.19
373.61	83.19
373.835	103.19
374.061	84.19
374.287	90.19
374.513	98.19
374.739	91.19
374.965	101.19
375.191	105.19
375.416	93.19
375.642	97.19
375.868	97.19
376.094	94.19
376.319	98.19
376.545	92.19
376.771	102.19
376.997	98.19
377.222	104.19
377.448	102.19
377.674	110.19
377.899	92.19
378.125	89.19
378.35	84.19
378.576	85.19
378.802	99.19
379.027	77.19
379.253	107.19
379.478	100.19
379.704	105.19
379.929	95.19
380.155	93.19
380.38	80.19
380.606	87.19
380.831	104.19
381.057	105.19
381.282	90.19
381.507	94.19
381.733	102.19
381.958	93.19
382.184	101.19
382.409	93.19
382.634	92.19
382.86	110.19
383.085	98.19
383.31	99.19
383.535	103.19
383.761	92.19
383.986	80.19
384.211	95.19
384.436	83.19
384.662	102.19
384.887	112.19
385.112	107.19
385.337	86.19
385.562	90.19
385.787	95.19
386.013	107.19
386.238	93.19
386.463	96.19
386.688	97.19
386.913	89.19
387.138	109.19
387.363	102.19
387.588	99.19
387.813	100.19
388.038	88.19
388.263	100.19
388.488	96.19
388.713	90.19
388.938	81.19
389.163	102.19
389.387	99.19
389.612	86.19
389.837	86.19
390.062	98.19
390.287	88.19
390.512	100.19
390.736	97.19
390.961	97.19
391.186	88.19
391.411	99.19
391.636	100.19
391.86	90.19
392.085	93.19
392.31	112.19
392.534	104.19
392.759	115.19
392.984	95.19
393.208	103.19
393.433	105.19
393.658	96.19
393.882	88.19
394.107	90.19
394.331	104.19
394.556	110.19
394.78	97.19
395.005	92.19
395.229	94.19
395.454	105.19
395.678	109.19
395.903	108.19
396.127	95.19
396.352	91.19
396.576	99.19
396.801	99.19
397.025	92.19
397.249	112.19
397.474	105.19
397.698	100.19
397.922	94.19
398.147	108.19
398.371	97.19
398.595	84.19
398.82	102.19
399.044	99.19
399.268	98.19
399.492	108.19
399.717	113.19
399.941	99.19
400.165	110.19
400.389	112.19
400.613	122.19
400.837	104.19
401.062	103.19
401.286	107.19
401.51	100.19
401.734	94.19
401.958	108.19
402.182	88.19
402.406	103.19
402.63	104.19
402.854	106.19
403.078	107.19
403.302	119.19
403.526	91.19
403.75	105.19
403.974	94.19
404.198	101.19
404.422	95.19
404.645	102.19
404.869	118.19
405.093	99.19
405.317	85.19
405.541	96.19
405.765	97.19
405.988	101.19
406.212	107.19
406.436	93.19
406.66	104.19
406.883	115.19
407.107	103.19
407.331	100.19
407.555	99.19
407.778	101.19
408.002	96.19
408.226	102.19
408.449	108.19
408.673	104.19
408.896	99.19
409.12	100.19
409.344	93.19
409.567	95.19
409.791	102.19
410.014	108.19
410.238	93.19
410.461	110.19
410.685	96.19
410.908	103.19
411.132	110.19
411.355	97.19
411.578	93.19
411.802	110.19
412.025	99.19
412.249	105.19
412.472	101.19
412.695	100.19
412.919	102.19
413.142	104.19
413.365	105.19
413.589	104.19
413.812	104.19
414.035	104.19
414.258	92.19
414.482	118.19
414.705	108.19
414.928	103.19
415.151	109.19
415.374	112.19
415.597	95.19
415.821	104.19
416.044	104.19
416.267	99.19
416.49	109.19
416.713	99.19
416.936	109.19
417.159	96.19
417.382	108.19
417.605	92.19
417.828	99.19
418.051	91.19
418.274	97.19
418.497	88.19
418.72	96.19
418.943	97.19
419.166	100.19
419.389	101.19
419.611	94.19
419.834	99.19
420.057	85.19
420.28	101.19
420.503	95.19
420.726	97.19
420.948	121.19
421.171	109.19
421.394	101.19
421.617	103.19
421.839	100.19
422.062	98.19
422.285	99.19
422.507	88.19
422.73	101.19
422.953	94.19
423.175	112.19
423.398	112.19
423.621	111.19
423.843	104.19
424.066	89.19
424.288	95.19
424.511	107.19
424.733	105.19
424.956	101.19
425.178	91.19
425.401	100.19
425.623	93.19
425.846	104.19
426.068	94.19
426.291	103.19
426.513	106.19
426.735	102.19
426.958	93.19
427.18	105.19
427.402	101.19
427.625	81.19
427.847	100.19
428.069	89.19
428.292	112.19
428.514	92.19
428.736	81.19
428.958	107.19
429.181	108.19
429.403	102.19
429.625	98.19
429.847	101.19
430.069	82.19
430.292	105.19
430.514	106.19
430.736	92.19
430.958	94.19
431.18	98.19
431.402	104.19
431.624	110.19
431.846	100.19
432.068	85.19
432.29	92.19
432.512	109.19
432.734	108.19
432.956	106.19
433.178	91.19
433.4	104.19
433.622	103.19
433.844	92.19
434.066	111.19
434.287	94.19
434.509	87.19
434.731	92.19
434.953	104.19
435.175	100.19
435.397	102.19
435.618	92.19
435.84	99.19
436.062	99.19
436.284	102.19
436.505	95.19
436.727	100.19
436.949	95.19
437.17	91.19
437.392	98.19
437.614	87.19
437.835	104.19
438.057	92.19
438.278	80.19
438.5	96.19
438.721	93.19
438.943	105.19
439.165	110.19
439.386	105.19
439.608	92.19
439.829	91.19
440.05	92.19
440.272	96.19
440.493	97.19
440.715	104.19
440.936	102.19
441.158	95.19
441.379	109.19
441.6	106.19
441.822	111.19
442.043	89.19
442.264	104.19
442.486	105.19
442.707	116.19
442.928	109.19
443.149	103.19
443.371	103.19
443.592	93.19
443.813	96.19
444.034	104.19
444.255	98.19
444.476	101.19
444.698	118.19
444.919	111.19
445.14	222.19
445.361	155.19
445.582	111.19
445.803	95.19
446.024	95.19
446.245	113.19
446.466	102.19
446.687	82.19
446.908	101.19
447.129	95.19
447.35	94.19
447.571	106.19
447.792	109.19
448.013	103.19
448.234	109.19
448.455	90.19
448.675	99.19
448.896	95.19
449.117	85.19
449.338	98.19
449.559	109.19
449.779	95.19
450	99.19
450.221	89.19
450.442	99.19
450.662	96.19
450.883	107.19
451.104	94.19
451.324	92.19
451.545	91.19
451.766	92.19
451.986	90.19
452.207	88.19
452.428	96.19
452.648	97.19
452.869	80.19
453.089	102.19
453.31	89.19
453.53	90.19
453.751	88.19
453.971	102.19
454.192	99.19
454.412	102.19
454.633	116.19
454.853	75.19
455.073	95.19
455.294	87.19
455.514	91.19
455.734	93.19
455.955	99.19
456.175	87.19
456.395	111.19
456.616	87.19
456.836	87.19
457.056	107.19
457.276	86.19
457.497	79.19
457.717	99.19
457.937	101.19
458.157	101.19
458.377	93.19
458.598	108.19
458.818	104.19
459.038	99.19
459.258	102.19
459.478	89.19
459.698	106.19
459.918	92.19
460.138	102.19
460.358	105.19
460.578	110.19
460.798	103.19
461.018	100.19
461.238	105.19
461.458	111.19
461.678	105.19
461.898	108.19
462.118	105.19
462.338	104.19
462.558	91.19
462.777	91.19
462.997	108.19
463.217	100.19
463.437	109.19
463.657	106.19
463.876	99.19
464.096	90.19
464.316	97.19
464.536	101.19
464.755	108.19
464.975	110.19
465.195	102.19
465.414	113.19
465.634	94.19
465.854	85.19
466.073	86.19
466.293	89.19
466.512	102.19
466.732	102.19
466.951	96.19
467.171	87.19
467.391	97.19
467.61	104.19
467.829	111.19
468.049	99.19
468.268	103.19
468.488	105.19
468.707	85.19
468.927	95.19
469.146	91.19
469.365	95.19
469.585	99.19
469.804	117.19
470.023	87.19
470.243	92.19
470.462	107.19
470.681	98.19
470.901	99.19
471.12	109.19
471.339	108.19
471.558	118.19
471.777	102.19
471.997	123.19
472.216	114.19
472.435	97.19
472.654	96.19
472.873	99.19
473.092	97.19
473.311	98.19
473.53	84.19
473.749	106.19
473.968	98.19
474.187	102.19
474.406	103.19
474.625	117.19
474.844	101.19
475.063	95.19
475.282	103.19
475.501	117.19
475.72	108.19
475.939	96.19
476.158	88.19
476.377	108.19
476.596	106.19
476.814	99.19
477.033	95.19
477.252	99.19
477.471	92.19
477.69	84.19
477.908	115.19
478.127	108.19
478.346	102.19
478.564	112.19
478.783	107.19
479.002	106.19
479.22	105.19
479.439	115.19
479.658	111.19
479.876	108.19
480.095	101.19
480.313	96.19
480.532	113.19
480.751	104.19
480.969	98.19
481.188	97.19
481.406	101.19
481.624	110.19
481.843	108.19
482.061	95.19
482.28	93.19
482.498	92.19
482.717	99.19
482.935	103.19
483.153	102.19
483.372	97.19
483.59	106.19
483.808	105.19
484.027	104.19
484.245	111.19
484.463	110.19
484.681	119.19
484.9	100.19
485.118	107.19
485.336	103.19
485.554	117.19
485.772	99.19
485.99	104.19
486.209	120.19
486.427	106.19
486.645	109.19
486.863	96.19
487.081	115.19
487.299	95.19
487.517	108.19
487.735	104.19
487.953	117.19
488.171	128.19
488.389	110.19
488.607	112.19
488.825	106.19
489.043	110.19
489.261	108.19
489.479	93.19
489.696	115.19
489.914	111.19
490.132	95.19
490.35	100.19
490.568	104.19
490.786	121.19
491.003	132.19
491.221	117.19
491.439	109.19
491.657	107.19
491.874	119.19
492.092	116.19
492.31	125.19
492.527	113.19
492.745	112.19
492.963	118.19
493.18	107.19
493.398	118.19
493.615	127.19
493.833	118.19
494.05	108.19
494.268	120.19
494.485	111.19
494.703	111.19
494.92	112.19
495.138	116.19
495.355	119.19
495.573	115.19
495.79	105.19
496.008	108.19
496.225	115.19
496.442	111.19
496.66	103.19
496.877	122.19
497.094	116.19
497.312	119.19
497.529	117.19
497.746	105.19
497.963	111.19
498.181	112.19
498.398	106.19
498.615	116.19
498.832	115.19
499.049	137.19
499.267	115.19
499.484	107.19
499.701	124.19
499.918	147.19
500.135	146.19
500.352	167.19
500.569	174.19
500.786	173.19
501.003	155.19
501.22	152.19
501.437	139.19
501.654	132.19
501.871	133.19
502.088	122.19
502.305	121.19
502.522	109.19
502.739	133.19
502.956	95.19
503.172	112.19
503.389	115.19
503.606	109.19
503.823	112.19
504.04	119.19
504.256	102.19
504.473	111.19
504.69	115.19
504.907	127.19
505.123	102.19
505.34	104.19
505.557	101.19
505.773	117.19
505.99	109.19
506.207	122.19
506.423	109.19
506.64	101.19
506.856	123.19
507.073	108.19
507.289	115.19
507.506	108.19
507.722	110.19
507.939	109.19
508.155	112.19
508.372	105.19
508.588	96.19
508.805	102.19
509.021	106.19
509.238	109.19
509.454	94.19
509.67	91.19
509.887	99.19
510.103	95.19
510.319	105.19
510.536	108.19
510.752	120.19
510.968	117.19
511.184	119.19
511.401	104.19
511.617	105.19
511.833	102.19
512.049	95.19
512.265	90.19
