Data from Location5.07152019.Energy5.Lamp.07192019.3%Agarose_HRD10591_15-38-59-388.txt Node
Date: Fri Jul 19 15:38:59 EDT 2019
User: cochatt
Spectrometer: HR+D1059
Trigger mode: 1
Integration Time (sec): 1.000000E-1
Scans to average: 1
Electric dark correction enabled: true
Nonlinearity correction enabled: false
Boxcar width: 0
XAxis mode: Wavelengths
Number of Pixels in Spectrum: 2048
>>>>>Begin Spectral Data<<<<<
223.165	-21.06
223.4	-21.06
223.635	-21.06
223.869	0.94
224.104	-16.06
224.338	-19.06
224.573	-21.06
224.808	-17.06
225.042	-9.06
225.277	-10.06
225.511	-3.06
225.746	7.94
225.98	-6.06
226.215	7.94
226.449	18.94
226.683	22.94
226.918	34.94
227.152	28.94
227.387	28.94
227.621	43.94
227.856	52.94
228.09	43.94
228.324	51.94
228.559	60.94
228.793	69.94
229.027	74.94
229.262	69.94
229.496	60.94
229.73	71.94
229.964	63.94
230.199	71.94
230.433	77.94
230.667	75.94
230.901	67.94
231.136	77.94
231.37	83.94
231.604	84.94
231.838	79.94
232.072	80.94
232.306	78.94
232.541	87.94
232.775	91.94
233.009	90.94
233.243	97.94
233.477	75.94
233.711	95.94
233.945	90.94
234.179	82.94
234.413	78.94
234.647	90.94
234.881	85.94
235.115	81.94
235.349	82.94
235.583	68.94
235.817	79.94
236.051	83.94
236.285	83.94
236.519	77.94
236.753	68.94
236.987	81.94
237.221	93.94
237.455	63.94
237.689	95.94
237.922	86.94
238.156	76.94
238.39	85.94
238.624	68.94
238.858	86.94
239.091	83.94
239.325	78.94
239.559	77.94
239.793	90.94
240.027	91.94
240.26	86.94
240.494	85.94
240.728	73.94
240.961	82.94
241.195	83.94
241.429	81.94
241.662	58.94
241.896	67.94
242.13	74.94
242.363	75.94
242.597	72.94
242.83	84.94
243.064	83.94
243.298	85.94
243.531	66.94
243.765	80.94
243.998	85.94
244.232	86.94
244.465	83.94
244.699	80.94
244.932	90.94
245.166	75.94
245.399	80.94
245.633	84.94
245.866	82.94
246.099	85.94
246.333	78.94
246.566	74.94
246.8	82.94
247.033	87.94
247.266	93.94
247.5	77.94
247.733	80.94
247.966	90.94
248.2	97.94
248.433	83.94
248.666	78.94
248.899	92.94
249.133	76.94
249.366	84.94
249.599	78.94
249.832	76.94
250.066	102.94
250.299	87.94
250.532	79.94
250.765	81.94
250.998	91.94
251.231	83.94
251.465	79.94
251.698	90.94
251.931	81.94
252.164	89.94
252.397	86.94
252.63	76.94
252.863	79.94
253.096	85.94
253.329	78.94
253.562	75.94
253.795	81.94
254.028	77.94
254.261	81.94
254.494	83.94
254.727	79.94
254.96	79.94
255.193	76.94
255.426	79.94
255.659	82.94
255.892	85.94
256.124	85.94
256.357	97.94
256.59	87.94
256.823	77.94
257.056	91.94
257.289	81.94
257.521	80.94
257.754	86.94
257.987	86.94
258.22	76.94
258.452	88.94
258.685	85.94
258.918	91.94
259.151	83.94
259.383	74.94
259.616	87.94
259.849	88.94
260.081	85.94
260.314	82.94
260.547	85.94
260.779	81.94
261.012	72.94
261.244	86.94
261.477	97.94
261.71	89.94
261.942	73.94
262.175	72.94
262.407	77.94
262.64	92.94
262.872	87.94
263.105	76.94
263.337	91.94
263.57	97.94
263.802	78.94
264.035	102.94
264.267	81.94
264.499	85.94
264.732	96.94
264.964	84.94
265.197	89.94
265.429	91.94
265.661	91.94
265.894	85.94
266.126	90.94
266.358	102.94
266.591	102.94
266.823	93.94
267.055	97.94
267.287	90.94
267.52	79.94
267.752	76.94
267.984	81.94
268.216	89.94
268.448	77.94
268.681	84.94
268.913	71.94
269.145	90.94
269.377	74.94
269.609	101.94
269.841	78.94
270.073	75.94
270.306	80.94
270.538	89.94
270.77	91.94
271.002	96.94
271.234	73.94
271.466	79.94
271.698	85.94
271.93	84.94
272.162	87.94
272.394	90.94
272.626	83.94
272.858	90.94
273.09	93.94
273.322	100.94
273.553	85.94
273.785	89.94
274.017	96.94
274.249	84.94
274.481	91.94
274.713	76.94
274.945	89.94
275.176	93.94
275.408	88.94
275.64	81.94
275.872	86.94
276.104	95.94
276.335	85.94
276.567	87.94
276.799	87.94
277.031	99.94
277.262	78.94
277.494	101.94
277.726	87.94
277.957	86.94
278.189	76.94
278.421	82.94
278.652	82.94
278.884	89.94
279.115	91.94
279.347	84.94
279.579	89.94
279.81	84.94
280.042	82.94
280.273	85.94
280.505	80.94
280.736	78.94
280.968	92.94
281.199	73.94
281.431	88.94
281.662	91.94
281.894	93.94
282.125	81.94
282.356	86.94
282.588	82.94
282.819	86.94
283.051	80.94
283.282	86.94
283.513	89.94
283.745	92.94
283.976	73.94
284.207	101.94
284.439	91.94
284.67	100.94
284.901	83.94
285.132	81.94
285.364	104.94
285.595	105.94
285.826	98.94
286.057	78.94
286.288	85.94
286.52	103.94
286.751	92.94
286.982	91.94
287.213	97.94
287.444	90.94
287.675	92.94
287.906	88.94
288.138	81.94
288.369	76.94
288.6	73.94
288.831	86.94
289.062	90.94
289.293	85.94
289.524	94.94
289.755	67.94
289.986	84.94
290.217	87.94
290.448	105.94
290.679	85.94
290.91	90.94
291.141	94.94
291.371	83.94
291.602	86.94
291.833	91.94
292.064	92.94
292.295	91.94
292.526	84.94
292.757	84.94
292.987	89.94
293.218	95.94
293.449	101.94
293.68	89.94
293.91	82.94
294.141	72.94
294.372	79.94
294.603	85.94
294.833	84.94
295.064	90.94
295.295	87.94
295.525	88.94
295.756	98.94
295.987	90.94
296.217	87.94
296.448	79.94
296.679	82.94
296.909	85.94
297.14	77.94
297.37	91.94
297.601	87.94
297.831	75.94
298.062	88.94
298.292	88.94
298.523	79.94
298.753	81.94
298.984	93.94
299.214	87.94
299.445	97.94
299.675	102.94
299.905	98.94
300.136	94.94
300.366	84.94
300.597	84.94
300.827	78.94
301.057	87.94
301.288	93.94
301.518	97.94
301.748	86.94
301.979	87.94
302.209	87.94
302.439	90.94
302.669	87.94
302.9	84.94
303.13	88.94
303.36	95.94
303.59	95.94
303.82	90.94
304.051	90.94
304.281	97.94
304.511	104.94
304.741	93.94
304.971	109.94
305.201	86.94
305.431	82.94
305.661	91.94
305.891	88.94
306.121	85.94
306.352	74.94
306.582	85.94
306.812	84.94
307.042	81.94
307.272	83.94
307.502	91.94
307.731	76.94
307.961	75.94
308.191	86.94
308.421	82.94
308.651	76.94
308.881	83.94
309.111	85.94
309.341	94.94
309.571	80.94
309.8	82.94
310.03	90.94
310.26	81.94
310.49	91.94
310.72	84.94
310.949	81.94
311.179	86.94
311.409	78.94
311.639	90.94
311.868	87.94
312.098	88.94
312.328	92.94
312.557	79.94
312.787	92.94
313.017	105.94
313.246	73.94
313.476	92.94
313.706	88.94
313.935	87.94
314.165	82.94
314.394	82.94
314.624	93.94
314.853	91.94
315.083	83.94
315.312	84.94
315.542	93.94
315.771	93.94
316.001	78.94
316.23	102.94
316.46	74.94
316.689	87.94
316.919	93.94
317.148	87.94
317.377	91.94
317.607	96.94
317.836	84.94
318.065	95.94
318.295	80.94
318.524	89.94
318.753	77.94
318.983	89.94
319.212	70.94
319.441	71.94
319.67	84.94
319.9	90.94
320.129	93.94
320.358	99.94
320.587	77.94
320.816	95.94
321.046	84.94
321.275	93.94
321.504	76.94
321.733	98.94
321.962	87.94
322.191	85.94
322.42	80.94
322.649	98.94
322.878	101.94
323.108	87.94
323.337	80.94
323.566	87.94
323.795	95.94
324.024	94.94
324.253	85.94
324.482	74.94
324.71	81.94
324.939	86.94
325.168	83.94
325.397	99.94
325.626	87.94
325.855	74.94
326.084	87.94
326.313	86.94
326.542	86.94
326.77	73.94
326.999	92.94
327.228	87.94
327.457	90.94
327.686	81.94
327.914	81.94
328.143	78.94
328.372	79.94
328.6	81.94
328.829	78.94
329.058	101.94
329.287	98.94
329.515	85.94
329.744	93.94
329.972	74.94
330.201	88.94
330.43	79.94
330.658	96.94
330.887	99.94
331.115	85.94
331.344	110.94
331.572	86.94
331.801	90.94
332.03	77.94
332.258	93.94
332.486	83.94
332.715	81.94
332.943	88.94
333.172	84.94
333.4	77.94
333.629	86.94
333.857	93.94
334.085	85.94
334.314	91.94
334.542	81.94
334.771	86.94
334.999	71.94
335.227	90.94
335.455	99.94
335.684	92.94
335.912	88.94
336.14	88.94
336.369	96.94
336.597	108.94
336.825	91.94
337.053	83.94
337.281	81.94
337.51	89.94
337.738	84.94
337.966	88.94
338.194	76.94
338.422	71.94
338.65	78.94
338.878	90.94
339.106	84.94
339.334	86.94
339.562	98.94
339.79	65.94
340.018	101.94
340.246	86.94
340.474	86.94
340.702	101.94
340.93	94.94
341.158	95.94
341.386	82.94
341.614	88.94
341.842	84.94
342.07	86.94
342.298	80.94
342.526	88.94
342.754	87.94
342.981	78.94
343.209	80.94
343.437	87.94
343.665	82.94
343.893	93.94
344.12	76.94
344.348	89.94
344.576	81.94
344.804	90.94
345.031	93.94
345.259	91.94
345.487	77.94
345.714	86.94
345.942	73.94
346.17	77.94
346.397	80.94
346.625	101.94
346.853	83.94
347.08	78.94
347.308	81.94
347.535	76.94
347.763	80.94
347.99	81.94
348.218	69.94
348.445	94.94
348.673	89.94
348.9	73.94
349.128	95.94
349.355	91.94
349.583	85.94
349.81	97.94
350.037	80.94
350.265	87.94
350.492	96.94
350.72	87.94
350.947	81.94
351.174	77.94
351.402	79.94
351.629	80.94
351.856	92.94
352.083	75.94
352.311	85.94
352.538	101.94
352.765	88.94
352.992	66.94
353.22	86.94
353.447	93.94
353.674	87.94
353.901	73.94
354.128	94.94
354.355	83.94
354.583	93.94
354.81	104.94
355.037	80.94
355.264	79.94
355.491	86.94
355.718	89.94
355.945	100.94
356.172	82.94
356.399	85.94
356.626	90.94
356.853	84.94
357.08	94.94
357.307	90.94
357.534	86.94
357.761	90.94
357.988	79.94
358.215	89.94
358.441	84.94
358.668	86.94
358.895	90.94
359.122	92.94
359.349	66.94
359.576	90.94
359.802	79.94
360.029	101.94
360.256	94.94
360.483	83.94
360.709	92.94
360.936	100.94
361.163	79.94
361.39	84.94
361.616	73.94
361.843	93.94
362.07	88.94
362.296	91.94
362.523	87.94
362.749	102.94
362.976	78.94
363.203	83.94
363.429	94.94
363.656	69.94
363.882	88.94
364.109	82.94
364.335	98.94
364.562	82.94
364.788	79.94
365.015	76.94
365.241	80.94
365.468	101.94
365.694	77.94
365.92	88.94
366.147	72.94
366.373	86.94
366.599	94.94
366.826	99.94
367.052	87.94
367.278	113.94
367.505	86.94
367.731	77.94
367.957	81.94
368.184	98.94
368.41	91.94
368.636	89.94
368.862	92.94
369.089	75.94
369.315	69.94
369.541	91.94
369.767	83.94
369.993	92.94
370.219	82.94
370.445	76.94
370.672	94.94
370.898	75.94
371.124	83.94
371.35	86.94
371.576	84.94
371.802	86.94
372.028	78.94
372.254	99.94
372.48	87.94
372.706	78.94
372.932	75.94
373.158	79.94
373.384	79.94
373.61	83.94
373.835	92.94
374.061	83.94
374.287	90.94
374.513	89.94
374.739	77.94
374.965	94.94
375.191	86.94
375.416	85.94
375.642	95.94
375.868	85.94
376.094	85.94
376.319	91.94
376.545	82.94
376.771	89.94
376.997	81.94
377.222	85.94
377.448	84.94
377.674	91.94
377.899	75.94
378.125	81.94
378.35	87.94
378.576	73.94
378.802	85.94
379.027	87.94
379.253	95.94
379.478	81.94
379.704	85.94
379.929	87.94
380.155	86.94
380.38	94.94
380.606	76.94
380.831	83.94
381.057	99.94
381.282	90.94
381.507	90.94
381.733	79.94
381.958	93.94
382.184	85.94
382.409	83.94
382.634	88.94
382.86	90.94
383.085	83.94
383.31	84.94
383.535	98.94
383.761	86.94
383.986	85.94
384.211	103.94
384.436	87.94
384.662	83.94
384.887	92.94
385.112	88.94
385.337	82.94
385.562	79.94
385.787	94.94
386.013	91.94
386.238	98.94
386.463	77.94
386.688	87.94
386.913	86.94
387.138	88.94
387.363	94.94
387.588	94.94
387.813	83.94
388.038	88.94
388.263	92.94
388.488	95.94
388.713	93.94
388.938	73.94
389.163	84.94
389.387	96.94
389.612	76.94
389.837	84.94
390.062	94.94
390.287	88.94
390.512	79.94
390.736	91.94
390.961	74.94
391.186	94.94
391.411	100.94
391.636	90.94
391.86	84.94
392.085	82.94
392.31	84.94
392.534	88.94
392.759	90.94
392.984	95.94
393.208	89.94
393.433	89.94
393.658	88.94
393.882	85.94
394.107	77.94
394.331	82.94
394.556	87.94
394.78	89.94
395.005	87.94
395.229	94.94
395.454	86.94
395.678	88.94
395.903	86.94
396.127	94.94
396.352	94.94
396.576	84.94
396.801	91.94
397.025	85.94
397.249	103.94
397.474	89.94
397.698	85.94
397.922	80.94
398.147	86.94
398.371	93.94
398.595	103.94
398.82	91.94
399.044	101.94
399.268	97.94
399.492	84.94
399.717	74.94
399.941	97.94
400.165	74.94
400.389	86.94
400.613	91.94
400.837	97.94
401.062	90.94
401.286	98.94
401.51	89.94
401.734	101.94
401.958	95.94
402.182	79.94
402.406	88.94
402.63	89.94
402.854	90.94
403.078	94.94
403.302	89.94
403.526	92.94
403.75	92.94
403.974	86.94
404.198	84.94
404.422	91.94
404.645	96.94
404.869	93.94
405.093	90.94
405.317	97.94
405.541	93.94
405.765	98.94
405.988	90.94
406.212	98.94
406.436	99.94
406.66	84.94
406.883	93.94
407.107	86.94
407.331	94.94
407.555	79.94
407.778	92.94
408.002	99.94
408.226	90.94
408.449	92.94
408.673	98.94
408.896	89.94
409.12	105.94
409.344	98.94
409.567	98.94
409.791	99.94
410.014	106.94
410.238	101.94
410.461	109.94
410.685	95.94
410.908	113.94
411.132	93.94
411.355	99.94
411.578	108.94
411.802	85.94
412.025	89.94
412.249	94.94
412.472	90.94
412.695	90.94
412.919	79.94
413.142	87.94
413.365	91.94
413.589	93.94
413.812	86.94
414.035	102.94
414.258	96.94
414.482	84.94
414.705	98.94
414.928	102.94
415.151	77.94
415.374	81.94
415.597	90.94
415.821	93.94
416.044	104.94
416.267	91.94
416.49	98.94
416.713	97.94
416.936	106.94
417.159	84.94
417.382	85.94
417.605	90.94
417.828	104.94
418.051	90.94
418.274	96.94
418.497	91.94
418.72	102.94
418.943	103.94
419.166	87.94
419.389	85.94
419.611	94.94
419.834	88.94
420.057	103.94
420.28	91.94
420.503	90.94
420.726	105.94
420.948	95.94
421.171	93.94
421.394	95.94
421.617	93.94
421.839	89.94
422.062	95.94
422.285	94.94
422.507	85.94
422.73	87.94
422.953	79.94
423.175	95.94
423.398	83.94
423.621	86.94
423.843	95.94
424.066	97.94
424.288	89.94
424.511	101.94
424.733	92.94
424.956	103.94
425.178	102.94
425.401	96.94
425.623	99.94
425.846	91.94
426.068	99.94
426.291	89.94
426.513	110.94
426.735	95.94
426.958	81.94
427.18	92.94
427.402	94.94
427.625	97.94
427.847	94.94
428.069	114.94
428.292	94.94
428.514	104.94
428.736	92.94
428.958	110.94
429.181	100.94
429.403	108.94
429.625	82.94
429.847	92.94
430.069	102.94
430.292	98.94
430.514	86.94
430.736	91.94
430.958	99.94
431.18	76.94
431.402	91.94
431.624	103.94
431.846	109.94
432.068	88.94
432.29	76.94
432.512	101.94
432.734	99.94
432.956	93.94
433.178	89.94
433.4	90.94
433.622	106.94
433.844	83.94
434.066	92.94
434.287	93.94
434.509	95.94
434.731	87.94
434.953	88.94
435.175	84.94
435.397	97.94
435.618	101.94
435.84	90.94
436.062	78.94
436.284	98.94
436.505	106.94
436.727	88.94
436.949	104.94
437.17	92.94
437.392	90.94
437.614	98.94
437.835	92.94
438.057	81.94
438.278	94.94
438.5	87.94
438.721	99.94
438.943	91.94
439.165	90.94
439.386	106.94
439.608	107.94
439.829	97.94
440.05	102.94
440.272	95.94
440.493	104.94
440.715	90.94
440.936	97.94
441.158	98.94
441.379	104.94
441.6	104.94
441.822	92.94
442.043	95.94
442.264	99.94
442.486	111.94
442.707	95.94
442.928	87.94
443.149	100.94
443.371	89.94
443.592	97.94
443.813	85.94
444.034	88.94
444.255	88.94
444.476	93.94
444.698	89.94
444.919	82.94
445.14	207.94
445.361	159.94
445.582	116.94
445.803	93.94
446.024	89.94
446.245	90.94
446.466	99.94
446.687	92.94
446.908	106.94
447.129	108.94
447.35	95.94
447.571	110.94
447.792	98.94
448.013	91.94
448.234	105.94
448.455	103.94
448.675	103.94
448.896	101.94
449.117	91.94
449.338	99.94
449.559	109.94
449.779	99.94
450	84.94
450.221	78.94
450.442	90.94
450.662	98.94
450.883	99.94
451.104	101.94
451.324	99.94
451.545	97.94
451.766	93.94
451.986	78.94
452.207	101.94
452.428	89.94
452.648	103.94
452.869	95.94
453.089	88.94
453.31	89.94
453.53	79.94
453.751	79.94
453.971	94.94
454.192	78.94
454.412	91.94
454.633	106.94
454.853	79.94
455.073	88.94
455.294	95.94
455.514	95.94
455.734	92.94
455.955	87.94
456.175	95.94
456.395	90.94
456.616	95.94
456.836	79.94
457.056	83.94
457.276	84.94
457.497	88.94
457.717	107.94
457.937	86.94
458.157	87.94
458.377	89.94
458.598	77.94
458.818	69.94
459.038	85.94
459.258	97.94
459.478	90.94
459.698	82.94
459.918	88.94
460.138	94.94
460.358	84.94
460.578	87.94
460.798	106.94
461.018	85.94
461.238	85.94
461.458	87.94
461.678	90.94
461.898	95.94
462.118	100.94
462.338	100.94
462.558	94.94
462.777	73.94
462.997	93.94
463.217	82.94
463.437	91.94
463.657	85.94
463.876	90.94
464.096	99.94
464.316	87.94
464.536	93.94
464.755	102.94
464.975	82.94
465.195	84.94
465.414	95.94
465.634	91.94
465.854	92.94
466.073	94.94
466.293	91.94
466.512	93.94
466.732	93.94
466.951	107.94
467.171	98.94
467.391	89.94
467.61	101.94
467.829	92.94
468.049	100.94
468.268	89.94
468.488	99.94
468.707	95.94
468.927	104.94
469.146	108.94
469.365	89.94
469.585	108.94
469.804	97.94
470.023	87.94
470.243	104.94
470.462	102.94
470.681	108.94
470.901	93.94
471.12	89.94
471.339	98.94
471.558	106.94
471.777	95.94
471.997	104.94
472.216	110.94
472.435	89.94
472.654	77.94
472.873	103.94
473.092	99.94
473.311	103.94
473.53	98.94
473.749	101.94
473.968	93.94
474.187	99.94
474.406	94.94
474.625	98.94
474.844	97.94
475.063	94.94
475.282	91.94
475.501	88.94
475.72	100.94
475.939	90.94
476.158	85.94
476.377	91.94
476.596	97.94
476.814	99.94
477.033	80.94
477.252	83.94
477.471	87.94
477.69	84.94
477.908	99.94
478.127	106.94
478.346	89.94
478.564	92.94
478.783	94.94
479.002	95.94
479.22	96.94
479.439	94.94
479.658	104.94
479.876	100.94
480.095	82.94
480.313	79.94
480.532	99.94
480.751	91.94
480.969	87.94
481.188	79.94
481.406	101.94
481.624	74.94
481.843	88.94
482.061	81.94
482.28	92.94
482.498	93.94
482.717	81.94
482.935	90.94
483.153	102.94
483.372	103.94
483.59	121.94
483.808	100.94
484.027	89.94
484.245	104.94
484.463	83.94
484.681	107.94
484.9	99.94
485.118	96.94
485.336	93.94
485.554	103.94
485.772	83.94
485.99	91.94
486.209	97.94
486.427	88.94
486.645	99.94
486.863	102.94
487.081	109.94
487.299	96.94
487.517	96.94
487.735	100.94
487.953	126.94
488.171	114.94
488.389	105.94
488.607	104.94
488.825	109.94
489.043	94.94
489.261	77.94
489.479	92.94
489.696	92.94
489.914	110.94
490.132	95.94
490.35	101.94
490.568	113.94
490.786	113.94
491.003	113.94
491.221	108.94
491.439	123.94
491.657	129.94
491.874	106.94
492.092	128.94
492.31	147.94
492.527	106.94
492.745	121.94
492.963	125.94
493.18	101.94
493.398	112.94
493.615	111.94
493.833	94.94
494.05	102.94
494.268	115.94
494.485	104.94
494.703	103.94
494.92	116.94
495.138	103.94
495.355	103.94
495.573	115.94
495.79	115.94
496.008	105.94
496.225	89.94
496.442	105.94
496.66	125.94
496.877	111.94
497.094	113.94
497.312	108.94
497.529	95.94
497.746	103.94
497.963	102.94
498.181	97.94
498.398	90.94
498.615	88.94
498.832	98.94
499.049	88.94
499.267	98.94
499.484	101.94
499.701	100.94
499.918	99.94
500.135	87.94
500.352	99.94
500.569	100.94
500.786	95.94
501.003	85.94
501.22	108.94
501.437	86.94
501.654	92.94
501.871	104.94
502.088	100.94
502.305	83.94
502.522	98.94
502.739	95.94
502.956	92.94
503.172	97.94
503.389	99.94
503.606	93.94
503.823	91.94
504.04	87.94
504.256	91.94
504.473	103.94
504.69	90.94
504.907	99.94
505.123	93.94
505.34	89.94
505.557	106.94
505.773	88.94
505.99	87.94
506.207	79.94
506.423	100.94
506.64	102.94
506.856	103.94
507.073	103.94
507.289	97.94
507.506	89.94
507.722	92.94
507.939	106.94
508.155	86.94
508.372	110.94
508.588	93.94
508.805	67.94
509.021	79.94
509.238	87.94
509.454	84.94
509.67	93.94
509.887	94.94
510.103	99.94
510.319	93.94
510.536	79.94
510.752	103.94
510.968	90.94
511.184	108.94
511.401	90.94
511.617	98.94
511.833	92.94
512.049	87.94
512.265	70.94
512.481	87.94
512.698	93.94
512.914	78.94
513.13	84.94
513.346	91.94
513.562	88.94
513.778	89.94
513.994	95.94
514.21	78.94
514.426	89.94
514.642	89.94
514.858	91.94
515.074	87.94
515.29	74.94
515.506	88.94
515.721	65.94
515.937	91.94
516.153	80.94
516.369	95.94
516.585	83.94
516.801	92.94
