Data from Location5.07152019.Energy5.Lamp.07192019.3%Agarose_HRD10591_15-36-36-386.txt Node
Date: Fri Jul 19 15:36:36 EDT 2019
User: cochatt
Spectrometer: HR+D1059
Trigger mode: 1
Integration Time (sec): 1.000000E-1
Scans to average: 1
Electric dark correction enabled: true
Nonlinearity correction enabled: false
Boxcar width: 0
XAxis mode: Wavelengths
Number of Pixels in Spectrum: 2048
>>>>>Begin Spectral Data<<<<<
223.165	-6.12
223.4	-6.12
223.635	-6.12
223.869	-27.12
224.104	-12.12
224.338	-17.12
224.573	-17.12
224.808	-25.12
225.042	-10.12
225.277	-6.12
225.511	0.88
225.746	10.88
225.98	3.88
226.215	10.88
226.449	14.88
226.683	23.88
226.918	22.88
227.152	32.88
227.387	34.88
227.621	28.88
227.856	47.88
228.09	45.88
228.324	55.88
228.559	52.88
228.793	49.88
229.027	58.88
229.262	65.88
229.496	75.88
229.73	76.88
229.964	60.88
230.199	79.88
230.433	72.88
230.667	73.88
230.901	61.88
231.136	71.88
231.37	80.88
231.604	71.88
231.838	83.88
232.072	87.88
232.306	87.88
232.541	77.88
232.775	69.88
233.009	70.88
233.243	74.88
233.477	82.88
233.711	68.88
233.945	66.88
234.179	73.88
234.413	92.88
234.647	93.88
234.881	62.88
235.115	74.88
235.349	78.88
235.583	71.88
235.817	67.88
236.051	57.88
236.285	70.88
236.519	85.88
236.753	69.88
236.987	81.88
237.221	75.88
237.455	57.88
237.689	67.88
237.922	73.88
238.156	84.88
238.39	71.88
238.624	69.88
238.858	72.88
239.091	68.88
239.325	78.88
239.559	63.88
239.793	73.88
240.027	71.88
240.26	81.88
240.494	73.88
240.728	76.88
240.961	70.88
241.195	71.88
241.429	80.88
241.662	79.88
241.896	71.88
242.13	84.88
242.363	81.88
242.597	79.88
242.83	75.88
243.064	77.88
243.298	69.88
243.531	65.88
243.765	95.88
243.998	71.88
244.232	71.88
244.465	71.88
244.699	71.88
244.932	73.88
245.166	81.88
245.399	80.88
245.633	78.88
245.866	88.88
246.099	83.88
246.333	82.88
246.566	71.88
246.8	80.88
247.033	77.88
247.266	84.88
247.5	83.88
247.733	75.88
247.966	72.88
248.2	61.88
248.433	69.88
248.666	77.88
248.899	66.88
249.133	72.88
249.366	81.88
249.599	68.88
249.832	78.88
250.066	66.88
250.299	61.88
250.532	72.88
250.765	73.88
250.998	56.88
251.231	82.88
251.465	79.88
251.698	78.88
251.931	71.88
252.164	78.88
252.397	61.88
252.63	75.88
252.863	86.88
253.096	79.88
253.329	74.88
253.562	82.88
253.795	85.88
254.028	64.88
254.261	73.88
254.494	80.88
254.727	69.88
254.96	87.88
255.193	78.88
255.426	75.88
255.659	77.88
255.892	82.88
256.124	78.88
256.357	60.88
256.59	74.88
256.823	63.88
257.056	79.88
257.289	88.88
257.521	81.88
257.754	72.88
257.987	91.88
258.22	85.88
258.452	71.88
258.685	85.88
258.918	71.88
259.151	67.88
259.383	81.88
259.616	78.88
259.849	79.88
260.081	75.88
260.314	70.88
260.547	76.88
260.779	87.88
261.012	69.88
261.244	86.88
261.477	83.88
261.71	81.88
261.942	77.88
262.175	86.88
262.407	90.88
262.64	76.88
262.872	68.88
263.105	73.88
263.337	75.88
263.57	87.88
263.802	85.88
264.035	76.88
264.267	69.88
264.499	77.88
264.732	55.88
264.964	61.88
265.197	78.88
265.429	84.88
265.661	75.88
265.894	80.88
266.126	87.88
266.358	69.88
266.591	69.88
266.823	87.88
267.055	81.88
267.287	82.88
267.52	76.88
267.752	93.88
267.984	90.88
268.216	67.88
268.448	85.88
268.681	77.88
268.913	84.88
269.145	76.88
269.377	85.88
269.609	90.88
269.841	86.88
270.073	71.88
270.306	77.88
270.538	76.88
270.77	83.88
271.002	80.88
271.234	80.88
271.466	82.88
271.698	69.88
271.93	79.88
272.162	65.88
272.394	86.88
272.626	75.88
272.858	77.88
273.09	89.88
273.322	71.88
273.553	82.88
273.785	83.88
274.017	77.88
274.249	82.88
274.481	78.88
274.713	77.88
274.945	93.88
275.176	69.88
275.408	81.88
275.64	80.88
275.872	76.88
276.104	83.88
276.335	73.88
276.567	76.88
276.799	69.88
277.031	81.88
277.262	80.88
277.494	82.88
277.726	77.88
277.957	90.88
278.189	86.88
278.421	82.88
278.652	89.88
278.884	68.88
279.115	76.88
279.347	76.88
279.579	90.88
279.81	75.88
280.042	84.88
280.273	85.88
280.505	96.88
280.736	82.88
280.968	57.88
281.199	84.88
281.431	68.88
281.662	82.88
281.894	84.88
282.125	86.88
282.356	74.88
282.588	85.88
282.819	76.88
283.051	77.88
283.282	65.88
283.513	72.88
283.745	71.88
283.976	68.88
284.207	82.88
284.439	94.88
284.67	96.88
284.901	85.88
285.132	75.88
285.364	78.88
285.595	71.88
285.826	74.88
286.057	79.88
286.288	75.88
286.52	83.88
286.751	80.88
286.982	78.88
287.213	75.88
287.444	81.88
287.675	75.88
287.906	94.88
288.138	74.88
288.369	78.88
288.6	83.88
288.831	85.88
289.062	79.88
289.293	70.88
289.524	61.88
289.755	76.88
289.986	84.88
290.217	69.88
290.448	91.88
290.679	93.88
290.91	71.88
291.141	74.88
291.371	82.88
291.602	78.88
291.833	91.88
292.064	75.88
292.295	68.88
292.526	91.88
292.757	85.88
292.987	66.88
293.218	81.88
293.449	87.88
293.68	85.88
293.91	71.88
294.141	87.88
294.372	87.88
294.603	74.88
294.833	74.88
295.064	94.88
295.295	83.88
295.525	59.88
295.756	80.88
295.987	88.88
296.217	77.88
296.448	76.88
296.679	76.88
296.909	63.88
297.14	101.88
297.37	83.88
297.601	85.88
297.831	80.88
298.062	87.88
298.292	80.88
298.523	83.88
298.753	76.88
298.984	91.88
299.214	87.88
299.445	76.88
299.675	86.88
299.905	82.88
300.136	83.88
300.366	97.88
300.597	71.88
300.827	92.88
301.057	90.88
301.288	77.88
301.518	94.88
301.748	73.88
301.979	86.88
302.209	67.88
302.439	75.88
302.669	82.88
302.9	82.88
303.13	73.88
303.36	61.88
303.59	70.88
303.82	79.88
304.051	86.88
304.281	81.88
304.511	88.88
304.741	92.88
304.971	92.88
305.201	85.88
305.431	81.88
305.661	83.88
305.891	85.88
306.121	87.88
306.352	82.88
306.582	94.88
306.812	91.88
307.042	83.88
307.272	96.88
307.502	92.88
307.731	86.88
307.961	77.88
308.191	76.88
308.421	84.88
308.651	77.88
308.881	63.88
309.111	67.88
309.341	81.88
309.571	90.88
309.8	88.88
310.03	78.88
310.26	78.88
310.49	81.88
310.72	63.88
310.949	76.88
311.179	77.88
311.409	70.88
311.639	73.88
311.868	91.88
312.098	86.88
312.328	82.88
312.557	80.88
312.787	82.88
313.017	78.88
313.246	73.88
313.476	70.88
313.706	85.88
313.935	81.88
314.165	83.88
314.394	89.88
314.624	77.88
314.853	78.88
315.083	94.88
315.312	71.88
315.542	77.88
315.771	81.88
316.001	84.88
316.23	84.88
316.46	73.88
316.689	82.88
316.919	73.88
317.148	85.88
317.377	87.88
317.607	87.88
317.836	83.88
318.065	74.88
318.295	76.88
318.524	78.88
318.753	78.88
318.983	80.88
319.212	79.88
319.441	87.88
319.67	78.88
319.9	66.88
320.129	71.88
320.358	80.88
320.587	70.88
320.816	83.88
321.046	74.88
321.275	78.88
321.504	72.88
321.733	83.88
321.962	89.88
322.191	84.88
322.42	90.88
322.649	69.88
322.878	70.88
323.108	90.88
323.337	90.88
323.566	89.88
323.795	88.88
324.024	78.88
324.253	82.88
324.482	79.88
324.71	86.88
324.939	66.88
325.168	81.88
325.397	81.88
325.626	70.88
325.855	84.88
326.084	80.88
326.313	81.88
326.542	85.88
326.77	78.88
326.999	90.88
327.228	67.88
327.457	78.88
327.686	84.88
327.914	76.88
328.143	86.88
328.372	84.88
328.6	68.88
328.829	76.88
329.058	77.88
329.287	81.88
329.515	76.88
329.744	83.88
329.972	84.88
330.201	71.88
330.43	78.88
330.658	77.88
330.887	80.88
331.115	79.88
331.344	80.88
331.572	79.88
331.801	82.88
332.03	74.88
332.258	82.88
332.486	63.88
332.715	80.88
332.943	78.88
333.172	81.88
333.4	66.88
333.629	79.88
333.857	71.88
334.085	76.88
334.314	81.88
334.542	85.88
334.771	81.88
334.999	75.88
335.227	74.88
335.455	81.88
335.684	75.88
335.912	92.88
336.14	85.88
336.369	82.88
336.597	79.88
336.825	83.88
337.053	77.88
337.281	68.88
337.51	79.88
337.738	70.88
337.966	81.88
338.194	76.88
338.422	77.88
338.65	82.88
338.878	86.88
339.106	82.88
339.334	77.88
339.562	80.88
339.79	73.88
340.018	75.88
340.246	82.88
340.474	75.88
340.702	67.88
340.93	74.88
341.158	77.88
341.386	75.88
341.614	76.88
341.842	86.88
342.07	76.88
342.298	85.88
342.526	75.88
342.754	73.88
342.981	65.88
343.209	83.88
343.437	86.88
343.665	82.88
343.893	85.88
344.12	82.88
344.348	66.88
344.576	79.88
344.804	76.88
345.031	83.88
345.259	70.88
345.487	86.88
345.714	83.88
345.942	82.88
346.17	87.88
346.397	80.88
346.625	77.88
346.853	88.88
347.08	80.88
347.308	94.88
347.535	85.88
347.763	67.88
347.99	78.88
348.218	67.88
348.445	74.88
348.673	91.88
348.9	79.88
349.128	73.88
349.355	77.88
349.583	75.88
349.81	84.88
350.037	91.88
350.265	93.88
350.492	80.88
350.72	80.88
350.947	82.88
351.174	79.88
351.402	73.88
351.629	73.88
351.856	88.88
352.083	70.88
352.311	68.88
352.538	83.88
352.765	91.88
352.992	89.88
353.22	75.88
353.447	78.88
353.674	101.88
353.901	70.88
354.128	69.88
354.355	93.88
354.583	77.88
354.81	75.88
355.037	71.88
355.264	77.88
355.491	72.88
355.718	87.88
355.945	79.88
356.172	79.88
356.399	61.88
356.626	66.88
356.853	65.88
357.08	89.88
357.307	85.88
357.534	68.88
357.761	76.88
357.988	81.88
358.215	81.88
358.441	84.88
358.668	70.88
358.895	83.88
359.122	77.88
359.349	75.88
359.576	91.88
359.802	73.88
360.029	95.88
360.256	74.88
360.483	81.88
360.709	70.88
360.936	67.88
361.163	72.88
361.39	77.88
361.616	70.88
361.843	77.88
362.07	81.88
362.296	81.88
362.523	79.88
362.749	84.88
362.976	74.88
363.203	77.88
363.429	75.88
363.656	65.88
363.882	70.88
364.109	79.88
364.335	87.88
364.562	90.88
364.788	79.88
365.015	66.88
365.241	68.88
365.468	71.88
365.694	71.88
365.92	77.88
366.147	95.88
366.373	74.88
366.599	80.88
366.826	80.88
367.052	79.88
367.278	86.88
367.505	88.88
367.731	87.88
367.957	71.88
368.184	97.88
368.41	80.88
368.636	79.88
368.862	75.88
369.089	71.88
369.315	70.88
369.541	75.88
369.767	92.88
369.993	76.88
370.219	86.88
370.445	77.88
370.672	72.88
370.898	72.88
371.124	70.88
371.35	81.88
371.576	83.88
371.802	76.88
372.028	78.88
372.254	84.88
372.48	81.88
372.706	77.88
372.932	87.88
373.158	70.88
373.384	81.88
373.61	76.88
373.835	59.88
374.061	82.88
374.287	80.88
374.513	86.88
374.739	75.88
374.965	80.88
375.191	67.88
375.416	84.88
375.642	84.88
375.868	97.88
376.094	89.88
376.319	72.88
376.545	89.88
376.771	74.88
376.997	82.88
377.222	72.88
377.448	69.88
377.674	91.88
377.899	91.88
378.125	74.88
378.35	82.88
378.576	88.88
378.802	80.88
379.027	78.88
379.253	91.88
379.478	87.88
379.704	87.88
379.929	90.88
380.155	68.88
380.38	84.88
380.606	75.88
380.831	76.88
381.057	90.88
381.282	77.88
381.507	77.88
381.733	82.88
381.958	79.88
382.184	85.88
382.409	87.88
382.634	79.88
382.86	78.88
383.085	78.88
383.31	82.88
383.535	87.88
383.761	96.88
383.986	91.88
384.211	87.88
384.436	92.88
384.662	75.88
384.887	93.88
385.112	76.88
385.337	78.88
385.562	80.88
385.787	73.88
386.013	79.88
386.238	78.88
386.463	69.88
386.688	84.88
386.913	86.88
387.138	86.88
387.363	74.88
387.588	89.88
387.813	82.88
388.038	76.88
388.263	78.88
388.488	72.88
388.713	83.88
388.938	75.88
389.163	76.88
389.387	71.88
389.612	82.88
389.837	74.88
390.062	72.88
390.287	75.88
390.512	83.88
390.736	70.88
390.961	87.88
391.186	80.88
391.411	90.88
391.636	67.88
391.86	80.88
392.085	87.88
392.31	71.88
392.534	67.88
392.759	90.88
392.984	71.88
393.208	73.88
393.433	72.88
393.658	78.88
393.882	71.88
394.107	93.88
394.331	94.88
394.556	69.88
394.78	75.88
395.005	85.88
395.229	90.88
395.454	93.88
395.678	82.88
395.903	73.88
396.127	85.88
396.352	75.88
396.576	83.88
396.801	79.88
397.025	84.88
397.249	90.88
397.474	86.88
397.698	70.88
397.922	81.88
398.147	79.88
398.371	72.88
398.595	79.88
398.82	84.88
399.044	90.88
399.268	93.88
399.492	90.88
399.717	85.88
399.941	90.88
400.165	67.88
400.389	87.88
400.613	80.88
400.837	76.88
401.062	93.88
401.286	85.88
401.51	86.88
401.734	98.88
401.958	85.88
402.182	72.88
402.406	89.88
402.63	87.88
402.854	82.88
403.078	77.88
403.302	87.88
403.526	81.88
403.75	94.88
403.974	103.88
404.198	81.88
404.422	76.88
404.645	79.88
404.869	79.88
405.093	62.88
405.317	80.88
405.541	82.88
405.765	78.88
405.988	83.88
406.212	91.88
406.436	77.88
406.66	81.88
406.883	86.88
407.107	78.88
407.331	71.88
407.555	81.88
407.778	83.88
408.002	112.88
408.226	99.88
408.449	97.88
408.673	84.88
408.896	80.88
409.12	78.88
409.344	92.88
409.567	84.88
409.791	97.88
410.014	99.88
410.238	90.88
410.461	89.88
410.685	87.88
410.908	71.88
411.132	102.88
411.355	95.88
411.578	79.88
411.802	95.88
412.025	87.88
412.249	88.88
412.472	81.88
412.695	77.88
412.919	87.88
413.142	81.88
413.365	80.88
413.589	94.88
413.812	83.88
414.035	91.88
414.258	96.88
414.482	89.88
414.705	71.88
414.928	93.88
415.151	100.88
415.374	92.88
415.597	84.88
415.821	80.88
416.044	79.88
416.267	76.88
416.49	100.88
416.713	99.88
416.936	88.88
417.159	89.88
417.382	101.88
417.605	83.88
417.828	84.88
418.051	76.88
418.274	85.88
418.497	78.88
418.72	89.88
418.943	80.88
419.166	102.88
419.389	95.88
419.611	88.88
419.834	105.88
420.057	88.88
420.28	99.88
420.503	75.88
420.726	79.88
420.948	88.88
421.171	102.88
421.394	81.88
421.617	105.88
421.839	90.88
422.062	92.88
422.285	93.88
422.507	92.88
422.73	88.88
422.953	74.88
423.175	78.88
423.398	81.88
423.621	80.88
423.843	72.88
424.066	102.88
424.288	84.88
424.511	78.88
424.733	86.88
424.956	87.88
425.178	83.88
425.401	95.88
425.623	79.88
425.846	81.88
426.068	86.88
426.291	92.88
426.513	96.88
426.735	84.88
426.958	84.88
427.18	88.88
427.402	82.88
427.625	91.88
427.847	93.88
428.069	71.88
428.292	82.88
428.514	88.88
428.736	90.88
428.958	82.88
429.181	90.88
429.403	87.88
429.625	92.88
429.847	94.88
430.069	92.88
430.292	105.88
430.514	88.88
430.736	85.88
430.958	99.88
431.18	77.88
431.402	82.88
431.624	85.88
431.846	77.88
432.068	90.88
432.29	92.88
432.512	75.88
432.734	83.88
432.956	86.88
433.178	107.88
433.4	91.88
433.622	97.88
433.844	93.88
434.066	81.88
434.287	80.88
434.509	90.88
434.731	74.88
434.953	88.88
435.175	80.88
435.397	76.88
435.618	93.88
435.84	85.88
436.062	87.88
436.284	72.88
436.505	94.88
436.727	82.88
436.949	95.88
437.17	94.88
437.392	81.88
437.614	88.88
437.835	87.88
438.057	85.88
438.278	85.88
438.5	94.88
438.721	83.88
438.943	90.88
439.165	94.88
439.386	92.88
439.608	68.88
439.829	100.88
440.05	93.88
440.272	98.88
440.493	95.88
440.715	91.88
440.936	77.88
441.158	86.88
441.379	97.88
441.6	95.88
441.822	82.88
442.043	95.88
442.264	78.88
442.486	72.88
442.707	102.88
442.928	86.88
443.149	93.88
443.371	94.88
443.592	82.88
443.813	90.88
444.034	90.88
444.255	88.88
444.476	101.88
444.698	94.88
444.919	99.88
445.14	214.88
445.361	142.88
445.582	93.88
445.803	91.88
446.024	92.88
446.245	91.88
446.466	100.88
446.687	101.88
446.908	96.88
447.129	86.88
447.35	84.88
447.571	81.88
447.792	104.88
448.013	93.88
448.234	105.88
448.455	95.88
448.675	78.88
448.896	89.88
449.117	90.88
449.338	94.88
449.559	98.88
449.779	88.88
450	80.88
450.221	84.88
450.442	82.88
450.662	93.88
450.883	91.88
451.104	82.88
451.324	87.88
451.545	102.88
451.766	81.88
451.986	85.88
452.207	96.88
452.428	82.88
452.648	75.88
452.869	79.88
453.089	102.88
453.31	81.88
453.53	91.88
453.751	67.88
453.971	83.88
454.192	84.88
454.412	71.88
454.633	85.88
454.853	88.88
455.073	83.88
455.294	90.88
455.514	81.88
455.734	91.88
455.955	78.88
456.175	77.88
456.395	86.88
456.616	89.88
456.836	84.88
457.056	80.88
457.276	80.88
457.497	90.88
457.717	81.88
457.937	70.88
458.157	89.88
458.377	81.88
458.598	77.88
458.818	76.88
459.038	90.88
459.258	84.88
459.478	85.88
459.698	83.88
459.918	98.88
460.138	73.88
460.358	85.88
460.578	74.88
460.798	92.88
461.018	104.88
461.238	94.88
461.458	83.88
461.678	86.88
461.898	87.88
462.118	89.88
462.338	88.88
462.558	86.88
462.777	77.88
462.997	84.88
463.217	76.88
463.437	59.88
463.657	84.88
463.876	73.88
464.096	80.88
464.316	87.88
464.536	85.88
464.755	90.88
464.975	70.88
465.195	78.88
465.414	86.88
465.634	77.88
465.854	83.88
466.073	83.88
466.293	89.88
466.512	79.88
466.732	96.88
466.951	94.88
467.171	108.88
467.391	87.88
467.61	80.88
467.829	73.88
468.049	81.88
468.268	89.88
468.488	94.88
468.707	87.88
468.927	93.88
469.146	81.88
469.365	93.88
469.585	96.88
469.804	88.88
470.023	85.88
470.243	71.88
470.462	91.88
470.681	94.88
470.901	105.88
471.12	84.88
471.339	102.88
471.558	81.88
471.777	87.88
471.997	89.88
472.216	72.88
472.435	79.88
472.654	89.88
472.873	96.88
473.092	87.88
473.311	86.88
473.53	94.88
473.749	97.88
473.968	100.88
474.187	86.88
474.406	75.88
474.625	84.88
474.844	93.88
475.063	96.88
475.282	92.88
475.501	93.88
475.72	105.88
475.939	88.88
476.158	95.88
476.377	94.88
476.596	86.88
476.814	88.88
477.033	91.88
477.252	80.88
477.471	87.88
477.69	99.88
477.908	97.88
478.127	90.88
478.346	87.88
478.564	97.88
478.783	93.88
479.002	89.88
479.22	102.88
479.439	86.88
479.658	87.88
479.876	82.88
480.095	94.88
480.313	89.88
480.532	106.88
480.751	92.88
480.969	61.88
481.188	85.88
481.406	94.88
481.624	74.88
481.843	77.88
482.061	84.88
482.28	84.88
482.498	80.88
482.717	80.88
482.935	87.88
483.153	87.88
483.372	96.88
483.59	100.88
483.808	89.88
484.027	79.88
484.245	98.88
484.463	90.88
484.681	106.88
484.9	111.88
485.118	90.88
485.336	102.88
485.554	81.88
485.772	96.88
485.99	85.88
486.209	102.88
486.427	93.88
486.645	93.88
486.863	85.88
487.081	102.88
487.299	98.88
487.517	85.88
487.735	85.88
487.953	97.88
488.171	113.88
488.389	109.88
488.607	111.88
488.825	90.88
489.043	86.88
489.261	86.88
489.479	98.88
489.696	109.88
489.914	85.88
490.132	101.88
490.35	91.88
490.568	102.88
490.786	102.88
491.003	98.88
491.221	109.88
491.439	85.88
491.657	97.88
491.874	120.88
492.092	112.88
492.31	120.88
492.527	124.88
492.745	95.88
492.963	106.88
493.18	107.88
493.398	109.88
493.615	106.88
493.833	103.88
494.05	81.88
494.268	108.88
494.485	106.88
494.703	110.88
494.92	93.88
495.138	95.88
495.355	112.88
495.573	101.88
495.79	100.88
496.008	106.88
496.225	94.88
496.442	98.88
496.66	113.88
496.877	100.88
497.094	105.88
497.312	88.88
497.529	105.88
497.746	101.88
497.963	90.88
498.181	90.88
498.398	80.88
498.615	85.88
498.832	87.88
499.049	76.88
499.267	90.88
499.484	115.88
499.701	91.88
499.918	94.88
500.135	77.88
500.352	90.88
500.569	112.88
500.786	102.88
501.003	95.88
501.22	107.88
501.437	100.88
501.654	87.88
501.871	94.88
502.088	96.88
502.305	91.88
502.522	87.88
502.739	79.88
502.956	82.88
503.172	81.88
503.389	95.88
503.606	80.88
503.823	87.88
504.04	86.88
504.256	87.88
504.473	82.88
504.69	94.88
504.907	83.88
505.123	81.88
505.34	106.88
505.557	111.88
505.773	100.88
505.99	88.88
506.207	100.88
506.423	71.88
506.64	90.88
506.856	97.88
507.073	83.88
507.289	93.88
507.506	93.88
507.722	95.88
507.939	87.88
508.155	92.88
508.372	91.88
508.588	79.88
508.805	83.88
509.021	70.88
509.238	89.88
509.454	75.88
509.67	86.88
509.887	79.88
510.103	94.88
510.319	72.88
510.536	90.88
510.752	98.88
510.968	78.88
511.184	78.88
511.401	65.88
511.617	66.88
511.833	80.88
512.049	96.88
512.265	80.88
512.481	82.88
512.698	73.88
512.914	92.88
513.13	87.88
513.346	84.88
513.562	89.88
513.778	84.88
513.994	74.88
514.21	68.88
514.426	76.88
514.642	75.88
514.858	87.88
515.074	75.88
515.29	81.88
515.506	96.88
515.721	67.88
515.937	75.88
516.153	80.88
516.369	86.88
516.585	86.88
516.801	77.88
517.016	72.88
517.232	70.88
517.448	85.88
517.664	85.88
517.879	84.88
518.095	83.88
518.311	82.88
518.527	84.88
