Data from Location5.07152019.Energy5.Lamp.07192019.3%Agarose_HRD10591_15-37-07-389.txt Node
Date: Fri Jul 19 15:37:07 EDT 2019
User: cochatt
Spectrometer: HR+D1059
Trigger mode: 1
Integration Time (sec): 1.000000E-1
Scans to average: 1
Electric dark correction enabled: true
Nonlinearity correction enabled: false
Boxcar width: 0
XAxis mode: Wavelengths
Number of Pixels in Spectrum: 2048
>>>>>Begin Spectral Data<<<<<
223.165	-9.5
223.4	-9.5
223.635	-9.5
223.869	-18.5
224.104	-29.5
224.338	-3.5
224.573	-4.5
224.808	-18.5
225.042	-19.5
225.277	-8.5
225.511	-10.5
225.746	-5.5
225.98	22.5
226.215	12.5
226.449	22.5
226.683	14.5
226.918	18.5
227.152	37.5
227.387	36.5
227.621	31.5
227.856	48.5
228.09	56.5
228.324	57.5
228.559	56.5
228.793	69.5
229.027	76.5
229.262	65.5
229.496	69.5
229.73	80.5
229.964	73.5
230.199	82.5
230.433	87.5
230.667	80.5
230.901	65.5
231.136	69.5
231.37	77.5
231.604	81.5
231.838	92.5
232.072	94.5
232.306	82.5
232.541	81.5
232.775	74.5
233.009	85.5
233.243	88.5
233.477	82.5
233.711	81.5
233.945	89.5
234.179	77.5
234.413	91.5
234.647	89.5
234.881	79.5
235.115	104.5
235.349	84.5
235.583	70.5
235.817	77.5
236.051	79.5
236.285	84.5
236.519	89.5
236.753	76.5
236.987	77.5
237.221	71.5
237.455	81.5
237.689	82.5
237.922	72.5
238.156	65.5
238.39	71.5
238.624	75.5
238.858	71.5
239.091	82.5
239.325	80.5
239.559	73.5
239.793	85.5
240.027	68.5
240.26	85.5
240.494	89.5
240.728	83.5
240.961	85.5
241.195	82.5
241.429	85.5
241.662	75.5
241.896	69.5
242.13	82.5
242.363	76.5
242.597	80.5
242.83	72.5
243.064	82.5
243.298	75.5
243.531	82.5
243.765	66.5
243.998	74.5
244.232	84.5
244.465	68.5
244.699	73.5
244.932	80.5
245.166	79.5
245.399	81.5
245.633	81.5
245.866	89.5
246.099	74.5
246.333	77.5
246.566	86.5
246.8	79.5
247.033	80.5
247.266	90.5
247.5	68.5
247.733	77.5
247.966	81.5
248.2	73.5
248.433	74.5
248.666	73.5
248.899	74.5
249.133	82.5
249.366	76.5
249.599	85.5
249.832	87.5
250.066	82.5
250.299	88.5
250.532	76.5
250.765	82.5
250.998	72.5
251.231	76.5
251.465	93.5
251.698	78.5
251.931	76.5
252.164	90.5
252.397	80.5
252.63	82.5
252.863	65.5
253.096	76.5
253.329	80.5
253.562	76.5
253.795	84.5
254.028	82.5
254.261	83.5
254.494	85.5
254.727	81.5
254.96	82.5
255.193	78.5
255.426	90.5
255.659	79.5
255.892	83.5
256.124	91.5
256.357	95.5
256.59	90.5
256.823	84.5
257.056	75.5
257.289	85.5
257.521	90.5
257.754	87.5
257.987	87.5
258.22	86.5
258.452	88.5
258.685	82.5
258.918	77.5
259.151	94.5
259.383	77.5
259.616	90.5
259.849	92.5
260.081	65.5
260.314	77.5
260.547	93.5
260.779	81.5
261.012	68.5
261.244	75.5
261.477	81.5
261.71	84.5
261.942	95.5
262.175	86.5
262.407	101.5
262.64	83.5
262.872	82.5
263.105	80.5
263.337	78.5
263.57	80.5
263.802	88.5
264.035	90.5
264.267	93.5
264.499	84.5
264.732	89.5
264.964	78.5
265.197	96.5
265.429	95.5
265.661	86.5
265.894	77.5
266.126	99.5
266.358	78.5
266.591	76.5
266.823	85.5
267.055	77.5
267.287	75.5
267.52	74.5
267.752	89.5
267.984	89.5
268.216	86.5
268.448	93.5
268.681	95.5
268.913	93.5
269.145	87.5
269.377	76.5
269.609	81.5
269.841	96.5
270.073	84.5
270.306	91.5
270.538	83.5
270.77	80.5
271.002	71.5
271.234	96.5
271.466	87.5
271.698	81.5
271.93	87.5
272.162	79.5
272.394	79.5
272.626	79.5
272.858	79.5
273.09	86.5
273.322	83.5
273.553	92.5
273.785	81.5
274.017	95.5
274.249	78.5
274.481	88.5
274.713	81.5
274.945	94.5
275.176	92.5
275.408	85.5
275.64	80.5
275.872	86.5
276.104	92.5
276.335	86.5
276.567	92.5
276.799	94.5
277.031	78.5
277.262	96.5
277.494	78.5
277.726	70.5
277.957	76.5
278.189	79.5
278.421	84.5
278.652	82.5
278.884	87.5
279.115	89.5
279.347	85.5
279.579	94.5
279.81	79.5
280.042	76.5
280.273	88.5
280.505	81.5
280.736	87.5
280.968	88.5
281.199	83.5
281.431	78.5
281.662	84.5
281.894	84.5
282.125	84.5
282.356	90.5
282.588	91.5
282.819	84.5
283.051	94.5
283.282	77.5
283.513	93.5
283.745	90.5
283.976	88.5
284.207	78.5
284.439	99.5
284.67	82.5
284.901	88.5
285.132	94.5
285.364	90.5
285.595	83.5
285.826	69.5
286.057	70.5
286.288	78.5
286.52	92.5
286.751	75.5
286.982	93.5
287.213	88.5
287.444	88.5
287.675	89.5
287.906	87.5
288.138	84.5
288.369	85.5
288.6	86.5
288.831	81.5
289.062	81.5
289.293	89.5
289.524	84.5
289.755	91.5
289.986	88.5
290.217	73.5
290.448	87.5
290.679	88.5
290.91	80.5
291.141	94.5
291.371	93.5
291.602	73.5
291.833	76.5
292.064	86.5
292.295	77.5
292.526	72.5
292.757	83.5
292.987	92.5
293.218	82.5
293.449	89.5
293.68	89.5
293.91	92.5
294.141	95.5
294.372	106.5
294.603	100.5
294.833	76.5
295.064	97.5
295.295	98.5
295.525	85.5
295.756	84.5
295.987	91.5
296.217	84.5
296.448	87.5
296.679	85.5
296.909	89.5
297.14	81.5
297.37	79.5
297.601	96.5
297.831	99.5
298.062	93.5
298.292	75.5
298.523	93.5
298.753	88.5
298.984	74.5
299.214	74.5
299.445	81.5
299.675	76.5
299.905	84.5
300.136	73.5
300.366	84.5
300.597	84.5
300.827	78.5
301.057	90.5
301.288	84.5
301.518	93.5
301.748	89.5
301.979	81.5
302.209	89.5
302.439	73.5
302.669	79.5
302.9	84.5
303.13	79.5
303.36	77.5
303.59	98.5
303.82	89.5
304.051	85.5
304.281	83.5
304.511	84.5
304.741	90.5
304.971	93.5
305.201	84.5
305.431	88.5
305.661	92.5
305.891	94.5
306.121	89.5
306.352	89.5
306.582	86.5
306.812	76.5
307.042	88.5
307.272	77.5
307.502	87.5
307.731	80.5
307.961	94.5
308.191	100.5
308.421	85.5
308.651	78.5
308.881	80.5
309.111	91.5
309.341	80.5
309.571	91.5
309.8	82.5
310.03	76.5
310.26	93.5
310.49	84.5
310.72	88.5
310.949	80.5
311.179	96.5
311.409	100.5
311.639	87.5
311.868	99.5
312.098	94.5
312.328	86.5
312.557	85.5
312.787	86.5
313.017	81.5
313.246	76.5
313.476	82.5
313.706	85.5
313.935	79.5
314.165	89.5
314.394	92.5
314.624	81.5
314.853	107.5
315.083	83.5
315.312	102.5
315.542	102.5
315.771	85.5
316.001	89.5
316.23	86.5
316.46	87.5
316.689	93.5
316.919	84.5
317.148	78.5
317.377	95.5
317.607	89.5
317.836	83.5
318.065	85.5
318.295	92.5
318.524	93.5
318.753	83.5
318.983	93.5
319.212	85.5
319.441	87.5
319.67	90.5
319.9	86.5
320.129	84.5
320.358	73.5
320.587	96.5
320.816	103.5
321.046	86.5
321.275	94.5
321.504	88.5
321.733	77.5
321.962	84.5
322.191	96.5
322.42	84.5
322.649	85.5
322.878	91.5
323.108	97.5
323.337	103.5
323.566	74.5
323.795	91.5
324.024	77.5
324.253	89.5
324.482	65.5
324.71	72.5
324.939	92.5
325.168	67.5
325.397	80.5
325.626	99.5
325.855	92.5
326.084	75.5
326.313	78.5
326.542	87.5
326.77	88.5
326.999	86.5
327.228	76.5
327.457	96.5
327.686	84.5
327.914	83.5
328.143	89.5
328.372	84.5
328.6	84.5
328.829	74.5
329.058	86.5
329.287	86.5
329.515	82.5
329.744	81.5
329.972	87.5
330.201	87.5
330.43	81.5
330.658	76.5
330.887	96.5
331.115	79.5
331.344	99.5
331.572	93.5
331.801	76.5
332.03	72.5
332.258	94.5
332.486	71.5
332.715	96.5
332.943	93.5
333.172	84.5
333.4	88.5
333.629	84.5
333.857	91.5
334.085	94.5
334.314	88.5
334.542	79.5
334.771	94.5
334.999	77.5
335.227	82.5
335.455	88.5
335.684	82.5
335.912	91.5
336.14	76.5
336.369	85.5
336.597	88.5
336.825	89.5
337.053	68.5
337.281	85.5
337.51	89.5
337.738	83.5
337.966	90.5
338.194	74.5
338.422	88.5
338.65	84.5
338.878	77.5
339.106	84.5
339.334	84.5
339.562	76.5
339.79	93.5
340.018	87.5
340.246	76.5
340.474	85.5
340.702	75.5
340.93	66.5
341.158	79.5
341.386	94.5
341.614	93.5
341.842	98.5
342.07	82.5
342.298	89.5
342.526	77.5
342.754	68.5
342.981	74.5
343.209	72.5
343.437	86.5
343.665	91.5
343.893	80.5
344.12	74.5
344.348	89.5
344.576	84.5
344.804	75.5
345.031	94.5
345.259	83.5
345.487	73.5
345.714	84.5
345.942	88.5
346.17	85.5
346.397	82.5
346.625	88.5
346.853	97.5
347.08	88.5
347.308	80.5
347.535	92.5
347.763	83.5
347.99	92.5
348.218	87.5
348.445	90.5
348.673	85.5
348.9	79.5
349.128	94.5
349.355	81.5
349.583	78.5
349.81	77.5
350.037	87.5
350.265	101.5
350.492	81.5
350.72	81.5
350.947	72.5
351.174	78.5
351.402	87.5
351.629	83.5
351.856	98.5
352.083	79.5
352.311	79.5
352.538	77.5
352.765	89.5
352.992	83.5
353.22	93.5
353.447	82.5
353.674	70.5
353.901	80.5
354.128	99.5
354.355	91.5
354.583	86.5
354.81	94.5
355.037	86.5
355.264	80.5
355.491	83.5
355.718	77.5
355.945	85.5
356.172	77.5
356.399	75.5
356.626	87.5
356.853	88.5
357.08	85.5
357.307	85.5
357.534	72.5
357.761	92.5
357.988	75.5
358.215	80.5
358.441	79.5
358.668	92.5
358.895	99.5
359.122	90.5
359.349	82.5
359.576	82.5
359.802	86.5
360.029	83.5
360.256	85.5
360.483	77.5
360.709	82.5
360.936	84.5
361.163	81.5
361.39	91.5
361.616	78.5
361.843	78.5
362.07	72.5
362.296	82.5
362.523	83.5
362.749	74.5
362.976	82.5
363.203	89.5
363.429	89.5
363.656	78.5
363.882	83.5
364.109	101.5
364.335	91.5
364.562	67.5
364.788	96.5
365.015	88.5
365.241	84.5
365.468	91.5
365.694	75.5
365.92	84.5
366.147	83.5
366.373	82.5
366.599	88.5
366.826	105.5
367.052	70.5
367.278	92.5
367.505	92.5
367.731	89.5
367.957	79.5
368.184	71.5
368.41	73.5
368.636	89.5
368.862	112.5
369.089	103.5
369.315	89.5
369.541	99.5
369.767	86.5
369.993	76.5
370.219	77.5
370.445	85.5
370.672	77.5
370.898	77.5
371.124	88.5
371.35	91.5
371.576	81.5
371.802	91.5
372.028	86.5
372.254	81.5
372.48	76.5
372.706	90.5
372.932	98.5
373.158	80.5
373.384	78.5
373.61	88.5
373.835	88.5
374.061	91.5
374.287	88.5
374.513	97.5
374.739	94.5
374.965	84.5
375.191	75.5
375.416	84.5
375.642	90.5
375.868	93.5
376.094	85.5
376.319	78.5
376.545	94.5
376.771	83.5
376.997	93.5
377.222	100.5
377.448	83.5
377.674	89.5
377.899	93.5
378.125	89.5
378.35	98.5
378.576	93.5
378.802	88.5
379.027	82.5
379.253	85.5
379.478	91.5
379.704	92.5
379.929	73.5
380.155	78.5
380.38	100.5
380.606	91.5
380.831	97.5
381.057	86.5
381.282	77.5
381.507	84.5
381.733	80.5
381.958	85.5
382.184	89.5
382.409	85.5
382.634	84.5
382.86	84.5
383.085	89.5
383.31	79.5
383.535	94.5
383.761	79.5
383.986	90.5
384.211	78.5
384.436	88.5
384.662	92.5
384.887	99.5
385.112	78.5
385.337	73.5
385.562	77.5
385.787	96.5
386.013	99.5
386.238	96.5
386.463	78.5
386.688	75.5
386.913	85.5
387.138	92.5
387.363	88.5
387.588	84.5
387.813	88.5
388.038	71.5
388.263	74.5
388.488	79.5
388.713	81.5
388.938	81.5
389.163	83.5
389.387	100.5
389.612	95.5
389.837	80.5
390.062	86.5
390.287	92.5
390.512	86.5
390.736	85.5
390.961	82.5
391.186	94.5
391.411	82.5
391.636	80.5
391.86	85.5
392.085	80.5
392.31	95.5
392.534	92.5
392.759	91.5
392.984	89.5
393.208	95.5
393.433	102.5
393.658	97.5
393.882	93.5
394.107	86.5
394.331	80.5
394.556	85.5
394.78	85.5
395.005	89.5
395.229	102.5
395.454	89.5
395.678	99.5
395.903	88.5
396.127	80.5
396.352	91.5
396.576	72.5
396.801	68.5
397.025	81.5
397.249	83.5
397.474	97.5
397.698	85.5
397.922	86.5
398.147	92.5
398.371	93.5
398.595	91.5
398.82	74.5
399.044	76.5
399.268	91.5
399.492	85.5
399.717	93.5
399.941	98.5
400.165	104.5
400.389	92.5
400.613	85.5
400.837	82.5
401.062	102.5
401.286	71.5
401.51	81.5
401.734	93.5
401.958	86.5
402.182	97.5
402.406	96.5
402.63	104.5
402.854	94.5
403.078	89.5
403.302	98.5
403.526	96.5
403.75	84.5
403.974	89.5
404.198	89.5
404.422	92.5
404.645	89.5
404.869	96.5
405.093	82.5
405.317	85.5
405.541	86.5
405.765	72.5
405.988	100.5
406.212	100.5
406.436	89.5
406.66	82.5
406.883	79.5
407.107	88.5
407.331	87.5
407.555	93.5
407.778	91.5
408.002	82.5
408.226	107.5
408.449	86.5
408.673	89.5
408.896	85.5
409.12	86.5
409.344	105.5
409.567	88.5
409.791	80.5
410.014	84.5
410.238	92.5
410.461	87.5
410.685	87.5
410.908	91.5
411.132	91.5
411.355	93.5
411.578	103.5
411.802	99.5
412.025	87.5
412.249	96.5
412.472	85.5
412.695	96.5
412.919	94.5
413.142	91.5
413.365	89.5
413.589	90.5
413.812	100.5
414.035	84.5
414.258	87.5
414.482	84.5
414.705	101.5
414.928	91.5
415.151	79.5
415.374	88.5
415.597	91.5
415.821	92.5
416.044	86.5
416.267	102.5
416.49	93.5
416.713	96.5
416.936	84.5
417.159	80.5
417.382	86.5
417.605	91.5
417.828	102.5
418.051	100.5
418.274	99.5
418.497	91.5
418.72	89.5
418.943	103.5
419.166	86.5
419.389	88.5
419.611	102.5
419.834	77.5
420.057	110.5
420.28	90.5
420.503	97.5
420.726	93.5
420.948	105.5
421.171	85.5
421.394	88.5
421.617	75.5
421.839	90.5
422.062	100.5
422.285	114.5
422.507	84.5
422.73	90.5
422.953	99.5
423.175	98.5
423.398	100.5
423.621	106.5
423.843	80.5
424.066	90.5
424.288	98.5
424.511	92.5
424.733	81.5
424.956	92.5
425.178	93.5
425.401	86.5
425.623	91.5
425.846	99.5
426.068	98.5
426.291	91.5
426.513	101.5
426.735	97.5
426.958	106.5
427.18	93.5
427.402	101.5
427.625	89.5
427.847	90.5
428.069	86.5
428.292	99.5
428.514	94.5
428.736	95.5
428.958	87.5
429.181	88.5
429.403	96.5
429.625	95.5
429.847	93.5
430.069	103.5
430.292	86.5
430.514	90.5
430.736	85.5
430.958	92.5
431.18	93.5
431.402	80.5
431.624	79.5
431.846	88.5
432.068	81.5
432.29	87.5
432.512	91.5
432.734	80.5
432.956	109.5
433.178	90.5
433.4	91.5
433.622	115.5
433.844	91.5
434.066	96.5
434.287	95.5
434.509	83.5
434.731	92.5
434.953	94.5
435.175	94.5
435.397	96.5
435.618	95.5
435.84	94.5
436.062	85.5
436.284	106.5
436.505	67.5
436.727	90.5
436.949	105.5
437.17	87.5
437.392	93.5
437.614	87.5
437.835	84.5
438.057	96.5
438.278	86.5
438.5	92.5
438.721	99.5
438.943	95.5
439.165	89.5
439.386	93.5
439.608	97.5
439.829	105.5
440.05	91.5
440.272	89.5
440.493	93.5
440.715	85.5
440.936	84.5
441.158	103.5
441.379	104.5
441.6	98.5
441.822	89.5
442.043	100.5
442.264	105.5
442.486	102.5
442.707	105.5
442.928	104.5
443.149	94.5
443.371	92.5
443.592	102.5
443.813	106.5
444.034	107.5
444.255	90.5
444.476	102.5
444.698	115.5
444.919	82.5
445.14	180.5
445.361	136.5
445.582	93.5
445.803	108.5
446.024	87.5
446.245	98.5
446.466	99.5
446.687	89.5
446.908	95.5
447.129	97.5
447.35	89.5
447.571	102.5
447.792	86.5
448.013	91.5
448.234	114.5
448.455	85.5
448.675	95.5
448.896	95.5
449.117	89.5
449.338	85.5
449.559	91.5
449.779	101.5
450	94.5
450.221	81.5
450.442	90.5
450.662	98.5
450.883	97.5
451.104	97.5
451.324	90.5
451.545	91.5
451.766	85.5
451.986	95.5
452.207	99.5
452.428	104.5
452.648	93.5
452.869	88.5
453.089	105.5
453.31	84.5
453.53	90.5
453.751	92.5
453.971	99.5
454.192	88.5
454.412	81.5
454.633	97.5
454.853	95.5
455.073	97.5
455.294	88.5
455.514	90.5
455.734	79.5
455.955	82.5
456.175	78.5
456.395	86.5
456.616	89.5
456.836	78.5
457.056	101.5
457.276	72.5
457.497	84.5
457.717	83.5
457.937	98.5
458.157	78.5
458.377	97.5
458.598	88.5
458.818	95.5
459.038	84.5
459.258	84.5
459.478	86.5
459.698	89.5
459.918	83.5
460.138	79.5
460.358	104.5
460.578	102.5
460.798	98.5
461.018	97.5
461.238	83.5
461.458	107.5
461.678	93.5
461.898	99.5
462.118	86.5
462.338	90.5
462.558	86.5
462.777	82.5
462.997	103.5
463.217	94.5
463.437	96.5
463.657	101.5
463.876	80.5
464.096	93.5
464.316	83.5
464.536	96.5
464.755	100.5
464.975	75.5
465.195	91.5
465.414	86.5
465.634	110.5
465.854	86.5
466.073	88.5
466.293	87.5
466.512	92.5
466.732	90.5
466.951	83.5
467.171	97.5
467.391	102.5
467.61	108.5
467.829	95.5
468.049	83.5
468.268	102.5
468.488	101.5
468.707	96.5
468.927	98.5
469.146	83.5
469.365	84.5
469.585	86.5
469.804	106.5
470.023	88.5
470.243	101.5
470.462	103.5
470.681	92.5
470.901	100.5
471.12	107.5
471.339	104.5
471.558	93.5
471.777	106.5
471.997	90.5
472.216	99.5
472.435	96.5
472.654	91.5
472.873	105.5
473.092	86.5
473.311	89.5
473.53	93.5
473.749	97.5
473.968	112.5
474.187	101.5
474.406	81.5
474.625	85.5
474.844	95.5
475.063	81.5
475.282	93.5
475.501	102.5
475.72	79.5
475.939	84.5
476.158	102.5
476.377	96.5
476.596	85.5
476.814	80.5
477.033	89.5
477.252	99.5
477.471	94.5
477.69	92.5
477.908	96.5
478.127	100.5
478.346	85.5
478.564	110.5
478.783	103.5
479.002	103.5
479.22	106.5
479.439	101.5
479.658	83.5
479.876	82.5
480.095	87.5
480.313	85.5
480.532	97.5
480.751	90.5
480.969	83.5
481.188	96.5
481.406	106.5
481.624	91.5
481.843	92.5
482.061	88.5
482.28	86.5
482.498	83.5
482.717	84.5
482.935	81.5
483.153	99.5
483.372	92.5
483.59	99.5
483.808	97.5
484.027	96.5
484.245	93.5
484.463	101.5
484.681	110.5
484.9	81.5
485.118	97.5
485.336	104.5
485.554	88.5
485.772	87.5
485.99	94.5
486.209	91.5
486.427	89.5
486.645	89.5
486.863	95.5
487.081	97.5
487.299	99.5
487.517	100.5
487.735	99.5
487.953	115.5
488.171	108.5
488.389	99.5
488.607	119.5
488.825	98.5
489.043	97.5
489.261	84.5
489.479	90.5
489.696	87.5
489.914	93.5
490.132	93.5
490.35	114.5
490.568	107.5
490.786	108.5
491.003	121.5
491.221	109.5
491.439	113.5
491.657	110.5
491.874	111.5
492.092	121.5
492.31	120.5
492.527	121.5
492.745	124.5
492.963	120.5
493.18	113.5
493.398	113.5
493.615	112.5
493.833	103.5
494.05	122.5
494.268	115.5
494.485	105.5
494.703	106.5
494.92	98.5
495.138	118.5
495.355	104.5
495.573	108.5
495.79	107.5
496.008	104.5
496.225	109.5
496.442	119.5
496.66	117.5
496.877	99.5
497.094	93.5
497.312	96.5
497.529	101.5
497.746	102.5
497.963	102.5
498.181	94.5
498.398	93.5
498.615	106.5
498.832	107.5
499.049	101.5
499.267	101.5
499.484	89.5
499.701	99.5
499.918	106.5
500.135	84.5
500.352	104.5
500.569	96.5
500.786	107.5
501.003	101.5
501.22	109.5
501.437	102.5
501.654	98.5
501.871	89.5
502.088	88.5
502.305	100.5
502.522	90.5
502.739	91.5
502.956	94.5
503.172	95.5
503.389	86.5
503.606	101.5
503.823	94.5
504.04	99.5
504.256	100.5
504.473	91.5
504.69	84.5
504.907	89.5
505.123	96.5
505.34	101.5
505.557	87.5
505.773	93.5
505.99	95.5
506.207	87.5
506.423	102.5
506.64	90.5
506.856	105.5
507.073	91.5
507.289	78.5
507.506	92.5
507.722	93.5
507.939	98.5
508.155	90.5
508.372	81.5
508.588	90.5
508.805	100.5
509.021	92.5
509.238	88.5
509.454	85.5
509.67	88.5
509.887	78.5
510.103	75.5
510.319	91.5
510.536	84.5
510.752	86.5
510.968	76.5
511.184	89.5
511.401	103.5
511.617	92.5
511.833	87.5
512.049	77.5
512.265	100.5
512.481	84.5
512.698	86.5
512.914	97.5
513.13	93.5
513.346	91.5
513.562	88.5
513.778	83.5
513.994	87.5
514.21	89.5
514.426	96.5
514.642	88.5
514.858	102.5
515.074	91.5
515.29	92.5
515.506	90.5
515.721	72.5
515.937	97.5
516.153	83.5
516.369	78.5
516.585	76.5
516.801	83.5
517.016	77.5
517.232	93.5
517.448	91.5
517.664	89.5
517.879	87.5
518.095	93.5
518.311	83.5
518.527	76.5
518.742	83.5
518.958	88.5
519.173	96.5
519.389	99.5
519.605	86.5
519.82	90.5
520.036	87.5
520.251	97.5
520.467	85.5
520.682	84.5
520.898	98.5
521.113	82.5
521.329	91.5
521.544	88.5
521.76	86.5
521.975	84.5
522.19	77.5
522.406	86.5
522.621	89.5
522.836	85.5
523.052	86.5
523.267	97.5
523.482	99.5
523.698	95.5
523.913	91.5
524.128	96.5
524.343	92.5
524.559	96.5
524.774	96.5
524.989	95.5
525.204	92.5
525.419	87.5
525.634	91.5
525.849	83.5
526.064	93.5
526.28	87.5
526.495	82.5
526.71	97.5
526.925	93.5
527.14	92.5
527.355	85.5
527.57	87.5
527.785	84.5
527.999	85.5
528.214	100.5
528.429	90.5
528.644	101.5
528.859	101.5
529.074	99.5
529.289	113.5
529.503	108.5
529.718	93.5
529.933	106.5
530.148	89.5
530.363	89.5
530.577	72.5
530.792	71.5
531.007	88.5
531.221	86.5
531.436	97.5
531.651	78.5
531.865	83.5
532.08	87.5
532.295	96.5
532.509	85.5
532.724	78.5
532.938	68.5
533.153	87.5
533.367	106.5
533.582	91.5
533.796	92.5
534.011	98.5
534.225	92.5
534.44	78.5
534.654	103.5
534.868	86.5
535.083	91.5
535.297	99.5
535.511	92.5
535.726	90.5
535.94	81.5
536.154	95.5
536.369	93.5
536.583	89.5
536.797	85.5
537.011	93.5
537.225	90.5
