Data from Location5.07152019.Energy5.Lamp.07192019.3%Agarose_HRD10591_15-38-25-387.txt Node
Date: Fri Jul 19 15:38:25 EDT 2019
User: cochatt
Spectrometer: HR+D1059
Trigger mode: 1
Integration Time (sec): 1.000000E-1
Scans to average: 1
Electric dark correction enabled: true
Nonlinearity correction enabled: false
Boxcar width: 0
XAxis mode: Wavelengths
Number of Pixels in Spectrum: 2048
>>>>>Begin Spectral Data<<<<<
223.165	-19.06
223.4	-19.06
223.635	-19.06
223.869	-14.06
224.104	-11.06
224.338	-10.06
224.573	-8.06
224.808	-14.06
225.042	0.94
225.277	-17.06
225.511	-1.06
225.746	8.94
225.98	20.94
226.215	5.94
226.449	5.94
226.683	30.94
226.918	1.94
227.152	18.94
227.387	43.94
227.621	44.94
227.856	47.94
228.09	41.94
228.324	53.94
228.559	70.94
228.793	60.94
229.027	53.94
229.262	65.94
229.496	62.94
229.73	51.94
229.964	77.94
230.199	73.94
230.433	75.94
230.667	92.94
230.901	76.94
231.136	74.94
231.37	88.94
231.604	76.94
231.838	91.94
232.072	78.94
232.306	79.94
232.541	77.94
232.775	86.94
233.009	65.94
233.243	73.94
233.477	70.94
233.711	81.94
233.945	87.94
234.179	82.94
234.413	82.94
234.647	91.94
234.881	84.94
235.115	86.94
235.349	83.94
235.583	87.94
235.817	90.94
236.051	78.94
236.285	86.94
236.519	71.94
236.753	84.94
236.987	73.94
237.221	77.94
237.455	87.94
237.689	76.94
237.922	92.94
238.156	66.94
238.39	73.94
238.624	76.94
238.858	77.94
239.091	87.94
239.325	66.94
239.559	71.94
239.793	84.94
240.027	77.94
240.26	77.94
240.494	87.94
240.728	92.94
240.961	78.94
241.195	83.94
241.429	94.94
241.662	84.94
241.896	78.94
242.13	85.94
242.363	90.94
242.597	84.94
242.83	74.94
243.064	62.94
243.298	71.94
243.531	70.94
243.765	81.94
243.998	71.94
244.232	89.94
244.465	76.94
244.699	80.94
244.932	81.94
245.166	73.94
245.399	87.94
245.633	78.94
245.866	75.94
246.099	77.94
246.333	82.94
246.566	80.94
246.8	82.94
247.033	80.94
247.266	74.94
247.5	82.94
247.733	70.94
247.966	72.94
248.2	86.94
248.433	75.94
248.666	75.94
248.899	79.94
249.133	76.94
249.366	73.94
249.599	91.94
249.832	83.94
250.066	79.94
250.299	81.94
250.532	67.94
250.765	70.94
250.998	79.94
251.231	66.94
251.465	79.94
251.698	80.94
251.931	73.94
252.164	87.94
252.397	73.94
252.63	73.94
252.863	86.94
253.096	75.94
253.329	83.94
253.562	81.94
253.795	81.94
254.028	90.94
254.261	97.94
254.494	76.94
254.727	86.94
254.96	75.94
255.193	81.94
255.426	83.94
255.659	71.94
255.892	77.94
256.124	63.94
256.357	78.94
256.59	81.94
256.823	87.94
257.056	83.94
257.289	77.94
257.521	79.94
257.754	70.94
257.987	90.94
258.22	88.94
258.452	84.94
258.685	81.94
258.918	82.94
259.151	83.94
259.383	77.94
259.616	87.94
259.849	71.94
260.081	76.94
260.314	92.94
260.547	81.94
260.779	78.94
261.012	81.94
261.244	82.94
261.477	91.94
261.71	84.94
261.942	81.94
262.175	79.94
262.407	74.94
262.64	70.94
262.872	77.94
263.105	91.94
263.337	87.94
263.57	79.94
263.802	88.94
264.035	73.94
264.267	84.94
264.499	72.94
264.732	87.94
264.964	72.94
265.197	83.94
265.429	80.94
265.661	78.94
265.894	75.94
266.126	87.94
266.358	81.94
266.591	87.94
266.823	92.94
267.055	83.94
267.287	79.94
267.52	74.94
267.752	87.94
267.984	88.94
268.216	84.94
268.448	87.94
268.681	92.94
268.913	78.94
269.145	82.94
269.377	80.94
269.609	91.94
269.841	77.94
270.073	81.94
270.306	100.94
270.538	82.94
270.77	81.94
271.002	83.94
271.234	82.94
271.466	92.94
271.698	94.94
271.93	86.94
272.162	72.94
272.394	79.94
272.626	85.94
272.858	79.94
273.09	84.94
273.322	80.94
273.553	84.94
273.785	76.94
274.017	83.94
274.249	93.94
274.481	92.94
274.713	90.94
274.945	87.94
275.176	75.94
275.408	85.94
275.64	86.94
275.872	87.94
276.104	88.94
276.335	72.94
276.567	87.94
276.799	74.94
277.031	98.94
277.262	81.94
277.494	73.94
277.726	92.94
277.957	91.94
278.189	74.94
278.421	86.94
278.652	87.94
278.884	84.94
279.115	75.94
279.347	74.94
279.579	101.94
279.81	99.94
280.042	85.94
280.273	75.94
280.505	95.94
280.736	94.94
280.968	77.94
281.199	87.94
281.431	72.94
281.662	92.94
281.894	98.94
282.125	85.94
282.356	88.94
282.588	63.94
282.819	77.94
283.051	75.94
283.282	70.94
283.513	81.94
283.745	80.94
283.976	89.94
284.207	80.94
284.439	89.94
284.67	80.94
284.901	83.94
285.132	72.94
285.364	71.94
285.595	85.94
285.826	87.94
286.057	86.94
286.288	93.94
286.52	75.94
286.751	73.94
286.982	81.94
287.213	80.94
287.444	106.94
287.675	86.94
287.906	94.94
288.138	93.94
288.369	82.94
288.6	99.94
288.831	78.94
289.062	89.94
289.293	94.94
289.524	99.94
289.755	85.94
289.986	85.94
290.217	88.94
290.448	84.94
290.679	79.94
290.91	93.94
291.141	86.94
291.371	80.94
291.602	82.94
291.833	75.94
292.064	91.94
292.295	82.94
292.526	97.94
292.757	81.94
292.987	98.94
293.218	83.94
293.449	85.94
293.68	72.94
293.91	83.94
294.141	76.94
294.372	86.94
294.603	96.94
294.833	92.94
295.064	97.94
295.295	99.94
295.525	78.94
295.756	93.94
295.987	96.94
296.217	73.94
296.448	77.94
296.679	72.94
296.909	83.94
297.14	77.94
297.37	77.94
297.601	76.94
297.831	86.94
298.062	84.94
298.292	89.94
298.523	70.94
298.753	89.94
298.984	88.94
299.214	80.94
299.445	93.94
299.675	82.94
299.905	73.94
300.136	85.94
300.366	81.94
300.597	81.94
300.827	86.94
301.057	89.94
301.288	83.94
301.518	90.94
301.748	85.94
301.979	82.94
302.209	78.94
302.439	90.94
302.669	92.94
302.9	93.94
303.13	93.94
303.36	90.94
303.59	85.94
303.82	91.94
304.051	79.94
304.281	81.94
304.511	91.94
304.741	89.94
304.971	91.94
305.201	86.94
305.431	91.94
305.661	84.94
305.891	88.94
306.121	74.94
306.352	84.94
306.582	76.94
306.812	84.94
307.042	70.94
307.272	78.94
307.502	81.94
307.731	83.94
307.961	86.94
308.191	75.94
308.421	91.94
308.651	91.94
308.881	80.94
309.111	77.94
309.341	91.94
309.571	90.94
309.8	97.94
310.03	89.94
310.26	91.94
310.49	91.94
310.72	80.94
310.949	95.94
311.179	89.94
311.409	78.94
311.639	73.94
311.868	89.94
312.098	85.94
312.328	89.94
312.557	83.94
312.787	101.94
313.017	89.94
313.246	88.94
313.476	89.94
313.706	89.94
313.935	83.94
314.165	88.94
314.394	80.94
314.624	81.94
314.853	87.94
315.083	83.94
315.312	83.94
315.542	88.94
315.771	84.94
316.001	88.94
316.23	96.94
316.46	73.94
316.689	88.94
316.919	83.94
317.148	96.94
317.377	94.94
317.607	84.94
317.836	96.94
318.065	84.94
318.295	73.94
318.524	88.94
318.753	78.94
318.983	87.94
319.212	84.94
319.441	82.94
319.67	90.94
319.9	88.94
320.129	92.94
320.358	88.94
320.587	87.94
320.816	86.94
321.046	85.94
321.275	88.94
321.504	78.94
321.733	89.94
321.962	89.94
322.191	87.94
322.42	88.94
322.649	90.94
322.878	89.94
323.108	92.94
323.337	91.94
323.566	80.94
323.795	75.94
324.024	87.94
324.253	78.94
324.482	97.94
324.71	86.94
324.939	103.94
325.168	103.94
325.397	96.94
325.626	87.94
325.855	97.94
326.084	65.94
326.313	89.94
326.542	97.94
326.77	82.94
326.999	87.94
327.228	102.94
327.457	80.94
327.686	81.94
327.914	82.94
328.143	83.94
328.372	72.94
328.6	84.94
328.829	87.94
329.058	91.94
329.287	85.94
329.515	102.94
329.744	76.94
329.972	90.94
330.201	87.94
330.43	78.94
330.658	84.94
330.887	81.94
331.115	87.94
331.344	93.94
331.572	92.94
331.801	97.94
332.03	82.94
332.258	82.94
332.486	84.94
332.715	87.94
332.943	86.94
333.172	72.94
333.4	92.94
333.629	89.94
333.857	86.94
334.085	72.94
334.314	94.94
334.542	88.94
334.771	75.94
334.999	96.94
335.227	90.94
335.455	84.94
335.684	83.94
335.912	84.94
336.14	74.94
336.369	78.94
336.597	88.94
336.825	98.94
337.053	90.94
337.281	90.94
337.51	91.94
337.738	84.94
337.966	87.94
338.194	82.94
338.422	81.94
338.65	91.94
338.878	96.94
339.106	77.94
339.334	81.94
339.562	79.94
339.79	91.94
340.018	88.94
340.246	98.94
340.474	90.94
340.702	84.94
340.93	80.94
341.158	75.94
341.386	94.94
341.614	80.94
341.842	68.94
342.07	74.94
342.298	82.94
342.526	75.94
342.754	87.94
342.981	77.94
343.209	73.94
343.437	85.94
343.665	86.94
343.893	85.94
344.12	94.94
344.348	75.94
344.576	75.94
344.804	89.94
345.031	96.94
345.259	81.94
345.487	79.94
345.714	80.94
345.942	94.94
346.17	82.94
346.397	82.94
346.625	81.94
346.853	89.94
347.08	80.94
347.308	76.94
347.535	91.94
347.763	87.94
347.99	82.94
348.218	77.94
348.445	76.94
348.673	84.94
348.9	92.94
349.128	92.94
349.355	90.94
349.583	81.94
349.81	68.94
350.037	81.94
350.265	90.94
350.492	88.94
350.72	85.94
350.947	85.94
351.174	93.94
351.402	89.94
351.629	93.94
351.856	91.94
352.083	94.94
352.311	86.94
352.538	86.94
352.765	88.94
352.992	89.94
353.22	94.94
353.447	106.94
353.674	87.94
353.901	66.94
354.128	71.94
354.355	74.94
354.583	100.94
354.81	82.94
355.037	88.94
355.264	74.94
355.491	81.94
355.718	81.94
355.945	84.94
356.172	85.94
356.399	76.94
356.626	75.94
356.853	88.94
357.08	69.94
357.307	79.94
357.534	74.94
357.761	75.94
357.988	83.94
358.215	85.94
358.441	83.94
358.668	85.94
358.895	81.94
359.122	86.94
359.349	77.94
359.576	85.94
359.802	88.94
360.029	88.94
360.256	95.94
360.483	83.94
360.709	80.94
360.936	87.94
361.163	79.94
361.39	85.94
361.616	81.94
361.843	90.94
362.07	82.94
362.296	89.94
362.523	98.94
362.749	92.94
362.976	92.94
363.203	89.94
363.429	88.94
363.656	101.94
363.882	85.94
364.109	81.94
364.335	78.94
364.562	82.94
364.788	83.94
365.015	93.94
365.241	80.94
365.468	84.94
365.694	88.94
365.92	84.94
366.147	80.94
366.373	93.94
366.599	91.94
366.826	71.94
367.052	89.94
367.278	95.94
367.505	86.94
367.731	95.94
367.957	79.94
368.184	83.94
368.41	86.94
368.636	85.94
368.862	82.94
369.089	97.94
369.315	84.94
369.541	85.94
369.767	95.94
369.993	88.94
370.219	87.94
370.445	83.94
370.672	80.94
370.898	82.94
371.124	72.94
371.35	103.94
371.576	89.94
371.802	93.94
372.028	92.94
372.254	95.94
372.48	79.94
372.706	82.94
372.932	80.94
373.158	63.94
373.384	93.94
373.61	74.94
373.835	87.94
374.061	73.94
374.287	74.94
374.513	83.94
374.739	70.94
374.965	82.94
375.191	87.94
375.416	84.94
375.642	90.94
375.868	99.94
376.094	88.94
376.319	96.94
376.545	86.94
376.771	85.94
376.997	77.94
377.222	92.94
377.448	95.94
377.674	71.94
377.899	85.94
378.125	77.94
378.35	79.94
378.576	75.94
378.802	80.94
379.027	92.94
379.253	98.94
379.478	89.94
379.704	79.94
379.929	81.94
380.155	80.94
380.38	83.94
380.606	89.94
380.831	80.94
381.057	75.94
381.282	82.94
381.507	95.94
381.733	86.94
381.958	101.94
382.184	93.94
382.409	80.94
382.634	83.94
382.86	84.94
383.085	93.94
383.31	81.94
383.535	89.94
383.761	67.94
383.986	72.94
384.211	74.94
384.436	89.94
384.662	70.94
384.887	92.94
385.112	92.94
385.337	94.94
385.562	88.94
385.787	81.94
386.013	98.94
386.238	75.94
386.463	88.94
386.688	69.94
386.913	88.94
387.138	75.94
387.363	83.94
387.588	88.94
387.813	86.94
388.038	95.94
388.263	87.94
388.488	89.94
388.713	94.94
388.938	80.94
389.163	79.94
389.387	76.94
389.612	99.94
389.837	92.94
390.062	90.94
390.287	91.94
390.512	92.94
390.736	89.94
390.961	95.94
391.186	86.94
391.411	81.94
391.636	89.94
391.86	84.94
392.085	95.94
392.31	96.94
392.534	93.94
392.759	84.94
392.984	82.94
393.208	72.94
393.433	83.94
393.658	82.94
393.882	75.94
394.107	81.94
394.331	87.94
394.556	95.94
394.78	89.94
395.005	89.94
395.229	89.94
395.454	95.94
395.678	86.94
395.903	90.94
396.127	86.94
396.352	95.94
396.576	81.94
396.801	89.94
397.025	91.94
397.249	97.94
397.474	82.94
397.698	88.94
397.922	97.94
398.147	87.94
398.371	83.94
398.595	83.94
398.82	85.94
399.044	71.94
399.268	94.94
399.492	77.94
399.717	95.94
399.941	90.94
400.165	76.94
400.389	89.94
400.613	93.94
400.837	92.94
401.062	109.94
401.286	92.94
401.51	84.94
401.734	95.94
401.958	83.94
402.182	87.94
402.406	88.94
402.63	90.94
402.854	89.94
403.078	80.94
403.302	83.94
403.526	82.94
403.75	97.94
403.974	97.94
404.198	102.94
404.422	93.94
404.645	86.94
404.869	88.94
405.093	104.94
405.317	99.94
405.541	92.94
405.765	84.94
405.988	89.94
406.212	109.94
406.436	88.94
406.66	79.94
406.883	85.94
407.107	81.94
407.331	74.94
407.555	99.94
407.778	80.94
408.002	79.94
408.226	77.94
408.449	97.94
408.673	88.94
408.896	89.94
409.12	86.94
409.344	88.94
409.567	106.94
409.791	86.94
410.014	100.94
410.238	83.94
410.461	99.94
410.685	87.94
410.908	94.94
411.132	99.94
411.355	95.94
411.578	108.94
411.802	80.94
412.025	86.94
412.249	95.94
412.472	87.94
412.695	93.94
412.919	96.94
413.142	88.94
413.365	74.94
413.589	102.94
413.812	88.94
414.035	103.94
414.258	94.94
414.482	81.94
414.705	86.94
414.928	81.94
415.151	87.94
415.374	76.94
415.597	91.94
415.821	97.94
416.044	84.94
416.267	89.94
416.49	91.94
416.713	104.94
416.936	85.94
417.159	84.94
417.382	95.94
417.605	82.94
417.828	105.94
418.051	85.94
418.274	93.94
418.497	88.94
418.72	97.94
418.943	90.94
419.166	92.94
419.389	91.94
419.611	93.94
419.834	87.94
420.057	95.94
420.28	86.94
420.503	101.94
420.726	95.94
420.948	92.94
421.171	89.94
421.394	89.94
421.617	91.94
421.839	90.94
422.062	111.94
422.285	89.94
422.507	85.94
422.73	87.94
422.953	90.94
423.175	104.94
423.398	98.94
423.621	90.94
423.843	98.94
424.066	92.94
424.288	97.94
424.511	95.94
424.733	98.94
424.956	92.94
425.178	98.94
425.401	87.94
425.623	92.94
425.846	95.94
426.068	75.94
426.291	76.94
426.513	100.94
426.735	81.94
426.958	87.94
427.18	90.94
427.402	78.94
427.625	85.94
427.847	92.94
428.069	104.94
428.292	92.94
428.514	90.94
428.736	97.94
428.958	97.94
429.181	99.94
429.403	97.94
429.625	98.94
429.847	87.94
430.069	86.94
430.292	86.94
430.514	104.94
430.736	87.94
430.958	96.94
431.18	99.94
431.402	99.94
431.624	99.94
431.846	97.94
432.068	80.94
432.29	84.94
432.512	91.94
432.734	78.94
432.956	82.94
433.178	89.94
433.4	93.94
433.622	97.94
433.844	98.94
434.066	84.94
434.287	92.94
434.509	96.94
434.731	74.94
434.953	86.94
435.175	94.94
435.397	90.94
435.618	77.94
435.84	91.94
436.062	97.94
436.284	85.94
436.505	92.94
436.727	90.94
436.949	83.94
437.17	94.94
437.392	89.94
437.614	106.94
437.835	84.94
438.057	89.94
438.278	94.94
438.5	96.94
438.721	101.94
438.943	102.94
439.165	87.94
439.386	92.94
439.608	99.94
439.829	109.94
440.05	106.94
440.272	104.94
440.493	99.94
440.715	119.94
440.936	83.94
441.158	102.94
441.379	95.94
441.6	107.94
441.822	94.94
442.043	83.94
442.264	84.94
442.486	89.94
442.707	104.94
442.928	92.94
443.149	93.94
443.371	96.94
443.592	84.94
443.813	75.94
444.034	82.94
444.255	98.94
444.476	98.94
444.698	91.94
444.919	102.94
445.14	217.94
445.361	159.94
445.582	106.94
445.803	100.94
446.024	89.94
446.245	102.94
446.466	91.94
446.687	91.94
446.908	89.94
447.129	104.94
447.35	90.94
447.571	96.94
447.792	84.94
448.013	88.94
448.234	102.94
448.455	90.94
448.675	83.94
448.896	86.94
449.117	104.94
449.338	86.94
449.559	92.94
449.779	95.94
450	87.94
450.221	86.94
450.442	94.94
450.662	91.94
450.883	91.94
451.104	85.94
451.324	109.94
451.545	103.94
451.766	83.94
451.986	94.94
452.207	82.94
452.428	102.94
452.648	73.94
452.869	101.94
453.089	98.94
453.31	85.94
453.53	93.94
453.751	78.94
453.971	77.94
454.192	83.94
454.412	90.94
454.633	88.94
454.853	93.94
455.073	93.94
455.294	95.94
455.514	99.94
455.734	92.94
455.955	95.94
456.175	83.94
456.395	72.94
456.616	78.94
456.836	88.94
457.056	87.94
457.276	87.94
457.497	89.94
457.717	102.94
457.937	78.94
458.157	101.94
458.377	75.94
458.598	96.94
458.818	85.94
459.038	88.94
459.258	87.94
459.478	94.94
459.698	81.94
459.918	89.94
460.138	85.94
460.358	97.94
460.578	90.94
460.798	85.94
461.018	87.94
461.238	102.94
461.458	87.94
461.678	84.94
461.898	96.94
462.118	99.94
462.338	92.94
462.558	97.94
462.777	88.94
462.997	87.94
463.217	74.94
463.437	92.94
463.657	99.94
463.876	85.94
464.096	84.94
464.316	103.94
464.536	87.94
464.755	89.94
464.975	87.94
465.195	81.94
465.414	84.94
465.634	90.94
465.854	91.94
466.073	89.94
466.293	84.94
466.512	96.94
466.732	94.94
466.951	101.94
467.171	94.94
467.391	103.94
467.61	88.94
467.829	83.94
468.049	95.94
468.268	87.94
468.488	89.94
468.707	85.94
468.927	93.94
469.146	98.94
469.365	94.94
469.585	86.94
469.804	93.94
470.023	98.94
470.243	93.94
470.462	98.94
470.681	95.94
470.901	105.94
471.12	105.94
471.339	103.94
471.558	94.94
471.777	95.94
471.997	107.94
472.216	91.94
472.435	80.94
472.654	69.94
472.873	75.94
473.092	108.94
473.311	100.94
473.53	99.94
473.749	101.94
473.968	89.94
474.187	89.94
474.406	92.94
474.625	96.94
474.844	91.94
475.063	92.94
475.282	90.94
475.501	87.94
475.72	80.94
475.939	90.94
476.158	92.94
476.377	81.94
476.596	67.94
476.814	93.94
477.033	98.94
477.252	104.94
477.471	104.94
477.69	108.94
477.908	88.94
478.127	101.94
478.346	100.94
478.564	82.94
478.783	81.94
479.002	92.94
479.22	117.94
479.439	104.94
479.658	102.94
479.876	88.94
480.095	91.94
480.313	98.94
480.532	92.94
480.751	96.94
480.969	84.94
481.188	81.94
481.406	76.94
481.624	94.94
481.843	88.94
482.061	87.94
482.28	89.94
482.498	89.94
482.717	82.94
482.935	101.94
483.153	99.94
483.372	97.94
483.59	100.94
483.808	96.94
484.027	90.94
484.245	74.94
484.463	89.94
484.681	108.94
484.9	81.94
485.118	85.94
485.336	91.94
485.554	93.94
485.772	93.94
485.99	91.94
486.209	96.94
486.427	100.94
486.645	71.94
486.863	104.94
487.081	96.94
487.299	89.94
487.517	86.94
487.735	108.94
487.953	113.94
488.171	114.94
488.389	113.94
488.607	99.94
488.825	98.94
489.043	104.94
489.261	72.94
489.479	92.94
489.696	108.94
489.914	91.94
490.132	90.94
490.35	83.94
490.568	113.94
490.786	111.94
491.003	113.94
491.221	106.94
491.439	115.94
491.657	104.94
491.874	123.94
492.092	110.94
492.31	135.94
492.527	143.94
492.745	99.94
492.963	119.94
493.18	105.94
493.398	107.94
493.615	104.94
493.833	104.94
494.05	98.94
494.268	103.94
494.485	101.94
494.703	114.94
494.92	103.94
495.138	93.94
495.355	117.94
495.573	115.94
495.79	100.94
496.008	97.94
496.225	89.94
496.442	104.94
496.66	113.94
496.877	115.94
497.094	102.94
497.312	90.94
497.529	100.94
497.746	97.94
497.963	97.94
498.181	95.94
498.398	84.94
498.615	85.94
498.832	84.94
499.049	97.94
499.267	105.94
499.484	89.94
499.701	92.94
499.918	112.94
500.135	100.94
500.352	107.94
500.569	91.94
500.786	101.94
501.003	96.94
501.22	102.94
501.437	96.94
501.654	96.94
501.871	101.94
502.088	96.94
502.305	99.94
502.522	96.94
502.739	83.94
502.956	87.94
503.172	105.94
503.389	103.94
503.606	90.94
503.823	98.94
504.04	99.94
504.256	92.94
504.473	95.94
504.69	75.94
504.907	98.94
505.123	102.94
505.34	92.94
505.557	87.94
505.773	104.94
505.99	86.94
506.207	96.94
506.423	91.94
506.64	97.94
506.856	96.94
507.073	83.94
507.289	99.94
507.506	96.94
507.722	91.94
507.939	87.94
508.155	83.94
508.372	83.94
508.588	94.94
508.805	88.94
509.021	84.94
509.238	99.94
509.454	76.94
509.67	95.94
509.887	88.94
510.103	95.94
510.319	97.94
510.536	100.94
510.752	72.94
510.968	78.94
511.184	82.94
511.401	89.94
511.617	88.94
511.833	73.94
512.049	89.94
512.265	97.94
512.481	97.94
512.698	77.94
512.914	84.94
513.13	85.94
513.346	93.94
513.562	75.94
513.778	93.94
513.994	93.94
514.21	83.94
514.426	84.94
514.642	88.94
514.858	72.94
515.074	73.94
515.29	86.94
515.506	72.94
515.721	89.94
515.937	99.94
516.153	99.94
516.369	84.94
516.585	87.94
516.801	94.94
517.016	93.94
517.232	82.94
517.448	89.94
517.664	81.94
517.879	85.94
