Data from Location5.07152019.Energy5.Lamp.07192019.3%Agarose_HRD10591_16-03-24-628.txt Node
Date: Fri Jul 19 16:03:24 EDT 2019
User: cochatt
Spectrometer: HR+D1059
Trigger mode: 1
Integration Time (sec): 1.000000E-1
Scans to average: 1
Electric dark correction enabled: true
Nonlinearity correction enabled: false
Boxcar width: 0
XAxis mode: Wavelengths
Number of Pixels in Spectrum: 2048
>>>>>Begin Spectral Data<<<<<
223.165	-9.62
223.4	-9.62
223.635	-9.62
223.869	-20.62
224.104	-15.62
224.338	-10.62
224.573	-12.62
224.808	-15.62
225.042	1.38
225.277	-16.62
225.511	4.38
225.746	5.38
225.98	5.38
226.215	12.38
226.449	11.38
226.683	4.38
226.918	21.38
227.152	35.38
227.387	32.38
227.621	40.38
227.856	43.38
228.09	57.38
228.324	57.38
228.559	55.38
228.793	57.38
229.027	65.38
229.262	62.38
229.496	68.38
229.73	66.38
229.964	72.38
230.199	69.38
230.433	77.38
230.667	75.38
230.901	76.38
231.136	74.38
231.37	93.38
231.604	77.38
231.838	79.38
232.072	91.38
232.306	87.38
232.541	78.38
232.775	85.38
233.009	79.38
233.243	81.38
233.477	88.38
233.711	76.38
233.945	69.38
234.179	74.38
234.413	90.38
234.647	63.38
234.881	78.38
235.115	75.38
235.349	82.38
235.583	80.38
235.817	79.38
236.051	72.38
236.285	88.38
236.519	81.38
236.753	82.38
236.987	64.38
237.221	91.38
237.455	82.38
237.689	78.38
237.922	73.38
238.156	88.38
238.39	81.38
238.624	74.38
238.858	79.38
239.091	80.38
239.325	92.38
239.559	74.38
239.793	84.38
240.027	71.38
240.26	78.38
240.494	62.38
240.728	71.38
240.961	75.38
241.195	75.38
241.429	84.38
241.662	90.38
241.896	70.38
242.13	69.38
242.363	82.38
242.597	83.38
242.83	93.38
243.064	68.38
243.298	89.38
243.531	74.38
243.765	72.38
243.998	82.38
244.232	84.38
244.465	67.38
244.699	89.38
244.932	83.38
245.166	87.38
245.399	69.38
245.633	69.38
245.866	79.38
246.099	76.38
246.333	94.38
246.566	79.38
246.8	86.38
247.033	76.38
247.266	74.38
247.5	90.38
247.733	84.38
247.966	76.38
248.2	63.38
248.433	63.38
248.666	77.38
248.899	79.38
249.133	75.38
249.366	84.38
249.599	95.38
249.832	87.38
250.066	82.38
250.299	81.38
250.532	86.38
250.765	79.38
250.998	66.38
251.231	78.38
251.465	89.38
251.698	68.38
251.931	72.38
252.164	86.38
252.397	74.38
252.63	86.38
252.863	96.38
253.096	87.38
253.329	67.38
253.562	82.38
253.795	87.38
254.028	90.38
254.261	74.38
254.494	83.38
254.727	91.38
254.96	83.38
255.193	77.38
255.426	75.38
255.659	71.38
255.892	80.38
256.124	92.38
256.357	89.38
256.59	66.38
256.823	72.38
257.056	86.38
257.289	84.38
257.521	72.38
257.754	95.38
257.987	84.38
258.22	77.38
258.452	82.38
258.685	91.38
258.918	91.38
259.151	79.38
259.383	83.38
259.616	81.38
259.849	72.38
260.081	88.38
260.314	90.38
260.547	73.38
260.779	73.38
261.012	87.38
261.244	83.38
261.477	90.38
261.71	75.38
261.942	79.38
262.175	88.38
262.407	81.38
262.64	88.38
262.872	76.38
263.105	81.38
263.337	95.38
263.57	72.38
263.802	85.38
264.035	96.38
264.267	82.38
264.499	87.38
264.732	76.38
264.964	82.38
265.197	76.38
265.429	96.38
265.661	74.38
265.894	80.38
266.126	81.38
266.358	72.38
266.591	86.38
266.823	79.38
267.055	75.38
267.287	81.38
267.52	77.38
267.752	94.38
267.984	81.38
268.216	90.38
268.448	91.38
268.681	80.38
268.913	96.38
269.145	92.38
269.377	102.38
269.609	96.38
269.841	90.38
270.073	79.38
270.306	75.38
270.538	91.38
270.77	90.38
271.002	96.38
271.234	84.38
271.466	88.38
271.698	89.38
271.93	88.38
272.162	90.38
272.394	83.38
272.626	78.38
272.858	79.38
273.09	83.38
273.322	84.38
273.553	85.38
273.785	79.38
274.017	82.38
274.249	75.38
274.481	83.38
274.713	89.38
274.945	78.38
275.176	93.38
275.408	91.38
275.64	86.38
275.872	78.38
276.104	80.38
276.335	83.38
276.567	85.38
276.799	90.38
277.031	84.38
277.262	87.38
277.494	102.38
277.726	87.38
277.957	88.38
278.189	98.38
278.421	89.38
278.652	82.38
278.884	103.38
279.115	85.38
279.347	86.38
279.579	107.38
279.81	88.38
280.042	87.38
280.273	94.38
280.505	85.38
280.736	85.38
280.968	77.38
281.199	87.38
281.431	91.38
281.662	96.38
281.894	85.38
282.125	71.38
282.356	96.38
282.588	87.38
282.819	89.38
283.051	88.38
283.282	87.38
283.513	105.38
283.745	88.38
283.976	99.38
284.207	91.38
284.439	95.38
284.67	99.38
284.901	92.38
285.132	102.38
285.364	99.38
285.595	86.38
285.826	86.38
286.057	80.38
286.288	81.38
286.52	90.38
286.751	96.38
286.982	95.38
287.213	83.38
287.444	95.38
287.675	79.38
287.906	98.38
288.138	95.38
288.369	89.38
288.6	95.38
288.831	102.38
289.062	91.38
289.293	83.38
289.524	83.38
289.755	88.38
289.986	79.38
290.217	84.38
290.448	103.38
290.679	100.38
290.91	78.38
291.141	85.38
291.371	93.38
291.602	94.38
291.833	87.38
292.064	94.38
292.295	102.38
292.526	96.38
292.757	81.38
292.987	75.38
293.218	88.38
293.449	82.38
293.68	94.38
293.91	88.38
294.141	97.38
294.372	90.38
294.603	106.38
294.833	79.38
295.064	97.38
295.295	95.38
295.525	103.38
295.756	90.38
295.987	98.38
296.217	78.38
296.448	89.38
296.679	97.38
296.909	99.38
297.14	97.38
297.37	77.38
297.601	82.38
297.831	75.38
298.062	100.38
298.292	99.38
298.523	82.38
298.753	90.38
298.984	100.38
299.214	91.38
299.445	102.38
299.675	102.38
299.905	75.38
300.136	92.38
300.366	87.38
300.597	100.38
300.827	89.38
301.057	107.38
301.288	113.38
301.518	86.38
301.748	95.38
301.979	76.38
302.209	92.38
302.439	92.38
302.669	97.38
302.9	75.38
303.13	86.38
303.36	91.38
303.59	90.38
303.82	85.38
304.051	85.38
304.281	75.38
304.511	101.38
304.741	94.38
304.971	83.38
305.201	99.38
305.431	86.38
305.661	101.38
305.891	94.38
306.121	99.38
306.352	97.38
306.582	92.38
306.812	91.38
307.042	94.38
307.272	102.38
307.502	96.38
307.731	93.38
307.961	95.38
308.191	96.38
308.421	92.38
308.651	98.38
308.881	82.38
309.111	81.38
309.341	91.38
309.571	94.38
309.8	94.38
310.03	103.38
310.26	90.38
310.49	106.38
310.72	93.38
310.949	89.38
311.179	102.38
311.409	112.38
311.639	94.38
311.868	93.38
312.098	97.38
312.328	99.38
312.557	103.38
312.787	89.38
313.017	98.38
313.246	95.38
313.476	97.38
313.706	89.38
313.935	87.38
314.165	101.38
314.394	102.38
314.624	100.38
314.853	91.38
315.083	95.38
315.312	90.38
315.542	92.38
315.771	92.38
316.001	88.38
316.23	80.38
316.46	103.38
316.689	91.38
316.919	89.38
317.148	80.38
317.377	97.38
317.607	91.38
317.836	119.38
318.065	99.38
318.295	87.38
318.524	94.38
318.753	91.38
318.983	97.38
319.212	100.38
319.441	86.38
319.67	87.38
319.9	86.38
320.129	91.38
320.358	85.38
320.587	88.38
320.816	77.38
321.046	98.38
321.275	102.38
321.504	82.38
321.733	107.38
321.962	91.38
322.191	90.38
322.42	88.38
322.649	88.38
322.878	94.38
323.108	97.38
323.337	83.38
323.566	92.38
323.795	100.38
324.024	99.38
324.253	100.38
324.482	113.38
324.71	102.38
324.939	99.38
325.168	99.38
325.397	91.38
325.626	88.38
325.855	105.38
326.084	98.38
326.313	82.38
326.542	96.38
326.77	100.38
326.999	79.38
327.228	97.38
327.457	94.38
327.686	90.38
327.914	97.38
328.143	102.38
328.372	106.38
328.6	94.38
328.829	98.38
329.058	91.38
329.287	98.38
329.515	87.38
329.744	90.38
329.972	85.38
330.201	97.38
330.43	99.38
330.658	89.38
330.887	90.38
331.115	101.38
331.344	97.38
331.572	87.38
331.801	88.38
332.03	83.38
332.258	94.38
332.486	83.38
332.715	101.38
332.943	95.38
333.172	100.38
333.4	84.38
333.629	89.38
333.857	82.38
334.085	92.38
334.314	94.38
334.542	83.38
334.771	84.38
334.999	93.38
335.227	91.38
335.455	99.38
335.684	94.38
335.912	101.38
336.14	102.38
336.369	97.38
336.597	88.38
336.825	98.38
337.053	82.38
337.281	105.38
337.51	104.38
337.738	91.38
337.966	99.38
338.194	90.38
338.422	82.38
338.65	79.38
338.878	104.38
339.106	92.38
339.334	98.38
339.562	88.38
339.79	99.38
340.018	85.38
340.246	92.38
340.474	88.38
340.702	87.38
340.93	99.38
341.158	83.38
341.386	98.38
341.614	80.38
341.842	95.38
342.07	97.38
342.298	106.38
342.526	95.38
342.754	91.38
342.981	95.38
343.209	85.38
343.437	84.38
343.665	108.38
343.893	100.38
344.12	91.38
344.348	95.38
344.576	97.38
344.804	89.38
345.031	77.38
345.259	70.38
345.487	86.38
345.714	90.38
345.942	90.38
346.17	99.38
346.397	98.38
346.625	98.38
346.853	86.38
347.08	86.38
347.308	83.38
347.535	96.38
347.763	90.38
347.99	84.38
348.218	87.38
348.445	100.38
348.673	97.38
348.9	100.38
349.128	97.38
349.355	102.38
349.583	87.38
349.81	88.38
350.037	99.38
350.265	82.38
350.492	88.38
350.72	86.38
350.947	92.38
351.174	101.38
351.402	89.38
351.629	90.38
351.856	79.38
352.083	99.38
352.311	88.38
352.538	96.38
352.765	102.38
352.992	95.38
353.22	78.38
353.447	86.38
353.674	98.38
353.901	95.38
354.128	111.38
354.355	100.38
354.583	90.38
354.81	76.38
355.037	97.38
355.264	97.38
355.491	97.38
355.718	106.38
355.945	105.38
356.172	106.38
356.399	90.38
356.626	87.38
356.853	90.38
357.08	97.38
357.307	100.38
357.534	83.38
357.761	88.38
357.988	98.38
358.215	83.38
358.441	73.38
358.668	90.38
358.895	93.38
359.122	86.38
359.349	98.38
359.576	91.38
359.802	86.38
360.029	74.38
360.256	100.38
360.483	78.38
360.709	89.38
360.936	89.38
361.163	82.38
361.39	101.38
361.616	91.38
361.843	81.38
362.07	87.38
362.296	77.38
362.523	101.38
362.749	91.38
362.976	100.38
363.203	109.38
363.429	94.38
363.656	93.38
363.882	79.38
364.109	88.38
364.335	93.38
364.562	90.38
364.788	84.38
365.015	104.38
365.241	102.38
365.468	89.38
365.694	88.38
365.92	86.38
366.147	99.38
366.373	83.38
366.599	94.38
366.826	94.38
367.052	73.38
367.278	86.38
367.505	87.38
367.731	100.38
367.957	103.38
368.184	87.38
368.41	93.38
368.636	81.38
368.862	73.38
369.089	104.38
369.315	103.38
369.541	101.38
369.767	85.38
369.993	88.38
370.219	96.38
370.445	87.38
370.672	84.38
370.898	94.38
371.124	97.38
371.35	86.38
371.576	80.38
371.802	94.38
372.028	78.38
372.254	120.38
372.48	106.38
372.706	100.38
372.932	91.38
373.158	93.38
373.384	90.38
373.61	96.38
373.835	83.38
374.061	96.38
374.287	91.38
374.513	98.38
374.739	98.38
374.965	100.38
375.191	91.38
375.416	90.38
375.642	80.38
375.868	87.38
376.094	89.38
376.319	92.38
376.545	95.38
376.771	102.38
376.997	85.38
377.222	88.38
377.448	112.38
377.674	100.38
377.899	99.38
378.125	90.38
378.35	86.38
378.576	99.38
378.802	99.38
379.027	105.38
379.253	106.38
379.478	80.38
379.704	104.38
379.929	85.38
380.155	79.38
380.38	73.38
380.606	82.38
380.831	82.38
381.057	96.38
381.282	91.38
381.507	84.38
381.733	84.38
381.958	88.38
382.184	102.38
382.409	102.38
382.634	88.38
382.86	91.38
383.085	97.38
383.31	99.38
383.535	104.38
383.761	103.38
383.986	103.38
384.211	101.38
384.436	93.38
384.662	90.38
384.887	101.38
385.112	92.38
385.337	90.38
385.562	101.38
385.787	90.38
386.013	98.38
386.238	87.38
386.463	96.38
386.688	94.38
386.913	85.38
387.138	96.38
387.363	86.38
387.588	89.38
387.813	80.38
388.038	88.38
388.263	86.38
388.488	101.38
388.713	88.38
388.938	106.38
389.163	101.38
389.387	98.38
389.612	87.38
389.837	101.38
390.062	83.38
390.287	101.38
390.512	103.38
390.736	107.38
390.961	90.38
391.186	92.38
391.411	89.38
391.636	98.38
391.86	97.38
392.085	102.38
392.31	99.38
392.534	106.38
392.759	81.38
392.984	95.38
393.208	100.38
393.433	90.38
393.658	112.38
393.882	80.38
394.107	110.38
394.331	99.38
394.556	99.38
394.78	100.38
395.005	100.38
395.229	90.38
395.454	93.38
395.678	83.38
395.903	100.38
396.127	107.38
396.352	96.38
396.576	98.38
396.801	70.38
397.025	85.38
397.249	87.38
397.474	97.38
397.698	87.38
397.922	116.38
398.147	92.38
398.371	102.38
398.595	103.38
398.82	110.38
399.044	101.38
399.268	89.38
399.492	96.38
399.717	107.38
399.941	96.38
400.165	108.38
400.389	110.38
400.613	104.38
400.837	89.38
401.062	86.38
401.286	109.38
401.51	95.38
401.734	95.38
401.958	92.38
402.182	89.38
402.406	88.38
402.63	106.38
402.854	105.38
403.078	107.38
403.302	95.38
403.526	90.38
403.75	96.38
403.974	95.38
404.198	104.38
404.422	115.38
404.645	103.38
404.869	100.38
405.093	97.38
405.317	117.38
405.541	95.38
405.765	100.38
405.988	100.38
406.212	90.38
406.436	103.38
406.66	106.38
406.883	113.38
407.107	110.38
407.331	104.38
407.555	94.38
407.778	103.38
408.002	113.38
408.226	118.38
408.449	98.38
408.673	95.38
408.896	105.38
409.12	87.38
409.344	97.38
409.567	106.38
409.791	107.38
410.014	110.38
410.238	112.38
410.461	95.38
410.685	93.38
410.908	96.38
411.132	98.38
411.355	105.38
411.578	100.38
411.802	100.38
412.025	99.38
412.249	100.38
412.472	102.38
412.695	98.38
412.919	102.38
413.142	103.38
413.365	89.38
413.589	92.38
413.812	96.38
414.035	108.38
414.258	115.38
414.482	85.38
414.705	104.38
414.928	116.38
415.151	98.38
415.374	104.38
415.597	104.38
415.821	103.38
416.044	101.38
416.267	105.38
416.49	93.38
416.713	91.38
416.936	101.38
417.159	104.38
417.382	109.38
417.605	105.38
417.828	91.38
418.051	102.38
418.274	95.38
418.497	81.38
418.72	88.38
418.943	101.38
419.166	91.38
419.389	92.38
419.611	110.38
419.834	99.38
420.057	104.38
420.28	94.38
420.503	112.38
420.726	76.38
420.948	86.38
421.171	96.38
421.394	98.38
421.617	103.38
421.839	104.38
422.062	102.38
422.285	112.38
422.507	95.38
422.73	98.38
422.953	87.38
423.175	96.38
423.398	90.38
423.621	89.38
423.843	95.38
424.066	105.38
424.288	84.38
424.511	97.38
424.733	100.38
424.956	103.38
425.178	112.38
425.401	90.38
425.623	107.38
425.846	99.38
426.068	90.38
426.291	96.38
426.513	103.38
426.735	94.38
426.958	103.38
427.18	99.38
427.402	100.38
427.625	103.38
427.847	85.38
428.069	100.38
428.292	79.38
428.514	97.38
428.736	89.38
428.958	102.38
429.181	94.38
429.403	103.38
429.625	93.38
429.847	103.38
430.069	95.38
430.292	101.38
430.514	92.38
430.736	100.38
430.958	94.38
431.18	81.38
431.402	91.38
431.624	100.38
431.846	89.38
432.068	102.38
432.29	107.38
432.512	108.38
432.734	92.38
432.956	94.38
433.178	99.38
433.4	100.38
433.622	94.38
433.844	92.38
434.066	96.38
434.287	86.38
434.509	103.38
434.731	97.38
434.953	96.38
435.175	105.38
435.397	110.38
435.618	104.38
435.84	88.38
436.062	94.38
436.284	91.38
436.505	101.38
436.727	104.38
436.949	95.38
437.17	85.38
437.392	106.38
437.614	93.38
437.835	103.38
438.057	82.38
438.278	101.38
438.5	102.38
438.721	94.38
438.943	87.38
439.165	84.38
439.386	91.38
439.608	111.38
439.829	97.38
440.05	107.38
440.272	94.38
440.493	101.38
440.715	92.38
440.936	94.38
441.158	96.38
441.379	87.38
441.6	94.38
441.822	98.38
442.043	90.38
442.264	94.38
442.486	88.38
442.707	103.38
442.928	100.38
443.149	83.38
443.371	107.38
443.592	93.38
443.813	102.38
444.034	114.38
444.255	99.38
444.476	98.38
444.698	95.38
444.919	94.38
445.14	209.38
445.361	150.38
445.582	103.38
445.803	99.38
446.024	102.38
446.245	101.38
446.466	87.38
446.687	97.38
446.908	92.38
447.129	111.38
447.35	115.38
447.571	99.38
447.792	99.38
448.013	104.38
448.234	100.38
448.455	95.38
448.675	110.38
448.896	86.38
449.117	99.38
449.338	88.38
449.559	87.38
449.779	83.38
450	91.38
450.221	99.38
450.442	100.38
450.662	95.38
450.883	100.38
451.104	97.38
451.324	88.38
451.545	78.38
451.766	85.38
451.986	95.38
452.207	93.38
452.428	87.38
452.648	98.38
452.869	100.38
453.089	93.38
453.31	89.38
453.53	109.38
453.751	102.38
453.971	80.38
454.192	94.38
454.412	98.38
454.633	87.38
454.853	92.38
455.073	90.38
455.294	89.38
455.514	106.38
455.734	93.38
455.955	89.38
456.175	86.38
456.395	94.38
456.616	84.38
456.836	88.38
457.056	91.38
457.276	69.38
457.497	94.38
457.717	83.38
457.937	103.38
458.157	98.38
458.377	79.38
458.598	99.38
458.818	98.38
459.038	82.38
459.258	93.38
459.478	97.38
459.698	104.38
459.918	82.38
460.138	100.38
460.358	104.38
460.578	89.38
460.798	98.38
461.018	102.38
461.238	112.38
461.458	90.38
461.678	100.38
461.898	102.38
462.118	98.38
462.338	98.38
462.558	107.38
462.777	102.38
462.997	93.38
463.217	115.38
463.437	97.38
463.657	100.38
463.876	104.38
464.096	100.38
464.316	101.38
464.536	98.38
464.755	87.38
464.975	102.38
465.195	100.38
465.414	88.38
465.634	93.38
465.854	98.38
466.073	84.38
466.293	96.38
466.512	90.38
466.732	97.38
466.951	85.38
467.171	87.38
467.391	97.38
467.61	97.38
467.829	98.38
468.049	93.38
468.268	87.38
468.488	88.38
468.707	115.38
468.927	101.38
469.146	96.38
469.365	105.38
469.585	99.38
469.804	95.38
470.023	95.38
470.243	112.38
470.462	100.38
470.681	103.38
470.901	99.38
471.12	92.38
471.339	89.38
471.558	105.38
471.777	103.38
471.997	94.38
472.216	106.38
472.435	100.38
472.654	97.38
472.873	106.38
473.092	106.38
473.311	109.38
473.53	94.38
473.749	97.38
473.968	110.38
474.187	94.38
474.406	96.38
474.625	108.38
474.844	94.38
475.063	93.38
475.282	99.38
475.501	96.38
475.72	114.38
475.939	100.38
476.158	115.38
476.377	112.38
476.596	97.38
476.814	92.38
477.033	102.38
477.252	99.38
477.471	80.38
477.69	103.38
477.908	98.38
478.127	99.38
478.346	107.38
478.564	108.38
478.783	101.38
479.002	99.38
479.22	97.38
479.439	112.38
479.658	105.38
479.876	107.38
480.095	101.38
480.313	110.38
480.532	121.38
480.751	96.38
480.969	103.38
481.188	107.38
481.406	87.38
481.624	105.38
481.843	100.38
482.061	108.38
482.28	110.38
482.498	108.38
482.717	95.38
482.935	108.38
483.153	104.38
483.372	106.38
483.59	87.38
483.808	104.38
484.027	108.38
484.245	98.38
484.463	107.38
484.681	127.38
484.9	108.38
485.118	122.38
485.336	94.38
485.554	91.38
485.772	89.38
485.99	111.38
486.209	99.38
486.427	122.38
486.645	102.38
486.863	99.38
487.081	111.38
487.299	113.38
487.517	123.38
487.735	117.38
487.953	103.38
488.171	102.38
488.389	100.38
488.607	110.38
488.825	92.38
489.043	100.38
489.261	101.38
489.479	110.38
489.696	118.38
489.914	118.38
490.132	99.38
490.35	98.38
490.568	111.38
490.786	116.38
491.003	102.38
491.221	108.38
491.439	97.38
491.657	116.38
491.874	116.38
492.092	128.38
492.31	121.38
492.527	114.38
492.745	117.38
492.963	111.38
493.18	107.38
493.398	126.38
493.615	108.38
493.833	115.38
494.05	101.38
494.268	122.38
494.485	103.38
494.703	128.38
494.92	112.38
495.138	99.38
495.355	114.38
495.573	103.38
495.79	105.38
496.008	113.38
496.225	117.38
496.442	110.38
496.66	122.38
496.877	117.38
497.094	135.38
497.312	121.38
497.529	114.38
497.746	110.38
497.963	115.38
498.181	118.38
498.398	110.38
498.615	120.38
498.832	110.38
499.049	119.38
499.267	128.38
499.484	121.38
499.701	144.38
499.918	143.38
500.135	161.38
500.352	171.38
500.569	164.38
500.786	170.38
501.003	167.38
501.22	152.38
501.437	156.38
501.654	132.38
501.871	121.38
502.088	126.38
502.305	126.38
502.522	115.38
502.739	110.38
502.956	124.38
503.172	116.38
503.389	105.38
503.606	109.38
503.823	109.38
504.04	123.38
504.256	115.38
504.473	98.38
504.69	118.38
504.907	112.38
505.123	120.38
505.34	120.38
505.557	105.38
505.773	101.38
505.99	113.38
506.207	102.38
506.423	100.38
506.64	126.38
506.856	94.38
507.073	107.38
507.289	112.38
507.506	114.38
507.722	110.38
507.939	98.38
508.155	113.38
508.372	105.38
508.588	108.38
508.805	115.38
509.021	105.38
509.238	118.38
509.454	98.38
509.67	108.38
509.887	97.38
510.103	83.38
510.319	103.38
510.536	102.38
510.752	117.38
510.968	114.38
511.184	101.38
511.401	101.38
511.617	88.38
511.833	98.38
512.049	106.38
512.265	96.38
512.481	88.38
512.698	95.38
512.914	102.38
513.13	117.38
513.346	101.38
513.562	110.38
513.778	105.38
