Data from Location5.07152019.Energy5.Lamp.07192019.3%Agarose_HRD10591_16-03-25-628.txt Node
Date: Fri Jul 19 16:03:25 EDT 2019
User: cochatt
Spectrometer: HR+D1059
Trigger mode: 1
Integration Time (sec): 1.000000E-1
Scans to average: 1
Electric dark correction enabled: true
Nonlinearity correction enabled: false
Boxcar width: 0
XAxis mode: Wavelengths
Number of Pixels in Spectrum: 2048
>>>>>Begin Spectral Data<<<<<
223.165	-5.38
223.4	-5.38
223.635	-5.38
223.869	-14.38
224.104	-19.38
224.338	-23.38
224.573	-7.38
224.808	-18.38
225.042	-15.38
225.277	-13.38
225.511	-4.38
225.746	-3.38
225.98	10.62
226.215	25.62
226.449	14.62
226.683	15.62
226.918	30.62
227.152	27.62
227.387	24.62
227.621	41.62
227.856	54.62
228.09	47.62
228.324	44.62
228.559	68.62
228.793	58.62
229.027	61.62
229.262	66.62
229.496	57.62
229.73	75.62
229.964	74.62
230.199	73.62
230.433	60.62
230.667	92.62
230.901	84.62
231.136	73.62
231.37	75.62
231.604	90.62
231.838	69.62
232.072	73.62
232.306	86.62
232.541	95.62
232.775	73.62
233.009	85.62
233.243	79.62
233.477	92.62
233.711	112.62
233.945	79.62
234.179	80.62
234.413	77.62
234.647	92.62
234.881	80.62
235.115	80.62
235.349	77.62
235.583	82.62
235.817	73.62
236.051	75.62
236.285	76.62
236.519	86.62
236.753	83.62
236.987	87.62
237.221	76.62
237.455	90.62
237.689	84.62
237.922	76.62
238.156	67.62
238.39	73.62
238.624	84.62
238.858	88.62
239.091	86.62
239.325	92.62
239.559	78.62
239.793	66.62
240.027	86.62
240.26	79.62
240.494	84.62
240.728	76.62
240.961	76.62
241.195	83.62
241.429	90.62
241.662	84.62
241.896	81.62
242.13	81.62
242.363	86.62
242.597	88.62
242.83	72.62
243.064	73.62
243.298	87.62
243.531	81.62
243.765	75.62
243.998	83.62
244.232	80.62
244.465	72.62
244.699	80.62
244.932	72.62
245.166	78.62
245.399	92.62
245.633	74.62
245.866	72.62
246.099	77.62
246.333	83.62
246.566	86.62
246.8	87.62
247.033	80.62
247.266	85.62
247.5	82.62
247.733	90.62
247.966	87.62
248.2	96.62
248.433	87.62
248.666	81.62
248.899	79.62
249.133	74.62
249.366	85.62
249.599	89.62
249.832	83.62
250.066	84.62
250.299	92.62
250.532	77.62
250.765	72.62
250.998	92.62
251.231	79.62
251.465	86.62
251.698	69.62
251.931	70.62
252.164	81.62
252.397	88.62
252.63	80.62
252.863	77.62
253.096	98.62
253.329	91.62
253.562	79.62
253.795	96.62
254.028	83.62
254.261	80.62
254.494	91.62
254.727	100.62
254.96	81.62
255.193	82.62
255.426	75.62
255.659	90.62
255.892	99.62
256.124	82.62
256.357	99.62
256.59	93.62
256.823	88.62
257.056	90.62
257.289	85.62
257.521	84.62
257.754	83.62
257.987	89.62
258.22	78.62
258.452	78.62
258.685	94.62
258.918	73.62
259.151	84.62
259.383	83.62
259.616	84.62
259.849	94.62
260.081	108.62
260.314	89.62
260.547	86.62
260.779	90.62
261.012	80.62
261.244	81.62
261.477	93.62
261.71	90.62
261.942	93.62
262.175	62.62
262.407	80.62
262.64	84.62
262.872	90.62
263.105	92.62
263.337	89.62
263.57	93.62
263.802	89.62
264.035	88.62
264.267	81.62
264.499	90.62
264.732	85.62
264.964	86.62
265.197	98.62
265.429	95.62
265.661	90.62
265.894	78.62
266.126	86.62
266.358	82.62
266.591	83.62
266.823	103.62
267.055	87.62
267.287	90.62
267.52	86.62
267.752	96.62
267.984	95.62
268.216	89.62
268.448	90.62
268.681	80.62
268.913	104.62
269.145	85.62
269.377	82.62
269.609	77.62
269.841	84.62
270.073	79.62
270.306	84.62
270.538	97.62
270.77	83.62
271.002	79.62
271.234	95.62
271.466	90.62
271.698	83.62
271.93	81.62
272.162	90.62
272.394	107.62
272.626	85.62
272.858	101.62
273.09	88.62
273.322	78.62
273.553	77.62
273.785	92.62
274.017	96.62
274.249	83.62
274.481	90.62
274.713	87.62
274.945	97.62
275.176	86.62
275.408	91.62
275.64	98.62
275.872	82.62
276.104	99.62
276.335	78.62
276.567	90.62
276.799	95.62
277.031	79.62
277.262	88.62
277.494	99.62
277.726	108.62
277.957	97.62
278.189	88.62
278.421	95.62
278.652	95.62
278.884	92.62
279.115	99.62
279.347	91.62
279.579	89.62
279.81	91.62
280.042	81.62
280.273	88.62
280.505	84.62
280.736	90.62
280.968	97.62
281.199	86.62
281.431	91.62
281.662	97.62
281.894	85.62
282.125	91.62
282.356	77.62
282.588	82.62
282.819	100.62
283.051	84.62
283.282	89.62
283.513	88.62
283.745	107.62
283.976	100.62
284.207	91.62
284.439	95.62
284.67	82.62
284.901	97.62
285.132	90.62
285.364	95.62
285.595	94.62
285.826	105.62
286.057	97.62
286.288	92.62
286.52	97.62
286.751	94.62
286.982	78.62
287.213	94.62
287.444	86.62
287.675	88.62
287.906	94.62
288.138	84.62
288.369	87.62
288.6	79.62
288.831	84.62
289.062	106.62
289.293	91.62
289.524	102.62
289.755	98.62
289.986	81.62
290.217	100.62
290.448	94.62
290.679	101.62
290.91	94.62
291.141	75.62
291.371	78.62
291.602	76.62
291.833	88.62
292.064	77.62
292.295	87.62
292.526	97.62
292.757	83.62
292.987	102.62
293.218	74.62
293.449	92.62
293.68	86.62
293.91	93.62
294.141	109.62
294.372	104.62
294.603	92.62
294.833	104.62
295.064	97.62
295.295	94.62
295.525	94.62
295.756	76.62
295.987	88.62
296.217	94.62
296.448	73.62
296.679	94.62
296.909	94.62
297.14	108.62
297.37	101.62
297.601	83.62
297.831	96.62
298.062	96.62
298.292	90.62
298.523	86.62
298.753	89.62
298.984	102.62
299.214	86.62
299.445	80.62
299.675	104.62
299.905	92.62
300.136	97.62
300.366	85.62
300.597	100.62
300.827	85.62
301.057	90.62
301.288	95.62
301.518	98.62
301.748	100.62
301.979	82.62
302.209	95.62
302.439	98.62
302.669	92.62
302.9	79.62
303.13	94.62
303.36	93.62
303.59	114.62
303.82	105.62
304.051	100.62
304.281	99.62
304.511	103.62
304.741	89.62
304.971	88.62
305.201	91.62
305.431	103.62
305.661	94.62
305.891	89.62
306.121	98.62
306.352	100.62
306.582	88.62
306.812	93.62
307.042	94.62
307.272	100.62
307.502	96.62
307.731	95.62
307.961	100.62
308.191	94.62
308.421	81.62
308.651	101.62
308.881	96.62
309.111	95.62
309.341	89.62
309.571	94.62
309.8	90.62
310.03	86.62
310.26	102.62
310.49	102.62
310.72	94.62
310.949	91.62
311.179	89.62
311.409	88.62
311.639	89.62
311.868	96.62
312.098	92.62
312.328	83.62
312.557	103.62
312.787	103.62
313.017	107.62
313.246	92.62
313.476	89.62
313.706	93.62
313.935	71.62
314.165	95.62
314.394	83.62
314.624	96.62
314.853	83.62
315.083	93.62
315.312	95.62
315.542	96.62
315.771	104.62
316.001	88.62
316.23	100.62
316.46	89.62
316.689	88.62
316.919	92.62
317.148	105.62
317.377	99.62
317.607	86.62
317.836	96.62
318.065	106.62
318.295	98.62
318.524	99.62
318.753	89.62
318.983	88.62
319.212	92.62
319.441	104.62
319.67	92.62
319.9	91.62
320.129	100.62
320.358	98.62
320.587	100.62
320.816	97.62
321.046	96.62
321.275	104.62
321.504	100.62
321.733	90.62
321.962	96.62
322.191	93.62
322.42	78.62
322.649	105.62
322.878	91.62
323.108	86.62
323.337	85.62
323.566	88.62
323.795	90.62
324.024	94.62
324.253	94.62
324.482	86.62
324.71	92.62
324.939	93.62
325.168	86.62
325.397	101.62
325.626	97.62
325.855	93.62
326.084	102.62
326.313	97.62
326.542	99.62
326.77	100.62
326.999	93.62
327.228	108.62
327.457	98.62
327.686	80.62
327.914	92.62
328.143	118.62
328.372	90.62
328.6	106.62
328.829	104.62
329.058	97.62
329.287	104.62
329.515	90.62
329.744	108.62
329.972	89.62
330.201	93.62
330.43	86.62
330.658	88.62
330.887	92.62
331.115	94.62
331.344	93.62
331.572	100.62
331.801	97.62
332.03	89.62
332.258	109.62
332.486	112.62
332.715	97.62
332.943	96.62
333.172	91.62
333.4	89.62
333.629	102.62
333.857	102.62
334.085	96.62
334.314	104.62
334.542	90.62
334.771	83.62
334.999	91.62
335.227	93.62
335.455	112.62
335.684	96.62
335.912	96.62
336.14	96.62
336.369	99.62
336.597	103.62
336.825	92.62
337.053	102.62
337.281	89.62
337.51	88.62
337.738	100.62
337.966	104.62
338.194	96.62
338.422	88.62
338.65	90.62
338.878	93.62
339.106	93.62
339.334	89.62
339.562	84.62
339.79	82.62
340.018	88.62
340.246	106.62
340.474	110.62
340.702	92.62
340.93	92.62
341.158	80.62
341.386	72.62
341.614	82.62
341.842	88.62
342.07	94.62
342.298	98.62
342.526	92.62
342.754	92.62
342.981	86.62
343.209	97.62
343.437	97.62
343.665	93.62
343.893	115.62
344.12	96.62
344.348	100.62
344.576	88.62
344.804	89.62
345.031	102.62
345.259	93.62
345.487	101.62
345.714	98.62
345.942	85.62
346.17	102.62
346.397	94.62
346.625	89.62
346.853	88.62
347.08	78.62
347.308	96.62
347.535	86.62
347.763	113.62
347.99	101.62
348.218	99.62
348.445	100.62
348.673	85.62
348.9	92.62
349.128	95.62
349.355	79.62
349.583	86.62
349.81	96.62
350.037	100.62
350.265	92.62
350.492	101.62
350.72	85.62
350.947	88.62
351.174	101.62
351.402	99.62
351.629	97.62
351.856	81.62
352.083	86.62
352.311	81.62
352.538	75.62
352.765	92.62
352.992	93.62
353.22	101.62
353.447	101.62
353.674	82.62
353.901	82.62
354.128	99.62
354.355	100.62
354.583	84.62
354.81	76.62
355.037	100.62
355.264	92.62
355.491	105.62
355.718	87.62
355.945	101.62
356.172	95.62
356.399	83.62
356.626	99.62
356.853	105.62
357.08	84.62
357.307	99.62
357.534	103.62
357.761	100.62
357.988	95.62
358.215	91.62
358.441	98.62
358.668	97.62
358.895	103.62
359.122	96.62
359.349	99.62
359.576	94.62
359.802	92.62
360.029	88.62
360.256	87.62
360.483	100.62
360.709	101.62
360.936	95.62
361.163	90.62
361.39	83.62
361.616	101.62
361.843	98.62
362.07	99.62
362.296	93.62
362.523	93.62
362.749	81.62
362.976	97.62
363.203	96.62
363.429	97.62
363.656	90.62
363.882	102.62
364.109	92.62
364.335	93.62
364.562	94.62
364.788	95.62
365.015	94.62
365.241	103.62
365.468	86.62
365.694	91.62
365.92	86.62
366.147	91.62
366.373	93.62
366.599	105.62
366.826	106.62
367.052	86.62
367.278	112.62
367.505	86.62
367.731	90.62
367.957	93.62
368.184	101.62
368.41	88.62
368.636	101.62
368.862	89.62
369.089	92.62
369.315	100.62
369.541	91.62
369.767	84.62
369.993	93.62
370.219	89.62
370.445	92.62
370.672	87.62
370.898	94.62
371.124	89.62
371.35	94.62
371.576	105.62
371.802	79.62
372.028	101.62
372.254	92.62
372.48	85.62
372.706	104.62
372.932	75.62
373.158	73.62
373.384	95.62
373.61	99.62
373.835	75.62
374.061	98.62
374.287	91.62
374.513	98.62
374.739	106.62
374.965	79.62
375.191	84.62
375.416	96.62
375.642	93.62
375.868	109.62
376.094	92.62
376.319	90.62
376.545	86.62
376.771	87.62
376.997	98.62
377.222	103.62
377.448	104.62
377.674	92.62
377.899	89.62
378.125	94.62
378.35	90.62
378.576	90.62
378.802	94.62
379.027	84.62
379.253	84.62
379.478	83.62
379.704	79.62
379.929	104.62
380.155	85.62
380.38	95.62
380.606	89.62
380.831	110.62
381.057	93.62
381.282	86.62
381.507	92.62
381.733	87.62
381.958	95.62
382.184	82.62
382.409	96.62
382.634	91.62
382.86	112.62
383.085	93.62
383.31	93.62
383.535	97.62
383.761	89.62
383.986	91.62
384.211	94.62
384.436	104.62
384.662	85.62
384.887	98.62
385.112	94.62
385.337	84.62
385.562	96.62
385.787	96.62
386.013	96.62
386.238	89.62
386.463	113.62
386.688	99.62
386.913	97.62
387.138	98.62
387.363	92.62
387.588	95.62
387.813	116.62
388.038	99.62
388.263	99.62
388.488	94.62
388.713	104.62
388.938	84.62
389.163	96.62
389.387	89.62
389.612	90.62
389.837	83.62
390.062	94.62
390.287	92.62
390.512	88.62
390.736	91.62
390.961	89.62
391.186	76.62
391.411	97.62
391.636	117.62
391.86	96.62
392.085	100.62
392.31	91.62
392.534	99.62
392.759	92.62
392.984	97.62
393.208	104.62
393.433	99.62
393.658	96.62
393.882	113.62
394.107	88.62
394.331	100.62
394.556	93.62
394.78	107.62
395.005	91.62
395.229	88.62
395.454	92.62
395.678	92.62
395.903	89.62
396.127	102.62
396.352	91.62
396.576	101.62
396.801	106.62
397.025	100.62
397.249	98.62
397.474	104.62
397.698	90.62
397.922	102.62
398.147	100.62
398.371	87.62
398.595	88.62
398.82	93.62
399.044	98.62
399.268	92.62
399.492	118.62
399.717	111.62
399.941	105.62
400.165	104.62
400.389	104.62
400.613	80.62
400.837	97.62
401.062	102.62
401.286	87.62
401.51	105.62
401.734	93.62
401.958	103.62
402.182	100.62
402.406	77.62
402.63	97.62
402.854	113.62
403.078	92.62
403.302	104.62
403.526	91.62
403.75	99.62
403.974	104.62
404.198	117.62
404.422	96.62
404.645	92.62
404.869	104.62
405.093	101.62
405.317	88.62
405.541	88.62
405.765	107.62
405.988	99.62
406.212	95.62
406.436	107.62
406.66	105.62
406.883	113.62
407.107	112.62
407.331	99.62
407.555	101.62
407.778	101.62
408.002	119.62
408.226	100.62
408.449	112.62
408.673	100.62
408.896	108.62
409.12	109.62
409.344	101.62
409.567	99.62
409.791	85.62
410.014	108.62
410.238	88.62
410.461	98.62
410.685	107.62
410.908	95.62
411.132	108.62
411.355	96.62
411.578	94.62
411.802	102.62
412.025	107.62
412.249	93.62
412.472	101.62
412.695	94.62
412.919	92.62
413.142	106.62
413.365	101.62
413.589	95.62
413.812	95.62
414.035	110.62
414.258	100.62
414.482	90.62
414.705	108.62
414.928	102.62
415.151	109.62
415.374	113.62
415.597	94.62
415.821	112.62
416.044	88.62
416.267	97.62
416.49	90.62
416.713	90.62
416.936	90.62
417.159	99.62
417.382	96.62
417.605	82.62
417.828	99.62
418.051	106.62
418.274	102.62
418.497	96.62
418.72	112.62
418.943	98.62
419.166	107.62
419.389	94.62
419.611	96.62
419.834	92.62
420.057	108.62
420.28	107.62
420.503	91.62
420.726	107.62
420.948	100.62
421.171	87.62
421.394	90.62
421.617	105.62
421.839	89.62
422.062	102.62
422.285	105.62
422.507	102.62
422.73	100.62
422.953	91.62
423.175	96.62
423.398	98.62
423.621	100.62
423.843	107.62
424.066	105.62
424.288	104.62
424.511	113.62
424.733	100.62
424.956	100.62
425.178	106.62
425.401	90.62
425.623	106.62
425.846	76.62
426.068	95.62
426.291	90.62
426.513	97.62
426.735	114.62
426.958	98.62
427.18	91.62
427.402	106.62
427.625	108.62
427.847	91.62
428.069	89.62
428.292	96.62
428.514	102.62
428.736	94.62
428.958	103.62
429.181	91.62
429.403	70.62
429.625	101.62
429.847	98.62
430.069	93.62
430.292	115.62
430.514	100.62
430.736	91.62
430.958	111.62
431.18	89.62
431.402	96.62
431.624	89.62
431.846	95.62
432.068	102.62
432.29	96.62
432.512	102.62
432.734	98.62
432.956	103.62
433.178	103.62
433.4	110.62
433.622	112.62
433.844	87.62
434.066	88.62
434.287	111.62
434.509	97.62
434.731	95.62
434.953	90.62
435.175	97.62
435.397	102.62
435.618	99.62
435.84	90.62
436.062	100.62
436.284	99.62
436.505	96.62
436.727	92.62
436.949	81.62
437.17	78.62
437.392	97.62
437.614	93.62
437.835	94.62
438.057	88.62
438.278	98.62
438.5	79.62
438.721	77.62
438.943	102.62
439.165	102.62
439.386	98.62
439.608	99.62
439.829	105.62
440.05	89.62
440.272	99.62
440.493	84.62
440.715	93.62
440.936	94.62
441.158	92.62
441.379	113.62
441.6	96.62
441.822	97.62
442.043	100.62
442.264	102.62
442.486	105.62
442.707	106.62
442.928	122.62
443.149	100.62
443.371	91.62
443.592	103.62
443.813	100.62
444.034	98.62
444.255	91.62
444.476	80.62
444.698	102.62
444.919	90.62
445.14	212.62
445.361	155.62
445.582	103.62
445.803	104.62
446.024	102.62
446.245	106.62
446.466	111.62
446.687	88.62
446.908	91.62
447.129	89.62
447.35	91.62
447.571	96.62
447.792	88.62
448.013	92.62
448.234	107.62
448.455	93.62
448.675	100.62
448.896	105.62
449.117	104.62
449.338	99.62
449.559	89.62
449.779	89.62
450	75.62
450.221	88.62
450.442	91.62
450.662	92.62
450.883	104.62
451.104	80.62
451.324	94.62
451.545	78.62
451.766	92.62
451.986	88.62
452.207	99.62
452.428	92.62
452.648	97.62
452.869	109.62
453.089	97.62
453.31	98.62
453.53	101.62
453.751	100.62
453.971	103.62
454.192	100.62
454.412	85.62
454.633	98.62
454.853	99.62
455.073	93.62
455.294	113.62
455.514	112.62
455.734	104.62
455.955	87.62
456.175	100.62
456.395	87.62
456.616	89.62
456.836	85.62
457.056	87.62
457.276	90.62
457.497	101.62
457.717	95.62
457.937	108.62
458.157	101.62
458.377	95.62
458.598	95.62
458.818	92.62
459.038	84.62
459.258	110.62
459.478	89.62
459.698	87.62
459.918	91.62
460.138	104.62
460.358	96.62
460.578	105.62
460.798	88.62
461.018	109.62
461.238	106.62
461.458	100.62
461.678	100.62
461.898	98.62
462.118	101.62
462.338	105.62
462.558	95.62
462.777	79.62
462.997	97.62
463.217	113.62
463.437	122.62
463.657	107.62
463.876	118.62
464.096	107.62
464.316	97.62
464.536	106.62
464.755	98.62
464.975	93.62
465.195	99.62
465.414	98.62
465.634	102.62
465.854	109.62
466.073	101.62
466.293	96.62
466.512	101.62
466.732	93.62
466.951	90.62
467.171	104.62
467.391	108.62
467.61	97.62
467.829	101.62
468.049	92.62
468.268	84.62
468.488	99.62
468.707	98.62
468.927	100.62
469.146	94.62
469.365	93.62
469.585	95.62
469.804	115.62
470.023	109.62
470.243	84.62
470.462	91.62
470.681	97.62
470.901	102.62
471.12	97.62
471.339	106.62
471.558	107.62
471.777	113.62
471.997	96.62
472.216	104.62
472.435	98.62
472.654	102.62
472.873	100.62
473.092	104.62
473.311	95.62
473.53	86.62
473.749	100.62
473.968	105.62
474.187	97.62
474.406	91.62
474.625	98.62
474.844	102.62
475.063	103.62
475.282	110.62
475.501	94.62
475.72	111.62
475.939	107.62
476.158	90.62
476.377	101.62
476.596	80.62
476.814	101.62
477.033	89.62
477.252	98.62
477.471	94.62
477.69	98.62
477.908	102.62
478.127	87.62
478.346	121.62
478.564	114.62
478.783	99.62
479.002	108.62
479.22	115.62
479.439	110.62
479.658	114.62
479.876	90.62
480.095	107.62
480.313	113.62
480.532	118.62
480.751	97.62
480.969	101.62
481.188	99.62
481.406	101.62
481.624	96.62
481.843	96.62
482.061	103.62
482.28	94.62
482.498	90.62
482.717	105.62
482.935	99.62
483.153	106.62
483.372	102.62
483.59	106.62
483.808	93.62
484.027	96.62
484.245	115.62
484.463	105.62
484.681	105.62
484.9	102.62
485.118	97.62
485.336	107.62
485.554	94.62
485.772	119.62
485.99	93.62
486.209	103.62
486.427	113.62
486.645	100.62
486.863	101.62
487.081	103.62
487.299	97.62
487.517	96.62
487.735	114.62
487.953	116.62
488.171	118.62
488.389	115.62
488.607	106.62
488.825	94.62
489.043	106.62
489.261	96.62
489.479	105.62
489.696	98.62
489.914	106.62
490.132	99.62
490.35	128.62
490.568	112.62
490.786	102.62
491.003	108.62
491.221	109.62
491.439	109.62
491.657	106.62
491.874	122.62
492.092	117.62
492.31	117.62
492.527	116.62
492.745	118.62
492.963	132.62
493.18	116.62
493.398	121.62
493.615	112.62
493.833	102.62
494.05	114.62
494.268	116.62
494.485	119.62
494.703	116.62
494.92	113.62
495.138	121.62
495.355	122.62
495.573	110.62
495.79	103.62
496.008	119.62
496.225	117.62
496.442	117.62
496.66	118.62
496.877	115.62
497.094	129.62
497.312	116.62
497.529	108.62
497.746	113.62
497.963	114.62
498.181	111.62
498.398	104.62
498.615	128.62
498.832	113.62
499.049	130.62
499.267	135.62
499.484	137.62
499.701	140.62
499.918	136.62
500.135	156.62
500.352	147.62
500.569	169.62
500.786	164.62
501.003	163.62
501.22	149.62
501.437	131.62
501.654	122.62
501.871	126.62
502.088	112.62
502.305	123.62
502.522	114.62
502.739	118.62
502.956	115.62
503.172	101.62
503.389	102.62
503.606	105.62
503.823	112.62
504.04	96.62
504.256	118.62
504.473	114.62
504.69	104.62
504.907	129.62
505.123	117.62
505.34	113.62
505.557	122.62
505.773	117.62
505.99	101.62
506.207	103.62
506.423	109.62
506.64	114.62
506.856	95.62
507.073	102.62
507.289	108.62
507.506	113.62
507.722	108.62
507.939	114.62
508.155	97.62
508.372	98.62
508.588	116.62
508.805	117.62
509.021	98.62
509.238	88.62
509.454	82.62
509.67	106.62
509.887	116.62
510.103	102.62
510.319	114.62
510.536	98.62
510.752	104.62
510.968	83.62
511.184	98.62
511.401	114.62
511.617	112.62
511.833	103.62
512.049	107.62
512.265	105.62
512.481	97.62
512.698	98.62
512.914	90.62
513.13	97.62
513.346	101.62
