Data from Location5.07152019.Energy5.Lamp.07192019.3%Agarose_HRD10591_15-39-15-389.txt Node
Date: Fri Jul 19 15:39:15 EDT 2019
User: cochatt
Spectrometer: HR+D1059
Trigger mode: 1
Integration Time (sec): 1.000000E-1
Scans to average: 1
Electric dark correction enabled: true
Nonlinearity correction enabled: false
Boxcar width: 0
XAxis mode: Wavelengths
Number of Pixels in Spectrum: 2048
>>>>>Begin Spectral Data<<<<<
223.165	-16.56
223.4	-16.56
223.635	-16.56
223.869	-23.56
224.104	-16.56
224.338	-19.56
224.573	-22.56
224.808	-12.56
225.042	2.44
225.277	3.44
225.511	-16.56
225.746	6.44
225.98	7.44
226.215	27.44
226.449	19.44
226.683	14.44
226.918	26.44
227.152	20.44
227.387	25.44
227.621	43.44
227.856	44.44
228.09	48.44
228.324	47.44
228.559	57.44
228.793	73.44
229.027	58.44
229.262	68.44
229.496	56.44
229.73	68.44
229.964	68.44
230.199	70.44
230.433	68.44
230.667	74.44
230.901	71.44
231.136	77.44
231.37	73.44
231.604	70.44
231.838	84.44
232.072	81.44
232.306	85.44
232.541	71.44
232.775	71.44
233.009	93.44
233.243	86.44
233.477	89.44
233.711	85.44
233.945	78.44
234.179	82.44
234.413	86.44
234.647	81.44
234.881	87.44
235.115	78.44
235.349	87.44
235.583	80.44
235.817	85.44
236.051	79.44
236.285	78.44
236.519	67.44
236.753	84.44
236.987	63.44
237.221	65.44
237.455	67.44
237.689	82.44
237.922	82.44
238.156	82.44
238.39	73.44
238.624	77.44
238.858	54.44
239.091	83.44
239.325	84.44
239.559	79.44
239.793	72.44
240.027	69.44
240.26	70.44
240.494	88.44
240.728	81.44
240.961	78.44
241.195	73.44
241.429	80.44
241.662	69.44
241.896	73.44
242.13	84.44
242.363	65.44
242.597	74.44
242.83	74.44
243.064	69.44
243.298	65.44
243.531	74.44
243.765	71.44
243.998	89.44
244.232	73.44
244.465	79.44
244.699	89.44
244.932	80.44
245.166	65.44
245.399	95.44
245.633	71.44
245.866	67.44
246.099	81.44
246.333	73.44
246.566	72.44
246.8	82.44
247.033	72.44
247.266	96.44
247.5	79.44
247.733	78.44
247.966	84.44
248.2	78.44
248.433	65.44
248.666	67.44
248.899	75.44
249.133	70.44
249.366	93.44
249.599	64.44
249.832	77.44
250.066	75.44
250.299	75.44
250.532	81.44
250.765	89.44
250.998	72.44
251.231	86.44
251.465	75.44
251.698	73.44
251.931	87.44
252.164	83.44
252.397	87.44
252.63	81.44
252.863	83.44
253.096	86.44
253.329	89.44
253.562	69.44
253.795	81.44
254.028	86.44
254.261	78.44
254.494	75.44
254.727	71.44
254.96	62.44
255.193	65.44
255.426	71.44
255.659	83.44
255.892	75.44
256.124	79.44
256.357	81.44
256.59	73.44
256.823	81.44
257.056	74.44
257.289	83.44
257.521	81.44
257.754	90.44
257.987	82.44
258.22	102.44
258.452	74.44
258.685	95.44
258.918	83.44
259.151	72.44
259.383	79.44
259.616	82.44
259.849	86.44
260.081	78.44
260.314	80.44
260.547	75.44
260.779	85.44
261.012	83.44
261.244	95.44
261.477	81.44
261.71	84.44
261.942	79.44
262.175	90.44
262.407	67.44
262.64	86.44
262.872	73.44
263.105	78.44
263.337	74.44
263.57	79.44
263.802	77.44
264.035	73.44
264.267	78.44
264.499	94.44
264.732	92.44
264.964	85.44
265.197	74.44
265.429	76.44
265.661	77.44
265.894	83.44
266.126	89.44
266.358	75.44
266.591	70.44
266.823	87.44
267.055	79.44
267.287	74.44
267.52	72.44
267.752	86.44
267.984	97.44
268.216	89.44
268.448	85.44
268.681	80.44
268.913	79.44
269.145	82.44
269.377	90.44
269.609	74.44
269.841	86.44
270.073	78.44
270.306	69.44
270.538	80.44
270.77	77.44
271.002	88.44
271.234	82.44
271.466	78.44
271.698	80.44
271.93	100.44
272.162	91.44
272.394	83.44
272.626	86.44
272.858	75.44
273.09	81.44
273.322	89.44
273.553	91.44
273.785	73.44
274.017	72.44
274.249	71.44
274.481	84.44
274.713	86.44
274.945	69.44
275.176	76.44
275.408	80.44
275.64	71.44
275.872	87.44
276.104	89.44
276.335	85.44
276.567	72.44
276.799	92.44
277.031	87.44
277.262	91.44
277.494	78.44
277.726	80.44
277.957	72.44
278.189	68.44
278.421	79.44
278.652	87.44
278.884	98.44
279.115	89.44
279.347	76.44
279.579	79.44
279.81	80.44
280.042	74.44
280.273	82.44
280.505	73.44
280.736	81.44
280.968	96.44
281.199	89.44
281.431	89.44
281.662	86.44
281.894	93.44
282.125	73.44
282.356	92.44
282.588	93.44
282.819	81.44
283.051	90.44
283.282	90.44
283.513	89.44
283.745	83.44
283.976	93.44
284.207	70.44
284.439	74.44
284.67	94.44
284.901	81.44
285.132	82.44
285.364	95.44
285.595	88.44
285.826	71.44
286.057	75.44
286.288	92.44
286.52	84.44
286.751	71.44
286.982	87.44
287.213	91.44
287.444	102.44
287.675	92.44
287.906	89.44
288.138	83.44
288.369	93.44
288.6	80.44
288.831	68.44
289.062	93.44
289.293	87.44
289.524	88.44
289.755	87.44
289.986	84.44
290.217	85.44
290.448	75.44
290.679	94.44
290.91	87.44
291.141	90.44
291.371	84.44
291.602	71.44
291.833	69.44
292.064	81.44
292.295	69.44
292.526	94.44
292.757	77.44
292.987	83.44
293.218	97.44
293.449	84.44
293.68	97.44
293.91	83.44
294.141	73.44
294.372	88.44
294.603	85.44
294.833	82.44
295.064	87.44
295.295	74.44
295.525	96.44
295.756	89.44
295.987	86.44
296.217	83.44
296.448	88.44
296.679	87.44
296.909	86.44
297.14	88.44
297.37	85.44
297.601	75.44
297.831	76.44
298.062	94.44
298.292	85.44
298.523	85.44
298.753	88.44
298.984	86.44
299.214	69.44
299.445	93.44
299.675	83.44
299.905	82.44
300.136	78.44
300.366	72.44
300.597	89.44
300.827	78.44
301.057	87.44
301.288	80.44
301.518	97.44
301.748	89.44
301.979	85.44
302.209	68.44
302.439	80.44
302.669	67.44
302.9	86.44
303.13	87.44
303.36	91.44
303.59	73.44
303.82	85.44
304.051	82.44
304.281	77.44
304.511	75.44
304.741	71.44
304.971	84.44
305.201	67.44
305.431	86.44
305.661	83.44
305.891	86.44
306.121	83.44
306.352	95.44
306.582	84.44
306.812	78.44
307.042	79.44
307.272	72.44
307.502	77.44
307.731	97.44
307.961	73.44
308.191	84.44
308.421	88.44
308.651	93.44
308.881	93.44
309.111	84.44
309.341	70.44
309.571	82.44
309.8	82.44
310.03	90.44
310.26	81.44
310.49	86.44
310.72	91.44
310.949	81.44
311.179	86.44
311.409	81.44
311.639	88.44
311.868	81.44
312.098	83.44
312.328	84.44
312.557	68.44
312.787	86.44
313.017	85.44
313.246	86.44
313.476	79.44
313.706	81.44
313.935	80.44
314.165	77.44
314.394	80.44
314.624	68.44
314.853	85.44
315.083	76.44
315.312	91.44
315.542	79.44
315.771	78.44
316.001	84.44
316.23	95.44
316.46	75.44
316.689	79.44
316.919	68.44
317.148	89.44
317.377	78.44
317.607	80.44
317.836	82.44
318.065	95.44
318.295	93.44
318.524	75.44
318.753	72.44
318.983	81.44
319.212	79.44
319.441	64.44
319.67	70.44
319.9	92.44
320.129	67.44
320.358	95.44
320.587	102.44
320.816	74.44
321.046	90.44
321.275	85.44
321.504	85.44
321.733	81.44
321.962	81.44
322.191	84.44
322.42	75.44
322.649	87.44
322.878	87.44
323.108	78.44
323.337	70.44
323.566	68.44
323.795	83.44
324.024	90.44
324.253	89.44
324.482	84.44
324.71	85.44
324.939	81.44
325.168	72.44
325.397	74.44
325.626	62.44
325.855	82.44
326.084	88.44
326.313	79.44
326.542	81.44
326.77	83.44
326.999	88.44
327.228	95.44
327.457	93.44
327.686	79.44
327.914	81.44
328.143	94.44
328.372	93.44
328.6	83.44
328.829	84.44
329.058	77.44
329.287	85.44
329.515	92.44
329.744	90.44
329.972	82.44
330.201	75.44
330.43	85.44
330.658	75.44
330.887	80.44
331.115	82.44
331.344	86.44
331.572	91.44
331.801	80.44
332.03	85.44
332.258	90.44
332.486	90.44
332.715	84.44
332.943	79.44
333.172	88.44
333.4	80.44
333.629	70.44
333.857	95.44
334.085	89.44
334.314	81.44
334.542	87.44
334.771	75.44
334.999	76.44
335.227	89.44
335.455	98.44
335.684	81.44
335.912	90.44
336.14	95.44
336.369	88.44
336.597	72.44
336.825	87.44
337.053	89.44
337.281	90.44
337.51	79.44
337.738	92.44
337.966	96.44
338.194	95.44
338.422	89.44
338.65	85.44
338.878	99.44
339.106	69.44
339.334	74.44
339.562	86.44
339.79	70.44
340.018	93.44
340.246	95.44
340.474	79.44
340.702	85.44
340.93	82.44
341.158	92.44
341.386	88.44
341.614	83.44
341.842	77.44
342.07	86.44
342.298	76.44
342.526	81.44
342.754	90.44
342.981	72.44
343.209	86.44
343.437	78.44
343.665	76.44
343.893	82.44
344.12	93.44
344.348	82.44
344.576	84.44
344.804	70.44
345.031	86.44
345.259	90.44
345.487	84.44
345.714	71.44
345.942	88.44
346.17	84.44
346.397	70.44
346.625	89.44
346.853	98.44
347.08	86.44
347.308	84.44
347.535	88.44
347.763	87.44
347.99	104.44
348.218	93.44
348.445	85.44
348.673	89.44
348.9	72.44
349.128	74.44
349.355	91.44
349.583	81.44
349.81	79.44
350.037	88.44
350.265	86.44
350.492	87.44
350.72	82.44
350.947	86.44
351.174	79.44
351.402	80.44
351.629	89.44
351.856	82.44
352.083	82.44
352.311	93.44
352.538	71.44
352.765	78.44
352.992	79.44
353.22	68.44
353.447	81.44
353.674	82.44
353.901	73.44
354.128	72.44
354.355	71.44
354.583	66.44
354.81	90.44
355.037	83.44
355.264	94.44
355.491	79.44
355.718	70.44
355.945	89.44
356.172	79.44
356.399	85.44
356.626	74.44
356.853	71.44
357.08	77.44
357.307	93.44
357.534	88.44
357.761	90.44
357.988	87.44
358.215	78.44
358.441	88.44
358.668	89.44
358.895	76.44
359.122	88.44
359.349	66.44
359.576	95.44
359.802	91.44
360.029	87.44
360.256	85.44
360.483	81.44
360.709	70.44
360.936	84.44
361.163	88.44
361.39	69.44
361.616	80.44
361.843	86.44
362.07	90.44
362.296	80.44
362.523	74.44
362.749	78.44
362.976	82.44
363.203	78.44
363.429	74.44
363.656	78.44
363.882	89.44
364.109	96.44
364.335	89.44
364.562	82.44
364.788	74.44
365.015	83.44
365.241	83.44
365.468	82.44
365.694	76.44
365.92	86.44
366.147	82.44
366.373	90.44
366.599	72.44
366.826	80.44
367.052	86.44
367.278	76.44
367.505	79.44
367.731	81.44
367.957	85.44
368.184	85.44
368.41	73.44
368.636	81.44
368.862	78.44
369.089	75.44
369.315	76.44
369.541	77.44
369.767	78.44
369.993	78.44
370.219	81.44
370.445	82.44
370.672	96.44
370.898	82.44
371.124	76.44
371.35	75.44
371.576	96.44
371.802	82.44
372.028	73.44
372.254	72.44
372.48	90.44
372.706	85.44
372.932	73.44
373.158	84.44
373.384	79.44
373.61	84.44
373.835	82.44
374.061	86.44
374.287	70.44
374.513	71.44
374.739	88.44
374.965	83.44
375.191	85.44
375.416	93.44
375.642	90.44
375.868	93.44
376.094	74.44
376.319	70.44
376.545	94.44
376.771	92.44
376.997	81.44
377.222	79.44
377.448	87.44
377.674	85.44
377.899	80.44
378.125	83.44
378.35	87.44
378.576	75.44
378.802	83.44
379.027	85.44
379.253	83.44
379.478	69.44
379.704	88.44
379.929	97.44
380.155	80.44
380.38	83.44
380.606	85.44
380.831	100.44
381.057	94.44
381.282	90.44
381.507	100.44
381.733	80.44
381.958	73.44
382.184	101.44
382.409	85.44
382.634	72.44
382.86	85.44
383.085	91.44
383.31	89.44
383.535	87.44
383.761	81.44
383.986	86.44
384.211	78.44
384.436	82.44
384.662	89.44
384.887	78.44
385.112	83.44
385.337	67.44
385.562	83.44
385.787	91.44
386.013	97.44
386.238	79.44
386.463	88.44
386.688	78.44
386.913	78.44
387.138	72.44
387.363	86.44
387.588	97.44
387.813	72.44
388.038	92.44
388.263	84.44
388.488	97.44
388.713	82.44
388.938	79.44
389.163	82.44
389.387	102.44
389.612	87.44
389.837	87.44
390.062	89.44
390.287	69.44
390.512	88.44
390.736	87.44
390.961	75.44
391.186	81.44
391.411	85.44
391.636	76.44
391.86	89.44
392.085	89.44
392.31	76.44
392.534	81.44
392.759	95.44
392.984	80.44
393.208	77.44
393.433	86.44
393.658	83.44
393.882	84.44
394.107	85.44
394.331	82.44
394.556	88.44
394.78	85.44
395.005	80.44
395.229	101.44
395.454	84.44
395.678	89.44
395.903	93.44
396.127	97.44
396.352	82.44
396.576	100.44
396.801	73.44
397.025	89.44
397.249	87.44
397.474	88.44
397.698	86.44
397.922	88.44
398.147	84.44
398.371	89.44
398.595	108.44
398.82	83.44
399.044	83.44
399.268	73.44
399.492	95.44
399.717	115.44
399.941	76.44
400.165	87.44
400.389	91.44
400.613	97.44
400.837	88.44
401.062	91.44
401.286	80.44
401.51	82.44
401.734	99.44
401.958	89.44
402.182	87.44
402.406	75.44
402.63	75.44
402.854	91.44
403.078	93.44
403.302	88.44
403.526	103.44
403.75	104.44
403.974	85.44
404.198	85.44
404.422	96.44
404.645	77.44
404.869	95.44
405.093	101.44
405.317	90.44
405.541	81.44
405.765	82.44
405.988	86.44
406.212	94.44
406.436	85.44
406.66	99.44
406.883	89.44
407.107	89.44
407.331	88.44
407.555	93.44
407.778	89.44
408.002	91.44
408.226	80.44
408.449	84.44
408.673	83.44
408.896	87.44
409.12	98.44
409.344	79.44
409.567	83.44
409.791	74.44
410.014	83.44
410.238	88.44
410.461	90.44
410.685	91.44
410.908	89.44
411.132	88.44
411.355	98.44
411.578	107.44
411.802	77.44
412.025	97.44
412.249	99.44
412.472	84.44
412.695	85.44
412.919	95.44
413.142	104.44
413.365	86.44
413.589	96.44
413.812	86.44
414.035	98.44
414.258	90.44
414.482	98.44
414.705	91.44
414.928	91.44
415.151	109.44
415.374	88.44
415.597	79.44
415.821	74.44
416.044	90.44
416.267	106.44
416.49	97.44
416.713	107.44
416.936	92.44
417.159	101.44
417.382	91.44
417.605	91.44
417.828	98.44
418.051	98.44
418.274	88.44
418.497	80.44
418.72	74.44
418.943	87.44
419.166	105.44
419.389	89.44
419.611	94.44
419.834	93.44
420.057	99.44
420.28	100.44
420.503	104.44
420.726	90.44
420.948	106.44
421.171	96.44
421.394	87.44
421.617	91.44
421.839	100.44
422.062	97.44
422.285	82.44
422.507	86.44
422.73	101.44
422.953	94.44
423.175	96.44
423.398	99.44
423.621	82.44
423.843	104.44
424.066	95.44
424.288	84.44
424.511	93.44
424.733	101.44
424.956	98.44
425.178	90.44
425.401	88.44
425.623	102.44
425.846	90.44
426.068	99.44
426.291	75.44
426.513	102.44
426.735	95.44
426.958	99.44
427.18	103.44
427.402	94.44
427.625	96.44
427.847	89.44
428.069	90.44
428.292	90.44
428.514	101.44
428.736	85.44
428.958	85.44
429.181	97.44
429.403	90.44
429.625	98.44
429.847	101.44
430.069	103.44
430.292	101.44
430.514	97.44
430.736	79.44
430.958	100.44
431.18	101.44
431.402	90.44
431.624	84.44
431.846	86.44
432.068	88.44
432.29	87.44
432.512	85.44
432.734	96.44
432.956	90.44
433.178	94.44
433.4	103.44
433.622	89.44
433.844	94.44
434.066	88.44
434.287	87.44
434.509	91.44
434.731	88.44
434.953	88.44
435.175	79.44
435.397	88.44
435.618	96.44
435.84	82.44
436.062	81.44
436.284	95.44
436.505	93.44
436.727	90.44
436.949	86.44
437.17	72.44
437.392	96.44
437.614	100.44
437.835	85.44
438.057	84.44
438.278	96.44
438.5	73.44
438.721	80.44
438.943	87.44
439.165	88.44
439.386	80.44
439.608	82.44
439.829	102.44
440.05	100.44
440.272	104.44
440.493	96.44
440.715	85.44
440.936	101.44
441.158	105.44
441.379	86.44
441.6	90.44
441.822	88.44
442.043	79.44
442.264	89.44
442.486	100.44
442.707	88.44
442.928	95.44
443.149	109.44
443.371	85.44
443.592	95.44
443.813	86.44
444.034	100.44
444.255	89.44
444.476	99.44
444.698	91.44
444.919	112.44
445.14	221.44
445.361	165.44
445.582	93.44
445.803	99.44
446.024	91.44
446.245	101.44
446.466	106.44
446.687	125.44
446.908	97.44
447.129	100.44
447.35	91.44
447.571	86.44
447.792	96.44
448.013	85.44
448.234	91.44
448.455	86.44
448.675	103.44
448.896	86.44
449.117	90.44
449.338	80.44
449.559	91.44
449.779	115.44
450	97.44
450.221	107.44
450.442	93.44
450.662	102.44
450.883	103.44
451.104	68.44
451.324	93.44
451.545	100.44
451.766	102.44
451.986	79.44
452.207	85.44
452.428	87.44
452.648	97.44
452.869	81.44
453.089	99.44
453.31	104.44
453.53	103.44
453.751	90.44
453.971	89.44
454.192	98.44
454.412	81.44
454.633	88.44
454.853	86.44
455.073	86.44
455.294	99.44
455.514	80.44
455.734	74.44
455.955	97.44
456.175	89.44
456.395	97.44
456.616	84.44
456.836	85.44
457.056	89.44
457.276	81.44
457.497	90.44
457.717	90.44
457.937	104.44
458.157	83.44
458.377	91.44
458.598	88.44
458.818	80.44
459.038	87.44
459.258	78.44
459.478	77.44
459.698	85.44
459.918	89.44
460.138	92.44
460.358	81.44
460.578	83.44
460.798	79.44
461.018	96.44
461.238	79.44
461.458	94.44
461.678	85.44
461.898	86.44
462.118	89.44
462.338	89.44
462.558	103.44
462.777	80.44
462.997	84.44
463.217	93.44
463.437	87.44
463.657	97.44
463.876	83.44
464.096	82.44
464.316	84.44
464.536	90.44
464.755	80.44
464.975	92.44
465.195	92.44
465.414	102.44
465.634	101.44
465.854	85.44
466.073	84.44
466.293	89.44
466.512	99.44
466.732	88.44
466.951	87.44
467.171	117.44
467.391	92.44
467.61	100.44
467.829	87.44
468.049	90.44
468.268	88.44
468.488	89.44
468.707	95.44
468.927	86.44
469.146	101.44
469.365	88.44
469.585	92.44
469.804	81.44
470.023	82.44
470.243	99.44
470.462	95.44
470.681	86.44
470.901	95.44
471.12	90.44
471.339	91.44
471.558	99.44
471.777	105.44
471.997	100.44
472.216	93.44
472.435	88.44
472.654	88.44
472.873	98.44
473.092	97.44
473.311	89.44
473.53	95.44
473.749	93.44
473.968	98.44
474.187	91.44
474.406	87.44
474.625	89.44
474.844	94.44
475.063	109.44
475.282	83.44
475.501	91.44
475.72	100.44
475.939	85.44
476.158	91.44
476.377	98.44
476.596	84.44
476.814	88.44
477.033	88.44
477.252	87.44
477.471	98.44
477.69	90.44
477.908	97.44
478.127	102.44
478.346	92.44
478.564	113.44
478.783	91.44
479.002	87.44
479.22	98.44
479.439	104.44
479.658	91.44
479.876	85.44
480.095	82.44
480.313	91.44
480.532	96.44
480.751	85.44
480.969	86.44
481.188	85.44
481.406	81.44
481.624	88.44
481.843	85.44
482.061	77.44
482.28	92.44
482.498	95.44
482.717	86.44
482.935	89.44
483.153	102.44
483.372	102.44
483.59	91.44
483.808	89.44
484.027	103.44
484.245	98.44
484.463	98.44
484.681	94.44
484.9	94.44
485.118	93.44
485.336	91.44
485.554	85.44
485.772	91.44
485.99	82.44
486.209	85.44
486.427	90.44
486.645	86.44
486.863	105.44
487.081	81.44
487.299	87.44
487.517	98.44
487.735	103.44
487.953	117.44
488.171	112.44
488.389	94.44
488.607	94.44
488.825	99.44
489.043	87.44
489.261	92.44
489.479	102.44
489.696	83.44
489.914	97.44
490.132	99.44
490.35	111.44
490.568	94.44
490.786	94.44
491.003	112.44
491.221	105.44
491.439	100.44
491.657	121.44
491.874	113.44
492.092	120.44
492.31	113.44
492.527	127.44
492.745	125.44
492.963	122.44
493.18	113.44
493.398	102.44
493.615	112.44
493.833	111.44
494.05	114.44
494.268	100.44
494.485	112.44
494.703	102.44
494.92	91.44
495.138	107.44
495.355	100.44
495.573	107.44
495.79	113.44
496.008	96.44
496.225	104.44
496.442	96.44
496.66	109.44
496.877	99.44
497.094	103.44
497.312	115.44
497.529	102.44
497.746	84.44
497.963	102.44
498.181	87.44
498.398	72.44
498.615	82.44
498.832	91.44
499.049	82.44
499.267	96.44
499.484	90.44
499.701	91.44
499.918	96.44
500.135	99.44
500.352	83.44
500.569	92.44
500.786	111.44
501.003	83.44
501.22	95.44
501.437	96.44
501.654	113.44
501.871	92.44
502.088	100.44
502.305	111.44
502.522	95.44
502.739	106.44
502.956	93.44
503.172	94.44
503.389	98.44
503.606	99.44
503.823	94.44
504.04	87.44
504.256	100.44
504.473	83.44
504.69	105.44
504.907	91.44
505.123	102.44
505.34	97.44
505.557	90.44
505.773	85.44
505.99	95.44
506.207	106.44
506.423	94.44
506.64	98.44
506.856	87.44
507.073	86.44
507.289	75.44
507.506	94.44
507.722	89.44
507.939	94.44
508.155	101.44
508.372	78.44
508.588	87.44
508.805	91.44
509.021	77.44
509.238	93.44
509.454	78.44
509.67	80.44
509.887	98.44
510.103	74.44
510.319	67.44
510.536	86.44
510.752	78.44
510.968	84.44
511.184	87.44
511.401	83.44
511.617	87.44
511.833	79.44
512.049	74.44
512.265	81.44
512.481	92.44
512.698	101.44
512.914	97.44
513.13	79.44
513.346	88.44
513.562	77.44
513.778	85.44
513.994	94.44
514.21	83.44
514.426	69.44
514.642	85.44
514.858	95.44
515.074	81.44
515.29	80.44
515.506	92.44
515.721	83.44
515.937	96.44
516.153	92.44
516.369	74.44
516.585	84.44
516.801	79.44
517.016	96.44
517.232	78.44
517.448	85.44
517.664	71.44
