Data from Location5.07152019.Energy5.Lamp.07192019.3%Agarose_HRD10591_15-38-31-389.txt Node
Date: Fri Jul 19 15:38:31 EDT 2019
User: cochatt
Spectrometer: HR+D1059
Trigger mode: 1
Integration Time (sec): 1.000000E-1
Scans to average: 1
Electric dark correction enabled: true
Nonlinearity correction enabled: false
Boxcar width: 0
XAxis mode: Wavelengths
Number of Pixels in Spectrum: 2048
>>>>>Begin Spectral Data<<<<<
223.165	-24.44
223.4	-24.44
223.635	-24.44
223.869	-16.44
224.104	-12.44
224.338	-13.44
224.573	-9.44
224.808	-13.44
225.042	-14.44
225.277	-5.44
225.511	-1.44
225.746	8.56
225.98	9.56
226.215	12.56
226.449	15.56
226.683	10.56
226.918	25.56
227.152	28.56
227.387	37.56
227.621	36.56
227.856	44.56
228.09	46.56
228.324	46.56
228.559	50.56
228.793	59.56
229.027	63.56
229.262	57.56
229.496	51.56
229.73	63.56
229.964	69.56
230.199	69.56
230.433	80.56
230.667	85.56
230.901	71.56
231.136	78.56
231.37	72.56
231.604	75.56
231.838	66.56
232.072	93.56
232.306	85.56
232.541	75.56
232.775	93.56
233.009	75.56
233.243	71.56
233.477	86.56
233.711	88.56
233.945	87.56
234.179	102.56
234.413	72.56
234.647	87.56
234.881	87.56
235.115	105.56
235.349	81.56
235.583	86.56
235.817	94.56
236.051	84.56
236.285	82.56
236.519	79.56
236.753	78.56
236.987	82.56
237.221	86.56
237.455	72.56
237.689	82.56
237.922	81.56
238.156	69.56
238.39	83.56
238.624	78.56
238.858	69.56
239.091	73.56
239.325	71.56
239.559	70.56
239.793	75.56
240.027	69.56
240.26	89.56
240.494	92.56
240.728	78.56
240.961	78.56
241.195	67.56
241.429	73.56
241.662	80.56
241.896	61.56
242.13	80.56
242.363	56.56
242.597	65.56
242.83	72.56
243.064	83.56
243.298	74.56
243.531	69.56
243.765	73.56
243.998	70.56
244.232	90.56
244.465	83.56
244.699	85.56
244.932	77.56
245.166	62.56
245.399	81.56
245.633	67.56
245.866	71.56
246.099	87.56
246.333	80.56
246.566	83.56
246.8	78.56
247.033	68.56
247.266	81.56
247.5	74.56
247.733	78.56
247.966	74.56
248.2	87.56
248.433	85.56
248.666	89.56
248.899	97.56
249.133	89.56
249.366	80.56
249.599	85.56
249.832	83.56
250.066	72.56
250.299	58.56
250.532	79.56
250.765	86.56
250.998	81.56
251.231	84.56
251.465	83.56
251.698	77.56
251.931	68.56
252.164	85.56
252.397	85.56
252.63	88.56
252.863	71.56
253.096	78.56
253.329	71.56
253.562	70.56
253.795	73.56
254.028	81.56
254.261	75.56
254.494	72.56
254.727	80.56
254.96	75.56
255.193	82.56
255.426	85.56
255.659	82.56
255.892	66.56
256.124	83.56
256.357	85.56
256.59	81.56
256.823	88.56
257.056	75.56
257.289	84.56
257.521	64.56
257.754	81.56
257.987	77.56
258.22	86.56
258.452	89.56
258.685	74.56
258.918	86.56
259.151	80.56
259.383	77.56
259.616	89.56
259.849	74.56
260.081	87.56
260.314	83.56
260.547	85.56
260.779	74.56
261.012	81.56
261.244	79.56
261.477	74.56
261.71	72.56
261.942	73.56
262.175	86.56
262.407	88.56
262.64	72.56
262.872	78.56
263.105	87.56
263.337	71.56
263.57	70.56
263.802	78.56
264.035	72.56
264.267	87.56
264.499	86.56
264.732	88.56
264.964	76.56
265.197	87.56
265.429	75.56
265.661	75.56
265.894	87.56
266.126	90.56
266.358	73.56
266.591	89.56
266.823	67.56
267.055	81.56
267.287	84.56
267.52	62.56
267.752	79.56
267.984	74.56
268.216	83.56
268.448	80.56
268.681	94.56
268.913	78.56
269.145	81.56
269.377	73.56
269.609	85.56
269.841	86.56
270.073	80.56
270.306	83.56
270.538	80.56
270.77	70.56
271.002	84.56
271.234	75.56
271.466	79.56
271.698	68.56
271.93	81.56
272.162	97.56
272.394	83.56
272.626	88.56
272.858	85.56
273.09	79.56
273.322	84.56
273.553	81.56
273.785	76.56
274.017	77.56
274.249	78.56
274.481	86.56
274.713	74.56
274.945	76.56
275.176	83.56
275.408	90.56
275.64	70.56
275.872	74.56
276.104	80.56
276.335	84.56
276.567	75.56
276.799	67.56
277.031	76.56
277.262	85.56
277.494	80.56
277.726	78.56
277.957	80.56
278.189	89.56
278.421	70.56
278.652	77.56
278.884	75.56
279.115	75.56
279.347	66.56
279.579	74.56
279.81	80.56
280.042	83.56
280.273	89.56
280.505	82.56
280.736	79.56
280.968	86.56
281.199	70.56
281.431	95.56
281.662	62.56
281.894	83.56
282.125	93.56
282.356	86.56
282.588	69.56
282.819	67.56
283.051	81.56
283.282	89.56
283.513	85.56
283.745	83.56
283.976	81.56
284.207	92.56
284.439	77.56
284.67	95.56
284.901	90.56
285.132	81.56
285.364	84.56
285.595	82.56
285.826	70.56
286.057	70.56
286.288	84.56
286.52	88.56
286.751	91.56
286.982	94.56
287.213	86.56
287.444	85.56
287.675	73.56
287.906	82.56
288.138	78.56
288.369	90.56
288.6	92.56
288.831	80.56
289.062	93.56
289.293	83.56
289.524	79.56
289.755	87.56
289.986	72.56
290.217	76.56
290.448	92.56
290.679	99.56
290.91	83.56
291.141	77.56
291.371	79.56
291.602	71.56
291.833	90.56
292.064	87.56
292.295	88.56
292.526	77.56
292.757	76.56
292.987	90.56
293.218	78.56
293.449	87.56
293.68	78.56
293.91	73.56
294.141	69.56
294.372	77.56
294.603	90.56
294.833	104.56
295.064	71.56
295.295	77.56
295.525	90.56
295.756	89.56
295.987	78.56
296.217	68.56
296.448	87.56
296.679	86.56
296.909	95.56
297.14	97.56
297.37	83.56
297.601	100.56
297.831	94.56
298.062	94.56
298.292	66.56
298.523	89.56
298.753	83.56
298.984	79.56
299.214	90.56
299.445	74.56
299.675	87.56
299.905	90.56
300.136	86.56
300.366	70.56
300.597	79.56
300.827	73.56
301.057	75.56
301.288	81.56
301.518	79.56
301.748	85.56
301.979	88.56
302.209	73.56
302.439	74.56
302.669	84.56
302.9	81.56
303.13	91.56
303.36	96.56
303.59	92.56
303.82	89.56
304.051	87.56
304.281	83.56
304.511	81.56
304.741	80.56
304.971	95.56
305.201	82.56
305.431	92.56
305.661	74.56
305.891	74.56
306.121	81.56
306.352	74.56
306.582	82.56
306.812	81.56
307.042	86.56
307.272	94.56
307.502	82.56
307.731	86.56
307.961	84.56
308.191	79.56
308.421	85.56
308.651	83.56
308.881	87.56
309.111	88.56
309.341	79.56
309.571	94.56
309.8	79.56
310.03	78.56
310.26	87.56
310.49	79.56
310.72	77.56
310.949	81.56
311.179	86.56
311.409	78.56
311.639	96.56
311.868	90.56
312.098	95.56
312.328	84.56
312.557	88.56
312.787	92.56
313.017	81.56
313.246	88.56
313.476	78.56
313.706	75.56
313.935	89.56
314.165	83.56
314.394	72.56
314.624	75.56
314.853	93.56
315.083	79.56
315.312	93.56
315.542	84.56
315.771	79.56
316.001	91.56
316.23	86.56
316.46	81.56
316.689	78.56
316.919	73.56
317.148	82.56
317.377	86.56
317.607	85.56
317.836	75.56
318.065	79.56
318.295	76.56
318.524	86.56
318.753	67.56
318.983	75.56
319.212	75.56
319.441	77.56
319.67	93.56
319.9	78.56
320.129	77.56
320.358	72.56
320.587	79.56
320.816	89.56
321.046	84.56
321.275	85.56
321.504	80.56
321.733	94.56
321.962	82.56
322.191	91.56
322.42	82.56
322.649	99.56
322.878	89.56
323.108	96.56
323.337	86.56
323.566	80.56
323.795	72.56
324.024	80.56
324.253	77.56
324.482	77.56
324.71	83.56
324.939	78.56
325.168	89.56
325.397	86.56
325.626	95.56
325.855	88.56
326.084	74.56
326.313	70.56
326.542	89.56
326.77	85.56
326.999	85.56
327.228	75.56
327.457	83.56
327.686	84.56
327.914	75.56
328.143	81.56
328.372	98.56
328.6	72.56
328.829	86.56
329.058	84.56
329.287	90.56
329.515	83.56
329.744	87.56
329.972	88.56
330.201	86.56
330.43	75.56
330.658	93.56
330.887	80.56
331.115	81.56
331.344	84.56
331.572	89.56
331.801	85.56
332.03	84.56
332.258	85.56
332.486	76.56
332.715	68.56
332.943	81.56
333.172	86.56
333.4	82.56
333.629	83.56
333.857	88.56
334.085	87.56
334.314	89.56
334.542	86.56
334.771	90.56
334.999	87.56
335.227	86.56
335.455	81.56
335.684	79.56
335.912	73.56
336.14	82.56
336.369	79.56
336.597	78.56
336.825	84.56
337.053	80.56
337.281	91.56
337.51	81.56
337.738	78.56
337.966	79.56
338.194	99.56
338.422	76.56
338.65	71.56
338.878	75.56
339.106	75.56
339.334	87.56
339.562	82.56
339.79	73.56
340.018	99.56
340.246	88.56
340.474	83.56
340.702	81.56
340.93	81.56
341.158	66.56
341.386	83.56
341.614	76.56
341.842	82.56
342.07	78.56
342.298	104.56
342.526	88.56
342.754	73.56
342.981	88.56
343.209	76.56
343.437	83.56
343.665	76.56
343.893	93.56
344.12	85.56
344.348	83.56
344.576	92.56
344.804	90.56
345.031	79.56
345.259	79.56
345.487	95.56
345.714	91.56
345.942	89.56
346.17	80.56
346.397	71.56
346.625	87.56
346.853	86.56
347.08	82.56
347.308	82.56
347.535	66.56
347.763	80.56
347.99	90.56
348.218	69.56
348.445	65.56
348.673	85.56
348.9	71.56
349.128	89.56
349.355	86.56
349.583	84.56
349.81	90.56
350.037	81.56
350.265	71.56
350.492	85.56
350.72	78.56
350.947	72.56
351.174	78.56
351.402	73.56
351.629	77.56
351.856	82.56
352.083	84.56
352.311	82.56
352.538	85.56
352.765	72.56
352.992	83.56
353.22	78.56
353.447	78.56
353.674	75.56
353.901	73.56
354.128	80.56
354.355	96.56
354.583	78.56
354.81	74.56
355.037	91.56
355.264	83.56
355.491	71.56
355.718	88.56
355.945	72.56
356.172	81.56
356.399	84.56
356.626	88.56
356.853	86.56
357.08	81.56
357.307	92.56
357.534	69.56
357.761	86.56
357.988	88.56
358.215	73.56
358.441	88.56
358.668	80.56
358.895	87.56
359.122	89.56
359.349	92.56
359.576	75.56
359.802	76.56
360.029	86.56
360.256	84.56
360.483	81.56
360.709	77.56
360.936	91.56
361.163	77.56
361.39	74.56
361.616	65.56
361.843	73.56
362.07	82.56
362.296	85.56
362.523	75.56
362.749	89.56
362.976	78.56
363.203	81.56
363.429	79.56
363.656	89.56
363.882	82.56
364.109	83.56
364.335	76.56
364.562	94.56
364.788	94.56
365.015	85.56
365.241	71.56
365.468	78.56
365.694	82.56
365.92	87.56
366.147	89.56
366.373	86.56
366.599	80.56
366.826	98.56
367.052	92.56
367.278	94.56
367.505	99.56
367.731	87.56
367.957	80.56
368.184	81.56
368.41	70.56
368.636	68.56
368.862	83.56
369.089	75.56
369.315	83.56
369.541	82.56
369.767	81.56
369.993	90.56
370.219	82.56
370.445	72.56
370.672	90.56
370.898	72.56
371.124	87.56
371.35	74.56
371.576	71.56
371.802	75.56
372.028	79.56
372.254	95.56
372.48	80.56
372.706	80.56
372.932	64.56
373.158	93.56
373.384	85.56
373.61	82.56
373.835	76.56
374.061	89.56
374.287	69.56
374.513	74.56
374.739	93.56
374.965	83.56
375.191	80.56
375.416	86.56
375.642	64.56
375.868	79.56
376.094	95.56
376.319	94.56
376.545	80.56
376.771	89.56
376.997	71.56
377.222	86.56
377.448	80.56
377.674	87.56
377.899	103.56
378.125	72.56
378.35	87.56
378.576	79.56
378.802	87.56
379.027	83.56
379.253	87.56
379.478	66.56
379.704	83.56
379.929	94.56
380.155	79.56
380.38	84.56
380.606	78.56
380.831	79.56
381.057	85.56
381.282	86.56
381.507	93.56
381.733	87.56
381.958	86.56
382.184	83.56
382.409	82.56
382.634	94.56
382.86	72.56
383.085	75.56
383.31	78.56
383.535	82.56
383.761	99.56
383.986	87.56
384.211	80.56
384.436	86.56
384.662	81.56
384.887	78.56
385.112	79.56
385.337	80.56
385.562	78.56
385.787	84.56
386.013	75.56
386.238	77.56
386.463	66.56
386.688	86.56
386.913	79.56
387.138	83.56
387.363	90.56
387.588	75.56
387.813	90.56
388.038	80.56
388.263	79.56
388.488	71.56
388.713	71.56
388.938	79.56
389.163	84.56
389.387	84.56
389.612	82.56
389.837	72.56
390.062	90.56
390.287	85.56
390.512	86.56
390.736	101.56
390.961	73.56
391.186	74.56
391.411	81.56
391.636	90.56
391.86	65.56
392.085	89.56
392.31	78.56
392.534	78.56
392.759	90.56
392.984	80.56
393.208	85.56
393.433	85.56
393.658	90.56
393.882	82.56
394.107	83.56
394.331	79.56
394.556	78.56
394.78	76.56
395.005	77.56
395.229	75.56
395.454	87.56
395.678	93.56
395.903	80.56
396.127	68.56
396.352	80.56
396.576	89.56
396.801	96.56
397.025	99.56
397.249	76.56
397.474	87.56
397.698	86.56
397.922	77.56
398.147	85.56
398.371	89.56
398.595	95.56
398.82	83.56
399.044	75.56
399.268	90.56
399.492	79.56
399.717	81.56
399.941	87.56
400.165	75.56
400.389	90.56
400.613	89.56
400.837	93.56
401.062	85.56
401.286	94.56
401.51	83.56
401.734	101.56
401.958	79.56
402.182	80.56
402.406	88.56
402.63	86.56
402.854	79.56
403.078	99.56
403.302	89.56
403.526	92.56
403.75	86.56
403.974	61.56
404.198	91.56
404.422	82.56
404.645	86.56
404.869	91.56
405.093	89.56
405.317	73.56
405.541	85.56
405.765	88.56
405.988	89.56
406.212	75.56
406.436	93.56
406.66	73.56
406.883	79.56
407.107	91.56
407.331	79.56
407.555	102.56
407.778	74.56
408.002	95.56
408.226	80.56
408.449	83.56
408.673	80.56
408.896	99.56
409.12	86.56
409.344	104.56
409.567	96.56
409.791	84.56
410.014	93.56
410.238	92.56
410.461	89.56
410.685	88.56
410.908	82.56
411.132	84.56
411.355	91.56
411.578	93.56
411.802	87.56
412.025	88.56
412.249	106.56
412.472	82.56
412.695	94.56
412.919	81.56
413.142	94.56
413.365	86.56
413.589	88.56
413.812	97.56
414.035	93.56
414.258	68.56
414.482	86.56
414.705	89.56
414.928	78.56
415.151	93.56
415.374	86.56
415.597	85.56
415.821	89.56
416.044	90.56
416.267	87.56
416.49	89.56
416.713	85.56
416.936	78.56
417.159	93.56
417.382	97.56
417.605	89.56
417.828	94.56
418.051	98.56
418.274	90.56
418.497	94.56
418.72	88.56
418.943	95.56
419.166	107.56
419.389	86.56
419.611	75.56
419.834	94.56
420.057	88.56
420.28	99.56
420.503	95.56
420.726	82.56
420.948	89.56
421.171	100.56
421.394	94.56
421.617	90.56
421.839	93.56
422.062	93.56
422.285	85.56
422.507	81.56
422.73	89.56
422.953	95.56
423.175	86.56
423.398	86.56
423.621	88.56
423.843	102.56
424.066	97.56
424.288	82.56
424.511	92.56
424.733	113.56
424.956	105.56
425.178	99.56
425.401	102.56
425.623	99.56
425.846	100.56
426.068	85.56
426.291	92.56
426.513	85.56
426.735	89.56
426.958	98.56
427.18	96.56
427.402	100.56
427.625	87.56
427.847	90.56
428.069	75.56
428.292	79.56
428.514	100.56
428.736	89.56
428.958	98.56
429.181	87.56
429.403	94.56
429.625	104.56
429.847	96.56
430.069	87.56
430.292	93.56
430.514	104.56
430.736	86.56
430.958	100.56
431.18	93.56
431.402	86.56
431.624	92.56
431.846	107.56
432.068	75.56
432.29	81.56
432.512	100.56
432.734	85.56
432.956	93.56
433.178	82.56
433.4	101.56
433.622	83.56
433.844	86.56
434.066	81.56
434.287	87.56
434.509	74.56
434.731	87.56
434.953	81.56
435.175	94.56
435.397	84.56
435.618	98.56
435.84	79.56
436.062	82.56
436.284	99.56
436.505	77.56
436.727	114.56
436.949	98.56
437.17	93.56
437.392	90.56
437.614	89.56
437.835	95.56
438.057	101.56
438.278	94.56
438.5	80.56
438.721	93.56
438.943	101.56
439.165	85.56
439.386	102.56
439.608	98.56
439.829	82.56
440.05	87.56
440.272	103.56
440.493	109.56
440.715	90.56
440.936	102.56
441.158	97.56
441.379	84.56
441.6	88.56
441.822	95.56
442.043	92.56
442.264	92.56
442.486	93.56
442.707	92.56
442.928	100.56
443.149	88.56
443.371	93.56
443.592	81.56
443.813	99.56
444.034	82.56
444.255	92.56
444.476	105.56
444.698	87.56
444.919	94.56
445.14	225.56
445.361	168.56
445.582	82.56
445.803	93.56
446.024	95.56
446.245	96.56
446.466	108.56
446.687	98.56
446.908	93.56
447.129	87.56
447.35	77.56
447.571	102.56
447.792	102.56
448.013	92.56
448.234	95.56
448.455	89.56
448.675	96.56
448.896	86.56
449.117	77.56
449.338	94.56
449.559	101.56
449.779	93.56
450	109.56
450.221	92.56
450.442	96.56
450.662	97.56
450.883	102.56
451.104	90.56
451.324	82.56
451.545	90.56
451.766	86.56
451.986	66.56
452.207	91.56
452.428	108.56
452.648	111.56
452.869	118.56
453.089	80.56
453.31	94.56
453.53	75.56
453.751	75.56
453.971	79.56
454.192	88.56
454.412	70.56
454.633	66.56
454.853	86.56
455.073	83.56
455.294	86.56
455.514	85.56
455.734	102.56
455.955	94.56
456.175	68.56
456.395	83.56
456.616	81.56
456.836	86.56
457.056	83.56
457.276	97.56
457.497	74.56
457.717	89.56
457.937	97.56
458.157	89.56
458.377	80.56
458.598	91.56
458.818	83.56
459.038	78.56
459.258	74.56
459.478	78.56
459.698	76.56
459.918	72.56
460.138	85.56
460.358	86.56
460.578	77.56
460.798	94.56
461.018	87.56
461.238	89.56
461.458	96.56
461.678	82.56
461.898	87.56
462.118	90.56
462.338	74.56
462.558	90.56
462.777	95.56
462.997	101.56
463.217	90.56
463.437	107.56
463.657	91.56
463.876	89.56
464.096	77.56
464.316	89.56
464.536	99.56
464.755	99.56
464.975	102.56
465.195	81.56
465.414	95.56
465.634	92.56
465.854	89.56
466.073	88.56
466.293	112.56
466.512	92.56
466.732	92.56
466.951	100.56
467.171	93.56
467.391	94.56
467.61	95.56
467.829	84.56
468.049	82.56
468.268	108.56
468.488	97.56
468.707	100.56
468.927	98.56
469.146	101.56
469.365	93.56
469.585	90.56
469.804	92.56
470.023	96.56
470.243	99.56
470.462	106.56
470.681	82.56
470.901	111.56
471.12	88.56
471.339	100.56
471.558	86.56
471.777	89.56
471.997	99.56
472.216	97.56
472.435	92.56
472.654	94.56
472.873	74.56
473.092	101.56
473.311	94.56
473.53	88.56
473.749	100.56
473.968	86.56
474.187	91.56
474.406	81.56
474.625	99.56
474.844	87.56
475.063	94.56
475.282	93.56
475.501	93.56
475.72	84.56
475.939	108.56
476.158	96.56
476.377	95.56
476.596	96.56
476.814	89.56
477.033	88.56
477.252	96.56
477.471	104.56
477.69	85.56
477.908	98.56
478.127	92.56
478.346	107.56
478.564	102.56
478.783	94.56
479.002	89.56
479.22	93.56
479.439	109.56
479.658	76.56
479.876	92.56
480.095	100.56
480.313	84.56
480.532	87.56
480.751	86.56
480.969	81.56
481.188	77.56
481.406	94.56
481.624	91.56
481.843	89.56
482.061	89.56
482.28	79.56
482.498	82.56
482.717	82.56
482.935	98.56
483.153	90.56
483.372	93.56
483.59	98.56
483.808	86.56
484.027	94.56
484.245	95.56
484.463	93.56
484.681	110.56
484.9	109.56
485.118	79.56
485.336	95.56
485.554	91.56
485.772	93.56
485.99	87.56
486.209	75.56
486.427	86.56
486.645	93.56
486.863	83.56
487.081	91.56
487.299	91.56
487.517	95.56
487.735	98.56
487.953	117.56
488.171	109.56
488.389	108.56
488.607	106.56
488.825	75.56
489.043	84.56
489.261	98.56
489.479	95.56
489.696	100.56
489.914	98.56
490.132	110.56
490.35	100.56
490.568	95.56
490.786	94.56
491.003	111.56
491.221	109.56
491.439	103.56
491.657	106.56
491.874	114.56
492.092	122.56
492.31	126.56
492.527	123.56
492.745	110.56
492.963	101.56
493.18	106.56
493.398	102.56
493.615	104.56
493.833	97.56
494.05	101.56
494.268	113.56
494.485	104.56
494.703	95.56
494.92	106.56
495.138	101.56
495.355	105.56
495.573	98.56
495.79	110.56
496.008	86.56
496.225	104.56
496.442	110.56
496.66	111.56
496.877	94.56
497.094	106.56
497.312	114.56
497.529	99.56
497.746	90.56
497.963	95.56
498.181	109.56
498.398	105.56
498.615	102.56
498.832	90.56
499.049	83.56
499.267	95.56
499.484	109.56
499.701	89.56
499.918	93.56
500.135	105.56
500.352	88.56
500.569	93.56
500.786	104.56
501.003	105.56
501.22	89.56
501.437	102.56
501.654	87.56
501.871	92.56
502.088	97.56
502.305	101.56
502.522	101.56
502.739	100.56
502.956	90.56
503.172	94.56
503.389	88.56
503.606	101.56
503.823	98.56
504.04	93.56
504.256	99.56
504.473	89.56
504.69	82.56
504.907	96.56
505.123	80.56
505.34	83.56
505.557	105.56
505.773	95.56
505.99	103.56
506.207	100.56
506.423	84.56
506.64	92.56
506.856	94.56
507.073	116.56
507.289	86.56
507.506	78.56
507.722	87.56
507.939	96.56
508.155	87.56
508.372	90.56
508.588	93.56
508.805	86.56
509.021	75.56
509.238	96.56
509.454	79.56
509.67	94.56
509.887	72.56
510.103	85.56
510.319	71.56
510.536	88.56
510.752	81.56
510.968	79.56
511.184	75.56
511.401	83.56
511.617	83.56
511.833	77.56
512.049	93.56
512.265	87.56
512.481	83.56
512.698	90.56
512.914	74.56
513.13	85.56
513.346	83.56
513.562	90.56
513.778	89.56
513.994	85.56
514.21	83.56
514.426	89.56
514.642	84.56
514.858	89.56
515.074	92.56
515.29	76.56
515.506	94.56
515.721	88.56
515.937	74.56
516.153	89.56
516.369	87.56
516.585	80.56
516.801	79.56
517.016	79.56
517.232	75.56
517.448	67.56
517.664	83.56
517.879	96.56
