Data from Location5.07152019.Energy5.Lamp.07192019.3%Agarose_HRD10591_16-02-51-629.txt Node
Date: Fri Jul 19 16:02:51 EDT 2019
User: cochatt
Spectrometer: HR+D1059
Trigger mode: 1
Integration Time (sec): 1.000000E-1
Scans to average: 1
Electric dark correction enabled: true
Nonlinearity correction enabled: false
Boxcar width: 0
XAxis mode: Wavelengths
Number of Pixels in Spectrum: 2048
>>>>>Begin Spectral Data<<<<<
223.165	-13.75
223.4	-13.75
223.635	-13.75
223.869	-12.75
224.104	-18.75
224.338	-17.75
224.573	-25.75
224.808	-4.75
225.042	-10.75
225.277	-4.75
225.511	5.25
225.746	8.25
225.98	-2.75
226.215	9.25
226.449	14.25
226.683	18.25
226.918	31.25
227.152	25.25
227.387	40.25
227.621	45.25
227.856	50.25
228.09	35.25
228.324	44.25
228.559	44.25
228.793	54.25
229.027	77.25
229.262	60.25
229.496	51.25
229.73	68.25
229.964	59.25
230.199	70.25
230.433	60.25
230.667	89.25
230.901	80.25
231.136	82.25
231.37	85.25
231.604	76.25
231.838	85.25
232.072	84.25
232.306	99.25
232.541	85.25
232.775	85.25
233.009	82.25
233.243	81.25
233.477	92.25
233.711	83.25
233.945	81.25
234.179	85.25
234.413	86.25
234.647	77.25
234.881	83.25
235.115	86.25
235.349	90.25
235.583	84.25
235.817	86.25
236.051	88.25
236.285	86.25
236.519	88.25
236.753	76.25
236.987	86.25
237.221	80.25
237.455	83.25
237.689	82.25
237.922	77.25
238.156	68.25
238.39	91.25
238.624	93.25
238.858	84.25
239.091	82.25
239.325	76.25
239.559	74.25
239.793	92.25
240.027	87.25
240.26	83.25
240.494	91.25
240.728	83.25
240.961	86.25
241.195	74.25
241.429	88.25
241.662	85.25
241.896	72.25
242.13	72.25
242.363	83.25
242.597	76.25
242.83	83.25
243.064	80.25
243.298	81.25
243.531	78.25
243.765	90.25
243.998	83.25
244.232	73.25
244.465	74.25
244.699	66.25
244.932	75.25
245.166	81.25
245.399	73.25
245.633	78.25
245.866	70.25
246.099	76.25
246.333	94.25
246.566	74.25
246.8	80.25
247.033	73.25
247.266	76.25
247.5	81.25
247.733	74.25
247.966	100.25
248.2	78.25
248.433	83.25
248.666	82.25
248.899	69.25
249.133	69.25
249.366	66.25
249.599	105.25
249.832	93.25
250.066	90.25
250.299	82.25
250.532	92.25
250.765	86.25
250.998	80.25
251.231	87.25
251.465	82.25
251.698	82.25
251.931	71.25
252.164	89.25
252.397	86.25
252.63	86.25
252.863	76.25
253.096	82.25
253.329	96.25
253.562	78.25
253.795	67.25
254.028	85.25
254.261	81.25
254.494	98.25
254.727	83.25
254.96	86.25
255.193	84.25
255.426	82.25
255.659	83.25
255.892	88.25
256.124	84.25
256.357	93.25
256.59	75.25
256.823	77.25
257.056	78.25
257.289	76.25
257.521	85.25
257.754	91.25
257.987	86.25
258.22	73.25
258.452	92.25
258.685	90.25
258.918	72.25
259.151	89.25
259.383	89.25
259.616	79.25
259.849	77.25
260.081	83.25
260.314	75.25
260.547	80.25
260.779	93.25
261.012	76.25
261.244	83.25
261.477	77.25
261.71	84.25
261.942	87.25
262.175	83.25
262.407	85.25
262.64	82.25
262.872	69.25
263.105	72.25
263.337	89.25
263.57	91.25
263.802	85.25
264.035	84.25
264.267	80.25
264.499	95.25
264.732	93.25
264.964	79.25
265.197	100.25
265.429	97.25
265.661	88.25
265.894	98.25
266.126	85.25
266.358	82.25
266.591	66.25
266.823	84.25
267.055	89.25
267.287	79.25
267.52	91.25
267.752	85.25
267.984	80.25
268.216	92.25
268.448	93.25
268.681	86.25
268.913	85.25
269.145	95.25
269.377	89.25
269.609	80.25
269.841	77.25
270.073	93.25
270.306	82.25
270.538	92.25
270.77	88.25
271.002	90.25
271.234	90.25
271.466	92.25
271.698	86.25
271.93	85.25
272.162	79.25
272.394	82.25
272.626	84.25
272.858	87.25
273.09	92.25
273.322	71.25
273.553	93.25
273.785	94.25
274.017	85.25
274.249	86.25
274.481	87.25
274.713	86.25
274.945	100.25
275.176	101.25
275.408	103.25
275.64	89.25
275.872	96.25
276.104	92.25
276.335	77.25
276.567	83.25
276.799	96.25
277.031	72.25
277.262	80.25
277.494	82.25
277.726	90.25
277.957	85.25
278.189	84.25
278.421	82.25
278.652	85.25
278.884	73.25
279.115	84.25
279.347	73.25
279.579	104.25
279.81	93.25
280.042	82.25
280.273	96.25
280.505	100.25
280.736	91.25
280.968	75.25
281.199	90.25
281.431	82.25
281.662	83.25
281.894	94.25
282.125	86.25
282.356	83.25
282.588	91.25
282.819	93.25
283.051	98.25
283.282	98.25
283.513	87.25
283.745	82.25
283.976	89.25
284.207	76.25
284.439	81.25
284.67	101.25
284.901	88.25
285.132	88.25
285.364	99.25
285.595	98.25
285.826	96.25
286.057	100.25
286.288	79.25
286.52	98.25
286.751	94.25
286.982	76.25
287.213	77.25
287.444	101.25
287.675	84.25
287.906	88.25
288.138	73.25
288.369	93.25
288.6	81.25
288.831	89.25
289.062	95.25
289.293	97.25
289.524	97.25
289.755	81.25
289.986	97.25
290.217	89.25
290.448	108.25
290.679	91.25
290.91	106.25
291.141	93.25
291.371	88.25
291.602	84.25
291.833	88.25
292.064	92.25
292.295	95.25
292.526	98.25
292.757	101.25
292.987	93.25
293.218	94.25
293.449	86.25
293.68	86.25
293.91	88.25
294.141	91.25
294.372	106.25
294.603	85.25
294.833	91.25
295.064	90.25
295.295	88.25
295.525	81.25
295.756	81.25
295.987	100.25
296.217	82.25
296.448	93.25
296.679	80.25
296.909	97.25
297.14	81.25
297.37	93.25
297.601	96.25
297.831	97.25
298.062	77.25
298.292	101.25
298.523	102.25
298.753	98.25
298.984	76.25
299.214	102.25
299.445	107.25
299.675	97.25
299.905	77.25
300.136	95.25
300.366	77.25
300.597	93.25
300.827	94.25
301.057	84.25
301.288	84.25
301.518	88.25
301.748	77.25
301.979	94.25
302.209	90.25
302.439	101.25
302.669	97.25
302.9	92.25
303.13	92.25
303.36	92.25
303.59	99.25
303.82	99.25
304.051	85.25
304.281	74.25
304.511	106.25
304.741	84.25
304.971	104.25
305.201	101.25
305.431	92.25
305.661	106.25
305.891	85.25
306.121	98.25
306.352	85.25
306.582	101.25
306.812	82.25
307.042	92.25
307.272	91.25
307.502	98.25
307.731	93.25
307.961	96.25
308.191	99.25
308.421	90.25
308.651	92.25
308.881	88.25
309.111	83.25
309.341	107.25
309.571	89.25
309.8	100.25
310.03	84.25
310.26	109.25
310.49	78.25
310.72	91.25
310.949	87.25
311.179	94.25
311.409	95.25
311.639	96.25
311.868	96.25
312.098	101.25
312.328	98.25
312.557	91.25
312.787	102.25
313.017	90.25
313.246	76.25
313.476	94.25
313.706	103.25
313.935	85.25
314.165	88.25
314.394	96.25
314.624	75.25
314.853	66.25
315.083	74.25
315.312	82.25
315.542	97.25
315.771	96.25
316.001	98.25
316.23	91.25
316.46	99.25
316.689	93.25
316.919	91.25
317.148	92.25
317.377	100.25
317.607	99.25
317.836	94.25
318.065	97.25
318.295	78.25
318.524	110.25
318.753	108.25
318.983	93.25
319.212	86.25
319.441	92.25
319.67	105.25
319.9	97.25
320.129	98.25
320.358	94.25
320.587	114.25
320.816	99.25
321.046	98.25
321.275	93.25
321.504	103.25
321.733	100.25
321.962	89.25
322.191	91.25
322.42	91.25
322.649	90.25
322.878	104.25
323.108	97.25
323.337	84.25
323.566	88.25
323.795	82.25
324.024	101.25
324.253	89.25
324.482	84.25
324.71	89.25
324.939	101.25
325.168	109.25
325.397	86.25
325.626	101.25
325.855	92.25
326.084	99.25
326.313	100.25
326.542	97.25
326.77	100.25
326.999	107.25
327.228	100.25
327.457	100.25
327.686	75.25
327.914	83.25
328.143	99.25
328.372	95.25
328.6	88.25
328.829	94.25
329.058	85.25
329.287	87.25
329.515	97.25
329.744	92.25
329.972	106.25
330.201	98.25
330.43	90.25
330.658	95.25
330.887	93.25
331.115	80.25
331.344	92.25
331.572	93.25
331.801	100.25
332.03	92.25
332.258	100.25
332.486	104.25
332.715	92.25
332.943	105.25
333.172	93.25
333.4	101.25
333.629	97.25
333.857	91.25
334.085	88.25
334.314	96.25
334.542	100.25
334.771	94.25
334.999	97.25
335.227	91.25
335.455	98.25
335.684	95.25
335.912	85.25
336.14	100.25
336.369	93.25
336.597	97.25
336.825	93.25
337.053	92.25
337.281	92.25
337.51	84.25
337.738	97.25
337.966	92.25
338.194	88.25
338.422	91.25
338.65	94.25
338.878	105.25
339.106	101.25
339.334	108.25
339.562	98.25
339.79	82.25
340.018	106.25
340.246	104.25
340.474	104.25
340.702	94.25
340.93	88.25
341.158	98.25
341.386	96.25
341.614	84.25
341.842	92.25
342.07	91.25
342.298	98.25
342.526	94.25
342.754	92.25
342.981	98.25
343.209	96.25
343.437	112.25
343.665	92.25
343.893	103.25
344.12	104.25
344.348	101.25
344.576	86.25
344.804	87.25
345.031	104.25
345.259	94.25
345.487	101.25
345.714	83.25
345.942	77.25
346.17	90.25
346.397	83.25
346.625	98.25
346.853	89.25
347.08	91.25
347.308	90.25
347.535	93.25
347.763	105.25
347.99	85.25
348.218	94.25
348.445	94.25
348.673	89.25
348.9	98.25
349.128	100.25
349.355	97.25
349.583	81.25
349.81	82.25
350.037	100.25
350.265	95.25
350.492	85.25
350.72	86.25
350.947	105.25
351.174	100.25
351.402	97.25
351.629	93.25
351.856	91.25
352.083	85.25
352.311	79.25
352.538	84.25
352.765	93.25
352.992	102.25
353.22	101.25
353.447	83.25
353.674	101.25
353.901	101.25
354.128	101.25
354.355	92.25
354.583	89.25
354.81	86.25
355.037	115.25
355.264	108.25
355.491	111.25
355.718	97.25
355.945	77.25
356.172	87.25
356.399	99.25
356.626	88.25
356.853	96.25
357.08	96.25
357.307	97.25
357.534	102.25
357.761	90.25
357.988	78.25
358.215	79.25
358.441	79.25
358.668	88.25
358.895	90.25
359.122	100.25
359.349	100.25
359.576	91.25
359.802	98.25
360.029	91.25
360.256	105.25
360.483	102.25
360.709	96.25
360.936	111.25
361.163	107.25
361.39	82.25
361.616	107.25
361.843	93.25
362.07	94.25
362.296	98.25
362.523	89.25
362.749	84.25
362.976	89.25
363.203	101.25
363.429	115.25
363.656	100.25
363.882	95.25
364.109	98.25
364.335	100.25
364.562	97.25
364.788	99.25
365.015	83.25
365.241	94.25
365.468	95.25
365.694	102.25
365.92	101.25
366.147	100.25
366.373	91.25
366.599	91.25
366.826	84.25
367.052	92.25
367.278	95.25
367.505	86.25
367.731	85.25
367.957	106.25
368.184	96.25
368.41	98.25
368.636	94.25
368.862	97.25
369.089	82.25
369.315	95.25
369.541	96.25
369.767	96.25
369.993	93.25
370.219	91.25
370.445	96.25
370.672	78.25
370.898	76.25
371.124	94.25
371.35	101.25
371.576	74.25
371.802	92.25
372.028	99.25
372.254	92.25
372.48	89.25
372.706	90.25
372.932	97.25
373.158	92.25
373.384	101.25
373.61	92.25
373.835	96.25
374.061	96.25
374.287	99.25
374.513	90.25
374.739	102.25
374.965	95.25
375.191	91.25
375.416	116.25
375.642	91.25
375.868	100.25
376.094	95.25
376.319	99.25
376.545	98.25
376.771	75.25
376.997	92.25
377.222	82.25
377.448	85.25
377.674	93.25
377.899	104.25
378.125	78.25
378.35	89.25
378.576	93.25
378.802	90.25
379.027	88.25
379.253	94.25
379.478	86.25
379.704	101.25
379.929	101.25
380.155	100.25
380.38	93.25
380.606	79.25
380.831	92.25
381.057	94.25
381.282	98.25
381.507	76.25
381.733	98.25
381.958	84.25
382.184	96.25
382.409	81.25
382.634	83.25
382.86	97.25
383.085	95.25
383.31	100.25
383.535	90.25
383.761	101.25
383.986	92.25
384.211	95.25
384.436	86.25
384.662	96.25
384.887	105.25
385.112	91.25
385.337	108.25
385.562	93.25
385.787	96.25
386.013	105.25
386.238	97.25
386.463	99.25
386.688	96.25
386.913	87.25
387.138	82.25
387.363	97.25
387.588	88.25
387.813	98.25
388.038	97.25
388.263	103.25
388.488	90.25
388.713	99.25
388.938	91.25
389.163	88.25
389.387	107.25
389.612	84.25
389.837	89.25
390.062	88.25
390.287	88.25
390.512	100.25
390.736	113.25
390.961	106.25
391.186	92.25
391.411	87.25
391.636	96.25
391.86	94.25
392.085	91.25
392.31	98.25
392.534	90.25
392.759	99.25
392.984	106.25
393.208	102.25
393.433	95.25
393.658	94.25
393.882	105.25
394.107	104.25
394.331	97.25
394.556	92.25
394.78	103.25
395.005	100.25
395.229	97.25
395.454	90.25
395.678	89.25
395.903	106.25
396.127	98.25
396.352	93.25
396.576	97.25
396.801	102.25
397.025	104.25
397.249	91.25
397.474	79.25
397.698	101.25
397.922	102.25
398.147	84.25
398.371	88.25
398.595	89.25
398.82	85.25
399.044	97.25
399.268	108.25
399.492	107.25
399.717	109.25
399.941	117.25
400.165	101.25
400.389	97.25
400.613	103.25
400.837	103.25
401.062	99.25
401.286	102.25
401.51	100.25
401.734	105.25
401.958	105.25
402.182	113.25
402.406	96.25
402.63	100.25
402.854	97.25
403.078	88.25
403.302	101.25
403.526	103.25
403.75	108.25
403.974	101.25
404.198	106.25
404.422	99.25
404.645	106.25
404.869	107.25
405.093	113.25
405.317	96.25
405.541	92.25
405.765	88.25
405.988	103.25
406.212	105.25
406.436	93.25
406.66	104.25
406.883	104.25
407.107	86.25
407.331	114.25
407.555	102.25
407.778	99.25
408.002	115.25
408.226	103.25
408.449	90.25
408.673	110.25
408.896	116.25
409.12	98.25
409.344	108.25
409.567	109.25
409.791	90.25
410.014	119.25
410.238	114.25
410.461	103.25
410.685	108.25
410.908	89.25
411.132	102.25
411.355	108.25
411.578	86.25
411.802	95.25
412.025	99.25
412.249	115.25
412.472	107.25
412.695	102.25
412.919	91.25
413.142	96.25
413.365	89.25
413.589	100.25
413.812	85.25
414.035	95.25
414.258	89.25
414.482	85.25
414.705	100.25
414.928	102.25
415.151	105.25
415.374	105.25
415.597	97.25
415.821	89.25
416.044	84.25
416.267	95.25
416.49	105.25
416.713	97.25
416.936	106.25
417.159	98.25
417.382	99.25
417.605	107.25
417.828	97.25
418.051	97.25
418.274	98.25
418.497	93.25
418.72	103.25
418.943	91.25
419.166	103.25
419.389	95.25
419.611	96.25
419.834	91.25
420.057	91.25
420.28	103.25
420.503	97.25
420.726	99.25
420.948	100.25
421.171	81.25
421.394	104.25
421.617	98.25
421.839	86.25
422.062	92.25
422.285	97.25
422.507	89.25
422.73	100.25
422.953	97.25
423.175	109.25
423.398	88.25
423.621	107.25
423.843	100.25
424.066	93.25
424.288	103.25
424.511	102.25
424.733	106.25
424.956	100.25
425.178	91.25
425.401	94.25
425.623	97.25
425.846	87.25
426.068	105.25
426.291	100.25
426.513	105.25
426.735	101.25
426.958	90.25
427.18	98.25
427.402	106.25
427.625	107.25
427.847	102.25
428.069	98.25
428.292	96.25
428.514	96.25
428.736	97.25
428.958	92.25
429.181	105.25
429.403	92.25
429.625	90.25
429.847	88.25
430.069	87.25
430.292	102.25
430.514	95.25
430.736	115.25
430.958	105.25
431.18	92.25
431.402	94.25
431.624	77.25
431.846	91.25
432.068	108.25
432.29	78.25
432.512	105.25
432.734	96.25
432.956	91.25
433.178	89.25
433.4	85.25
433.622	96.25
433.844	109.25
434.066	91.25
434.287	96.25
434.509	101.25
434.731	96.25
434.953	98.25
435.175	98.25
435.397	109.25
435.618	94.25
435.84	82.25
436.062	99.25
436.284	100.25
436.505	95.25
436.727	88.25
436.949	96.25
437.17	82.25
437.392	97.25
437.614	91.25
437.835	92.25
438.057	106.25
438.278	92.25
438.5	92.25
438.721	96.25
438.943	115.25
439.165	87.25
439.386	101.25
439.608	99.25
439.829	92.25
440.05	90.25
440.272	91.25
440.493	98.25
440.715	100.25
440.936	89.25
441.158	98.25
441.379	87.25
441.6	108.25
441.822	91.25
442.043	96.25
442.264	73.25
442.486	98.25
442.707	99.25
442.928	105.25
443.149	94.25
443.371	85.25
443.592	97.25
443.813	104.25
444.034	111.25
444.255	96.25
444.476	103.25
444.698	105.25
444.919	91.25
445.14	243.25
445.361	139.25
445.582	100.25
445.803	99.25
446.024	103.25
446.245	105.25
446.466	87.25
446.687	101.25
446.908	94.25
447.129	91.25
447.35	96.25
447.571	104.25
447.792	106.25
448.013	93.25
448.234	96.25
448.455	101.25
448.675	93.25
448.896	90.25
449.117	89.25
449.338	102.25
449.559	96.25
449.779	105.25
450	97.25
450.221	96.25
450.442	105.25
450.662	85.25
450.883	96.25
451.104	98.25
451.324	90.25
451.545	110.25
451.766	98.25
451.986	106.25
452.207	92.25
452.428	86.25
452.648	92.25
452.869	104.25
453.089	84.25
453.31	99.25
453.53	91.25
453.751	92.25
453.971	80.25
454.192	90.25
454.412	94.25
454.633	98.25
454.853	98.25
455.073	105.25
455.294	100.25
455.514	90.25
455.734	98.25
455.955	87.25
456.175	108.25
456.395	95.25
456.616	109.25
456.836	96.25
457.056	93.25
457.276	89.25
457.497	86.25
457.717	97.25
457.937	93.25
458.157	81.25
458.377	92.25
458.598	85.25
458.818	93.25
459.038	105.25
459.258	87.25
459.478	102.25
459.698	97.25
459.918	90.25
460.138	101.25
460.358	87.25
460.578	104.25
460.798	92.25
461.018	105.25
461.238	92.25
461.458	87.25
461.678	98.25
461.898	96.25
462.118	106.25
462.338	107.25
462.558	97.25
462.777	106.25
462.997	116.25
463.217	100.25
463.437	115.25
463.657	104.25
463.876	102.25
464.096	90.25
464.316	95.25
464.536	94.25
464.755	108.25
464.975	103.25
465.195	113.25
465.414	96.25
465.634	104.25
465.854	110.25
466.073	109.25
466.293	107.25
466.512	95.25
466.732	89.25
466.951	82.25
467.171	85.25
467.391	108.25
467.61	85.25
467.829	105.25
468.049	100.25
468.268	97.25
468.488	89.25
468.707	104.25
468.927	97.25
469.146	97.25
469.365	102.25
469.585	112.25
469.804	100.25
470.023	107.25
470.243	96.25
470.462	104.25
470.681	96.25
470.901	101.25
471.12	102.25
471.339	107.25
471.558	98.25
471.777	104.25
471.997	108.25
472.216	112.25
472.435	108.25
472.654	87.25
472.873	91.25
473.092	101.25
473.311	99.25
473.53	91.25
473.749	99.25
473.968	88.25
474.187	110.25
474.406	89.25
474.625	93.25
474.844	99.25
475.063	88.25
475.282	92.25
475.501	101.25
475.72	105.25
475.939	89.25
476.158	105.25
476.377	93.25
476.596	106.25
476.814	109.25
477.033	109.25
477.252	95.25
477.471	98.25
477.69	104.25
477.908	117.25
478.127	105.25
478.346	101.25
478.564	121.25
478.783	103.25
479.002	113.25
479.22	118.25
479.439	120.25
479.658	93.25
479.876	116.25
480.095	101.25
480.313	99.25
480.532	105.25
480.751	100.25
480.969	122.25
481.188	106.25
481.406	108.25
481.624	101.25
481.843	102.25
482.061	99.25
482.28	115.25
482.498	103.25
482.717	105.25
482.935	103.25
483.153	92.25
483.372	104.25
483.59	97.25
483.808	106.25
484.027	102.25
484.245	93.25
484.463	117.25
484.681	118.25
484.9	109.25
485.118	103.25
485.336	101.25
485.554	98.25
485.772	100.25
485.99	101.25
486.209	97.25
486.427	96.25
486.645	97.25
486.863	121.25
487.081	104.25
487.299	102.25
487.517	110.25
487.735	93.25
487.953	106.25
488.171	99.25
488.389	109.25
488.607	117.25
488.825	104.25
489.043	105.25
489.261	108.25
489.479	124.25
489.696	99.25
489.914	98.25
490.132	105.25
490.35	105.25
490.568	106.25
490.786	104.25
491.003	114.25
491.221	106.25
491.439	112.25
491.657	109.25
491.874	105.25
492.092	107.25
492.31	121.25
492.527	125.25
492.745	104.25
492.963	116.25
493.18	118.25
493.398	121.25
493.615	124.25
493.833	113.25
494.05	122.25
494.268	111.25
494.485	113.25
494.703	128.25
494.92	106.25
495.138	110.25
495.355	105.25
495.573	108.25
495.79	117.25
496.008	117.25
496.225	110.25
496.442	100.25
496.66	124.25
496.877	117.25
497.094	120.25
497.312	110.25
497.529	117.25
497.746	114.25
497.963	109.25
498.181	100.25
498.398	113.25
498.615	117.25
498.832	110.25
499.049	116.25
499.267	139.25
499.484	136.25
499.701	129.25
499.918	136.25
500.135	139.25
500.352	153.25
500.569	147.25
500.786	179.25
501.003	171.25
501.22	148.25
501.437	125.25
501.654	125.25
501.871	115.25
502.088	129.25
502.305	130.25
502.522	112.25
502.739	108.25
502.956	114.25
503.172	120.25
503.389	129.25
503.606	116.25
503.823	93.25
504.04	105.25
504.256	125.25
504.473	112.25
504.69	122.25
504.907	117.25
505.123	94.25
505.34	114.25
505.557	104.25
505.773	116.25
505.99	105.25
506.207	119.25
506.423	108.25
506.64	95.25
506.856	112.25
507.073	116.25
507.289	104.25
507.506	114.25
507.722	96.25
507.939	95.25
508.155	118.25
508.372	97.25
508.588	114.25
508.805	112.25
509.021	104.25
509.238	103.25
509.454	87.25
509.67	117.25
509.887	105.25
510.103	102.25
510.319	101.25
510.536	104.25
510.752	106.25
510.968	105.25
511.184	97.25
511.401	94.25
511.617	96.25
511.833	98.25
512.049	113.25
512.265	98.25
512.481	108.25
512.698	91.25
512.914	100.25
513.13	103.25
513.346	107.25
513.562	116.25
