Data from Location5.07152019.Energy5.Lamp.07192019.3%Agarose_HRD10591_15-36-31-386.txt Node
Date: Fri Jul 19 15:36:31 EDT 2019
User: cochatt
Spectrometer: HR+D1059
Trigger mode: 1
Integration Time (sec): 1.000000E-1
Scans to average: 1
Electric dark correction enabled: true
Nonlinearity correction enabled: false
Boxcar width: 0
XAxis mode: Wavelengths
Number of Pixels in Spectrum: 2048
>>>>>Begin Spectral Data<<<<<
223.165	-21.62
223.4	-21.62
223.635	-21.62
223.869	-21.62
224.104	-7.62
224.338	-15.62
224.573	-14.62
224.808	-23.62
225.042	-19.62
225.277	1.38
225.511	-1.62
225.746	10.38
225.98	1.38
226.215	8.38
226.449	16.38
226.683	8.38
226.918	35.38
227.152	44.38
227.387	36.38
227.621	34.38
227.856	41.38
228.09	33.38
228.324	34.38
228.559	48.38
228.793	52.38
229.027	55.38
229.262	46.38
229.496	66.38
229.73	69.38
229.964	73.38
230.199	71.38
230.433	70.38
230.667	71.38
230.901	72.38
231.136	80.38
231.37	80.38
231.604	71.38
231.838	87.38
232.072	75.38
232.306	93.38
232.541	75.38
232.775	88.38
233.009	91.38
233.243	84.38
233.477	84.38
233.711	80.38
233.945	82.38
234.179	84.38
234.413	79.38
234.647	84.38
234.881	86.38
235.115	78.38
235.349	73.38
235.583	68.38
235.817	66.38
236.051	62.38
236.285	67.38
236.519	70.38
236.753	67.38
236.987	82.38
237.221	77.38
237.455	86.38
237.689	66.38
237.922	73.38
238.156	81.38
238.39	70.38
238.624	67.38
238.858	85.38
239.091	85.38
239.325	73.38
239.559	71.38
239.793	82.38
240.027	83.38
240.26	73.38
240.494	81.38
240.728	66.38
240.961	68.38
241.195	56.38
241.429	69.38
241.662	96.38
241.896	75.38
242.13	69.38
242.363	86.38
242.597	77.38
242.83	72.38
243.064	72.38
243.298	79.38
243.531	75.38
243.765	78.38
243.998	76.38
244.232	82.38
244.465	74.38
244.699	85.38
244.932	71.38
245.166	60.38
245.399	58.38
245.633	79.38
245.866	78.38
246.099	77.38
246.333	85.38
246.566	72.38
246.8	69.38
247.033	80.38
247.266	63.38
247.5	57.38
247.733	73.38
247.966	69.38
248.2	79.38
248.433	57.38
248.666	77.38
248.899	75.38
249.133	87.38
249.366	71.38
249.599	66.38
249.832	77.38
250.066	82.38
250.299	78.38
250.532	90.38
250.765	75.38
250.998	82.38
251.231	77.38
251.465	81.38
251.698	79.38
251.931	84.38
252.164	90.38
252.397	80.38
252.63	74.38
252.863	79.38
253.096	71.38
253.329	90.38
253.562	81.38
253.795	100.38
254.028	76.38
254.261	84.38
254.494	73.38
254.727	79.38
254.96	71.38
255.193	81.38
255.426	100.38
255.659	83.38
255.892	81.38
256.124	81.38
256.357	78.38
256.59	94.38
256.823	68.38
257.056	83.38
257.289	64.38
257.521	87.38
257.754	72.38
257.987	80.38
258.22	82.38
258.452	78.38
258.685	77.38
258.918	86.38
259.151	79.38
259.383	72.38
259.616	71.38
259.849	94.38
260.081	92.38
260.314	80.38
260.547	86.38
260.779	67.38
261.012	74.38
261.244	85.38
261.477	74.38
261.71	87.38
261.942	81.38
262.175	88.38
262.407	83.38
262.64	72.38
262.872	81.38
263.105	82.38
263.337	71.38
263.57	86.38
263.802	71.38
264.035	71.38
264.267	73.38
264.499	79.38
264.732	73.38
264.964	74.38
265.197	90.38
265.429	83.38
265.661	81.38
265.894	99.38
266.126	85.38
266.358	97.38
266.591	67.38
266.823	76.38
267.055	67.38
267.287	82.38
267.52	83.38
267.752	81.38
267.984	85.38
268.216	84.38
268.448	91.38
268.681	94.38
268.913	73.38
269.145	76.38
269.377	70.38
269.609	79.38
269.841	80.38
270.073	72.38
270.306	69.38
270.538	85.38
270.77	68.38
271.002	78.38
271.234	94.38
271.466	84.38
271.698	96.38
271.93	81.38
272.162	79.38
272.394	91.38
272.626	74.38
272.858	69.38
273.09	82.38
273.322	74.38
273.553	87.38
273.785	86.38
274.017	70.38
274.249	93.38
274.481	82.38
274.713	75.38
274.945	102.38
275.176	73.38
275.408	85.38
275.64	82.38
275.872	82.38
276.104	84.38
276.335	70.38
276.567	75.38
276.799	81.38
277.031	91.38
277.262	78.38
277.494	82.38
277.726	78.38
277.957	86.38
278.189	88.38
278.421	81.38
278.652	77.38
278.884	88.38
279.115	82.38
279.347	80.38
279.579	84.38
279.81	91.38
280.042	66.38
280.273	83.38
280.505	90.38
280.736	83.38
280.968	90.38
281.199	85.38
281.431	87.38
281.662	87.38
281.894	84.38
282.125	83.38
282.356	89.38
282.588	86.38
282.819	85.38
283.051	88.38
283.282	92.38
283.513	79.38
283.745	77.38
283.976	91.38
284.207	85.38
284.439	83.38
284.67	79.38
284.901	78.38
285.132	88.38
285.364	77.38
285.595	90.38
285.826	81.38
286.057	75.38
286.288	79.38
286.52	72.38
286.751	78.38
286.982	79.38
287.213	76.38
287.444	76.38
287.675	73.38
287.906	79.38
288.138	72.38
288.369	76.38
288.6	88.38
288.831	79.38
289.062	86.38
289.293	86.38
289.524	83.38
289.755	71.38
289.986	80.38
290.217	99.38
290.448	72.38
290.679	84.38
290.91	74.38
291.141	77.38
291.371	81.38
291.602	84.38
291.833	69.38
292.064	88.38
292.295	78.38
292.526	84.38
292.757	86.38
292.987	90.38
293.218	84.38
293.449	74.38
293.68	82.38
293.91	78.38
294.141	80.38
294.372	93.38
294.603	85.38
294.833	94.38
295.064	88.38
295.295	90.38
295.525	95.38
295.756	86.38
295.987	72.38
296.217	81.38
296.448	73.38
296.679	81.38
296.909	92.38
297.14	89.38
297.37	74.38
297.601	74.38
297.831	77.38
298.062	82.38
298.292	92.38
298.523	75.38
298.753	80.38
298.984	90.38
299.214	83.38
299.445	95.38
299.675	85.38
299.905	84.38
300.136	85.38
300.366	82.38
300.597	84.38
300.827	84.38
301.057	98.38
301.288	80.38
301.518	82.38
301.748	84.38
301.979	97.38
302.209	97.38
302.439	86.38
302.669	79.38
302.9	77.38
303.13	80.38
303.36	83.38
303.59	86.38
303.82	88.38
304.051	75.38
304.281	84.38
304.511	83.38
304.741	95.38
304.971	80.38
305.201	84.38
305.431	71.38
305.661	86.38
305.891	82.38
306.121	89.38
306.352	94.38
306.582	70.38
306.812	82.38
307.042	89.38
307.272	78.38
307.502	78.38
307.731	65.38
307.961	91.38
308.191	80.38
308.421	81.38
308.651	74.38
308.881	95.38
309.111	92.38
309.341	86.38
309.571	100.38
309.8	76.38
310.03	80.38
310.26	83.38
310.49	89.38
310.72	74.38
310.949	82.38
311.179	85.38
311.409	89.38
311.639	93.38
311.868	75.38
312.098	84.38
312.328	78.38
312.557	80.38
312.787	91.38
313.017	80.38
313.246	90.38
313.476	86.38
313.706	89.38
313.935	84.38
314.165	93.38
314.394	86.38
314.624	76.38
314.853	94.38
315.083	79.38
315.312	76.38
315.542	87.38
315.771	89.38
316.001	75.38
316.23	78.38
316.46	100.38
316.689	79.38
316.919	64.38
317.148	87.38
317.377	89.38
317.607	81.38
317.836	84.38
318.065	92.38
318.295	72.38
318.524	94.38
318.753	93.38
318.983	99.38
319.212	103.38
319.441	86.38
319.67	93.38
319.9	72.38
320.129	90.38
320.358	88.38
320.587	87.38
320.816	87.38
321.046	78.38
321.275	73.38
321.504	86.38
321.733	72.38
321.962	85.38
322.191	77.38
322.42	74.38
322.649	71.38
322.878	91.38
323.108	78.38
323.337	82.38
323.566	86.38
323.795	81.38
324.024	81.38
324.253	81.38
324.482	84.38
324.71	83.38
324.939	74.38
325.168	83.38
325.397	73.38
325.626	78.38
325.855	86.38
326.084	80.38
326.313	78.38
326.542	82.38
326.77	79.38
326.999	93.38
327.228	96.38
327.457	89.38
327.686	79.38
327.914	91.38
328.143	82.38
328.372	78.38
328.6	83.38
328.829	75.38
329.058	86.38
329.287	78.38
329.515	77.38
329.744	88.38
329.972	94.38
330.201	67.38
330.43	74.38
330.658	78.38
330.887	89.38
331.115	96.38
331.344	74.38
331.572	94.38
331.801	85.38
332.03	82.38
332.258	79.38
332.486	81.38
332.715	92.38
332.943	86.38
333.172	76.38
333.4	76.38
333.629	74.38
333.857	101.38
334.085	74.38
334.314	84.38
334.542	84.38
334.771	77.38
334.999	93.38
335.227	87.38
335.455	86.38
335.684	81.38
335.912	92.38
336.14	84.38
336.369	95.38
336.597	90.38
336.825	82.38
337.053	80.38
337.281	80.38
337.51	79.38
337.738	84.38
337.966	71.38
338.194	81.38
338.422	80.38
338.65	69.38
338.878	89.38
339.106	83.38
339.334	88.38
339.562	70.38
339.79	81.38
340.018	92.38
340.246	76.38
340.474	88.38
340.702	78.38
340.93	74.38
341.158	87.38
341.386	81.38
341.614	82.38
341.842	85.38
342.07	90.38
342.298	77.38
342.526	85.38
342.754	79.38
342.981	86.38
343.209	94.38
343.437	82.38
343.665	82.38
343.893	87.38
344.12	80.38
344.348	71.38
344.576	89.38
344.804	72.38
345.031	77.38
345.259	84.38
345.487	94.38
345.714	80.38
345.942	56.38
346.17	82.38
346.397	77.38
346.625	82.38
346.853	93.38
347.08	72.38
347.308	80.38
347.535	72.38
347.763	76.38
347.99	74.38
348.218	86.38
348.445	85.38
348.673	86.38
348.9	92.38
349.128	86.38
349.355	92.38
349.583	91.38
349.81	85.38
350.037	94.38
350.265	82.38
350.492	73.38
350.72	86.38
350.947	84.38
351.174	74.38
351.402	78.38
351.629	81.38
351.856	81.38
352.083	87.38
352.311	82.38
352.538	77.38
352.765	74.38
352.992	70.38
353.22	86.38
353.447	92.38
353.674	74.38
353.901	79.38
354.128	90.38
354.355	77.38
354.583	89.38
354.81	78.38
355.037	70.38
355.264	81.38
355.491	78.38
355.718	71.38
355.945	82.38
356.172	72.38
356.399	89.38
356.626	88.38
356.853	67.38
357.08	84.38
357.307	92.38
357.534	68.38
357.761	87.38
357.988	77.38
358.215	84.38
358.441	86.38
358.668	87.38
358.895	78.38
359.122	78.38
359.349	82.38
359.576	96.38
359.802	93.38
360.029	81.38
360.256	93.38
360.483	70.38
360.709	84.38
360.936	88.38
361.163	87.38
361.39	83.38
361.616	86.38
361.843	89.38
362.07	71.38
362.296	83.38
362.523	78.38
362.749	87.38
362.976	84.38
363.203	94.38
363.429	71.38
363.656	86.38
363.882	84.38
364.109	93.38
364.335	85.38
364.562	82.38
364.788	80.38
365.015	79.38
365.241	79.38
365.468	96.38
365.694	74.38
365.92	87.38
366.147	72.38
366.373	75.38
366.599	85.38
366.826	81.38
367.052	93.38
367.278	85.38
367.505	81.38
367.731	89.38
367.957	89.38
368.184	78.38
368.41	77.38
368.636	88.38
368.862	88.38
369.089	86.38
369.315	81.38
369.541	76.38
369.767	88.38
369.993	80.38
370.219	88.38
370.445	74.38
370.672	64.38
370.898	90.38
371.124	94.38
371.35	80.38
371.576	88.38
371.802	90.38
372.028	91.38
372.254	100.38
372.48	93.38
372.706	92.38
372.932	80.38
373.158	74.38
373.384	90.38
373.61	94.38
373.835	85.38
374.061	95.38
374.287	88.38
374.513	83.38
374.739	78.38
374.965	89.38
375.191	87.38
375.416	73.38
375.642	86.38
375.868	78.38
376.094	79.38
376.319	81.38
376.545	91.38
376.771	84.38
376.997	87.38
377.222	80.38
377.448	89.38
377.674	78.38
377.899	89.38
378.125	91.38
378.35	92.38
378.576	74.38
378.802	76.38
379.027	82.38
379.253	92.38
379.478	79.38
379.704	78.38
379.929	71.38
380.155	93.38
380.38	91.38
380.606	83.38
380.831	79.38
381.057	89.38
381.282	89.38
381.507	80.38
381.733	77.38
381.958	94.38
382.184	92.38
382.409	95.38
382.634	100.38
382.86	93.38
383.085	90.38
383.31	86.38
383.535	94.38
383.761	79.38
383.986	83.38
384.211	80.38
384.436	83.38
384.662	86.38
384.887	72.38
385.112	81.38
385.337	76.38
385.562	81.38
385.787	84.38
386.013	101.38
386.238	76.38
386.463	85.38
386.688	92.38
386.913	79.38
387.138	78.38
387.363	82.38
387.588	89.38
387.813	83.38
388.038	86.38
388.263	80.38
388.488	87.38
388.713	88.38
388.938	76.38
389.163	91.38
389.387	77.38
389.612	77.38
389.837	87.38
390.062	85.38
390.287	73.38
390.512	72.38
390.736	86.38
390.961	69.38
391.186	84.38
391.411	80.38
391.636	90.38
391.86	95.38
392.085	100.38
392.31	89.38
392.534	92.38
392.759	84.38
392.984	80.38
393.208	81.38
393.433	76.38
393.658	75.38
393.882	75.38
394.107	79.38
394.331	80.38
394.556	87.38
394.78	88.38
395.005	73.38
395.229	78.38
395.454	80.38
395.678	93.38
395.903	82.38
396.127	97.38
396.352	85.38
396.576	77.38
396.801	83.38
397.025	86.38
397.249	83.38
397.474	96.38
397.698	88.38
397.922	90.38
398.147	94.38
398.371	88.38
398.595	85.38
398.82	77.38
399.044	86.38
399.268	86.38
399.492	86.38
399.717	77.38
399.941	79.38
400.165	80.38
400.389	92.38
400.613	83.38
400.837	72.38
401.062	75.38
401.286	105.38
401.51	91.38
401.734	75.38
401.958	91.38
402.182	94.38
402.406	88.38
402.63	82.38
402.854	93.38
403.078	73.38
403.302	93.38
403.526	88.38
403.75	93.38
403.974	97.38
404.198	75.38
404.422	72.38
404.645	83.38
404.869	100.38
405.093	86.38
405.317	83.38
405.541	95.38
405.765	83.38
405.988	94.38
406.212	97.38
406.436	89.38
406.66	84.38
406.883	88.38
407.107	86.38
407.331	85.38
407.555	80.38
407.778	86.38
408.002	85.38
408.226	92.38
408.449	72.38
408.673	80.38
408.896	94.38
409.12	97.38
409.344	87.38
409.567	90.38
409.791	89.38
410.014	94.38
410.238	81.38
410.461	92.38
410.685	101.38
410.908	79.38
411.132	97.38
411.355	83.38
411.578	81.38
411.802	79.38
412.025	74.38
412.249	87.38
412.472	87.38
412.695	75.38
412.919	86.38
413.142	101.38
413.365	71.38
413.589	100.38
413.812	91.38
414.035	80.38
414.258	88.38
414.482	96.38
414.705	102.38
414.928	100.38
415.151	87.38
415.374	81.38
415.597	84.38
415.821	91.38
416.044	82.38
416.267	93.38
416.49	82.38
416.713	97.38
416.936	110.38
417.159	88.38
417.382	93.38
417.605	86.38
417.828	97.38
418.051	94.38
418.274	83.38
418.497	93.38
418.72	100.38
418.943	84.38
419.166	93.38
419.389	79.38
419.611	84.38
419.834	105.38
420.057	92.38
420.28	88.38
420.503	90.38
420.726	80.38
420.948	92.38
421.171	86.38
421.394	96.38
421.617	85.38
421.839	92.38
422.062	83.38
422.285	81.38
422.507	92.38
422.73	93.38
422.953	78.38
423.175	94.38
423.398	92.38
423.621	91.38
423.843	76.38
424.066	87.38
424.288	104.38
424.511	98.38
424.733	99.38
424.956	101.38
425.178	101.38
425.401	92.38
425.623	85.38
425.846	84.38
426.068	86.38
426.291	81.38
426.513	89.38
426.735	97.38
426.958	93.38
427.18	97.38
427.402	94.38
427.625	80.38
427.847	89.38
428.069	96.38
428.292	87.38
428.514	84.38
428.736	89.38
428.958	101.38
429.181	89.38
429.403	107.38
429.625	89.38
429.847	94.38
430.069	96.38
430.292	97.38
430.514	103.38
430.736	96.38
430.958	104.38
431.18	95.38
431.402	92.38
431.624	88.38
431.846	80.38
432.068	74.38
432.29	68.38
432.512	85.38
432.734	82.38
432.956	91.38
433.178	73.38
433.4	92.38
433.622	112.38
433.844	92.38
434.066	79.38
434.287	85.38
434.509	87.38
434.731	86.38
434.953	80.38
435.175	93.38
435.397	73.38
435.618	90.38
435.84	77.38
436.062	76.38
436.284	82.38
436.505	96.38
436.727	93.38
436.949	78.38
437.17	89.38
437.392	82.38
437.614	94.38
437.835	73.38
438.057	84.38
438.278	79.38
438.5	97.38
438.721	89.38
438.943	95.38
439.165	94.38
439.386	91.38
439.608	96.38
439.829	80.38
440.05	103.38
440.272	86.38
440.493	90.38
440.715	87.38
440.936	106.38
441.158	93.38
441.379	91.38
441.6	87.38
441.822	78.38
442.043	95.38
442.264	90.38
442.486	96.38
442.707	82.38
442.928	96.38
443.149	94.38
443.371	76.38
443.592	105.38
443.813	90.38
444.034	86.38
444.255	96.38
444.476	104.38
444.698	96.38
444.919	92.38
445.14	215.38
445.361	146.38
445.582	93.38
445.803	82.38
446.024	95.38
446.245	89.38
446.466	95.38
446.687	95.38
446.908	117.38
447.129	102.38
447.35	98.38
447.571	92.38
447.792	103.38
448.013	91.38
448.234	82.38
448.455	80.38
448.675	97.38
448.896	103.38
449.117	90.38
449.338	78.38
449.559	95.38
449.779	80.38
450	95.38
450.221	85.38
450.442	85.38
450.662	81.38
450.883	90.38
451.104	111.38
451.324	100.38
451.545	96.38
451.766	100.38
451.986	95.38
452.207	74.38
452.428	95.38
452.648	92.38
452.869	82.38
453.089	94.38
453.31	82.38
453.53	84.38
453.751	111.38
453.971	90.38
454.192	77.38
454.412	79.38
454.633	93.38
454.853	97.38
455.073	103.38
455.294	96.38
455.514	85.38
455.734	88.38
455.955	77.38
456.175	93.38
456.395	95.38
456.616	75.38
456.836	92.38
457.056	84.38
457.276	78.38
457.497	81.38
457.717	87.38
457.937	76.38
458.157	115.38
458.377	97.38
458.598	90.38
458.818	81.38
459.038	89.38
459.258	71.38
459.478	78.38
459.698	79.38
459.918	98.38
460.138	80.38
460.358	69.38
460.578	76.38
460.798	90.38
461.018	90.38
461.238	93.38
461.458	86.38
461.678	92.38
461.898	87.38
462.118	87.38
462.338	81.38
462.558	81.38
462.777	89.38
462.997	85.38
463.217	93.38
463.437	94.38
463.657	88.38
463.876	95.38
464.096	101.38
464.316	91.38
464.536	100.38
464.755	90.38
464.975	103.38
465.195	95.38
465.414	90.38
465.634	72.38
465.854	78.38
466.073	98.38
466.293	83.38
466.512	84.38
466.732	86.38
466.951	97.38
467.171	90.38
467.391	94.38
467.61	97.38
467.829	100.38
468.049	69.38
468.268	105.38
468.488	106.38
468.707	99.38
468.927	90.38
469.146	93.38
469.365	104.38
469.585	84.38
469.804	94.38
470.023	96.38
470.243	98.38
470.462	101.38
470.681	97.38
470.901	85.38
471.12	95.38
471.339	98.38
471.558	96.38
471.777	77.38
471.997	90.38
472.216	90.38
472.435	89.38
472.654	86.38
472.873	82.38
473.092	85.38
473.311	81.38
473.53	79.38
473.749	89.38
473.968	93.38
474.187	96.38
474.406	102.38
474.625	91.38
474.844	101.38
475.063	95.38
475.282	90.38
475.501	85.38
475.72	101.38
475.939	87.38
476.158	89.38
476.377	95.38
476.596	81.38
476.814	81.38
477.033	77.38
477.252	96.38
477.471	83.38
477.69	98.38
477.908	87.38
478.127	89.38
478.346	81.38
478.564	86.38
478.783	95.38
479.002	102.38
479.22	94.38
479.439	101.38
479.658	105.38
479.876	93.38
480.095	97.38
480.313	103.38
480.532	87.38
480.751	80.38
480.969	82.38
481.188	75.38
481.406	85.38
481.624	81.38
481.843	78.38
482.061	91.38
482.28	88.38
482.498	77.38
482.717	92.38
482.935	90.38
483.153	84.38
483.372	95.38
483.59	78.38
483.808	89.38
484.027	90.38
484.245	109.38
484.463	95.38
484.681	98.38
484.9	100.38
485.118	94.38
485.336	87.38
485.554	89.38
485.772	80.38
485.99	84.38
486.209	77.38
486.427	93.38
486.645	77.38
486.863	85.38
487.081	90.38
487.299	102.38
487.517	88.38
487.735	103.38
487.953	117.38
488.171	102.38
488.389	114.38
488.607	102.38
488.825	85.38
489.043	92.38
489.261	86.38
489.479	87.38
489.696	87.38
489.914	94.38
490.132	90.38
490.35	97.38
490.568	105.38
490.786	97.38
491.003	103.38
491.221	101.38
491.439	120.38
491.657	111.38
491.874	104.38
492.092	128.38
492.31	115.38
492.527	114.38
492.745	117.38
492.963	98.38
493.18	104.38
493.398	106.38
493.615	110.38
493.833	121.38
494.05	120.38
494.268	93.38
494.485	96.38
494.703	107.38
494.92	105.38
495.138	99.38
495.355	105.38
495.573	104.38
495.79	81.38
496.008	100.38
496.225	97.38
496.442	93.38
496.66	106.38
496.877	90.38
497.094	97.38
497.312	103.38
497.529	96.38
497.746	94.38
497.963	97.38
498.181	87.38
498.398	98.38
498.615	98.38
498.832	92.38
499.049	97.38
499.267	88.38
499.484	104.38
499.701	84.38
499.918	88.38
500.135	87.38
500.352	103.38
500.569	94.38
500.786	89.38
501.003	101.38
501.22	85.38
501.437	100.38
501.654	95.38
501.871	84.38
502.088	86.38
502.305	81.38
502.522	110.38
502.739	93.38
502.956	100.38
503.172	103.38
503.389	96.38
503.606	97.38
503.823	106.38
504.04	87.38
504.256	88.38
504.473	86.38
504.69	82.38
504.907	104.38
505.123	97.38
505.34	95.38
505.557	91.38
505.773	88.38
505.99	92.38
506.207	74.38
506.423	86.38
506.64	108.38
506.856	76.38
507.073	91.38
507.289	98.38
507.506	97.38
507.722	84.38
507.939	72.38
508.155	77.38
508.372	76.38
508.588	89.38
508.805	95.38
509.021	95.38
509.238	88.38
509.454	88.38
509.67	85.38
509.887	85.38
510.103	88.38
510.319	93.38
510.536	69.38
510.752	92.38
510.968	83.38
511.184	94.38
511.401	86.38
511.617	81.38
511.833	70.38
512.049	85.38
512.265	85.38
512.481	93.38
512.698	86.38
512.914	82.38
513.13	98.38
513.346	94.38
513.562	81.38
513.778	98.38
513.994	94.38
514.21	86.38
514.426	82.38
514.642	82.38
514.858	71.38
515.074	79.38
515.29	73.38
515.506	72.38
515.721	67.38
515.937	75.38
516.153	91.38
516.369	82.38
516.585	75.38
516.801	68.38
517.016	90.38
517.232	78.38
517.448	84.38
517.664	82.38
517.879	88.38
518.095	84.38
