Data from Location5.07152019.Energy5.Lamp.07192019.3%Agarose_HRD10591_15-36-45-386.txt Node
Date: Fri Jul 19 15:36:45 EDT 2019
User: cochatt
Spectrometer: HR+D1059
Trigger mode: 1
Integration Time (sec): 1.000000E-1
Scans to average: 1
Electric dark correction enabled: true
Nonlinearity correction enabled: false
Boxcar width: 0
XAxis mode: Wavelengths
Number of Pixels in Spectrum: 2048
>>>>>Begin Spectral Data<<<<<
223.165	-14.31
223.4	-14.31
223.635	-14.31
223.869	-23.31
224.104	-6.31
224.338	-16.31
224.573	-10.31
224.808	-5.31
225.042	-1.31
225.277	1.69
225.511	-15.31
225.746	-9.31
225.98	16.69
226.215	8.69
226.449	20.69
226.683	12.69
226.918	13.69
227.152	27.69
227.387	26.69
227.621	35.69
227.856	30.69
228.09	42.69
228.324	49.69
228.559	57.69
228.793	49.69
229.027	47.69
229.262	61.69
229.496	63.69
229.73	76.69
229.964	58.69
230.199	68.69
230.433	53.69
230.667	78.69
230.901	55.69
231.136	76.69
231.37	72.69
231.604	62.69
231.838	72.69
232.072	78.69
232.306	73.69
232.541	79.69
232.775	75.69
233.009	72.69
233.243	83.69
233.477	76.69
233.711	72.69
233.945	76.69
234.179	81.69
234.413	73.69
234.647	82.69
234.881	80.69
235.115	80.69
235.349	77.69
235.583	79.69
235.817	70.69
236.051	77.69
236.285	65.69
236.519	67.69
236.753	71.69
236.987	73.69
237.221	79.69
237.455	75.69
237.689	78.69
237.922	71.69
238.156	68.69
238.39	82.69
238.624	75.69
238.858	68.69
239.091	78.69
239.325	77.69
239.559	92.69
239.793	95.69
240.027	81.69
240.26	71.69
240.494	64.69
240.728	70.69
240.961	70.69
241.195	70.69
241.429	83.69
241.662	76.69
241.896	68.69
242.13	76.69
242.363	70.69
242.597	73.69
242.83	64.69
243.064	75.69
243.298	69.69
243.531	69.69
243.765	78.69
243.998	83.69
244.232	75.69
244.465	78.69
244.699	78.69
244.932	67.69
245.166	74.69
245.399	75.69
245.633	76.69
245.866	79.69
246.099	86.69
246.333	74.69
246.566	81.69
246.8	82.69
247.033	64.69
247.266	70.69
247.5	64.69
247.733	77.69
247.966	76.69
248.2	84.69
248.433	81.69
248.666	75.69
248.899	72.69
249.133	73.69
249.366	65.69
249.599	65.69
249.832	72.69
250.066	68.69
250.299	78.69
250.532	67.69
250.765	69.69
250.998	67.69
251.231	74.69
251.465	71.69
251.698	79.69
251.931	65.69
252.164	76.69
252.397	79.69
252.63	81.69
252.863	69.69
253.096	75.69
253.329	83.69
253.562	81.69
253.795	62.69
254.028	76.69
254.261	76.69
254.494	72.69
254.727	74.69
254.96	77.69
255.193	68.69
255.426	84.69
255.659	76.69
255.892	80.69
256.124	72.69
256.357	76.69
256.59	77.69
256.823	70.69
257.056	80.69
257.289	77.69
257.521	66.69
257.754	72.69
257.987	75.69
258.22	82.69
258.452	86.69
258.685	79.69
258.918	72.69
259.151	71.69
259.383	84.69
259.616	63.69
259.849	80.69
260.081	79.69
260.314	70.69
260.547	81.69
260.779	70.69
261.012	75.69
261.244	77.69
261.477	70.69
261.71	65.69
261.942	73.69
262.175	79.69
262.407	78.69
262.64	87.69
262.872	78.69
263.105	74.69
263.337	82.69
263.57	67.69
263.802	48.69
264.035	73.69
264.267	85.69
264.499	82.69
264.732	80.69
264.964	68.69
265.197	80.69
265.429	85.69
265.661	84.69
265.894	69.69
266.126	77.69
266.358	75.69
266.591	85.69
266.823	81.69
267.055	81.69
267.287	67.69
267.52	68.69
267.752	73.69
267.984	73.69
268.216	92.69
268.448	62.69
268.681	77.69
268.913	80.69
269.145	82.69
269.377	84.69
269.609	68.69
269.841	71.69
270.073	74.69
270.306	75.69
270.538	74.69
270.77	82.69
271.002	85.69
271.234	86.69
271.466	73.69
271.698	79.69
271.93	78.69
272.162	77.69
272.394	80.69
272.626	82.69
272.858	69.69
273.09	85.69
273.322	74.69
273.553	78.69
273.785	74.69
274.017	72.69
274.249	79.69
274.481	85.69
274.713	57.69
274.945	67.69
275.176	72.69
275.408	83.69
275.64	84.69
275.872	91.69
276.104	77.69
276.335	83.69
276.567	82.69
276.799	79.69
277.031	89.69
277.262	73.69
277.494	82.69
277.726	80.69
277.957	62.69
278.189	79.69
278.421	78.69
278.652	79.69
278.884	76.69
279.115	69.69
279.347	84.69
279.579	62.69
279.81	78.69
280.042	70.69
280.273	70.69
280.505	85.69
280.736	83.69
280.968	78.69
281.199	77.69
281.431	76.69
281.662	74.69
281.894	76.69
282.125	76.69
282.356	82.69
282.588	87.69
282.819	94.69
283.051	74.69
283.282	73.69
283.513	73.69
283.745	63.69
283.976	68.69
284.207	98.69
284.439	85.69
284.67	80.69
284.901	80.69
285.132	81.69
285.364	76.69
285.595	85.69
285.826	90.69
286.057	82.69
286.288	76.69
286.52	87.69
286.751	83.69
286.982	90.69
287.213	81.69
287.444	71.69
287.675	74.69
287.906	83.69
288.138	78.69
288.369	69.69
288.6	74.69
288.831	78.69
289.062	70.69
289.293	74.69
289.524	82.69
289.755	69.69
289.986	83.69
290.217	73.69
290.448	74.69
290.679	80.69
290.91	93.69
291.141	74.69
291.371	91.69
291.602	68.69
291.833	91.69
292.064	85.69
292.295	87.69
292.526	87.69
292.757	84.69
292.987	76.69
293.218	84.69
293.449	79.69
293.68	91.69
293.91	76.69
294.141	87.69
294.372	85.69
294.603	80.69
294.833	75.69
295.064	81.69
295.295	81.69
295.525	81.69
295.756	99.69
295.987	91.69
296.217	83.69
296.448	77.69
296.679	71.69
296.909	92.69
297.14	86.69
297.37	87.69
297.601	82.69
297.831	70.69
298.062	71.69
298.292	78.69
298.523	68.69
298.753	81.69
298.984	85.69
299.214	69.69
299.445	77.69
299.675	69.69
299.905	78.69
300.136	83.69
300.366	78.69
300.597	80.69
300.827	69.69
301.057	93.69
301.288	87.69
301.518	72.69
301.748	80.69
301.979	79.69
302.209	82.69
302.439	75.69
302.669	75.69
302.9	75.69
303.13	79.69
303.36	94.69
303.59	84.69
303.82	84.69
304.051	74.69
304.281	77.69
304.511	85.69
304.741	70.69
304.971	81.69
305.201	70.69
305.431	85.69
305.661	77.69
305.891	78.69
306.121	92.69
306.352	79.69
306.582	74.69
306.812	81.69
307.042	83.69
307.272	99.69
307.502	93.69
307.731	79.69
307.961	78.69
308.191	79.69
308.421	95.69
308.651	85.69
308.881	82.69
309.111	83.69
309.341	64.69
309.571	80.69
309.8	65.69
310.03	89.69
310.26	75.69
310.49	80.69
310.72	76.69
310.949	90.69
311.179	80.69
311.409	69.69
311.639	78.69
311.868	82.69
312.098	79.69
312.328	80.69
312.557	82.69
312.787	69.69
313.017	84.69
313.246	79.69
313.476	75.69
313.706	89.69
313.935	82.69
314.165	90.69
314.394	66.69
314.624	76.69
314.853	70.69
315.083	74.69
315.312	84.69
315.542	84.69
315.771	76.69
316.001	82.69
316.23	94.69
316.46	92.69
316.689	99.69
316.919	87.69
317.148	98.69
317.377	82.69
317.607	69.69
317.836	75.69
318.065	86.69
318.295	82.69
318.524	79.69
318.753	86.69
318.983	81.69
319.212	74.69
319.441	66.69
319.67	73.69
319.9	89.69
320.129	71.69
320.358	71.69
320.587	86.69
320.816	89.69
321.046	81.69
321.275	85.69
321.504	83.69
321.733	83.69
321.962	76.69
322.191	69.69
322.42	68.69
322.649	97.69
322.878	93.69
323.108	75.69
323.337	86.69
323.566	90.69
323.795	82.69
324.024	77.69
324.253	77.69
324.482	90.69
324.71	92.69
324.939	84.69
325.168	82.69
325.397	78.69
325.626	79.69
325.855	76.69
326.084	68.69
326.313	83.69
326.542	80.69
326.77	79.69
326.999	81.69
327.228	73.69
327.457	73.69
327.686	70.69
327.914	77.69
328.143	85.69
328.372	83.69
328.6	84.69
328.829	83.69
329.058	84.69
329.287	66.69
329.515	86.69
329.744	91.69
329.972	77.69
330.201	77.69
330.43	87.69
330.658	86.69
330.887	90.69
331.115	85.69
331.344	83.69
331.572	84.69
331.801	85.69
332.03	68.69
332.258	95.69
332.486	85.69
332.715	79.69
332.943	81.69
333.172	77.69
333.4	75.69
333.629	75.69
333.857	67.69
334.085	77.69
334.314	66.69
334.542	73.69
334.771	89.69
334.999	84.69
335.227	87.69
335.455	72.69
335.684	87.69
335.912	61.69
336.14	69.69
336.369	82.69
336.597	78.69
336.825	84.69
337.053	77.69
337.281	74.69
337.51	81.69
337.738	76.69
337.966	75.69
338.194	90.69
338.422	87.69
338.65	75.69
338.878	78.69
339.106	80.69
339.334	86.69
339.562	74.69
339.79	86.69
340.018	82.69
340.246	78.69
340.474	72.69
340.702	88.69
340.93	82.69
341.158	80.69
341.386	79.69
341.614	80.69
341.842	76.69
342.07	80.69
342.298	100.69
342.526	69.69
342.754	68.69
342.981	67.69
343.209	79.69
343.437	77.69
343.665	86.69
343.893	71.69
344.12	80.69
344.348	78.69
344.576	77.69
344.804	89.69
345.031	76.69
345.259	83.69
345.487	83.69
345.714	93.69
345.942	93.69
346.17	82.69
346.397	84.69
346.625	70.69
346.853	81.69
347.08	76.69
347.308	73.69
347.535	77.69
347.763	69.69
347.99	86.69
348.218	80.69
348.445	83.69
348.673	76.69
348.9	70.69
349.128	93.69
349.355	75.69
349.583	91.69
349.81	81.69
350.037	77.69
350.265	72.69
350.492	77.69
350.72	74.69
350.947	75.69
351.174	85.69
351.402	69.69
351.629	72.69
351.856	87.69
352.083	65.69
352.311	86.69
352.538	73.69
352.765	71.69
352.992	88.69
353.22	77.69
353.447	80.69
353.674	81.69
353.901	76.69
354.128	72.69
354.355	85.69
354.583	73.69
354.81	87.69
355.037	83.69
355.264	87.69
355.491	70.69
355.718	84.69
355.945	72.69
356.172	78.69
356.399	87.69
356.626	87.69
356.853	77.69
357.08	77.69
357.307	62.69
357.534	78.69
357.761	63.69
357.988	81.69
358.215	69.69
358.441	83.69
358.668	84.69
358.895	81.69
359.122	85.69
359.349	87.69
359.576	71.69
359.802	98.69
360.029	82.69
360.256	80.69
360.483	81.69
360.709	86.69
360.936	86.69
361.163	90.69
361.39	85.69
361.616	89.69
361.843	73.69
362.07	79.69
362.296	83.69
362.523	76.69
362.749	94.69
362.976	75.69
363.203	75.69
363.429	89.69
363.656	71.69
363.882	93.69
364.109	84.69
364.335	81.69
364.562	90.69
364.788	76.69
365.015	66.69
365.241	68.69
365.468	82.69
365.694	80.69
365.92	78.69
366.147	87.69
366.373	96.69
366.599	76.69
366.826	98.69
367.052	83.69
367.278	73.69
367.505	90.69
367.731	77.69
367.957	83.69
368.184	83.69
368.41	74.69
368.636	82.69
368.862	73.69
369.089	78.69
369.315	70.69
369.541	81.69
369.767	75.69
369.993	81.69
370.219	81.69
370.445	74.69
370.672	74.69
370.898	82.69
371.124	83.69
371.35	86.69
371.576	86.69
371.802	72.69
372.028	93.69
372.254	78.69
372.48	83.69
372.706	80.69
372.932	74.69
373.158	68.69
373.384	84.69
373.61	78.69
373.835	84.69
374.061	72.69
374.287	76.69
374.513	94.69
374.739	78.69
374.965	81.69
375.191	77.69
375.416	90.69
375.642	74.69
375.868	79.69
376.094	74.69
376.319	93.69
376.545	74.69
376.771	90.69
376.997	76.69
377.222	87.69
377.448	77.69
377.674	80.69
377.899	76.69
378.125	70.69
378.35	72.69
378.576	80.69
378.802	75.69
379.027	87.69
379.253	85.69
379.478	84.69
379.704	95.69
379.929	85.69
380.155	85.69
380.38	87.69
380.606	84.69
380.831	83.69
381.057	85.69
381.282	79.69
381.507	80.69
381.733	71.69
381.958	86.69
382.184	76.69
382.409	79.69
382.634	80.69
382.86	79.69
383.085	88.69
383.31	71.69
383.535	82.69
383.761	84.69
383.986	92.69
384.211	79.69
384.436	89.69
384.662	88.69
384.887	82.69
385.112	81.69
385.337	96.69
385.562	90.69
385.787	71.69
386.013	71.69
386.238	76.69
386.463	81.69
386.688	86.69
386.913	83.69
387.138	75.69
387.363	95.69
387.588	97.69
387.813	85.69
388.038	82.69
388.263	82.69
388.488	84.69
388.713	72.69
388.938	71.69
389.163	70.69
389.387	86.69
389.612	98.69
389.837	86.69
390.062	79.69
390.287	87.69
390.512	78.69
390.736	83.69
390.961	89.69
391.186	75.69
391.411	77.69
391.636	73.69
391.86	72.69
392.085	79.69
392.31	82.69
392.534	73.69
392.759	89.69
392.984	83.69
393.208	81.69
393.433	89.69
393.658	93.69
393.882	76.69
394.107	92.69
394.331	77.69
394.556	72.69
394.78	76.69
395.005	85.69
395.229	73.69
395.454	78.69
395.678	80.69
395.903	78.69
396.127	84.69
396.352	83.69
396.576	74.69
396.801	90.69
397.025	87.69
397.249	75.69
397.474	84.69
397.698	85.69
397.922	81.69
398.147	75.69
398.371	77.69
398.595	80.69
398.82	78.69
399.044	68.69
399.268	79.69
399.492	77.69
399.717	84.69
399.941	86.69
400.165	82.69
400.389	88.69
400.613	74.69
400.837	97.69
401.062	82.69
401.286	84.69
401.51	84.69
401.734	70.69
401.958	66.69
402.182	74.69
402.406	81.69
402.63	81.69
402.854	74.69
403.078	87.69
403.302	74.69
403.526	85.69
403.75	87.69
403.974	76.69
404.198	76.69
404.422	89.69
404.645	87.69
404.869	86.69
405.093	93.69
405.317	81.69
405.541	72.69
405.765	79.69
405.988	85.69
406.212	94.69
406.436	80.69
406.66	96.69
406.883	94.69
407.107	90.69
407.331	83.69
407.555	79.69
407.778	85.69
408.002	93.69
408.226	91.69
408.449	93.69
408.673	71.69
408.896	78.69
409.12	98.69
409.344	75.69
409.567	91.69
409.791	92.69
410.014	79.69
410.238	82.69
410.461	81.69
410.685	84.69
410.908	80.69
411.132	94.69
411.355	91.69
411.578	83.69
411.802	92.69
412.025	74.69
412.249	89.69
412.472	77.69
412.695	73.69
412.919	81.69
413.142	80.69
413.365	87.69
413.589	103.69
413.812	84.69
414.035	91.69
414.258	93.69
414.482	79.69
414.705	96.69
414.928	87.69
415.151	92.69
415.374	92.69
415.597	99.69
415.821	74.69
416.044	81.69
416.267	81.69
416.49	83.69
416.713	74.69
416.936	83.69
417.159	82.69
417.382	96.69
417.605	71.69
417.828	77.69
418.051	85.69
418.274	81.69
418.497	86.69
418.72	103.69
418.943	73.69
419.166	106.69
419.389	106.69
419.611	94.69
419.834	98.69
420.057	91.69
420.28	83.69
420.503	102.69
420.726	92.69
420.948	74.69
421.171	81.69
421.394	89.69
421.617	67.69
421.839	91.69
422.062	91.69
422.285	84.69
422.507	83.69
422.73	79.69
422.953	73.69
423.175	78.69
423.398	86.69
423.621	92.69
423.843	83.69
424.066	87.69
424.288	97.69
424.511	82.69
424.733	87.69
424.956	91.69
425.178	82.69
425.401	76.69
425.623	80.69
425.846	89.69
426.068	89.69
426.291	92.69
426.513	90.69
426.735	78.69
426.958	85.69
427.18	70.69
427.402	92.69
427.625	96.69
427.847	93.69
428.069	86.69
428.292	93.69
428.514	84.69
428.736	101.69
428.958	91.69
429.181	89.69
429.403	91.69
429.625	89.69
429.847	77.69
430.069	82.69
430.292	91.69
430.514	81.69
430.736	95.69
430.958	83.69
431.18	96.69
431.402	87.69
431.624	95.69
431.846	86.69
432.068	79.69
432.29	87.69
432.512	71.69
432.734	82.69
432.956	79.69
433.178	83.69
433.4	94.69
433.622	97.69
433.844	82.69
434.066	88.69
434.287	90.69
434.509	78.69
434.731	80.69
434.953	78.69
435.175	94.69
435.397	81.69
435.618	82.69
435.84	75.69
436.062	66.69
436.284	96.69
436.505	92.69
436.727	87.69
436.949	108.69
437.17	97.69
437.392	96.69
437.614	88.69
437.835	76.69
438.057	88.69
438.278	70.69
438.5	86.69
438.721	82.69
438.943	76.69
439.165	92.69
439.386	92.69
439.608	83.69
439.829	80.69
440.05	91.69
440.272	100.69
440.493	79.69
440.715	88.69
440.936	84.69
441.158	94.69
441.379	93.69
441.6	87.69
441.822	90.69
442.043	86.69
442.264	104.69
442.486	103.69
442.707	89.69
442.928	84.69
443.149	78.69
443.371	90.69
443.592	91.69
443.813	92.69
444.034	96.69
444.255	73.69
444.476	88.69
444.698	104.69
444.919	93.69
445.14	214.69
445.361	155.69
445.582	100.69
445.803	101.69
446.024	87.69
446.245	93.69
446.466	78.69
446.687	113.69
446.908	94.69
447.129	96.69
447.35	99.69
447.571	107.69
447.792	79.69
448.013	88.69
448.234	87.69
448.455	96.69
448.675	83.69
448.896	88.69
449.117	104.69
449.338	91.69
449.559	101.69
449.779	89.69
450	101.69
450.221	88.69
450.442	85.69
450.662	97.69
450.883	85.69
451.104	94.69
451.324	82.69
451.545	83.69
451.766	95.69
451.986	91.69
452.207	86.69
452.428	88.69
452.648	93.69
452.869	84.69
453.089	94.69
453.31	74.69
453.53	83.69
453.751	83.69
453.971	100.69
454.192	82.69
454.412	86.69
454.633	83.69
454.853	92.69
455.073	91.69
455.294	98.69
455.514	83.69
455.734	84.69
455.955	90.69
456.175	90.69
456.395	81.69
456.616	82.69
456.836	79.69
457.056	78.69
457.276	74.69
457.497	84.69
457.717	71.69
457.937	78.69
458.157	85.69
458.377	85.69
458.598	82.69
458.818	89.69
459.038	79.69
459.258	75.69
459.478	76.69
459.698	78.69
459.918	74.69
460.138	74.69
460.358	82.69
460.578	94.69
460.798	81.69
461.018	92.69
461.238	82.69
461.458	100.69
461.678	82.69
461.898	82.69
462.118	86.69
462.338	82.69
462.558	87.69
462.777	90.69
462.997	99.69
463.217	78.69
463.437	71.69
463.657	79.69
463.876	100.69
464.096	89.69
464.316	82.69
464.536	94.69
464.755	92.69
464.975	83.69
465.195	91.69
465.414	92.69
465.634	79.69
465.854	83.69
466.073	86.69
466.293	82.69
466.512	80.69
466.732	91.69
466.951	84.69
467.171	74.69
467.391	94.69
467.61	89.69
467.829	77.69
468.049	76.69
468.268	93.69
468.488	89.69
468.707	98.69
468.927	87.69
469.146	80.69
469.365	87.69
469.585	96.69
469.804	84.69
470.023	90.69
470.243	86.69
470.462	92.69
470.681	89.69
470.901	94.69
471.12	79.69
471.339	89.69
471.558	86.69
471.777	98.69
471.997	74.69
472.216	82.69
472.435	72.69
472.654	90.69
472.873	85.69
473.092	77.69
473.311	98.69
473.53	92.69
473.749	87.69
473.968	97.69
474.187	80.69
474.406	78.69
474.625	86.69
474.844	101.69
475.063	73.69
475.282	91.69
475.501	86.69
475.72	92.69
475.939	83.69
476.158	77.69
476.377	70.69
476.596	79.69
476.814	81.69
477.033	85.69
477.252	85.69
477.471	84.69
477.69	86.69
477.908	91.69
478.127	85.69
478.346	98.69
478.564	80.69
478.783	99.69
479.002	93.69
479.22	89.69
479.439	77.69
479.658	103.69
479.876	86.69
480.095	76.69
480.313	95.69
480.532	93.69
480.751	85.69
480.969	75.69
481.188	81.69
481.406	83.69
481.624	72.69
481.843	83.69
482.061	83.69
482.28	81.69
482.498	94.69
482.717	80.69
482.935	98.69
483.153	99.69
483.372	103.69
483.59	97.69
483.808	96.69
484.027	87.69
484.245	85.69
484.463	99.69
484.681	101.69
484.9	77.69
485.118	103.69
485.336	89.69
485.554	96.69
485.772	81.69
485.99	91.69
486.209	80.69
486.427	82.69
486.645	78.69
486.863	85.69
487.081	86.69
487.299	83.69
487.517	87.69
487.735	84.69
487.953	102.69
488.171	108.69
488.389	101.69
488.607	94.69
488.825	95.69
489.043	105.69
489.261	97.69
489.479	84.69
489.696	93.69
489.914	98.69
490.132	79.69
490.35	78.69
490.568	86.69
490.786	92.69
491.003	103.69
491.221	99.69
491.439	105.69
491.657	95.69
491.874	111.69
492.092	106.69
492.31	102.69
492.527	105.69
492.745	106.69
492.963	107.69
493.18	96.69
493.398	94.69
493.615	114.69
493.833	90.69
494.05	98.69
494.268	100.69
494.485	109.69
494.703	98.69
494.92	87.69
495.138	109.69
495.355	95.69
495.573	100.69
495.79	105.69
496.008	90.69
496.225	111.69
496.442	95.69
496.66	90.69
496.877	102.69
497.094	111.69
497.312	83.69
497.529	99.69
497.746	92.69
497.963	96.69
498.181	94.69
498.398	85.69
498.615	87.69
498.832	88.69
499.049	94.69
499.267	91.69
499.484	81.69
499.701	106.69
499.918	100.69
500.135	101.69
500.352	96.69
500.569	75.69
500.786	99.69
501.003	97.69
501.22	88.69
501.437	89.69
501.654	94.69
501.871	91.69
502.088	84.69
502.305	80.69
502.522	92.69
502.739	104.69
502.956	105.69
503.172	98.69
503.389	96.69
503.606	85.69
503.823	93.69
504.04	83.69
504.256	93.69
504.473	95.69
504.69	97.69
504.907	89.69
505.123	80.69
505.34	81.69
505.557	81.69
505.773	90.69
505.99	88.69
506.207	92.69
506.423	87.69
506.64	92.69
506.856	83.69
507.073	88.69
507.289	82.69
507.506	82.69
507.722	77.69
507.939	89.69
508.155	93.69
508.372	81.69
508.588	88.69
508.805	92.69
509.021	91.69
509.238	79.69
509.454	75.69
509.67	78.69
509.887	79.69
510.103	75.69
510.319	87.69
510.536	93.69
510.752	86.69
510.968	68.69
511.184	66.69
511.401	77.69
511.617	87.69
511.833	85.69
512.049	83.69
512.265	82.69
512.481	66.69
512.698	86.69
512.914	89.69
513.13	94.69
513.346	69.69
513.562	80.69
513.778	92.69
513.994	87.69
514.21	68.69
514.426	75.69
514.642	83.69
514.858	90.69
515.074	78.69
515.29	89.69
515.506	79.69
515.721	88.69
515.937	79.69
516.153	80.69
516.369	71.69
516.585	74.69
516.801	84.69
517.016	73.69
517.232	74.69
517.448	84.69
517.664	75.69
517.879	74.69
518.095	89.69
518.311	75.69
518.527	86.69
518.742	93.69
