Data from Location5.07152019.Energy5.Lamp.07192019.3%Agarose_HRD10591_16-05-35-629.txt Node
Date: Fri Jul 19 16:05:35 EDT 2019
User: cochatt
Spectrometer: HR+D1059
Trigger mode: 1
Integration Time (sec): 1.000000E-1
Scans to average: 1
Electric dark correction enabled: true
Nonlinearity correction enabled: false
Boxcar width: 0
XAxis mode: Wavelengths
Number of Pixels in Spectrum: 2048
>>>>>Begin Spectral Data<<<<<
223.165	-8
223.4	-8
223.635	-8
223.869	-6
224.104	-18
224.338	-17
224.573	-20
224.808	-3
225.042	-21
225.277	-2
225.511	-6
225.746	3
225.98	8
226.215	16
226.449	9
226.683	-1
226.918	30
227.152	36
227.387	47
227.621	38
227.856	54
228.09	62
228.324	54
228.559	64
228.793	68
229.027	53
229.262	74
229.496	66
229.73	64
229.964	79
230.199	81
230.433	75
230.667	72
230.901	93
231.136	78
231.37	84
231.604	72
231.838	77
232.072	85
232.306	96
232.541	90
232.775	82
233.009	101
233.243	86
233.477	98
233.711	87
233.945	79
234.179	96
234.413	82
234.647	80
234.881	87
235.115	77
235.349	91
235.583	80
235.817	88
236.051	80
236.285	78
236.519	88
236.753	90
236.987	74
237.221	88
237.455	86
237.689	87
237.922	101
238.156	86
238.39	84
238.624	85
238.858	73
239.091	78
239.325	84
239.559	75
239.793	70
240.027	80
240.26	78
240.494	87
240.728	84
240.961	87
241.195	78
241.429	78
241.662	89
241.896	96
242.13	84
242.363	81
242.597	85
242.83	78
243.064	76
243.298	85
243.531	79
243.765	78
243.998	77
244.232	88
244.465	84
244.699	71
244.932	86
245.166	74
245.399	83
245.633	75
245.866	93
246.099	74
246.333	84
246.566	73
246.8	96
247.033	92
247.266	79
247.5	76
247.733	74
247.966	87
248.2	90
248.433	93
248.666	80
248.899	81
249.133	82
249.366	82
249.599	89
249.832	83
250.066	91
250.299	84
250.532	84
250.765	77
250.998	84
251.231	89
251.465	91
251.698	75
251.931	97
252.164	94
252.397	73
252.63	76
252.863	99
253.096	78
253.329	83
253.562	84
253.795	94
254.028	82
254.261	82
254.494	74
254.727	82
254.96	80
255.193	76
255.426	81
255.659	91
255.892	100
256.124	104
256.357	74
256.59	86
256.823	90
257.056	96
257.289	80
257.521	91
257.754	82
257.987	94
258.22	85
258.452	77
258.685	94
258.918	98
259.151	80
259.383	80
259.616	80
259.849	96
260.081	75
260.314	101
260.547	82
260.779	95
261.012	88
261.244	89
261.477	90
261.71	73
261.942	88
262.175	82
262.407	104
262.64	87
262.872	83
263.105	93
263.337	73
263.57	92
263.802	80
264.035	73
264.267	77
264.499	79
264.732	89
264.964	96
265.197	83
265.429	100
265.661	80
265.894	91
266.126	108
266.358	88
266.591	101
266.823	79
267.055	86
267.287	92
267.52	78
267.752	110
267.984	106
268.216	87
268.448	93
268.681	77
268.913	95
269.145	91
269.377	91
269.609	81
269.841	92
270.073	95
270.306	87
270.538	82
270.77	97
271.002	86
271.234	95
271.466	106
271.698	91
271.93	74
272.162	90
272.394	98
272.626	90
272.858	95
273.09	94
273.322	90
273.553	76
273.785	72
274.017	90
274.249	91
274.481	72
274.713	98
274.945	89
275.176	98
275.408	88
275.64	90
275.872	95
276.104	99
276.335	97
276.567	86
276.799	94
277.031	83
277.262	105
277.494	86
277.726	79
277.957	92
278.189	95
278.421	95
278.652	102
278.884	93
279.115	89
279.347	96
279.579	94
279.81	102
280.042	88
280.273	80
280.505	76
280.736	91
280.968	84
281.199	81
281.431	85
281.662	81
281.894	105
282.125	89
282.356	86
282.588	87
282.819	92
283.051	94
283.282	90
283.513	108
283.745	92
283.976	88
284.207	89
284.439	89
284.67	77
284.901	90
285.132	71
285.364	75
285.595	87
285.826	88
286.057	85
286.288	81
286.52	73
286.751	98
286.982	100
287.213	93
287.444	105
287.675	110
287.906	98
288.138	82
288.369	92
288.6	90
288.831	90
289.062	89
289.293	96
289.524	86
289.755	87
289.986	81
290.217	95
290.448	101
290.679	94
290.91	88
291.141	88
291.371	93
291.602	86
291.833	100
292.064	94
292.295	91
292.526	85
292.757	95
292.987	90
293.218	81
293.449	93
293.68	92
293.91	82
294.141	96
294.372	90
294.603	100
294.833	86
295.064	99
295.295	92
295.525	103
295.756	82
295.987	102
296.217	91
296.448	88
296.679	90
296.909	91
297.14	95
297.37	93
297.601	86
297.831	79
298.062	96
298.292	86
298.523	102
298.753	98
298.984	98
299.214	76
299.445	92
299.675	97
299.905	96
300.136	77
300.366	84
300.597	93
300.827	87
301.057	82
301.288	96
301.518	83
301.748	92
301.979	98
302.209	85
302.439	90
302.669	93
302.9	106
303.13	101
303.36	91
303.59	94
303.82	103
304.051	102
304.281	107
304.511	105
304.741	103
304.971	93
305.201	93
305.431	89
305.661	100
305.891	87
306.121	113
306.352	86
306.582	85
306.812	90
307.042	104
307.272	95
307.502	100
307.731	91
307.961	93
308.191	96
308.421	114
308.651	95
308.881	100
309.111	101
309.341	94
309.571	88
309.8	100
310.03	96
310.26	84
310.49	98
310.72	101
310.949	95
311.179	74
311.409	100
311.639	80
311.868	94
312.098	91
312.328	84
312.557	103
312.787	93
313.017	95
313.246	87
313.476	91
313.706	90
313.935	114
314.165	87
314.394	84
314.624	98
314.853	91
315.083	84
315.312	90
315.542	92
315.771	89
316.001	111
316.23	93
316.46	97
316.689	85
316.919	90
317.148	88
317.377	92
317.607	73
317.836	86
318.065	87
318.295	83
318.524	85
318.753	102
318.983	94
319.212	97
319.441	97
319.67	100
319.9	104
320.129	98
320.358	92
320.587	87
320.816	76
321.046	86
321.275	92
321.504	87
321.733	100
321.962	76
322.191	97
322.42	102
322.649	107
322.878	98
323.108	92
323.337	92
323.566	102
323.795	97
324.024	84
324.253	77
324.482	87
324.71	79
324.939	87
325.168	76
325.397	91
325.626	96
325.855	87
326.084	105
326.313	99
326.542	94
326.77	88
326.999	87
327.228	96
327.457	98
327.686	95
327.914	91
328.143	100
328.372	99
328.6	81
328.829	81
329.058	98
329.287	83
329.515	86
329.744	96
329.972	89
330.201	90
330.43	98
330.658	89
330.887	92
331.115	103
331.344	98
331.572	95
331.801	92
332.03	80
332.258	105
332.486	109
332.715	91
332.943	86
333.172	98
333.4	110
333.629	92
333.857	104
334.085	101
334.314	98
334.542	91
334.771	92
334.999	92
335.227	93
335.455	101
335.684	108
335.912	96
336.14	95
336.369	92
336.597	88
336.825	89
337.053	95
337.281	95
337.51	110
337.738	98
337.966	90
338.194	94
338.422	96
338.65	79
338.878	96
339.106	98
339.334	95
339.562	93
339.79	99
340.018	100
340.246	99
340.474	92
340.702	93
340.93	86
341.158	85
341.386	90
341.614	98
341.842	87
342.07	102
342.298	101
342.526	114
342.754	109
342.981	85
343.209	89
343.437	99
343.665	93
343.893	90
344.12	87
344.348	103
344.576	108
344.804	90
345.031	106
345.259	84
345.487	100
345.714	102
345.942	89
346.17	89
346.397	87
346.625	80
346.853	89
347.08	104
347.308	101
347.535	108
347.763	96
347.99	106
348.218	79
348.445	90
348.673	90
348.9	90
349.128	79
349.355	97
349.583	75
349.81	106
350.037	87
350.265	91
350.492	97
350.72	101
350.947	98
351.174	89
351.402	99
351.629	88
351.856	99
352.083	83
352.311	84
352.538	99
352.765	95
352.992	102
353.22	94
353.447	83
353.674	101
353.901	88
354.128	96
354.355	96
354.583	100
354.81	98
355.037	105
355.264	94
355.491	88
355.718	95
355.945	89
356.172	88
356.399	102
356.626	91
356.853	96
357.08	91
357.307	107
357.534	102
357.761	87
357.988	86
358.215	88
358.441	92
358.668	96
358.895	96
359.122	93
359.349	94
359.576	93
359.802	99
360.029	100
360.256	95
360.483	84
360.709	100
360.936	85
361.163	92
361.39	87
361.616	97
361.843	90
362.07	94
362.296	95
362.523	103
362.749	92
362.976	87
363.203	94
363.429	79
363.656	107
363.882	92
364.109	79
364.335	95
364.562	96
364.788	89
365.015	103
365.241	83
365.468	98
365.694	87
365.92	76
366.147	100
366.373	95
366.599	98
366.826	93
367.052	90
367.278	91
367.505	87
367.731	112
367.957	91
368.184	83
368.41	94
368.636	94
368.862	91
369.089	86
369.315	77
369.541	87
369.767	93
369.993	78
370.219	90
370.445	90
370.672	89
370.898	91
371.124	90
371.35	87
371.576	87
371.802	76
372.028	91
372.254	79
372.48	80
372.706	84
372.932	84
373.158	93
373.384	77
373.61	99
373.835	102
374.061	93
374.287	100
374.513	91
374.739	106
374.965	85
375.191	92
375.416	97
375.642	96
375.868	88
376.094	84
376.319	101
376.545	101
376.771	91
376.997	72
377.222	80
377.448	86
377.674	91
377.899	101
378.125	83
378.35	89
378.576	102
378.802	98
379.027	99
379.253	102
379.478	91
379.704	89
379.929	90
380.155	95
380.38	100
380.606	93
380.831	80
381.057	88
381.282	91
381.507	101
381.733	106
381.958	91
382.184	104
382.409	101
382.634	105
382.86	93
383.085	87
383.31	91
383.535	102
383.761	93
383.986	88
384.211	79
384.436	88
384.662	97
384.887	102
385.112	97
385.337	87
385.562	82
385.787	100
386.013	99
386.238	103
386.463	100
386.688	99
386.913	90
387.138	101
387.363	96
387.588	93
387.813	91
388.038	91
388.263	102
388.488	90
388.713	102
388.938	108
389.163	85
389.387	87
389.612	93
389.837	92
390.062	90
390.287	99
390.512	92
390.736	101
390.961	80
391.186	80
391.411	77
391.636	96
391.86	86
392.085	97
392.31	98
392.534	89
392.759	92
392.984	96
393.208	95
393.433	84
393.658	91
393.882	91
394.107	83
394.331	91
394.556	92
394.78	104
395.005	86
395.229	81
395.454	104
395.678	96
395.903	108
396.127	104
396.352	102
396.576	104
396.801	95
397.025	94
397.249	93
397.474	100
397.698	80
397.922	91
398.147	99
398.371	113
398.595	80
398.82	84
399.044	93
399.268	84
399.492	90
399.717	96
399.941	119
400.165	88
400.389	95
400.613	102
400.837	96
401.062	95
401.286	107
401.51	101
401.734	91
401.958	95
402.182	82
402.406	95
402.63	98
402.854	95
403.078	84
403.302	98
403.526	86
403.75	111
403.974	87
404.198	91
404.422	88
404.645	85
404.869	99
405.093	93
405.317	99
405.541	98
405.765	83
405.988	90
406.212	86
406.436	87
406.66	95
406.883	94
407.107	88
407.331	109
407.555	117
407.778	97
408.002	91
408.226	95
408.449	88
408.673	98
408.896	103
409.12	87
409.344	91
409.567	95
409.791	86
410.014	84
410.238	98
410.461	101
410.685	88
410.908	94
411.132	99
411.355	90
411.578	96
411.802	88
412.025	81
412.249	85
412.472	104
412.695	100
412.919	102
413.142	92
413.365	92
413.589	90
413.812	83
414.035	106
414.258	109
414.482	93
414.705	98
414.928	92
415.151	94
415.374	100
415.597	98
415.821	89
416.044	95
416.267	102
416.49	87
416.713	83
416.936	83
417.159	88
417.382	90
417.605	84
417.828	90
418.051	101
418.274	96
418.497	89
418.72	98
418.943	92
419.166	98
419.389	87
419.611	102
419.834	93
420.057	110
420.28	82
420.503	99
420.726	88
420.948	87
421.171	99
421.394	93
421.617	81
421.839	99
422.062	108
422.285	86
422.507	99
422.73	85
422.953	88
423.175	85
423.398	77
423.621	105
423.843	99
424.066	101
424.288	99
424.511	109
424.733	102
424.956	88
425.178	98
425.401	100
425.623	91
425.846	88
426.068	91
426.291	94
426.513	98
426.735	102
426.958	96
427.18	82
427.402	85
427.625	69
427.847	86
428.069	100
428.292	91
428.514	89
428.736	86
428.958	96
429.181	101
429.403	90
429.625	95
429.847	100
430.069	93
430.292	92
430.514	94
430.736	88
430.958	92
431.18	92
431.402	101
431.624	82
431.846	85
432.068	96
432.29	99
432.512	96
432.734	95
432.956	96
433.178	91
433.4	88
433.622	85
433.844	100
434.066	89
434.287	97
434.509	99
434.731	76
434.953	96
435.175	93
435.397	95
435.618	103
435.84	90
436.062	85
436.284	94
436.505	94
436.727	98
436.949	94
437.17	105
437.392	102
437.614	99
437.835	91
438.057	90
438.278	89
438.5	101
438.721	88
438.943	105
439.165	93
439.386	99
439.608	101
439.829	93
440.05	89
440.272	95
440.493	90
440.715	94
440.936	94
441.158	104
441.379	96
441.6	106
441.822	91
442.043	103
442.264	98
442.486	87
442.707	89
442.928	89
443.149	88
443.371	110
443.592	94
443.813	91
444.034	104
444.255	102
444.476	101
444.698	104
444.919	94
445.14	240
445.361	156
445.582	103
445.803	89
446.024	103
446.245	82
446.466	86
446.687	91
446.908	102
447.129	99
447.35	84
447.571	86
447.792	85
448.013	100
448.234	87
448.455	87
448.675	102
448.896	91
449.117	86
449.338	87
449.559	99
449.779	85
450	91
450.221	106
450.442	83
450.662	91
450.883	88
451.104	100
451.324	95
451.545	105
451.766	106
451.986	80
452.207	80
452.428	84
452.648	92
452.869	97
453.089	104
453.31	88
453.53	109
453.751	106
453.971	87
454.192	86
454.412	80
454.633	91
454.853	94
455.073	82
455.294	86
455.514	80
455.734	89
455.955	96
456.175	90
456.395	95
456.616	90
456.836	86
457.056	97
457.276	71
457.497	83
457.717	89
457.937	96
458.157	93
458.377	86
458.598	87
458.818	95
459.038	102
459.258	77
459.478	95
459.698	88
459.918	100
460.138	117
460.358	100
460.578	91
460.798	84
461.018	104
461.238	99
461.458	86
461.678	99
461.898	95
462.118	110
462.338	92
462.558	94
462.777	90
462.997	98
463.217	106
463.437	99
463.657	90
463.876	102
464.096	83
464.316	101
464.536	100
464.755	101
464.975	99
465.195	88
465.414	85
465.634	87
465.854	105
466.073	88
466.293	95
466.512	83
466.732	90
466.951	100
467.171	114
467.391	97
467.61	90
467.829	107
468.049	89
468.268	95
468.488	102
468.707	100
468.927	100
469.146	85
469.365	94
469.585	98
469.804	87
470.023	103
470.243	87
470.462	99
470.681	83
470.901	99
471.12	94
471.339	105
471.558	83
471.777	103
471.997	108
472.216	107
472.435	92
472.654	92
472.873	102
473.092	89
473.311	92
473.53	92
473.749	96
473.968	111
474.187	102
474.406	102
474.625	95
474.844	95
475.063	85
475.282	81
475.501	92
475.72	86
475.939	87
476.158	101
476.377	95
476.596	101
476.814	96
477.033	103
477.252	115
477.471	97
477.69	109
477.908	94
478.127	92
478.346	99
478.564	106
478.783	98
479.002	98
479.22	76
479.439	101
479.658	99
479.876	90
480.095	96
480.313	104
480.532	87
480.751	94
480.969	92
481.188	102
481.406	106
481.624	90
481.843	86
482.061	112
482.28	84
482.498	100
482.717	98
482.935	89
483.153	103
483.372	103
483.59	107
483.808	89
484.027	110
484.245	101
484.463	100
484.681	109
484.9	103
485.118	109
485.336	95
485.554	86
485.772	99
485.99	107
486.209	89
486.427	91
486.645	84
486.863	103
487.081	104
487.299	111
487.517	98
487.735	109
487.953	101
488.171	109
488.389	112
488.607	91
488.825	95
489.043	106
489.261	88
489.479	92
489.696	108
489.914	95
490.132	108
490.35	109
490.568	100
490.786	94
491.003	103
491.221	117
491.439	115
491.657	93
491.874	102
492.092	120
492.31	117
492.527	124
492.745	107
492.963	106
493.18	119
493.398	105
493.615	106
493.833	96
494.05	103
494.268	103
494.485	107
494.703	94
494.92	103
495.138	115
495.355	116
495.573	122
495.79	109
496.008	99
496.225	105
496.442	108
496.66	114
496.877	110
497.094	107
497.312	101
497.529	119
497.746	118
497.963	117
498.181	107
498.398	110
498.615	115
498.832	120
499.049	93
499.267	110
499.484	120
499.701	118
499.918	114
500.135	117
500.352	125
500.569	141
500.786	142
501.003	128
501.22	129
501.437	116
501.654	122
501.871	120
502.088	99
502.305	122
502.522	121
502.739	108
502.956	105
503.172	106
503.389	119
503.606	97
503.823	112
504.04	94
504.256	103
504.473	107
504.69	115
504.907	114
505.123	99
505.34	109
505.557	111
505.773	104
505.99	102
506.207	101
506.423	110
506.64	110
506.856	111
507.073	97
507.289	107
507.506	108
507.722	82
507.939	93
508.155	104
508.372	101
508.588	94
508.805	98
509.021	93
509.238	89
509.454	87
509.67	95
509.887	98
510.103	89
510.319	91
510.536	92
510.752	92
510.968	104
511.184	103
511.401	103
511.617	95
511.833	88
512.049	94
512.265	78
512.481	109
512.698	101
512.914	103
513.13	72
513.346	103
513.562	94
513.778	108
513.994	115
514.21	90
514.426	103
514.642	96
514.858	94
515.074	99
515.29	103
515.506	89
515.721	100
515.937	108
516.153	111
516.369	93
516.585	110
516.801	92
517.016	101
517.232	111
517.448	100
517.664	110
517.879	96
518.095	99
518.311	103
518.527	99
518.742	101
518.958	101
519.173	118
519.389	114
519.605	103
519.82	103
520.036	90
520.251	103
520.467	91
520.682	108
520.898	85
521.113	93
521.329	97
521.544	96
521.76	102
521.975	91
522.19	107
522.406	95
522.621	80
522.836	101
523.052	93
523.267	106
523.482	100
523.698	98
523.913	94
524.128	88
524.343	102
524.559	96
524.774	96
524.989	96
525.204	87
525.419	95
525.634	100
525.849	115
526.064	99
526.28	92
526.495	102
526.71	98
526.925	109
527.14	92
527.355	92
527.57	102
527.785	100
527.999	93
528.214	104
528.429	118
528.644	87
528.859	90
529.074	95
529.289	101
529.503	96
529.718	93
529.933	100
530.148	102
530.363	106
530.577	103
530.792	105
531.007	93
531.221	95
531.436	87
531.651	103
531.865	94
532.08	104
532.295	100
532.509	107
532.724	97
532.938	103
533.153	118
533.367	95
533.582	94
533.796	101
534.011	97
534.225	97
534.44	99
534.654	107
534.868	102
535.083	94
535.297	99
535.511	108
535.726	109
535.94	104
536.154	88
536.369	93
536.583	100
536.797	106
537.011	104
537.225	101
537.44	98
537.654	87
537.868	96
538.082	92
538.296	100
538.51	88
538.724	94
538.938	84
539.153	104
539.367	99
539.581	103
539.795	93
540.009	108
540.222	99
540.436	93
540.65	101
540.864	117
541.078	110
541.292	98
541.506	102
541.72	105
541.934	116
542.147	109
542.361	114
542.575	112
542.789	100
543.002	101
543.216	93
543.43	93
543.644	97
543.857	107
544.071	105
544.285	98
544.498	104
544.712	97
544.925	106
545.139	112
545.352	94
545.566	102
545.779	119
545.993	112
546.206	115
546.42	110
546.633	114
546.847	101
547.06	102
547.274	109
547.487	113
547.7	107
547.914	103
548.127	103
548.34	89
548.554	101
548.767	108
548.98	99
549.193	103
549.407	105
549.62	114
549.833	106
550.046	119
550.259	96
550.473	106
550.686	103
550.899	116
551.112	103
551.325	88
551.538	101
551.751	94
551.964	98
552.177	87
552.39	93
552.603	100
552.816	93
553.029	95
553.242	104
553.455	98
553.667	113
553.88	95
554.093	124
554.306	107
554.519	111
554.732	94
554.944	104
555.157	105
555.37	104
555.583	98
555.795	99
556.008	102
556.221	95
556.433	80
556.646	104
556.859	94
557.071	100
557.284	95
557.496	94
557.709	101
557.921	102
558.134	99
558.346	95
558.559	89
558.771	107
558.984	96
559.196	104
559.409	98
559.621	99
559.833	103
560.046	106
560.258	98
560.47	103
560.683	99
560.895	112
561.107	97
561.32	98
561.532	89
561.744	84
561.956	101
562.168	91
562.381	83
562.593	95
562.805	84
563.017	103
563.229	76
563.441	95
563.653	100
563.865	99
564.077	93
564.289	107
564.501	101
564.713	109
564.925	86
565.137	90
565.349	87
565.561	104
565.773	110
565.985	102
566.197	105
566.408	104
566.62	94
566.832	90
567.044	88
567.255	88
567.467	85
567.679	96
567.891	105
568.102	102
568.314	110
568.526	93
568.737	96
568.949	110
569.161	99
569.372	100
569.584	91
569.795	91
570.007	93
570.218	96
570.43	98
570.641	79
570.853	96
571.064	90
571.276	92
571.487	92
571.698	96
571.91	85
572.121	91
572.333	102
572.544	82
572.755	93
572.966	97
573.178	104
573.389	106
573.6	101
573.811	95
574.023	94
574.234	87
574.445	100
574.656	87
574.867	106
575.078	97
575.289	98
575.501	85
575.712	96
575.923	101
576.134	94
576.345	92
576.556	102
576.767	95
576.978	96
577.188	94
577.399	99
577.61	99
577.821	86
578.032	107
578.243	85
578.454	98
578.665	86
578.875	86
579.086	91
579.297	100
579.508	96
579.718	98
579.929	114
580.14	106
580.35	94
580.561	94
580.772	92
580.982	86
581.193	86
581.403	95
581.614	97
581.825	101
