Data from Location5.07152019.Energy5.Lamp.07192019.3%Agarose_HRD10591_16-04-53-629.txt Node
Date: Fri Jul 19 16:04:53 EDT 2019
User: cochatt
Spectrometer: HR+D1059
Trigger mode: 1
Integration Time (sec): 1.000000E-1
Scans to average: 1
Electric dark correction enabled: true
Nonlinearity correction enabled: false
Boxcar width: 0
XAxis mode: Wavelengths
Number of Pixels in Spectrum: 2048
>>>>>Begin Spectral Data<<<<<
223.165	-13.06
223.4	-13.06
223.635	-13.06
223.869	-39.06
224.104	-20.06
224.338	-15.06
224.573	-11.06
224.808	1.94
225.042	-8.06
225.277	-6.06
225.511	5.94
225.746	0.94
225.98	12.94
226.215	10.94
226.449	24.94
226.683	23.94
226.918	17.94
227.152	12.94
227.387	30.94
227.621	30.94
227.856	51.94
228.09	46.94
228.324	60.94
228.559	49.94
228.793	60.94
229.027	65.94
229.262	60.94
229.496	66.94
229.73	80.94
229.964	73.94
230.199	68.94
230.433	70.94
230.667	78.94
230.901	76.94
231.136	73.94
231.37	69.94
231.604	81.94
231.838	86.94
232.072	91.94
232.306	91.94
232.541	84.94
232.775	77.94
233.009	89.94
233.243	85.94
233.477	96.94
233.711	87.94
233.945	70.94
234.179	88.94
234.413	89.94
234.647	81.94
234.881	86.94
235.115	81.94
235.349	98.94
235.583	87.94
235.817	91.94
236.051	86.94
236.285	72.94
236.519	68.94
236.753	68.94
236.987	84.94
237.221	83.94
237.455	81.94
237.689	86.94
237.922	91.94
238.156	72.94
238.39	73.94
238.624	82.94
238.858	82.94
239.091	78.94
239.325	72.94
239.559	68.94
239.793	68.94
240.027	80.94
240.26	74.94
240.494	65.94
240.728	81.94
240.961	83.94
241.195	70.94
241.429	86.94
241.662	64.94
241.896	78.94
242.13	86.94
242.363	77.94
242.597	73.94
242.83	79.94
243.064	75.94
243.298	82.94
243.531	75.94
243.765	87.94
243.998	77.94
244.232	87.94
244.465	82.94
244.699	81.94
244.932	78.94
245.166	70.94
245.399	93.94
245.633	74.94
245.866	78.94
246.099	83.94
246.333	92.94
246.566	75.94
246.8	88.94
247.033	83.94
247.266	86.94
247.5	79.94
247.733	76.94
247.966	71.94
248.2	84.94
248.433	79.94
248.666	75.94
248.899	78.94
249.133	85.94
249.366	82.94
249.599	73.94
249.832	85.94
250.066	68.94
250.299	84.94
250.532	92.94
250.765	88.94
250.998	83.94
251.231	78.94
251.465	100.94
251.698	93.94
251.931	84.94
252.164	68.94
252.397	75.94
252.63	81.94
252.863	83.94
253.096	83.94
253.329	89.94
253.562	97.94
253.795	74.94
254.028	96.94
254.261	84.94
254.494	83.94
254.727	90.94
254.96	80.94
255.193	81.94
255.426	70.94
255.659	89.94
255.892	97.94
256.124	75.94
256.357	85.94
256.59	76.94
256.823	83.94
257.056	77.94
257.289	84.94
257.521	84.94
257.754	86.94
257.987	93.94
258.22	92.94
258.452	83.94
258.685	86.94
258.918	86.94
259.151	81.94
259.383	86.94
259.616	85.94
259.849	84.94
260.081	75.94
260.314	87.94
260.547	86.94
260.779	91.94
261.012	81.94
261.244	75.94
261.477	100.94
261.71	88.94
261.942	82.94
262.175	103.94
262.407	86.94
262.64	88.94
262.872	77.94
263.105	71.94
263.337	74.94
263.57	86.94
263.802	77.94
264.035	81.94
264.267	101.94
264.499	87.94
264.732	82.94
264.964	97.94
265.197	72.94
265.429	97.94
265.661	72.94
265.894	68.94
266.126	91.94
266.358	86.94
266.591	93.94
266.823	89.94
267.055	94.94
267.287	76.94
267.52	86.94
267.752	81.94
267.984	98.94
268.216	90.94
268.448	85.94
268.681	93.94
268.913	83.94
269.145	81.94
269.377	93.94
269.609	85.94
269.841	95.94
270.073	105.94
270.306	83.94
270.538	86.94
270.77	84.94
271.002	90.94
271.234	96.94
271.466	95.94
271.698	93.94
271.93	77.94
272.162	83.94
272.394	84.94
272.626	89.94
272.858	93.94
273.09	64.94
273.322	84.94
273.553	89.94
273.785	95.94
274.017	83.94
274.249	106.94
274.481	81.94
274.713	78.94
274.945	93.94
275.176	90.94
275.408	89.94
275.64	77.94
275.872	83.94
276.104	85.94
276.335	87.94
276.567	98.94
276.799	91.94
277.031	93.94
277.262	84.94
277.494	102.94
277.726	98.94
277.957	89.94
278.189	84.94
278.421	96.94
278.652	100.94
278.884	92.94
279.115	85.94
279.347	96.94
279.579	86.94
279.81	83.94
280.042	94.94
280.273	88.94
280.505	106.94
280.736	100.94
280.968	92.94
281.199	89.94
281.431	89.94
281.662	100.94
281.894	72.94
282.125	87.94
282.356	80.94
282.588	90.94
282.819	83.94
283.051	89.94
283.282	91.94
283.513	105.94
283.745	95.94
283.976	100.94
284.207	88.94
284.439	92.94
284.67	90.94
284.901	87.94
285.132	85.94
285.364	84.94
285.595	93.94
285.826	88.94
286.057	82.94
286.288	97.94
286.52	96.94
286.751	86.94
286.982	105.94
287.213	95.94
287.444	114.94
287.675	84.94
287.906	97.94
288.138	94.94
288.369	93.94
288.6	93.94
288.831	88.94
289.062	102.94
289.293	104.94
289.524	89.94
289.755	85.94
289.986	83.94
290.217	88.94
290.448	86.94
290.679	88.94
290.91	89.94
291.141	82.94
291.371	95.94
291.602	98.94
291.833	83.94
292.064	102.94
292.295	86.94
292.526	102.94
292.757	93.94
292.987	101.94
293.218	90.94
293.449	97.94
293.68	90.94
293.91	73.94
294.141	82.94
294.372	76.94
294.603	85.94
294.833	93.94
295.064	82.94
295.295	97.94
295.525	89.94
295.756	103.94
295.987	82.94
296.217	84.94
296.448	91.94
296.679	93.94
296.909	94.94
297.14	98.94
297.37	90.94
297.601	102.94
297.831	92.94
298.062	109.94
298.292	94.94
298.523	103.94
298.753	87.94
298.984	89.94
299.214	109.94
299.445	85.94
299.675	81.94
299.905	77.94
300.136	98.94
300.366	89.94
300.597	97.94
300.827	104.94
301.057	92.94
301.288	89.94
301.518	104.94
301.748	89.94
301.979	92.94
302.209	90.94
302.439	92.94
302.669	103.94
302.9	101.94
303.13	95.94
303.36	101.94
303.59	93.94
303.82	91.94
304.051	102.94
304.281	110.94
304.511	91.94
304.741	97.94
304.971	97.94
305.201	91.94
305.431	92.94
305.661	82.94
305.891	107.94
306.121	105.94
306.352	79.94
306.582	84.94
306.812	100.94
307.042	87.94
307.272	86.94
307.502	92.94
307.731	92.94
307.961	91.94
308.191	103.94
308.421	90.94
308.651	87.94
308.881	85.94
309.111	78.94
309.341	92.94
309.571	108.94
309.8	82.94
310.03	91.94
310.26	96.94
310.49	97.94
310.72	91.94
310.949	90.94
311.179	96.94
311.409	91.94
311.639	76.94
311.868	91.94
312.098	82.94
312.328	69.94
312.557	92.94
312.787	93.94
313.017	100.94
313.246	101.94
313.476	93.94
313.706	88.94
313.935	86.94
314.165	98.94
314.394	93.94
314.624	115.94
314.853	104.94
315.083	85.94
315.312	101.94
315.542	97.94
315.771	88.94
316.001	88.94
316.23	88.94
316.46	92.94
316.689	97.94
316.919	96.94
317.148	101.94
317.377	98.94
317.607	95.94
317.836	96.94
318.065	103.94
318.295	107.94
318.524	96.94
318.753	96.94
318.983	88.94
319.212	109.94
319.441	94.94
319.67	101.94
319.9	85.94
320.129	97.94
320.358	81.94
320.587	95.94
320.816	91.94
321.046	80.94
321.275	84.94
321.504	88.94
321.733	87.94
321.962	89.94
322.191	92.94
322.42	86.94
322.649	99.94
322.878	95.94
323.108	79.94
323.337	97.94
323.566	93.94
323.795	100.94
324.024	104.94
324.253	89.94
324.482	111.94
324.71	95.94
324.939	90.94
325.168	98.94
325.397	96.94
325.626	95.94
325.855	84.94
326.084	94.94
326.313	98.94
326.542	88.94
326.77	96.94
326.999	91.94
327.228	93.94
327.457	110.94
327.686	102.94
327.914	101.94
328.143	104.94
328.372	89.94
328.6	85.94
328.829	89.94
329.058	85.94
329.287	90.94
329.515	93.94
329.744	94.94
329.972	93.94
330.201	108.94
330.43	107.94
330.658	98.94
330.887	92.94
331.115	98.94
331.344	97.94
331.572	89.94
331.801	96.94
332.03	90.94
332.258	91.94
332.486	101.94
332.715	82.94
332.943	93.94
333.172	99.94
333.4	85.94
333.629	96.94
333.857	98.94
334.085	98.94
334.314	91.94
334.542	104.94
334.771	108.94
334.999	99.94
335.227	94.94
335.455	96.94
335.684	103.94
335.912	94.94
336.14	91.94
336.369	104.94
336.597	97.94
336.825	86.94
337.053	97.94
337.281	94.94
337.51	98.94
337.738	99.94
337.966	90.94
338.194	96.94
338.422	102.94
338.65	97.94
338.878	88.94
339.106	84.94
339.334	94.94
339.562	107.94
339.79	76.94
340.018	92.94
340.246	93.94
340.474	92.94
340.702	83.94
340.93	98.94
341.158	90.94
341.386	81.94
341.614	91.94
341.842	85.94
342.07	96.94
342.298	94.94
342.526	88.94
342.754	91.94
342.981	85.94
343.209	97.94
343.437	84.94
343.665	73.94
343.893	93.94
344.12	112.94
344.348	101.94
344.576	93.94
344.804	101.94
345.031	90.94
345.259	103.94
345.487	96.94
345.714	93.94
345.942	83.94
346.17	83.94
346.397	83.94
346.625	93.94
346.853	88.94
347.08	92.94
347.308	85.94
347.535	100.94
347.763	78.94
347.99	95.94
348.218	103.94
348.445	90.94
348.673	86.94
348.9	91.94
349.128	101.94
349.355	93.94
349.583	103.94
349.81	92.94
350.037	93.94
350.265	86.94
350.492	87.94
350.72	96.94
350.947	101.94
351.174	101.94
351.402	99.94
351.629	84.94
351.856	89.94
352.083	81.94
352.311	79.94
352.538	85.94
352.765	82.94
352.992	87.94
353.22	94.94
353.447	84.94
353.674	97.94
353.901	87.94
354.128	76.94
354.355	99.94
354.583	86.94
354.81	103.94
355.037	106.94
355.264	97.94
355.491	105.94
355.718	92.94
355.945	100.94
356.172	86.94
356.399	109.94
356.626	85.94
356.853	81.94
357.08	98.94
357.307	86.94
357.534	86.94
357.761	87.94
357.988	95.94
358.215	89.94
358.441	94.94
358.668	73.94
358.895	91.94
359.122	86.94
359.349	86.94
359.576	107.94
359.802	88.94
360.029	96.94
360.256	92.94
360.483	82.94
360.709	87.94
360.936	116.94
361.163	88.94
361.39	107.94
361.616	94.94
361.843	109.94
362.07	95.94
362.296	97.94
362.523	104.94
362.749	98.94
362.976	91.94
363.203	78.94
363.429	77.94
363.656	92.94
363.882	86.94
364.109	94.94
364.335	99.94
364.562	88.94
364.788	85.94
365.015	86.94
365.241	108.94
365.468	105.94
365.694	99.94
365.92	99.94
366.147	101.94
366.373	109.94
366.599	89.94
366.826	90.94
367.052	95.94
367.278	89.94
367.505	118.94
367.731	107.94
367.957	83.94
368.184	92.94
368.41	101.94
368.636	80.94
368.862	98.94
369.089	99.94
369.315	99.94
369.541	92.94
369.767	104.94
369.993	85.94
370.219	77.94
370.445	93.94
370.672	95.94
370.898	95.94
371.124	108.94
371.35	89.94
371.576	84.94
371.802	102.94
372.028	85.94
372.254	94.94
372.48	76.94
372.706	99.94
372.932	94.94
373.158	105.94
373.384	94.94
373.61	91.94
373.835	76.94
374.061	88.94
374.287	100.94
374.513	86.94
374.739	108.94
374.965	81.94
375.191	104.94
375.416	89.94
375.642	82.94
375.868	84.94
376.094	93.94
376.319	95.94
376.545	88.94
376.771	88.94
376.997	85.94
377.222	92.94
377.448	93.94
377.674	75.94
377.899	106.94
378.125	98.94
378.35	94.94
378.576	101.94
378.802	79.94
379.027	60.94
379.253	98.94
379.478	93.94
379.704	82.94
379.929	99.94
380.155	93.94
380.38	104.94
380.606	88.94
380.831	98.94
381.057	93.94
381.282	89.94
381.507	91.94
381.733	102.94
381.958	104.94
382.184	98.94
382.409	95.94
382.634	100.94
382.86	93.94
383.085	89.94
383.31	92.94
383.535	96.94
383.761	93.94
383.986	90.94
384.211	89.94
384.436	86.94
384.662	102.94
384.887	97.94
385.112	95.94
385.337	83.94
385.562	98.94
385.787	94.94
386.013	107.94
386.238	95.94
386.463	92.94
386.688	83.94
386.913	93.94
387.138	89.94
387.363	103.94
387.588	96.94
387.813	95.94
388.038	92.94
388.263	104.94
388.488	98.94
388.713	86.94
388.938	99.94
389.163	91.94
389.387	91.94
389.612	100.94
389.837	98.94
390.062	105.94
390.287	97.94
390.512	99.94
390.736	97.94
390.961	97.94
391.186	121.94
391.411	77.94
391.636	109.94
391.86	98.94
392.085	91.94
392.31	89.94
392.534	97.94
392.759	90.94
392.984	91.94
393.208	98.94
393.433	96.94
393.658	96.94
393.882	99.94
394.107	110.94
394.331	100.94
394.556	89.94
394.78	86.94
395.005	91.94
395.229	91.94
395.454	93.94
395.678	99.94
395.903	98.94
396.127	104.94
396.352	98.94
396.576	112.94
396.801	92.94
397.025	88.94
397.249	91.94
397.474	97.94
397.698	93.94
397.922	94.94
398.147	96.94
398.371	92.94
398.595	88.94
398.82	117.94
399.044	88.94
399.268	93.94
399.492	107.94
399.717	120.94
399.941	103.94
400.165	105.94
400.389	96.94
400.613	96.94
400.837	101.94
401.062	89.94
401.286	101.94
401.51	86.94
401.734	84.94
401.958	98.94
402.182	101.94
402.406	98.94
402.63	92.94
402.854	96.94
403.078	90.94
403.302	97.94
403.526	99.94
403.75	103.94
403.974	99.94
404.198	103.94
404.422	102.94
404.645	105.94
404.869	105.94
405.093	118.94
405.317	95.94
405.541	88.94
405.765	99.94
405.988	100.94
406.212	111.94
406.436	105.94
406.66	92.94
406.883	105.94
407.107	115.94
407.331	100.94
407.555	109.94
407.778	101.94
408.002	97.94
408.226	112.94
408.449	94.94
408.673	99.94
408.896	99.94
409.12	105.94
409.344	116.94
409.567	93.94
409.791	92.94
410.014	105.94
410.238	104.94
410.461	92.94
410.685	105.94
410.908	97.94
411.132	91.94
411.355	107.94
411.578	104.94
411.802	88.94
412.025	98.94
412.249	94.94
412.472	87.94
412.695	95.94
412.919	88.94
413.142	92.94
413.365	94.94
413.589	105.94
413.812	97.94
414.035	96.94
414.258	104.94
414.482	97.94
414.705	87.94
414.928	99.94
415.151	99.94
415.374	82.94
415.597	89.94
415.821	94.94
416.044	98.94
416.267	98.94
416.49	97.94
416.713	106.94
416.936	102.94
417.159	85.94
417.382	88.94
417.605	94.94
417.828	94.94
418.051	97.94
418.274	97.94
418.497	110.94
418.72	94.94
418.943	94.94
419.166	92.94
419.389	92.94
419.611	97.94
419.834	101.94
420.057	84.94
420.28	99.94
420.503	103.94
420.726	95.94
420.948	97.94
421.171	89.94
421.394	86.94
421.617	95.94
421.839	99.94
422.062	102.94
422.285	94.94
422.507	94.94
422.73	94.94
422.953	95.94
423.175	89.94
423.398	97.94
423.621	104.94
423.843	89.94
424.066	82.94
424.288	102.94
424.511	83.94
424.733	89.94
424.956	102.94
425.178	83.94
425.401	101.94
425.623	97.94
425.846	86.94
426.068	88.94
426.291	98.94
426.513	83.94
426.735	98.94
426.958	91.94
427.18	96.94
427.402	104.94
427.625	116.94
427.847	95.94
428.069	106.94
428.292	94.94
428.514	97.94
428.736	96.94
428.958	103.94
429.181	88.94
429.403	95.94
429.625	90.94
429.847	94.94
430.069	93.94
430.292	89.94
430.514	89.94
430.736	91.94
430.958	98.94
431.18	103.94
431.402	86.94
431.624	83.94
431.846	95.94
432.068	89.94
432.29	88.94
432.512	100.94
432.734	113.94
432.956	97.94
433.178	93.94
433.4	104.94
433.622	94.94
433.844	107.94
434.066	92.94
434.287	100.94
434.509	82.94
434.731	91.94
434.953	85.94
435.175	108.94
435.397	95.94
435.618	107.94
435.84	84.94
436.062	97.94
436.284	98.94
436.505	100.94
436.727	80.94
436.949	90.94
437.17	92.94
437.392	102.94
437.614	93.94
437.835	100.94
438.057	82.94
438.278	95.94
438.5	96.94
438.721	93.94
438.943	113.94
439.165	84.94
439.386	110.94
439.608	87.94
439.829	85.94
440.05	109.94
440.272	99.94
440.493	94.94
440.715	112.94
440.936	95.94
441.158	107.94
441.379	95.94
441.6	92.94
441.822	108.94
442.043	91.94
442.264	114.94
442.486	105.94
442.707	90.94
442.928	102.94
443.149	108.94
443.371	103.94
443.592	89.94
443.813	102.94
444.034	106.94
444.255	102.94
444.476	101.94
444.698	85.94
444.919	100.94
445.14	216.94
445.361	162.94
445.582	96.94
445.803	92.94
446.024	109.94
446.245	97.94
446.466	106.94
446.687	100.94
446.908	101.94
447.129	107.94
447.35	94.94
447.571	92.94
447.792	88.94
448.013	83.94
448.234	84.94
448.455	96.94
448.675	88.94
448.896	88.94
449.117	97.94
449.338	94.94
449.559	110.94
449.779	101.94
450	99.94
450.221	82.94
450.442	91.94
450.662	80.94
450.883	111.94
451.104	84.94
451.324	83.94
451.545	95.94
451.766	97.94
451.986	89.94
452.207	79.94
452.428	101.94
452.648	91.94
452.869	95.94
453.089	95.94
453.31	99.94
453.53	100.94
453.751	100.94
453.971	98.94
454.192	89.94
454.412	93.94
454.633	93.94
454.853	94.94
455.073	75.94
455.294	115.94
455.514	116.94
455.734	105.94
455.955	116.94
456.175	103.94
456.395	93.94
456.616	105.94
456.836	99.94
457.056	98.94
457.276	108.94
457.497	105.94
457.717	95.94
457.937	108.94
458.157	112.94
458.377	92.94
458.598	88.94
458.818	83.94
459.038	93.94
459.258	96.94
459.478	85.94
459.698	96.94
459.918	88.94
460.138	100.94
460.358	94.94
460.578	105.94
460.798	97.94
461.018	115.94
461.238	101.94
461.458	102.94
461.678	93.94
461.898	105.94
462.118	95.94
462.338	105.94
462.558	98.94
462.777	99.94
462.997	105.94
463.217	95.94
463.437	106.94
463.657	110.94
463.876	109.94
464.096	119.94
464.316	107.94
464.536	97.94
464.755	114.94
464.975	106.94
465.195	97.94
465.414	103.94
465.634	89.94
465.854	102.94
466.073	96.94
466.293	102.94
466.512	112.94
466.732	98.94
466.951	102.94
467.171	97.94
467.391	107.94
467.61	102.94
467.829	94.94
468.049	109.94
468.268	94.94
468.488	99.94
468.707	96.94
468.927	113.94
469.146	99.94
469.365	109.94
469.585	94.94
469.804	88.94
470.023	103.94
470.243	116.94
470.462	92.94
470.681	98.94
470.901	104.94
471.12	95.94
471.339	90.94
471.558	96.94
471.777	94.94
471.997	96.94
472.216	81.94
472.435	97.94
472.654	91.94
472.873	106.94
473.092	98.94
473.311	89.94
473.53	100.94
473.749	93.94
473.968	99.94
474.187	115.94
474.406	83.94
474.625	92.94
474.844	100.94
475.063	91.94
475.282	109.94
475.501	99.94
475.72	98.94
475.939	98.94
476.158	96.94
476.377	106.94
476.596	82.94
476.814	98.94
477.033	100.94
477.252	103.94
477.471	91.94
477.69	95.94
477.908	100.94
478.127	100.94
478.346	101.94
478.564	99.94
478.783	112.94
479.002	111.94
479.22	109.94
479.439	94.94
479.658	95.94
479.876	108.94
480.095	102.94
480.313	104.94
480.532	116.94
480.751	93.94
480.969	97.94
481.188	95.94
481.406	105.94
481.624	103.94
481.843	101.94
482.061	109.94
482.28	90.94
482.498	84.94
482.717	95.94
482.935	101.94
483.153	109.94
483.372	110.94
483.59	104.94
483.808	115.94
484.027	120.94
484.245	97.94
484.463	100.94
484.681	119.94
484.9	117.94
485.118	113.94
485.336	123.94
485.554	98.94
485.772	107.94
485.99	106.94
486.209	100.94
486.427	103.94
486.645	109.94
486.863	112.94
487.081	98.94
487.299	116.94
487.517	99.94
487.735	116.94
487.953	129.94
488.171	104.94
488.389	101.94
488.607	109.94
488.825	109.94
489.043	111.94
489.261	101.94
489.479	108.94
489.696	102.94
489.914	113.94
490.132	109.94
490.35	107.94
490.568	104.94
490.786	100.94
491.003	114.94
491.221	112.94
491.439	97.94
491.657	119.94
491.874	118.94
492.092	118.94
492.31	105.94
492.527	93.94
492.745	113.94
492.963	102.94
493.18	119.94
493.398	116.94
493.615	99.94
493.833	109.94
494.05	103.94
494.268	131.94
494.485	104.94
494.703	104.94
494.92	119.94
495.138	115.94
495.355	118.94
495.573	109.94
495.79	115.94
496.008	121.94
496.225	115.94
496.442	114.94
496.66	124.94
496.877	117.94
497.094	131.94
497.312	111.94
497.529	108.94
497.746	118.94
497.963	107.94
498.181	106.94
498.398	107.94
498.615	121.94
498.832	109.94
499.049	126.94
499.267	122.94
499.484	127.94
499.701	137.94
499.918	150.94
500.135	164.94
500.352	148.94
500.569	160.94
500.786	154.94
501.003	146.94
501.22	126.94
501.437	136.94
501.654	129.94
501.871	121.94
502.088	127.94
502.305	117.94
502.522	115.94
502.739	125.94
502.956	116.94
503.172	120.94
503.389	120.94
503.606	123.94
503.823	118.94
504.04	97.94
504.256	111.94
504.473	109.94
504.69	98.94
504.907	107.94
505.123	105.94
505.34	108.94
505.557	102.94
505.773	119.94
505.99	118.94
506.207	113.94
506.423	104.94
506.64	107.94
506.856	90.94
507.073	113.94
507.289	116.94
507.506	104.94
507.722	102.94
507.939	103.94
508.155	104.94
508.372	88.94
508.588	105.94
508.805	96.94
509.021	96.94
509.238	105.94
509.454	104.94
509.67	99.94
509.887	96.94
510.103	110.94
510.319	97.94
510.536	117.94
510.752	104.94
510.968	106.94
511.184	100.94
511.401	106.94
511.617	92.94
511.833	99.94
512.049	93.94
512.265	81.94
512.481	94.94
512.698	104.94
512.914	86.94
513.13	99.94
513.346	95.94
513.562	97.94
513.778	102.94
513.994	94.94
