Data from Location5.07152019.Energy5.Lamp.07192019.3%Agarose_HRD10591_15-39-14-388.txt Node
Date: Fri Jul 19 15:39:14 EDT 2019
User: cochatt
Spectrometer: HR+D1059
Trigger mode: 1
Integration Time (sec): 1.000000E-1
Scans to average: 1
Electric dark correction enabled: true
Nonlinearity correction enabled: false
Boxcar width: 0
XAxis mode: Wavelengths
Number of Pixels in Spectrum: 2048
>>>>>Begin Spectral Data<<<<<
223.165	-7.19
223.4	-7.19
223.635	-7.19
223.869	-13.19
224.104	-36.19
224.338	-17.19
224.573	-17.19
224.808	-4.19
225.042	-4.19
225.277	-17.19
225.511	-25.19
225.746	0.81
225.98	10.81
226.215	15.81
226.449	23.81
226.683	27.81
226.918	27.81
227.152	34.81
227.387	48.81
227.621	55.81
227.856	38.81
228.09	36.81
228.324	46.81
228.559	58.81
228.793	65.81
229.027	67.81
229.262	68.81
229.496	60.81
229.73	66.81
229.964	64.81
230.199	73.81
230.433	75.81
230.667	80.81
230.901	81.81
231.136	70.81
231.37	74.81
231.604	81.81
231.838	83.81
232.072	80.81
232.306	85.81
232.541	85.81
232.775	84.81
233.009	91.81
233.243	85.81
233.477	83.81
233.711	98.81
233.945	91.81
234.179	74.81
234.413	82.81
234.647	92.81
234.881	79.81
235.115	81.81
235.349	81.81
235.583	87.81
235.817	82.81
236.051	85.81
236.285	88.81
236.519	72.81
236.753	73.81
236.987	86.81
237.221	90.81
237.455	69.81
237.689	80.81
237.922	74.81
238.156	70.81
238.39	70.81
238.624	56.81
238.858	72.81
239.091	81.81
239.325	77.81
239.559	75.81
239.793	79.81
240.027	73.81
240.26	64.81
240.494	92.81
240.728	72.81
240.961	75.81
241.195	70.81
241.429	68.81
241.662	76.81
241.896	73.81
242.13	58.81
242.363	66.81
242.597	80.81
242.83	72.81
243.064	70.81
243.298	74.81
243.531	71.81
243.765	85.81
243.998	78.81
244.232	81.81
244.465	79.81
244.699	54.81
244.932	81.81
245.166	82.81
245.399	86.81
245.633	87.81
245.866	71.81
246.099	77.81
246.333	84.81
246.566	88.81
246.8	83.81
247.033	77.81
247.266	81.81
247.5	75.81
247.733	74.81
247.966	81.81
248.2	77.81
248.433	58.81
248.666	82.81
248.899	72.81
249.133	68.81
249.366	83.81
249.599	79.81
249.832	76.81
250.066	74.81
250.299	83.81
250.532	82.81
250.765	82.81
250.998	81.81
251.231	81.81
251.465	83.81
251.698	73.81
251.931	77.81
252.164	89.81
252.397	77.81
252.63	87.81
252.863	92.81
253.096	83.81
253.329	77.81
253.562	74.81
253.795	69.81
254.028	75.81
254.261	86.81
254.494	79.81
254.727	88.81
254.96	79.81
255.193	74.81
255.426	80.81
255.659	94.81
255.892	76.81
256.124	73.81
256.357	85.81
256.59	76.81
256.823	76.81
257.056	82.81
257.289	88.81
257.521	70.81
257.754	84.81
257.987	85.81
258.22	94.81
258.452	69.81
258.685	76.81
258.918	71.81
259.151	70.81
259.383	84.81
259.616	82.81
259.849	78.81
260.081	74.81
260.314	82.81
260.547	81.81
260.779	81.81
261.012	83.81
261.244	79.81
261.477	85.81
261.71	70.81
261.942	85.81
262.175	71.81
262.407	70.81
262.64	83.81
262.872	68.81
263.105	90.81
263.337	79.81
263.57	88.81
263.802	71.81
264.035	85.81
264.267	79.81
264.499	87.81
264.732	98.81
264.964	75.81
265.197	85.81
265.429	75.81
265.661	72.81
265.894	78.81
266.126	83.81
266.358	96.81
266.591	76.81
266.823	83.81
267.055	81.81
267.287	71.81
267.52	82.81
267.752	84.81
267.984	78.81
268.216	68.81
268.448	86.81
268.681	87.81
268.913	76.81
269.145	84.81
269.377	83.81
269.609	74.81
269.841	91.81
270.073	81.81
270.306	78.81
270.538	83.81
270.77	70.81
271.002	78.81
271.234	67.81
271.466	92.81
271.698	84.81
271.93	80.81
272.162	86.81
272.394	75.81
272.626	78.81
272.858	80.81
273.09	85.81
273.322	95.81
273.553	78.81
273.785	77.81
274.017	93.81
274.249	86.81
274.481	87.81
274.713	83.81
274.945	83.81
275.176	74.81
275.408	75.81
275.64	75.81
275.872	85.81
276.104	89.81
276.335	86.81
276.567	75.81
276.799	85.81
277.031	88.81
277.262	72.81
277.494	82.81
277.726	87.81
277.957	83.81
278.189	73.81
278.421	63.81
278.652	72.81
278.884	81.81
279.115	75.81
279.347	76.81
279.579	83.81
279.81	88.81
280.042	92.81
280.273	89.81
280.505	79.81
280.736	91.81
280.968	78.81
281.199	80.81
281.431	84.81
281.662	83.81
281.894	85.81
282.125	71.81
282.356	75.81
282.588	73.81
282.819	83.81
283.051	71.81
283.282	87.81
283.513	89.81
283.745	84.81
283.976	86.81
284.207	83.81
284.439	84.81
284.67	87.81
284.901	70.81
285.132	90.81
285.364	91.81
285.595	94.81
285.826	73.81
286.057	88.81
286.288	70.81
286.52	84.81
286.751	96.81
286.982	95.81
287.213	70.81
287.444	77.81
287.675	77.81
287.906	94.81
288.138	78.81
288.369	73.81
288.6	86.81
288.831	79.81
289.062	73.81
289.293	84.81
289.524	90.81
289.755	78.81
289.986	85.81
290.217	90.81
290.448	82.81
290.679	82.81
290.91	74.81
291.141	89.81
291.371	83.81
291.602	84.81
291.833	103.81
292.064	89.81
292.295	94.81
292.526	70.81
292.757	84.81
292.987	82.81
293.218	80.81
293.449	86.81
293.68	84.81
293.91	79.81
294.141	76.81
294.372	74.81
294.603	66.81
294.833	78.81
295.064	72.81
295.295	94.81
295.525	93.81
295.756	81.81
295.987	82.81
296.217	61.81
296.448	70.81
296.679	88.81
296.909	97.81
297.14	83.81
297.37	84.81
297.601	76.81
297.831	95.81
298.062	76.81
298.292	82.81
298.523	95.81
298.753	78.81
298.984	65.81
299.214	89.81
299.445	94.81
299.675	87.81
299.905	91.81
300.136	68.81
300.366	79.81
300.597	81.81
300.827	83.81
301.057	100.81
301.288	88.81
301.518	93.81
301.748	72.81
301.979	70.81
302.209	88.81
302.439	85.81
302.669	85.81
302.9	88.81
303.13	92.81
303.36	78.81
303.59	78.81
303.82	77.81
304.051	79.81
304.281	90.81
304.511	76.81
304.741	83.81
304.971	84.81
305.201	82.81
305.431	88.81
305.661	80.81
305.891	89.81
306.121	86.81
306.352	84.81
306.582	84.81
306.812	89.81
307.042	88.81
307.272	95.81
307.502	81.81
307.731	74.81
307.961	82.81
308.191	86.81
308.421	64.81
308.651	83.81
308.881	98.81
309.111	83.81
309.341	85.81
309.571	87.81
309.8	83.81
310.03	83.81
310.26	79.81
310.49	76.81
310.72	81.81
310.949	88.81
311.179	90.81
311.409	74.81
311.639	88.81
311.868	90.81
312.098	86.81
312.328	86.81
312.557	89.81
312.787	83.81
313.017	71.81
313.246	83.81
313.476	72.81
313.706	81.81
313.935	92.81
314.165	80.81
314.394	82.81
314.624	74.81
314.853	79.81
315.083	79.81
315.312	65.81
315.542	91.81
315.771	89.81
316.001	75.81
316.23	85.81
316.46	98.81
316.689	82.81
316.919	67.81
317.148	89.81
317.377	79.81
317.607	82.81
317.836	76.81
318.065	83.81
318.295	70.81
318.524	92.81
318.753	75.81
318.983	93.81
319.212	88.81
319.441	64.81
319.67	80.81
319.9	91.81
320.129	87.81
320.358	88.81
320.587	81.81
320.816	86.81
321.046	84.81
321.275	80.81
321.504	82.81
321.733	86.81
321.962	70.81
322.191	81.81
322.42	83.81
322.649	94.81
322.878	70.81
323.108	94.81
323.337	81.81
323.566	80.81
323.795	89.81
324.024	85.81
324.253	80.81
324.482	83.81
324.71	65.81
324.939	101.81
325.168	76.81
325.397	80.81
325.626	83.81
325.855	90.81
326.084	91.81
326.313	89.81
326.542	87.81
326.77	92.81
326.999	99.81
327.228	88.81
327.457	83.81
327.686	83.81
327.914	88.81
328.143	86.81
328.372	88.81
328.6	75.81
328.829	86.81
329.058	83.81
329.287	83.81
329.515	86.81
329.744	90.81
329.972	72.81
330.201	88.81
330.43	58.81
330.658	79.81
330.887	83.81
331.115	76.81
331.344	87.81
331.572	80.81
331.801	85.81
332.03	85.81
332.258	85.81
332.486	88.81
332.715	87.81
332.943	93.81
333.172	75.81
333.4	82.81
333.629	85.81
333.857	83.81
334.085	73.81
334.314	99.81
334.542	74.81
334.771	78.81
334.999	90.81
335.227	88.81
335.455	76.81
335.684	85.81
335.912	83.81
336.14	90.81
336.369	83.81
336.597	84.81
336.825	94.81
337.053	85.81
337.281	74.81
337.51	94.81
337.738	76.81
337.966	82.81
338.194	97.81
338.422	89.81
338.65	79.81
338.878	82.81
339.106	81.81
339.334	75.81
339.562	69.81
339.79	81.81
340.018	84.81
340.246	83.81
340.474	80.81
340.702	80.81
340.93	85.81
341.158	83.81
341.386	75.81
341.614	68.81
341.842	78.81
342.07	78.81
342.298	100.81
342.526	77.81
342.754	64.81
342.981	80.81
343.209	79.81
343.437	90.81
343.665	75.81
343.893	81.81
344.12	83.81
344.348	67.81
344.576	68.81
344.804	74.81
345.031	92.81
345.259	95.81
345.487	84.81
345.714	82.81
345.942	78.81
346.17	78.81
346.397	72.81
346.625	83.81
346.853	89.81
347.08	78.81
347.308	86.81
347.535	91.81
347.763	75.81
347.99	91.81
348.218	84.81
348.445	80.81
348.673	70.81
348.9	87.81
349.128	72.81
349.355	83.81
349.583	74.81
349.81	76.81
350.037	102.81
350.265	87.81
350.492	76.81
350.72	68.81
350.947	88.81
351.174	79.81
351.402	96.81
351.629	76.81
351.856	90.81
352.083	74.81
352.311	75.81
352.538	81.81
352.765	91.81
352.992	75.81
353.22	76.81
353.447	89.81
353.674	72.81
353.901	90.81
354.128	89.81
354.355	72.81
354.583	93.81
354.81	76.81
355.037	80.81
355.264	87.81
355.491	70.81
355.718	82.81
355.945	84.81
356.172	96.81
356.399	96.81
356.626	87.81
356.853	82.81
357.08	84.81
357.307	81.81
357.534	79.81
357.761	81.81
357.988	82.81
358.215	66.81
358.441	88.81
358.668	85.81
358.895	87.81
359.122	88.81
359.349	82.81
359.576	76.81
359.802	86.81
360.029	80.81
360.256	84.81
360.483	80.81
360.709	81.81
360.936	76.81
361.163	84.81
361.39	82.81
361.616	91.81
361.843	84.81
362.07	86.81
362.296	85.81
362.523	75.81
362.749	76.81
362.976	91.81
363.203	87.81
363.429	84.81
363.656	81.81
363.882	84.81
364.109	91.81
364.335	82.81
364.562	78.81
364.788	82.81
365.015	69.81
365.241	74.81
365.468	65.81
365.694	77.81
365.92	75.81
366.147	79.81
366.373	72.81
366.599	81.81
366.826	77.81
367.052	91.81
367.278	81.81
367.505	80.81
367.731	81.81
367.957	74.81
368.184	78.81
368.41	85.81
368.636	80.81
368.862	88.81
369.089	88.81
369.315	87.81
369.541	93.81
369.767	81.81
369.993	91.81
370.219	82.81
370.445	72.81
370.672	71.81
370.898	79.81
371.124	74.81
371.35	91.81
371.576	85.81
371.802	79.81
372.028	77.81
372.254	85.81
372.48	78.81
372.706	81.81
372.932	90.81
373.158	81.81
373.384	83.81
373.61	86.81
373.835	81.81
374.061	82.81
374.287	73.81
374.513	90.81
374.739	76.81
374.965	99.81
375.191	74.81
375.416	89.81
375.642	82.81
375.868	97.81
376.094	86.81
376.319	83.81
376.545	98.81
376.771	94.81
376.997	79.81
377.222	88.81
377.448	84.81
377.674	80.81
377.899	76.81
378.125	71.81
378.35	67.81
378.576	75.81
378.802	77.81
379.027	81.81
379.253	100.81
379.478	72.81
379.704	91.81
379.929	90.81
380.155	80.81
380.38	79.81
380.606	87.81
380.831	88.81
381.057	86.81
381.282	78.81
381.507	87.81
381.733	75.81
381.958	91.81
382.184	64.81
382.409	79.81
382.634	82.81
382.86	87.81
383.085	79.81
383.31	77.81
383.535	99.81
383.761	83.81
383.986	88.81
384.211	69.81
384.436	75.81
384.662	81.81
384.887	80.81
385.112	76.81
385.337	68.81
385.562	74.81
385.787	89.81
386.013	91.81
386.238	82.81
386.463	96.81
386.688	79.81
386.913	81.81
387.138	86.81
387.363	73.81
387.588	92.81
387.813	82.81
388.038	79.81
388.263	101.81
388.488	76.81
388.713	84.81
388.938	88.81
389.163	79.81
389.387	93.81
389.612	77.81
389.837	84.81
390.062	87.81
390.287	91.81
390.512	83.81
390.736	101.81
390.961	80.81
391.186	74.81
391.411	82.81
391.636	71.81
391.86	76.81
392.085	96.81
392.31	78.81
392.534	70.81
392.759	78.81
392.984	83.81
393.208	74.81
393.433	86.81
393.658	74.81
393.882	101.81
394.107	93.81
394.331	78.81
394.556	87.81
394.78	84.81
395.005	73.81
395.229	81.81
395.454	79.81
395.678	77.81
395.903	90.81
396.127	79.81
396.352	85.81
396.576	84.81
396.801	106.81
397.025	96.81
397.249	82.81
397.474	91.81
397.698	94.81
397.922	89.81
398.147	72.81
398.371	72.81
398.595	92.81
398.82	88.81
399.044	89.81
399.268	76.81
399.492	70.81
399.717	88.81
399.941	83.81
400.165	106.81
400.389	75.81
400.613	83.81
400.837	76.81
401.062	84.81
401.286	89.81
401.51	95.81
401.734	97.81
401.958	91.81
402.182	75.81
402.406	99.81
402.63	98.81
402.854	82.81
403.078	75.81
403.302	77.81
403.526	92.81
403.75	94.81
403.974	96.81
404.198	82.81
404.422	87.81
404.645	80.81
404.869	86.81
405.093	79.81
405.317	81.81
405.541	77.81
405.765	81.81
405.988	85.81
406.212	99.81
406.436	87.81
406.66	100.81
406.883	82.81
407.107	83.81
407.331	85.81
407.555	68.81
407.778	90.81
408.002	91.81
408.226	83.81
408.449	93.81
408.673	87.81
408.896	91.81
409.12	90.81
409.344	72.81
409.567	69.81
409.791	79.81
410.014	100.81
410.238	82.81
410.461	84.81
410.685	78.81
410.908	80.81
411.132	97.81
411.355	74.81
411.578	82.81
411.802	80.81
412.025	101.81
412.249	86.81
412.472	87.81
412.695	82.81
412.919	87.81
413.142	83.81
413.365	92.81
413.589	95.81
413.812	86.81
414.035	82.81
414.258	94.81
414.482	86.81
414.705	92.81
414.928	88.81
415.151	90.81
415.374	97.81
415.597	87.81
415.821	88.81
416.044	81.81
416.267	91.81
416.49	110.81
416.713	94.81
416.936	82.81
417.159	88.81
417.382	90.81
417.605	95.81
417.828	88.81
418.051	84.81
418.274	94.81
418.497	91.81
418.72	100.81
418.943	95.81
419.166	95.81
419.389	97.81
419.611	87.81
419.834	92.81
420.057	86.81
420.28	88.81
420.503	79.81
420.726	78.81
420.948	103.81
421.171	91.81
421.394	95.81
421.617	112.81
421.839	106.81
422.062	97.81
422.285	92.81
422.507	99.81
422.73	87.81
422.953	84.81
423.175	85.81
423.398	81.81
423.621	100.81
423.843	96.81
424.066	86.81
424.288	90.81
424.511	85.81
424.733	102.81
424.956	82.81
425.178	98.81
425.401	78.81
425.623	87.81
425.846	85.81
426.068	105.81
426.291	99.81
426.513	95.81
426.735	91.81
426.958	86.81
427.18	104.81
427.402	99.81
427.625	88.81
427.847	92.81
428.069	93.81
428.292	93.81
428.514	82.81
428.736	84.81
428.958	78.81
429.181	95.81
429.403	97.81
429.625	93.81
429.847	89.81
430.069	88.81
430.292	104.81
430.514	100.81
430.736	81.81
430.958	87.81
431.18	91.81
431.402	93.81
431.624	82.81
431.846	80.81
432.068	77.81
432.29	80.81
432.512	95.81
432.734	100.81
432.956	95.81
433.178	93.81
433.4	96.81
433.622	99.81
433.844	89.81
434.066	82.81
434.287	99.81
434.509	71.81
434.731	87.81
434.953	90.81
435.175	93.81
435.397	98.81
435.618	104.81
435.84	84.81
436.062	82.81
436.284	82.81
436.505	99.81
436.727	101.81
436.949	80.81
437.17	100.81
437.392	91.81
437.614	83.81
437.835	86.81
438.057	91.81
438.278	80.81
438.5	94.81
438.721	86.81
438.943	95.81
439.165	96.81
439.386	97.81
439.608	95.81
439.829	103.81
440.05	99.81
440.272	96.81
440.493	81.81
440.715	99.81
440.936	101.81
441.158	97.81
441.379	101.81
441.6	96.81
441.822	87.81
442.043	92.81
442.264	104.81
442.486	105.81
442.707	90.81
442.928	107.81
443.149	102.81
443.371	90.81
443.592	86.81
443.813	91.81
444.034	90.81
444.255	89.81
444.476	89.81
444.698	77.81
444.919	85.81
445.14	230.81
445.361	163.81
445.582	96.81
445.803	102.81
446.024	85.81
446.245	83.81
446.466	94.81
446.687	87.81
446.908	88.81
447.129	83.81
447.35	106.81
447.571	90.81
447.792	103.81
448.013	110.81
448.234	101.81
448.455	95.81
448.675	82.81
448.896	86.81
449.117	89.81
449.338	84.81
449.559	84.81
449.779	92.81
450	91.81
450.221	98.81
450.442	104.81
450.662	98.81
450.883	77.81
451.104	97.81
451.324	75.81
451.545	80.81
451.766	93.81
451.986	90.81
452.207	80.81
452.428	79.81
452.648	73.81
452.869	90.81
453.089	84.81
453.31	90.81
453.53	93.81
453.751	92.81
453.971	82.81
454.192	93.81
454.412	93.81
454.633	88.81
454.853	91.81
455.073	83.81
455.294	81.81
455.514	96.81
455.734	76.81
455.955	89.81
456.175	98.81
456.395	95.81
456.616	101.81
456.836	93.81
457.056	89.81
457.276	84.81
457.497	88.81
457.717	79.81
457.937	87.81
458.157	79.81
458.377	78.81
458.598	86.81
458.818	98.81
459.038	88.81
459.258	85.81
459.478	82.81
459.698	84.81
459.918	85.81
460.138	77.81
460.358	81.81
460.578	94.81
460.798	84.81
461.018	87.81
461.238	90.81
461.458	93.81
461.678	85.81
461.898	93.81
462.118	83.81
462.338	80.81
462.558	82.81
462.777	86.81
462.997	96.81
463.217	93.81
463.437	94.81
463.657	86.81
463.876	91.81
464.096	96.81
464.316	94.81
464.536	93.81
464.755	87.81
464.975	97.81
465.195	105.81
465.414	85.81
465.634	96.81
465.854	89.81
466.073	81.81
466.293	91.81
466.512	111.81
466.732	90.81
466.951	96.81
467.171	87.81
467.391	104.81
467.61	101.81
467.829	81.81
468.049	89.81
468.268	90.81
468.488	90.81
468.707	93.81
468.927	83.81
469.146	84.81
469.365	89.81
469.585	91.81
469.804	109.81
470.023	106.81
470.243	87.81
470.462	98.81
470.681	101.81
470.901	109.81
471.12	87.81
471.339	100.81
471.558	91.81
471.777	95.81
471.997	96.81
472.216	101.81
472.435	94.81
472.654	92.81
472.873	85.81
473.092	99.81
473.311	72.81
473.53	87.81
473.749	96.81
473.968	87.81
474.187	84.81
474.406	90.81
474.625	85.81
474.844	81.81
475.063	101.81
475.282	78.81
475.501	99.81
475.72	96.81
475.939	87.81
476.158	77.81
476.377	90.81
476.596	87.81
476.814	96.81
477.033	83.81
477.252	97.81
477.471	86.81
477.69	103.81
477.908	104.81
478.127	115.81
478.346	92.81
478.564	100.81
478.783	98.81
479.002	98.81
479.22	88.81
479.439	88.81
479.658	88.81
479.876	98.81
480.095	92.81
480.313	86.81
480.532	101.81
480.751	97.81
480.969	82.81
481.188	92.81
481.406	81.81
481.624	74.81
481.843	91.81
482.061	91.81
482.28	78.81
482.498	82.81
482.717	77.81
482.935	97.81
483.153	85.81
483.372	79.81
483.59	88.81
483.808	95.81
484.027	95.81
484.245	85.81
484.463	84.81
484.681	105.81
484.9	95.81
485.118	93.81
485.336	89.81
485.554	92.81
485.772	93.81
485.99	86.81
486.209	89.81
486.427	86.81
486.645	89.81
486.863	91.81
487.081	84.81
487.299	96.81
487.517	95.81
487.735	107.81
487.953	106.81
488.171	115.81
488.389	103.81
488.607	110.81
488.825	99.81
489.043	85.81
489.261	100.81
489.479	95.81
489.696	111.81
489.914	94.81
490.132	85.81
490.35	97.81
490.568	105.81
490.786	112.81
491.003	102.81
491.221	112.81
491.439	112.81
491.657	98.81
491.874	109.81
492.092	112.81
492.31	131.81
492.527	123.81
492.745	114.81
492.963	125.81
493.18	103.81
493.398	103.81
493.615	101.81
493.833	105.81
494.05	108.81
494.268	106.81
494.485	124.81
494.703	105.81
494.92	120.81
495.138	105.81
495.355	114.81
495.573	104.81
495.79	104.81
496.008	102.81
496.225	99.81
496.442	108.81
496.66	105.81
496.877	98.81
497.094	105.81
497.312	99.81
497.529	111.81
497.746	100.81
497.963	92.81
498.181	98.81
498.398	85.81
498.615	99.81
498.832	97.81
499.049	78.81
499.267	94.81
499.484	96.81
499.701	103.81
499.918	97.81
500.135	95.81
500.352	92.81
500.569	101.81
500.786	103.81
501.003	95.81
501.22	100.81
501.437	85.81
501.654	80.81
501.871	82.81
502.088	91.81
502.305	103.81
502.522	84.81
502.739	95.81
502.956	82.81
503.172	95.81
503.389	107.81
503.606	92.81
503.823	79.81
504.04	96.81
504.256	93.81
504.473	100.81
504.69	90.81
504.907	86.81
505.123	70.81
505.34	97.81
505.557	94.81
505.773	86.81
505.99	82.81
506.207	88.81
506.423	95.81
506.64	89.81
506.856	69.81
507.073	77.81
507.289	92.81
507.506	101.81
507.722	78.81
507.939	81.81
508.155	88.81
508.372	75.81
508.588	90.81
508.805	80.81
509.021	80.81
509.238	82.81
509.454	94.81
509.67	79.81
509.887	79.81
510.103	80.81
510.319	87.81
510.536	85.81
510.752	83.81
510.968	93.81
511.184	95.81
511.401	82.81
511.617	83.81
511.833	87.81
512.049	91.81
512.265	77.81
512.481	78.81
512.698	82.81
512.914	80.81
513.13	87.81
513.346	83.81
513.562	92.81
513.778	86.81
513.994	79.81
514.21	89.81
514.426	87.81
514.642	80.81
514.858	81.81
515.074	87.81
515.29	76.81
515.506	69.81
515.721	74.81
515.937	74.81
516.153	76.81
516.369	84.81
516.585	88.81
516.801	83.81
517.016	75.81
517.232	82.81
517.448	103.81
517.664	90.81
517.879	89.81
518.095	79.81
