Data from Location5.07152019.Energy5.Lamp.07192019.3%Agarose_HRD10591_16-03-37-628.txt Node
Date: Fri Jul 19 16:03:37 EDT 2019
User: cochatt
Spectrometer: HR+D1059
Trigger mode: 1
Integration Time (sec): 1.000000E-1
Scans to average: 1
Electric dark correction enabled: true
Nonlinearity correction enabled: false
Boxcar width: 0
XAxis mode: Wavelengths
Number of Pixels in Spectrum: 2048
>>>>>Begin Spectral Data<<<<<
223.165	-20.38
223.4	-20.38
223.635	-20.38
223.869	-13.38
224.104	-9.38
224.338	-16.38
224.573	-19.38
224.808	-16.38
225.042	-5.38
225.277	-0.38
225.511	5.62
225.746	-9.38
225.98	12.62
226.215	3.62
226.449	10.62
226.683	20.62
226.918	24.62
227.152	32.62
227.387	44.62
227.621	50.62
227.856	35.62
228.09	55.62
228.324	61.62
228.559	59.62
228.793	45.62
229.027	55.62
229.262	76.62
229.496	57.62
229.73	73.62
229.964	64.62
230.199	58.62
230.433	77.62
230.667	72.62
230.901	88.62
231.136	75.62
231.37	82.62
231.604	90.62
231.838	83.62
232.072	84.62
232.306	54.62
232.541	89.62
232.775	68.62
233.009	76.62
233.243	82.62
233.477	73.62
233.711	92.62
233.945	89.62
234.179	85.62
234.413	83.62
234.647	76.62
234.881	91.62
235.115	85.62
235.349	77.62
235.583	91.62
235.817	96.62
236.051	77.62
236.285	77.62
236.519	80.62
236.753	83.62
236.987	92.62
237.221	85.62
237.455	77.62
237.689	93.62
237.922	86.62
238.156	71.62
238.39	86.62
238.624	77.62
238.858	86.62
239.091	84.62
239.325	81.62
239.559	77.62
239.793	65.62
240.027	64.62
240.26	94.62
240.494	75.62
240.728	75.62
240.961	83.62
241.195	79.62
241.429	63.62
241.662	77.62
241.896	71.62
242.13	74.62
242.363	69.62
242.597	82.62
242.83	85.62
243.064	81.62
243.298	83.62
243.531	78.62
243.765	87.62
243.998	76.62
244.232	76.62
244.465	79.62
244.699	77.62
244.932	83.62
245.166	67.62
245.399	76.62
245.633	84.62
245.866	77.62
246.099	83.62
246.333	83.62
246.566	69.62
246.8	87.62
247.033	81.62
247.266	80.62
247.5	81.62
247.733	77.62
247.966	92.62
248.2	92.62
248.433	78.62
248.666	75.62
248.899	87.62
249.133	88.62
249.366	90.62
249.599	79.62
249.832	78.62
250.066	88.62
250.299	85.62
250.532	81.62
250.765	74.62
250.998	83.62
251.231	82.62
251.465	70.62
251.698	73.62
251.931	68.62
252.164	85.62
252.397	100.62
252.63	81.62
252.863	80.62
253.096	89.62
253.329	71.62
253.562	77.62
253.795	74.62
254.028	83.62
254.261	74.62
254.494	83.62
254.727	86.62
254.96	83.62
255.193	90.62
255.426	83.62
255.659	77.62
255.892	80.62
256.124	71.62
256.357	74.62
256.59	81.62
256.823	87.62
257.056	99.62
257.289	83.62
257.521	89.62
257.754	82.62
257.987	82.62
258.22	75.62
258.452	76.62
258.685	90.62
258.918	92.62
259.151	77.62
259.383	90.62
259.616	86.62
259.849	81.62
260.081	81.62
260.314	76.62
260.547	82.62
260.779	100.62
261.012	76.62
261.244	78.62
261.477	88.62
261.71	92.62
261.942	70.62
262.175	83.62
262.407	93.62
262.64	89.62
262.872	91.62
263.105	87.62
263.337	98.62
263.57	92.62
263.802	76.62
264.035	88.62
264.267	86.62
264.499	81.62
264.732	82.62
264.964	81.62
265.197	84.62
265.429	78.62
265.661	90.62
265.894	91.62
266.126	91.62
266.358	83.62
266.591	78.62
266.823	80.62
267.055	71.62
267.287	83.62
267.52	87.62
267.752	87.62
267.984	87.62
268.216	76.62
268.448	87.62
268.681	85.62
268.913	72.62
269.145	89.62
269.377	89.62
269.609	90.62
269.841	86.62
270.073	88.62
270.306	84.62
270.538	82.62
270.77	99.62
271.002	95.62
271.234	94.62
271.466	96.62
271.698	82.62
271.93	79.62
272.162	77.62
272.394	97.62
272.626	100.62
272.858	95.62
273.09	90.62
273.322	84.62
273.553	80.62
273.785	84.62
274.017	81.62
274.249	102.62
274.481	82.62
274.713	86.62
274.945	82.62
275.176	93.62
275.408	87.62
275.64	87.62
275.872	90.62
276.104	85.62
276.335	93.62
276.567	76.62
276.799	83.62
277.031	86.62
277.262	85.62
277.494	92.62
277.726	96.62
277.957	89.62
278.189	90.62
278.421	84.62
278.652	91.62
278.884	92.62
279.115	81.62
279.347	90.62
279.579	100.62
279.81	92.62
280.042	90.62
280.273	94.62
280.505	89.62
280.736	88.62
280.968	101.62
281.199	90.62
281.431	97.62
281.662	89.62
281.894	78.62
282.125	86.62
282.356	100.62
282.588	82.62
282.819	97.62
283.051	91.62
283.282	81.62
283.513	91.62
283.745	84.62
283.976	92.62
284.207	96.62
284.439	96.62
284.67	82.62
284.901	78.62
285.132	90.62
285.364	95.62
285.595	99.62
285.826	102.62
286.057	95.62
286.288	104.62
286.52	84.62
286.751	97.62
286.982	99.62
287.213	91.62
287.444	85.62
287.675	96.62
287.906	91.62
288.138	83.62
288.369	96.62
288.6	89.62
288.831	91.62
289.062	100.62
289.293	91.62
289.524	93.62
289.755	91.62
289.986	82.62
290.217	76.62
290.448	89.62
290.679	91.62
290.91	96.62
291.141	104.62
291.371	99.62
291.602	94.62
291.833	97.62
292.064	100.62
292.295	97.62
292.526	81.62
292.757	94.62
292.987	78.62
293.218	83.62
293.449	100.62
293.68	99.62
293.91	96.62
294.141	85.62
294.372	83.62
294.603	91.62
294.833	71.62
295.064	90.62
295.295	80.62
295.525	80.62
295.756	94.62
295.987	105.62
296.217	102.62
296.448	88.62
296.679	93.62
296.909	83.62
297.14	96.62
297.37	96.62
297.601	95.62
297.831	100.62
298.062	91.62
298.292	99.62
298.523	91.62
298.753	97.62
298.984	86.62
299.214	86.62
299.445	82.62
299.675	84.62
299.905	91.62
300.136	93.62
300.366	96.62
300.597	87.62
300.827	92.62
301.057	78.62
301.288	89.62
301.518	91.62
301.748	87.62
301.979	84.62
302.209	70.62
302.439	94.62
302.669	88.62
302.9	79.62
303.13	102.62
303.36	105.62
303.59	86.62
303.82	82.62
304.051	90.62
304.281	95.62
304.511	95.62
304.741	90.62
304.971	93.62
305.201	87.62
305.431	109.62
305.661	89.62
305.891	100.62
306.121	88.62
306.352	94.62
306.582	92.62
306.812	90.62
307.042	93.62
307.272	94.62
307.502	104.62
307.731	101.62
307.961	89.62
308.191	77.62
308.421	85.62
308.651	88.62
308.881	89.62
309.111	89.62
309.341	86.62
309.571	86.62
309.8	84.62
310.03	89.62
310.26	92.62
310.49	89.62
310.72	80.62
310.949	74.62
311.179	99.62
311.409	90.62
311.639	91.62
311.868	89.62
312.098	111.62
312.328	96.62
312.557	91.62
312.787	94.62
313.017	96.62
313.246	86.62
313.476	84.62
313.706	93.62
313.935	100.62
314.165	91.62
314.394	98.62
314.624	93.62
314.853	82.62
315.083	92.62
315.312	95.62
315.542	93.62
315.771	88.62
316.001	94.62
316.23	107.62
316.46	83.62
316.689	96.62
316.919	94.62
317.148	107.62
317.377	99.62
317.607	77.62
317.836	103.62
318.065	86.62
318.295	89.62
318.524	83.62
318.753	99.62
318.983	95.62
319.212	87.62
319.441	82.62
319.67	73.62
319.9	89.62
320.129	89.62
320.358	98.62
320.587	96.62
320.816	98.62
321.046	91.62
321.275	91.62
321.504	94.62
321.733	102.62
321.962	89.62
322.191	83.62
322.42	114.62
322.649	105.62
322.878	85.62
323.108	80.62
323.337	92.62
323.566	85.62
323.795	88.62
324.024	92.62
324.253	90.62
324.482	91.62
324.71	78.62
324.939	91.62
325.168	95.62
325.397	91.62
325.626	84.62
325.855	89.62
326.084	89.62
326.313	93.62
326.542	81.62
326.77	85.62
326.999	86.62
327.228	94.62
327.457	86.62
327.686	98.62
327.914	108.62
328.143	82.62
328.372	104.62
328.6	91.62
328.829	95.62
329.058	98.62
329.287	94.62
329.515	91.62
329.744	92.62
329.972	93.62
330.201	108.62
330.43	86.62
330.658	92.62
330.887	85.62
331.115	86.62
331.344	91.62
331.572	108.62
331.801	85.62
332.03	84.62
332.258	105.62
332.486	106.62
332.715	96.62
332.943	76.62
333.172	106.62
333.4	87.62
333.629	97.62
333.857	99.62
334.085	87.62
334.314	105.62
334.542	96.62
334.771	103.62
334.999	101.62
335.227	91.62
335.455	96.62
335.684	101.62
335.912	82.62
336.14	86.62
336.369	87.62
336.597	91.62
336.825	103.62
337.053	101.62
337.281	92.62
337.51	91.62
337.738	100.62
337.966	97.62
338.194	93.62
338.422	89.62
338.65	94.62
338.878	103.62
339.106	101.62
339.334	101.62
339.562	92.62
339.79	87.62
340.018	82.62
340.246	104.62
340.474	81.62
340.702	84.62
340.93	96.62
341.158	91.62
341.386	93.62
341.614	83.62
341.842	78.62
342.07	92.62
342.298	86.62
342.526	103.62
342.754	98.62
342.981	90.62
343.209	94.62
343.437	83.62
343.665	88.62
343.893	85.62
344.12	94.62
344.348	88.62
344.576	94.62
344.804	80.62
345.031	107.62
345.259	91.62
345.487	104.62
345.714	84.62
345.942	83.62
346.17	85.62
346.397	88.62
346.625	88.62
346.853	92.62
347.08	91.62
347.308	85.62
347.535	87.62
347.763	96.62
347.99	83.62
348.218	91.62
348.445	85.62
348.673	98.62
348.9	96.62
349.128	91.62
349.355	86.62
349.583	99.62
349.81	94.62
350.037	89.62
350.265	90.62
350.492	86.62
350.72	94.62
350.947	85.62
351.174	95.62
351.402	84.62
351.629	75.62
351.856	103.62
352.083	85.62
352.311	86.62
352.538	86.62
352.765	97.62
352.992	83.62
353.22	93.62
353.447	95.62
353.674	85.62
353.901	100.62
354.128	86.62
354.355	98.62
354.583	93.62
354.81	97.62
355.037	101.62
355.264	94.62
355.491	100.62
355.718	96.62
355.945	92.62
356.172	101.62
356.399	99.62
356.626	95.62
356.853	93.62
357.08	79.62
357.307	90.62
357.534	77.62
357.761	90.62
357.988	88.62
358.215	97.62
358.441	93.62
358.668	92.62
358.895	95.62
359.122	96.62
359.349	89.62
359.576	102.62
359.802	77.62
360.029	92.62
360.256	88.62
360.483	93.62
360.709	87.62
360.936	92.62
361.163	89.62
361.39	101.62
361.616	101.62
361.843	99.62
362.07	90.62
362.296	80.62
362.523	81.62
362.749	83.62
362.976	83.62
363.203	94.62
363.429	98.62
363.656	80.62
363.882	92.62
364.109	99.62
364.335	82.62
364.562	104.62
364.788	97.62
365.015	88.62
365.241	86.62
365.468	83.62
365.694	88.62
365.92	94.62
366.147	112.62
366.373	99.62
366.599	92.62
366.826	93.62
367.052	95.62
367.278	95.62
367.505	91.62
367.731	102.62
367.957	105.62
368.184	92.62
368.41	89.62
368.636	87.62
368.862	93.62
369.089	99.62
369.315	90.62
369.541	98.62
369.767	80.62
369.993	88.62
370.219	93.62
370.445	88.62
370.672	94.62
370.898	92.62
371.124	88.62
371.35	93.62
371.576	107.62
371.802	92.62
372.028	96.62
372.254	102.62
372.48	98.62
372.706	83.62
372.932	81.62
373.158	90.62
373.384	91.62
373.61	102.62
373.835	89.62
374.061	93.62
374.287	90.62
374.513	92.62
374.739	90.62
374.965	96.62
375.191	77.62
375.416	90.62
375.642	94.62
375.868	90.62
376.094	94.62
376.319	85.62
376.545	84.62
376.771	77.62
376.997	96.62
377.222	85.62
377.448	88.62
377.674	92.62
377.899	91.62
378.125	85.62
378.35	83.62
378.576	95.62
378.802	89.62
379.027	83.62
379.253	95.62
379.478	89.62
379.704	95.62
379.929	96.62
380.155	82.62
380.38	81.62
380.606	85.62
380.831	95.62
381.057	98.62
381.282	104.62
381.507	100.62
381.733	96.62
381.958	92.62
382.184	104.62
382.409	94.62
382.634	102.62
382.86	85.62
383.085	86.62
383.31	106.62
383.535	94.62
383.761	94.62
383.986	96.62
384.211	101.62
384.436	86.62
384.662	92.62
384.887	66.62
385.112	95.62
385.337	91.62
385.562	101.62
385.787	86.62
386.013	95.62
386.238	102.62
386.463	99.62
386.688	92.62
386.913	84.62
387.138	97.62
387.363	93.62
387.588	85.62
387.813	91.62
388.038	95.62
388.263	90.62
388.488	86.62
388.713	89.62
388.938	96.62
389.163	79.62
389.387	81.62
389.612	95.62
389.837	88.62
390.062	96.62
390.287	83.62
390.512	92.62
390.736	88.62
390.961	96.62
391.186	93.62
391.411	90.62
391.636	103.62
391.86	84.62
392.085	101.62
392.31	98.62
392.534	106.62
392.759	93.62
392.984	107.62
393.208	90.62
393.433	104.62
393.658	112.62
393.882	103.62
394.107	98.62
394.331	90.62
394.556	85.62
394.78	97.62
395.005	97.62
395.229	91.62
395.454	89.62
395.678	102.62
395.903	100.62
396.127	96.62
396.352	98.62
396.576	89.62
396.801	107.62
397.025	95.62
397.249	85.62
397.474	104.62
397.698	91.62
397.922	98.62
398.147	93.62
398.371	84.62
398.595	84.62
398.82	82.62
399.044	85.62
399.268	101.62
399.492	102.62
399.717	116.62
399.941	111.62
400.165	108.62
400.389	88.62
400.613	100.62
400.837	95.62
401.062	83.62
401.286	112.62
401.51	107.62
401.734	95.62
401.958	92.62
402.182	88.62
402.406	92.62
402.63	107.62
402.854	83.62
403.078	91.62
403.302	92.62
403.526	83.62
403.75	93.62
403.974	97.62
404.198	100.62
404.422	95.62
404.645	99.62
404.869	100.62
405.093	99.62
405.317	96.62
405.541	90.62
405.765	100.62
405.988	103.62
406.212	97.62
406.436	92.62
406.66	98.62
406.883	88.62
407.107	103.62
407.331	100.62
407.555	111.62
407.778	90.62
408.002	88.62
408.226	99.62
408.449	107.62
408.673	92.62
408.896	87.62
409.12	84.62
409.344	93.62
409.567	97.62
409.791	91.62
410.014	107.62
410.238	86.62
410.461	106.62
410.685	103.62
410.908	99.62
411.132	117.62
411.355	83.62
411.578	102.62
411.802	88.62
412.025	107.62
412.249	90.62
412.472	82.62
412.695	89.62
412.919	101.62
413.142	104.62
413.365	105.62
413.589	102.62
413.812	83.62
414.035	91.62
414.258	92.62
414.482	95.62
414.705	89.62
414.928	99.62
415.151	94.62
415.374	89.62
415.597	90.62
415.821	91.62
416.044	91.62
416.267	92.62
416.49	95.62
416.713	83.62
416.936	96.62
417.159	84.62
417.382	99.62
417.605	91.62
417.828	85.62
418.051	93.62
418.274	98.62
418.497	92.62
418.72	108.62
418.943	84.62
419.166	93.62
419.389	90.62
419.611	100.62
419.834	89.62
420.057	102.62
420.28	91.62
420.503	87.62
420.726	105.62
420.948	83.62
421.171	105.62
421.394	95.62
421.617	102.62
421.839	106.62
422.062	92.62
422.285	83.62
422.507	94.62
422.73	93.62
422.953	95.62
423.175	99.62
423.398	96.62
423.621	98.62
423.843	99.62
424.066	101.62
424.288	101.62
424.511	98.62
424.733	101.62
424.956	107.62
425.178	89.62
425.401	100.62
425.623	101.62
425.846	112.62
426.068	113.62
426.291	97.62
426.513	94.62
426.735	93.62
426.958	91.62
427.18	77.62
427.402	93.62
427.625	96.62
427.847	87.62
428.069	89.62
428.292	94.62
428.514	87.62
428.736	84.62
428.958	91.62
429.181	99.62
429.403	93.62
429.625	101.62
429.847	102.62
430.069	83.62
430.292	78.62
430.514	86.62
430.736	93.62
430.958	90.62
431.18	84.62
431.402	108.62
431.624	84.62
431.846	76.62
432.068	87.62
432.29	99.62
432.512	92.62
432.734	78.62
432.956	108.62
433.178	101.62
433.4	101.62
433.622	69.62
433.844	99.62
434.066	103.62
434.287	88.62
434.509	94.62
434.731	84.62
434.953	107.62
435.175	114.62
435.397	89.62
435.618	89.62
435.84	92.62
436.062	98.62
436.284	77.62
436.505	95.62
436.727	82.62
436.949	83.62
437.17	89.62
437.392	90.62
437.614	82.62
437.835	96.62
438.057	79.62
438.278	91.62
438.5	93.62
438.721	89.62
438.943	87.62
439.165	108.62
439.386	89.62
439.608	106.62
439.829	88.62
440.05	89.62
440.272	81.62
440.493	107.62
440.715	91.62
440.936	92.62
441.158	100.62
441.379	91.62
441.6	95.62
441.822	97.62
442.043	108.62
442.264	93.62
442.486	97.62
442.707	94.62
442.928	105.62
443.149	91.62
443.371	79.62
443.592	91.62
443.813	103.62
444.034	82.62
444.255	92.62
444.476	102.62
444.698	91.62
444.919	89.62
445.14	213.62
445.361	152.62
445.582	104.62
445.803	88.62
446.024	91.62
446.245	101.62
446.466	94.62
446.687	82.62
446.908	98.62
447.129	98.62
447.35	101.62
447.571	96.62
447.792	81.62
448.013	84.62
448.234	100.62
448.455	92.62
448.675	92.62
448.896	95.62
449.117	81.62
449.338	91.62
449.559	91.62
449.779	98.62
450	81.62
450.221	82.62
450.442	93.62
450.662	86.62
450.883	95.62
451.104	86.62
451.324	80.62
451.545	95.62
451.766	90.62
451.986	82.62
452.207	82.62
452.428	91.62
452.648	104.62
452.869	94.62
453.089	88.62
453.31	97.62
453.53	106.62
453.751	97.62
453.971	98.62
454.192	87.62
454.412	111.62
454.633	86.62
454.853	99.62
455.073	95.62
455.294	91.62
455.514	100.62
455.734	89.62
455.955	81.62
456.175	89.62
456.395	92.62
456.616	99.62
456.836	104.62
457.056	88.62
457.276	102.62
457.497	102.62
457.717	93.62
457.937	94.62
458.157	104.62
458.377	85.62
458.598	92.62
458.818	96.62
459.038	95.62
459.258	96.62
459.478	98.62
459.698	99.62
459.918	87.62
460.138	104.62
460.358	90.62
460.578	98.62
460.798	105.62
461.018	104.62
461.238	95.62
461.458	85.62
461.678	104.62
461.898	107.62
462.118	93.62
462.338	87.62
462.558	97.62
462.777	99.62
462.997	109.62
463.217	111.62
463.437	108.62
463.657	95.62
463.876	97.62
464.096	99.62
464.316	111.62
464.536	101.62
464.755	107.62
464.975	109.62
465.195	96.62
465.414	104.62
465.634	91.62
465.854	98.62
466.073	84.62
466.293	96.62
466.512	93.62
466.732	98.62
466.951	89.62
467.171	98.62
467.391	104.62
467.61	105.62
467.829	102.62
468.049	87.62
468.268	98.62
468.488	83.62
468.707	96.62
468.927	84.62
469.146	84.62
469.365	100.62
469.585	98.62
469.804	85.62
470.023	92.62
470.243	105.62
470.462	109.62
470.681	103.62
470.901	97.62
471.12	93.62
471.339	90.62
471.558	97.62
471.777	96.62
471.997	106.62
472.216	104.62
472.435	98.62
472.654	95.62
472.873	95.62
473.092	94.62
473.311	94.62
473.53	95.62
473.749	98.62
473.968	113.62
474.187	96.62
474.406	99.62
474.625	98.62
474.844	70.62
475.063	97.62
475.282	94.62
475.501	92.62
475.72	105.62
475.939	94.62
476.158	92.62
476.377	100.62
476.596	98.62
476.814	93.62
477.033	88.62
477.252	103.62
477.471	97.62
477.69	105.62
477.908	96.62
478.127	109.62
478.346	107.62
478.564	84.62
478.783	108.62
479.002	99.62
479.22	97.62
479.439	97.62
479.658	100.62
479.876	97.62
480.095	96.62
480.313	106.62
480.532	101.62
480.751	94.62
480.969	92.62
481.188	83.62
481.406	102.62
481.624	89.62
481.843	107.62
482.061	107.62
482.28	100.62
482.498	101.62
482.717	112.62
482.935	93.62
483.153	115.62
483.372	96.62
483.59	97.62
483.808	95.62
484.027	109.62
484.245	91.62
484.463	104.62
484.681	97.62
484.9	110.62
485.118	99.62
485.336	94.62
485.554	106.62
485.772	108.62
485.99	97.62
486.209	107.62
486.427	103.62
486.645	107.62
486.863	98.62
487.081	103.62
487.299	104.62
487.517	102.62
487.735	100.62
487.953	93.62
488.171	100.62
488.389	106.62
488.607	95.62
488.825	123.62
489.043	113.62
489.261	105.62
489.479	101.62
489.696	108.62
489.914	112.62
490.132	102.62
490.35	114.62
490.568	107.62
490.786	102.62
491.003	105.62
491.221	112.62
491.439	105.62
491.657	103.62
491.874	111.62
492.092	113.62
492.31	112.62
492.527	107.62
492.745	115.62
492.963	108.62
493.18	113.62
493.398	107.62
493.615	115.62
493.833	113.62
494.05	115.62
494.268	113.62
494.485	121.62
494.703	109.62
494.92	117.62
495.138	114.62
495.355	111.62
495.573	122.62
495.79	104.62
496.008	115.62
496.225	113.62
496.442	109.62
496.66	118.62
496.877	113.62
497.094	119.62
497.312	97.62
497.529	108.62
497.746	109.62
497.963	111.62
498.181	116.62
498.398	114.62
498.615	101.62
498.832	107.62
499.049	126.62
499.267	119.62
499.484	124.62
499.701	128.62
499.918	136.62
500.135	133.62
500.352	144.62
500.569	152.62
500.786	150.62
501.003	136.62
501.22	137.62
501.437	124.62
501.654	126.62
501.871	122.62
502.088	114.62
502.305	121.62
502.522	118.62
502.739	103.62
502.956	94.62
503.172	108.62
503.389	100.62
503.606	105.62
503.823	112.62
504.04	120.62
504.256	111.62
504.473	107.62
504.69	127.62
504.907	116.62
505.123	125.62
505.34	103.62
505.557	97.62
505.773	113.62
505.99	95.62
506.207	92.62
506.423	119.62
506.64	103.62
506.856	105.62
507.073	85.62
507.289	97.62
507.506	109.62
507.722	86.62
507.939	106.62
508.155	112.62
508.372	120.62
508.588	88.62
508.805	111.62
509.021	97.62
509.238	102.62
509.454	95.62
509.67	92.62
509.887	93.62
510.103	104.62
510.319	107.62
510.536	112.62
510.752	96.62
510.968	95.62
511.184	109.62
511.401	105.62
511.617	107.62
511.833	102.62
512.049	108.62
512.265	101.62
512.481	105.62
512.698	114.62
512.914	100.62
513.13	98.62
513.346	98.62
513.562	106.62
513.778	88.62
513.994	91.62
514.21	105.62
514.426	111.62
514.642	99.62
514.858	101.62
515.074	103.62
