Data from Location5.07152019.Energy5.Lamp.07192019.3%Agarose_HRD10591_15-39-00-388.txt Node
Date: Fri Jul 19 15:39:00 EDT 2019
User: cochatt
Spectrometer: HR+D1059
Trigger mode: 1
Integration Time (sec): 1.000000E-1
Scans to average: 1
Electric dark correction enabled: true
Nonlinearity correction enabled: false
Boxcar width: 0
XAxis mode: Wavelengths
Number of Pixels in Spectrum: 2048
>>>>>Begin Spectral Data<<<<<
223.165	-20.75
223.4	-20.75
223.635	-20.75
223.869	-30.75
224.104	-26.75
224.338	-14.75
224.573	-15.75
224.808	-16.75
225.042	-5.75
225.277	-1.75
225.511	0.25
225.746	4.25
225.98	7.25
226.215	19.25
226.449	20.25
226.683	17.25
226.918	29.25
227.152	35.25
227.387	22.25
227.621	43.25
227.856	38.25
228.09	49.25
228.324	41.25
228.559	53.25
228.793	56.25
229.027	55.25
229.262	71.25
229.496	67.25
229.73	72.25
229.964	66.25
230.199	78.25
230.433	77.25
230.667	58.25
230.901	82.25
231.136	74.25
231.37	67.25
231.604	83.25
231.838	73.25
232.072	76.25
232.306	74.25
232.541	73.25
232.775	69.25
233.009	80.25
233.243	92.25
233.477	83.25
233.711	83.25
233.945	74.25
234.179	73.25
234.413	97.25
234.647	84.25
234.881	78.25
235.115	85.25
235.349	66.25
235.583	75.25
235.817	80.25
236.051	82.25
236.285	78.25
236.519	78.25
236.753	77.25
236.987	70.25
237.221	85.25
237.455	75.25
237.689	67.25
237.922	87.25
238.156	68.25
238.39	71.25
238.624	79.25
238.858	66.25
239.091	75.25
239.325	60.25
239.559	64.25
239.793	76.25
240.027	81.25
240.26	80.25
240.494	67.25
240.728	78.25
240.961	71.25
241.195	73.25
241.429	79.25
241.662	84.25
241.896	82.25
242.13	69.25
242.363	76.25
242.597	66.25
242.83	79.25
243.064	74.25
243.298	70.25
243.531	68.25
243.765	66.25
243.998	85.25
244.232	79.25
244.465	68.25
244.699	76.25
244.932	69.25
245.166	74.25
245.399	65.25
245.633	69.25
245.866	70.25
246.099	78.25
246.333	86.25
246.566	65.25
246.8	67.25
247.033	75.25
247.266	83.25
247.5	76.25
247.733	83.25
247.966	81.25
248.2	90.25
248.433	77.25
248.666	85.25
248.899	82.25
249.133	78.25
249.366	79.25
249.599	83.25
249.832	76.25
250.066	71.25
250.299	76.25
250.532	81.25
250.765	83.25
250.998	76.25
251.231	68.25
251.465	74.25
251.698	99.25
251.931	80.25
252.164	77.25
252.397	85.25
252.63	62.25
252.863	68.25
253.096	83.25
253.329	80.25
253.562	96.25
253.795	92.25
254.028	78.25
254.261	73.25
254.494	80.25
254.727	83.25
254.96	73.25
255.193	81.25
255.426	67.25
255.659	82.25
255.892	61.25
256.124	84.25
256.357	99.25
256.59	82.25
256.823	81.25
257.056	87.25
257.289	79.25
257.521	84.25
257.754	84.25
257.987	87.25
258.22	83.25
258.452	88.25
258.685	79.25
258.918	87.25
259.151	86.25
259.383	82.25
259.616	87.25
259.849	97.25
260.081	69.25
260.314	74.25
260.547	82.25
260.779	89.25
261.012	69.25
261.244	85.25
261.477	76.25
261.71	88.25
261.942	60.25
262.175	59.25
262.407	81.25
262.64	81.25
262.872	79.25
263.105	74.25
263.337	75.25
263.57	75.25
263.802	73.25
264.035	80.25
264.267	86.25
264.499	69.25
264.732	81.25
264.964	86.25
265.197	87.25
265.429	65.25
265.661	93.25
265.894	87.25
266.126	76.25
266.358	71.25
266.591	85.25
266.823	89.25
267.055	85.25
267.287	80.25
267.52	70.25
267.752	83.25
267.984	80.25
268.216	73.25
268.448	70.25
268.681	83.25
268.913	80.25
269.145	91.25
269.377	76.25
269.609	82.25
269.841	72.25
270.073	87.25
270.306	82.25
270.538	81.25
270.77	76.25
271.002	81.25
271.234	78.25
271.466	77.25
271.698	74.25
271.93	88.25
272.162	71.25
272.394	78.25
272.626	79.25
272.858	80.25
273.09	80.25
273.322	85.25
273.553	85.25
273.785	86.25
274.017	91.25
274.249	84.25
274.481	72.25
274.713	68.25
274.945	90.25
275.176	76.25
275.408	85.25
275.64	78.25
275.872	69.25
276.104	77.25
276.335	89.25
276.567	83.25
276.799	74.25
277.031	71.25
277.262	86.25
277.494	90.25
277.726	87.25
277.957	80.25
278.189	80.25
278.421	91.25
278.652	82.25
278.884	80.25
279.115	67.25
279.347	75.25
279.579	84.25
279.81	76.25
280.042	88.25
280.273	87.25
280.505	96.25
280.736	82.25
280.968	71.25
281.199	74.25
281.431	97.25
281.662	94.25
281.894	98.25
282.125	88.25
282.356	101.25
282.588	82.25
282.819	85.25
283.051	76.25
283.282	79.25
283.513	88.25
283.745	81.25
283.976	90.25
284.207	76.25
284.439	77.25
284.67	80.25
284.901	95.25
285.132	84.25
285.364	83.25
285.595	79.25
285.826	68.25
286.057	79.25
286.288	80.25
286.52	83.25
286.751	94.25
286.982	75.25
287.213	93.25
287.444	75.25
287.675	82.25
287.906	70.25
288.138	73.25
288.369	81.25
288.6	80.25
288.831	71.25
289.062	94.25
289.293	83.25
289.524	97.25
289.755	71.25
289.986	79.25
290.217	88.25
290.448	68.25
290.679	87.25
290.91	83.25
291.141	90.25
291.371	80.25
291.602	82.25
291.833	85.25
292.064	94.25
292.295	81.25
292.526	92.25
292.757	85.25
292.987	72.25
293.218	82.25
293.449	92.25
293.68	84.25
293.91	84.25
294.141	76.25
294.372	84.25
294.603	79.25
294.833	74.25
295.064	94.25
295.295	80.25
295.525	75.25
295.756	103.25
295.987	88.25
296.217	79.25
296.448	92.25
296.679	77.25
296.909	81.25
297.14	83.25
297.37	81.25
297.601	82.25
297.831	91.25
298.062	83.25
298.292	83.25
298.523	91.25
298.753	77.25
298.984	93.25
299.214	87.25
299.445	71.25
299.675	78.25
299.905	89.25
300.136	84.25
300.366	87.25
300.597	74.25
300.827	87.25
301.057	74.25
301.288	80.25
301.518	75.25
301.748	86.25
301.979	63.25
302.209	87.25
302.439	87.25
302.669	87.25
302.9	77.25
303.13	74.25
303.36	76.25
303.59	73.25
303.82	70.25
304.051	90.25
304.281	79.25
304.511	100.25
304.741	71.25
304.971	92.25
305.201	74.25
305.431	69.25
305.661	76.25
305.891	86.25
306.121	73.25
306.352	75.25
306.582	83.25
306.812	87.25
307.042	96.25
307.272	95.25
307.502	82.25
307.731	78.25
307.961	88.25
308.191	87.25
308.421	99.25
308.651	74.25
308.881	85.25
309.111	87.25
309.341	93.25
309.571	89.25
309.8	86.25
310.03	72.25
310.26	82.25
310.49	80.25
310.72	80.25
310.949	83.25
311.179	74.25
311.409	75.25
311.639	76.25
311.868	92.25
312.098	81.25
312.328	83.25
312.557	82.25
312.787	85.25
313.017	89.25
313.246	90.25
313.476	82.25
313.706	82.25
313.935	91.25
314.165	83.25
314.394	91.25
314.624	80.25
314.853	75.25
315.083	75.25
315.312	75.25
315.542	88.25
315.771	87.25
316.001	88.25
316.23	71.25
316.46	77.25
316.689	84.25
316.919	94.25
317.148	83.25
317.377	89.25
317.607	81.25
317.836	76.25
318.065	74.25
318.295	87.25
318.524	87.25
318.753	88.25
318.983	100.25
319.212	98.25
319.441	88.25
319.67	79.25
319.9	79.25
320.129	86.25
320.358	94.25
320.587	82.25
320.816	73.25
321.046	85.25
321.275	88.25
321.504	80.25
321.733	76.25
321.962	75.25
322.191	80.25
322.42	83.25
322.649	90.25
322.878	87.25
323.108	89.25
323.337	72.25
323.566	88.25
323.795	85.25
324.024	87.25
324.253	76.25
324.482	82.25
324.71	85.25
324.939	95.25
325.168	79.25
325.397	88.25
325.626	93.25
325.855	81.25
326.084	87.25
326.313	83.25
326.542	81.25
326.77	92.25
326.999	89.25
327.228	82.25
327.457	80.25
327.686	87.25
327.914	92.25
328.143	91.25
328.372	57.25
328.6	82.25
328.829	74.25
329.058	80.25
329.287	80.25
329.515	91.25
329.744	67.25
329.972	78.25
330.201	84.25
330.43	88.25
330.658	87.25
330.887	71.25
331.115	88.25
331.344	87.25
331.572	97.25
331.801	80.25
332.03	84.25
332.258	83.25
332.486	79.25
332.715	95.25
332.943	78.25
333.172	88.25
333.4	76.25
333.629	82.25
333.857	81.25
334.085	82.25
334.314	62.25
334.542	91.25
334.771	88.25
334.999	72.25
335.227	88.25
335.455	83.25
335.684	81.25
335.912	85.25
336.14	85.25
336.369	85.25
336.597	78.25
336.825	92.25
337.053	77.25
337.281	74.25
337.51	79.25
337.738	94.25
337.966	82.25
338.194	76.25
338.422	93.25
338.65	93.25
338.878	66.25
339.106	76.25
339.334	89.25
339.562	86.25
339.79	84.25
340.018	78.25
340.246	90.25
340.474	87.25
340.702	70.25
340.93	82.25
341.158	86.25
341.386	82.25
341.614	80.25
341.842	80.25
342.07	87.25
342.298	72.25
342.526	87.25
342.754	80.25
342.981	81.25
343.209	80.25
343.437	96.25
343.665	85.25
343.893	100.25
344.12	92.25
344.348	89.25
344.576	87.25
344.804	75.25
345.031	83.25
345.259	79.25
345.487	87.25
345.714	71.25
345.942	75.25
346.17	76.25
346.397	84.25
346.625	73.25
346.853	90.25
347.08	88.25
347.308	87.25
347.535	83.25
347.763	75.25
347.99	86.25
348.218	103.25
348.445	86.25
348.673	91.25
348.9	88.25
349.128	97.25
349.355	74.25
349.583	69.25
349.81	84.25
350.037	80.25
350.265	82.25
350.492	74.25
350.72	76.25
350.947	78.25
351.174	85.25
351.402	75.25
351.629	83.25
351.856	70.25
352.083	70.25
352.311	83.25
352.538	90.25
352.765	79.25
352.992	87.25
353.22	81.25
353.447	82.25
353.674	99.25
353.901	82.25
354.128	78.25
354.355	79.25
354.583	88.25
354.81	96.25
355.037	77.25
355.264	77.25
355.491	78.25
355.718	95.25
355.945	85.25
356.172	88.25
356.399	81.25
356.626	65.25
356.853	84.25
357.08	89.25
357.307	79.25
357.534	75.25
357.761	77.25
357.988	80.25
358.215	80.25
358.441	87.25
358.668	83.25
358.895	83.25
359.122	69.25
359.349	71.25
359.576	82.25
359.802	75.25
360.029	88.25
360.256	78.25
360.483	79.25
360.709	82.25
360.936	91.25
361.163	87.25
361.39	86.25
361.616	74.25
361.843	75.25
362.07	78.25
362.296	86.25
362.523	94.25
362.749	89.25
362.976	82.25
363.203	94.25
363.429	73.25
363.656	82.25
363.882	82.25
364.109	85.25
364.335	90.25
364.562	96.25
364.788	76.25
365.015	64.25
365.241	88.25
365.468	87.25
365.694	84.25
365.92	105.25
366.147	76.25
366.373	70.25
366.599	83.25
366.826	80.25
367.052	80.25
367.278	74.25
367.505	75.25
367.731	86.25
367.957	85.25
368.184	65.25
368.41	75.25
368.636	85.25
368.862	86.25
369.089	74.25
369.315	74.25
369.541	90.25
369.767	75.25
369.993	80.25
370.219	82.25
370.445	91.25
370.672	83.25
370.898	69.25
371.124	90.25
371.35	69.25
371.576	87.25
371.802	86.25
372.028	83.25
372.254	86.25
372.48	80.25
372.706	88.25
372.932	85.25
373.158	77.25
373.384	66.25
373.61	83.25
373.835	87.25
374.061	67.25
374.287	84.25
374.513	84.25
374.739	79.25
374.965	80.25
375.191	96.25
375.416	76.25
375.642	81.25
375.868	90.25
376.094	102.25
376.319	85.25
376.545	76.25
376.771	82.25
376.997	86.25
377.222	76.25
377.448	82.25
377.674	91.25
377.899	82.25
378.125	88.25
378.35	95.25
378.576	81.25
378.802	79.25
379.027	87.25
379.253	86.25
379.478	86.25
379.704	91.25
379.929	75.25
380.155	80.25
380.38	87.25
380.606	76.25
380.831	98.25
381.057	91.25
381.282	86.25
381.507	97.25
381.733	95.25
381.958	87.25
382.184	84.25
382.409	82.25
382.634	90.25
382.86	78.25
383.085	91.25
383.31	76.25
383.535	84.25
383.761	86.25
383.986	80.25
384.211	86.25
384.436	75.25
384.662	93.25
384.887	91.25
385.112	80.25
385.337	86.25
385.562	89.25
385.787	94.25
386.013	83.25
386.238	90.25
386.463	78.25
386.688	107.25
386.913	94.25
387.138	73.25
387.363	86.25
387.588	97.25
387.813	97.25
388.038	97.25
388.263	84.25
388.488	84.25
388.713	86.25
388.938	80.25
389.163	95.25
389.387	101.25
389.612	76.25
389.837	87.25
390.062	74.25
390.287	82.25
390.512	82.25
390.736	75.25
390.961	82.25
391.186	94.25
391.411	82.25
391.636	70.25
391.86	88.25
392.085	89.25
392.31	84.25
392.534	81.25
392.759	99.25
392.984	97.25
393.208	86.25
393.433	81.25
393.658	99.25
393.882	76.25
394.107	88.25
394.331	85.25
394.556	69.25
394.78	87.25
395.005	81.25
395.229	80.25
395.454	81.25
395.678	75.25
395.903	73.25
396.127	81.25
396.352	97.25
396.576	79.25
396.801	88.25
397.025	98.25
397.249	92.25
397.474	99.25
397.698	92.25
397.922	107.25
398.147	93.25
398.371	83.25
398.595	80.25
398.82	89.25
399.044	87.25
399.268	93.25
399.492	81.25
399.717	84.25
399.941	87.25
400.165	88.25
400.389	80.25
400.613	95.25
400.837	97.25
401.062	81.25
401.286	93.25
401.51	92.25
401.734	93.25
401.958	82.25
402.182	74.25
402.406	93.25
402.63	86.25
402.854	90.25
403.078	91.25
403.302	82.25
403.526	91.25
403.75	92.25
403.974	87.25
404.198	80.25
404.422	84.25
404.645	76.25
404.869	86.25
405.093	94.25
405.317	82.25
405.541	88.25
405.765	87.25
405.988	101.25
406.212	79.25
406.436	78.25
406.66	88.25
406.883	96.25
407.107	98.25
407.331	95.25
407.555	98.25
407.778	86.25
408.002	92.25
408.226	85.25
408.449	81.25
408.673	97.25
408.896	90.25
409.12	78.25
409.344	83.25
409.567	82.25
409.791	89.25
410.014	81.25
410.238	90.25
410.461	98.25
410.685	90.25
410.908	97.25
411.132	88.25
411.355	86.25
411.578	88.25
411.802	86.25
412.025	89.25
412.249	73.25
412.472	88.25
412.695	77.25
412.919	80.25
413.142	84.25
413.365	97.25
413.589	80.25
413.812	75.25
414.035	99.25
414.258	103.25
414.482	94.25
414.705	89.25
414.928	99.25
415.151	85.25
415.374	76.25
415.597	94.25
415.821	89.25
416.044	94.25
416.267	89.25
416.49	75.25
416.713	80.25
416.936	90.25
417.159	96.25
417.382	89.25
417.605	79.25
417.828	82.25
418.051	91.25
418.274	96.25
418.497	91.25
418.72	71.25
418.943	86.25
419.166	99.25
419.389	86.25
419.611	98.25
419.834	80.25
420.057	86.25
420.28	103.25
420.503	100.25
420.726	88.25
420.948	101.25
421.171	94.25
421.394	92.25
421.617	98.25
421.839	76.25
422.062	81.25
422.285	100.25
422.507	119.25
422.73	89.25
422.953	88.25
423.175	99.25
423.398	86.25
423.621	94.25
423.843	90.25
424.066	97.25
424.288	79.25
424.511	89.25
424.733	83.25
424.956	85.25
425.178	99.25
425.401	74.25
425.623	88.25
425.846	101.25
426.068	97.25
426.291	86.25
426.513	96.25
426.735	102.25
426.958	95.25
427.18	99.25
427.402	86.25
427.625	92.25
427.847	102.25
428.069	95.25
428.292	90.25
428.514	97.25
428.736	79.25
428.958	97.25
429.181	87.25
429.403	87.25
429.625	88.25
429.847	100.25
430.069	92.25
430.292	88.25
430.514	97.25
430.736	97.25
430.958	96.25
431.18	95.25
431.402	100.25
431.624	88.25
431.846	87.25
432.068	91.25
432.29	87.25
432.512	79.25
432.734	95.25
432.956	101.25
433.178	89.25
433.4	78.25
433.622	107.25
433.844	88.25
434.066	94.25
434.287	90.25
434.509	82.25
434.731	99.25
434.953	98.25
435.175	95.25
435.397	93.25
435.618	87.25
435.84	90.25
436.062	92.25
436.284	95.25
436.505	88.25
436.727	105.25
436.949	84.25
437.17	93.25
437.392	91.25
437.614	75.25
437.835	85.25
438.057	72.25
438.278	87.25
438.5	93.25
438.721	104.25
438.943	102.25
439.165	90.25
439.386	102.25
439.608	99.25
439.829	109.25
440.05	95.25
440.272	79.25
440.493	83.25
440.715	101.25
440.936	82.25
441.158	92.25
441.379	96.25
441.6	88.25
441.822	108.25
442.043	98.25
442.264	95.25
442.486	92.25
442.707	86.25
442.928	103.25
443.149	104.25
443.371	84.25
443.592	88.25
443.813	86.25
444.034	88.25
444.255	91.25
444.476	92.25
444.698	99.25
444.919	93.25
445.14	211.25
445.361	163.25
445.582	103.25
445.803	98.25
446.024	101.25
446.245	100.25
446.466	97.25
446.687	100.25
446.908	99.25
447.129	103.25
447.35	87.25
447.571	103.25
447.792	95.25
448.013	98.25
448.234	101.25
448.455	87.25
448.675	88.25
448.896	91.25
449.117	102.25
449.338	101.25
449.559	96.25
449.779	102.25
450	108.25
450.221	77.25
450.442	101.25
450.662	106.25
450.883	89.25
451.104	91.25
451.324	86.25
451.545	104.25
451.766	91.25
451.986	85.25
452.207	82.25
452.428	91.25
452.648	77.25
452.869	95.25
453.089	91.25
453.31	89.25
453.53	73.25
453.751	94.25
453.971	93.25
454.192	88.25
454.412	76.25
454.633	92.25
454.853	69.25
455.073	82.25
455.294	89.25
455.514	96.25
455.734	100.25
455.955	101.25
456.175	90.25
456.395	98.25
456.616	88.25
456.836	86.25
457.056	83.25
457.276	73.25
457.497	84.25
457.717	82.25
457.937	85.25
458.157	94.25
458.377	80.25
458.598	74.25
458.818	82.25
459.038	65.25
459.258	76.25
459.478	75.25
459.698	87.25
459.918	73.25
460.138	97.25
460.358	95.25
460.578	93.25
460.798	94.25
461.018	87.25
461.238	73.25
461.458	88.25
461.678	92.25
461.898	85.25
462.118	87.25
462.338	89.25
462.558	90.25
462.777	104.25
462.997	88.25
463.217	90.25
463.437	85.25
463.657	92.25
463.876	85.25
464.096	88.25
464.316	101.25
464.536	94.25
464.755	97.25
464.975	95.25
465.195	83.25
465.414	96.25
465.634	84.25
465.854	75.25
466.073	88.25
466.293	82.25
466.512	100.25
466.732	99.25
466.951	92.25
467.171	94.25
467.391	85.25
467.61	100.25
467.829	92.25
468.049	87.25
468.268	98.25
468.488	92.25
468.707	91.25
468.927	99.25
469.146	108.25
469.365	100.25
469.585	102.25
469.804	87.25
470.023	88.25
470.243	99.25
470.462	101.25
470.681	97.25
470.901	110.25
471.12	105.25
471.339	82.25
471.558	98.25
471.777	95.25
471.997	91.25
472.216	111.25
472.435	90.25
472.654	97.25
472.873	97.25
473.092	85.25
473.311	87.25
473.53	91.25
473.749	96.25
473.968	92.25
474.187	106.25
474.406	92.25
474.625	85.25
474.844	99.25
475.063	91.25
475.282	99.25
475.501	100.25
475.72	91.25
475.939	94.25
476.158	88.25
476.377	101.25
476.596	111.25
476.814	83.25
477.033	84.25
477.252	91.25
477.471	84.25
477.69	101.25
477.908	97.25
478.127	91.25
478.346	100.25
478.564	94.25
478.783	94.25
479.002	90.25
479.22	95.25
479.439	96.25
479.658	102.25
479.876	76.25
480.095	88.25
480.313	86.25
480.532	98.25
480.751	79.25
480.969	89.25
481.188	87.25
481.406	79.25
481.624	95.25
481.843	104.25
482.061	87.25
482.28	88.25
482.498	84.25
482.717	87.25
482.935	100.25
483.153	94.25
483.372	90.25
483.59	107.25
483.808	89.25
484.027	99.25
484.245	89.25
484.463	83.25
484.681	105.25
484.9	112.25
485.118	96.25
485.336	88.25
485.554	89.25
485.772	86.25
485.99	71.25
486.209	81.25
486.427	84.25
486.645	90.25
486.863	104.25
487.081	98.25
487.299	91.25
487.517	101.25
487.735	102.25
487.953	111.25
488.171	115.25
488.389	101.25
488.607	106.25
488.825	82.25
489.043	89.25
489.261	97.25
489.479	84.25
489.696	87.25
489.914	107.25
490.132	96.25
490.35	101.25
490.568	99.25
490.786	114.25
491.003	110.25
491.221	103.25
491.439	110.25
491.657	128.25
491.874	112.25
492.092	119.25
492.31	112.25
492.527	120.25
492.745	102.25
492.963	107.25
493.18	108.25
493.398	115.25
493.615	114.25
493.833	117.25
494.05	84.25
494.268	104.25
494.485	112.25
494.703	89.25
494.92	98.25
495.138	93.25
495.355	95.25
495.573	108.25
495.79	99.25
496.008	110.25
496.225	100.25
496.442	118.25
496.66	108.25
496.877	118.25
497.094	113.25
497.312	100.25
497.529	96.25
497.746	99.25
497.963	95.25
498.181	92.25
498.398	106.25
498.615	97.25
498.832	96.25
499.049	87.25
499.267	92.25
499.484	88.25
499.701	97.25
499.918	84.25
500.135	89.25
500.352	119.25
500.569	87.25
500.786	103.25
501.003	97.25
501.22	101.25
501.437	92.25
501.654	83.25
501.871	109.25
502.088	89.25
502.305	96.25
502.522	86.25
502.739	89.25
502.956	93.25
503.172	78.25
503.389	83.25
503.606	100.25
503.823	97.25
504.04	103.25
504.256	104.25
504.473	87.25
504.69	94.25
504.907	83.25
505.123	80.25
505.34	74.25
505.557	88.25
505.773	103.25
505.99	90.25
506.207	89.25
506.423	84.25
506.64	92.25
506.856	90.25
507.073	88.25
507.289	94.25
507.506	91.25
507.722	107.25
507.939	96.25
508.155	90.25
508.372	89.25
508.588	104.25
508.805	82.25
509.021	77.25
509.238	89.25
509.454	93.25
509.67	98.25
509.887	92.25
510.103	89.25
510.319	87.25
510.536	80.25
510.752	60.25
510.968	79.25
511.184	74.25
511.401	80.25
511.617	94.25
511.833	84.25
512.049	81.25
512.265	105.25
512.481	78.25
512.698	84.25
512.914	78.25
513.13	87.25
513.346	84.25
513.562	88.25
513.778	81.25
513.994	82.25
514.21	86.25
514.426	86.25
514.642	89.25
514.858	83.25
515.074	90.25
515.29	88.25
515.506	89.25
515.721	80.25
515.937	80.25
516.153	81.25
516.369	70.25
516.585	79.25
516.801	70.25
517.016	87.25
517.232	76.25
517.448	79.25
517.664	81.25
517.879	89.25
