Data from Location5.07152019.Energy5.Lamp.07192019.3%Agarose_HRD10591_16-04-03-629.txt Node
Date: Fri Jul 19 16:04:03 EDT 2019
User: cochatt
Spectrometer: HR+D1059
Trigger mode: 1
Integration Time (sec): 1.000000E-1
Scans to average: 1
Electric dark correction enabled: true
Nonlinearity correction enabled: false
Boxcar width: 0
XAxis mode: Wavelengths
Number of Pixels in Spectrum: 2048
>>>>>Begin Spectral Data<<<<<
223.165	0.69
223.4	0.69
223.635	0.69
223.869	-14.31
224.104	-7.31
224.338	-27.31
224.573	-24.31
224.808	-3.31
225.042	1.69
225.277	-15.31
225.511	-6.31
225.746	1.69
225.98	21.69
226.215	7.69
226.449	22.69
226.683	14.69
226.918	17.69
227.152	9.69
227.387	31.69
227.621	30.69
227.856	35.69
228.09	40.69
228.324	52.69
228.559	56.69
228.793	53.69
229.027	57.69
229.262	60.69
229.496	62.69
229.73	64.69
229.964	76.69
230.199	67.69
230.433	69.69
230.667	76.69
230.901	80.69
231.136	68.69
231.37	76.69
231.604	76.69
231.838	85.69
232.072	82.69
232.306	76.69
232.541	81.69
232.775	86.69
233.009	87.69
233.243	82.69
233.477	73.69
233.711	79.69
233.945	84.69
234.179	81.69
234.413	78.69
234.647	78.69
234.881	86.69
235.115	84.69
235.349	70.69
235.583	81.69
235.817	76.69
236.051	68.69
236.285	78.69
236.519	76.69
236.753	84.69
236.987	84.69
237.221	94.69
237.455	88.69
237.689	71.69
237.922	80.69
238.156	81.69
238.39	80.69
238.624	70.69
238.858	73.69
239.091	80.69
239.325	79.69
239.559	80.69
239.793	83.69
240.027	64.69
240.26	67.69
240.494	69.69
240.728	85.69
240.961	81.69
241.195	76.69
241.429	72.69
241.662	62.69
241.896	77.69
242.13	80.69
242.363	81.69
242.597	83.69
242.83	74.69
243.064	80.69
243.298	72.69
243.531	68.69
243.765	77.69
243.998	78.69
244.232	86.69
244.465	65.69
244.699	72.69
244.932	70.69
245.166	81.69
245.399	83.69
245.633	74.69
245.866	88.69
246.099	78.69
246.333	83.69
246.566	80.69
246.8	71.69
247.033	80.69
247.266	71.69
247.5	66.69
247.733	66.69
247.966	74.69
248.2	77.69
248.433	78.69
248.666	77.69
248.899	85.69
249.133	69.69
249.366	74.69
249.599	79.69
249.832	77.69
250.066	80.69
250.299	70.69
250.532	74.69
250.765	75.69
250.998	78.69
251.231	72.69
251.465	96.69
251.698	87.69
251.931	76.69
252.164	84.69
252.397	66.69
252.63	71.69
252.863	80.69
253.096	85.69
253.329	79.69
253.562	78.69
253.795	77.69
254.028	73.69
254.261	72.69
254.494	70.69
254.727	85.69
254.96	88.69
255.193	68.69
255.426	88.69
255.659	80.69
255.892	89.69
256.124	70.69
256.357	82.69
256.59	74.69
256.823	74.69
257.056	81.69
257.289	79.69
257.521	84.69
257.754	86.69
257.987	84.69
258.22	93.69
258.452	71.69
258.685	60.69
258.918	81.69
259.151	93.69
259.383	70.69
259.616	73.69
259.849	70.69
260.081	74.69
260.314	83.69
260.547	86.69
260.779	66.69
261.012	85.69
261.244	82.69
261.477	94.69
261.71	84.69
261.942	81.69
262.175	88.69
262.407	82.69
262.64	83.69
262.872	85.69
263.105	71.69
263.337	78.69
263.57	74.69
263.802	86.69
264.035	95.69
264.267	78.69
264.499	87.69
264.732	89.69
264.964	78.69
265.197	77.69
265.429	78.69
265.661	87.69
265.894	85.69
266.126	85.69
266.358	77.69
266.591	78.69
266.823	91.69
267.055	76.69
267.287	79.69
267.52	68.69
267.752	99.69
267.984	68.69
268.216	71.69
268.448	80.69
268.681	89.69
268.913	72.69
269.145	85.69
269.377	89.69
269.609	80.69
269.841	81.69
270.073	79.69
270.306	80.69
270.538	83.69
270.77	95.69
271.002	79.69
271.234	72.69
271.466	89.69
271.698	85.69
271.93	97.69
272.162	86.69
272.394	88.69
272.626	77.69
272.858	87.69
273.09	81.69
273.322	82.69
273.553	80.69
273.785	97.69
274.017	88.69
274.249	96.69
274.481	95.69
274.713	84.69
274.945	74.69
275.176	71.69
275.408	81.69
275.64	80.69
275.872	82.69
276.104	85.69
276.335	74.69
276.567	88.69
276.799	85.69
277.031	86.69
277.262	83.69
277.494	89.69
277.726	82.69
277.957	84.69
278.189	79.69
278.421	86.69
278.652	89.69
278.884	91.69
279.115	85.69
279.347	82.69
279.579	80.69
279.81	79.69
280.042	93.69
280.273	80.69
280.505	86.69
280.736	89.69
280.968	102.69
281.199	95.69
281.431	87.69
281.662	84.69
281.894	75.69
282.125	74.69
282.356	84.69
282.588	75.69
282.819	97.69
283.051	85.69
283.282	80.69
283.513	78.69
283.745	96.69
283.976	79.69
284.207	86.69
284.439	84.69
284.67	100.69
284.901	92.69
285.132	87.69
285.364	89.69
285.595	90.69
285.826	80.69
286.057	101.69
286.288	94.69
286.52	92.69
286.751	95.69
286.982	77.69
287.213	80.69
287.444	86.69
287.675	93.69
287.906	105.69
288.138	97.69
288.369	86.69
288.6	84.69
288.831	86.69
289.062	77.69
289.293	75.69
289.524	87.69
289.755	79.69
289.986	89.69
290.217	92.69
290.448	89.69
290.679	85.69
290.91	96.69
291.141	95.69
291.371	85.69
291.602	93.69
291.833	88.69
292.064	88.69
292.295	106.69
292.526	93.69
292.757	95.69
292.987	73.69
293.218	90.69
293.449	93.69
293.68	95.69
293.91	93.69
294.141	93.69
294.372	79.69
294.603	82.69
294.833	95.69
295.064	89.69
295.295	81.69
295.525	85.69
295.756	89.69
295.987	96.69
296.217	65.69
296.448	82.69
296.679	89.69
296.909	85.69
297.14	80.69
297.37	86.69
297.601	97.69
297.831	80.69
298.062	87.69
298.292	86.69
298.523	95.69
298.753	85.69
298.984	99.69
299.214	79.69
299.445	80.69
299.675	90.69
299.905	77.69
300.136	98.69
300.366	84.69
300.597	87.69
300.827	76.69
301.057	92.69
301.288	99.69
301.518	94.69
301.748	91.69
301.979	88.69
302.209	93.69
302.439	90.69
302.669	88.69
302.9	98.69
303.13	106.69
303.36	86.69
303.59	85.69
303.82	84.69
304.051	105.69
304.281	89.69
304.511	78.69
304.741	89.69
304.971	101.69
305.201	86.69
305.431	85.69
305.661	82.69
305.891	88.69
306.121	86.69
306.352	101.69
306.582	105.69
306.812	97.69
307.042	71.69
307.272	96.69
307.502	82.69
307.731	90.69
307.961	87.69
308.191	88.69
308.421	97.69
308.651	89.69
308.881	87.69
309.111	100.69
309.341	82.69
309.571	88.69
309.8	96.69
310.03	90.69
310.26	96.69
310.49	77.69
310.72	104.69
310.949	97.69
311.179	94.69
311.409	102.69
311.639	79.69
311.868	81.69
312.098	84.69
312.328	91.69
312.557	89.69
312.787	87.69
313.017	91.69
313.246	99.69
313.476	93.69
313.706	79.69
313.935	89.69
314.165	98.69
314.394	90.69
314.624	103.69
314.853	94.69
315.083	89.69
315.312	88.69
315.542	87.69
315.771	83.69
316.001	80.69
316.23	89.69
316.46	86.69
316.689	101.69
316.919	94.69
317.148	84.69
317.377	90.69
317.607	82.69
317.836	91.69
318.065	84.69
318.295	88.69
318.524	86.69
318.753	83.69
318.983	77.69
319.212	93.69
319.441	88.69
319.67	82.69
319.9	84.69
320.129	104.69
320.358	102.69
320.587	92.69
320.816	94.69
321.046	83.69
321.275	104.69
321.504	72.69
321.733	82.69
321.962	82.69
322.191	97.69
322.42	88.69
322.649	86.69
322.878	79.69
323.108	102.69
323.337	91.69
323.566	80.69
323.795	102.69
324.024	84.69
324.253	87.69
324.482	96.69
324.71	101.69
324.939	90.69
325.168	92.69
325.397	85.69
325.626	97.69
325.855	90.69
326.084	95.69
326.313	98.69
326.542	78.69
326.77	101.69
326.999	90.69
327.228	84.69
327.457	98.69
327.686	85.69
327.914	99.69
328.143	80.69
328.372	84.69
328.6	101.69
328.829	96.69
329.058	105.69
329.287	89.69
329.515	86.69
329.744	92.69
329.972	83.69
330.201	102.69
330.43	85.69
330.658	93.69
330.887	89.69
331.115	100.69
331.344	87.69
331.572	81.69
331.801	83.69
332.03	87.69
332.258	84.69
332.486	83.69
332.715	104.69
332.943	92.69
333.172	87.69
333.4	94.69
333.629	94.69
333.857	92.69
334.085	103.69
334.314	100.69
334.542	99.69
334.771	104.69
334.999	95.69
335.227	102.69
335.455	96.69
335.684	100.69
335.912	96.69
336.14	83.69
336.369	91.69
336.597	93.69
336.825	97.69
337.053	100.69
337.281	68.69
337.51	92.69
337.738	105.69
337.966	92.69
338.194	98.69
338.422	83.69
338.65	69.69
338.878	93.69
339.106	83.69
339.334	96.69
339.562	96.69
339.79	87.69
340.018	98.69
340.246	92.69
340.474	93.69
340.702	94.69
340.93	83.69
341.158	92.69
341.386	89.69
341.614	95.69
341.842	95.69
342.07	82.69
342.298	87.69
342.526	99.69
342.754	88.69
342.981	101.69
343.209	95.69
343.437	102.69
343.665	94.69
343.893	112.69
344.12	109.69
344.348	105.69
344.576	91.69
344.804	87.69
345.031	85.69
345.259	88.69
345.487	90.69
345.714	83.69
345.942	91.69
346.17	87.69
346.397	85.69
346.625	93.69
346.853	76.69
347.08	79.69
347.308	81.69
347.535	87.69
347.763	78.69
347.99	93.69
348.218	101.69
348.445	92.69
348.673	99.69
348.9	95.69
349.128	84.69
349.355	78.69
349.583	80.69
349.81	83.69
350.037	78.69
350.265	92.69
350.492	93.69
350.72	86.69
350.947	86.69
351.174	86.69
351.402	88.69
351.629	91.69
351.856	78.69
352.083	88.69
352.311	80.69
352.538	93.69
352.765	92.69
352.992	92.69
353.22	88.69
353.447	100.69
353.674	102.69
353.901	98.69
354.128	97.69
354.355	87.69
354.583	97.69
354.81	89.69
355.037	95.69
355.264	88.69
355.491	80.69
355.718	94.69
355.945	90.69
356.172	92.69
356.399	82.69
356.626	80.69
356.853	95.69
357.08	84.69
357.307	88.69
357.534	85.69
357.761	95.69
357.988	100.69
358.215	77.69
358.441	88.69
358.668	98.69
358.895	91.69
359.122	87.69
359.349	82.69
359.576	97.69
359.802	74.69
360.029	98.69
360.256	99.69
360.483	82.69
360.709	78.69
360.936	90.69
361.163	83.69
361.39	96.69
361.616	81.69
361.843	81.69
362.07	93.69
362.296	84.69
362.523	97.69
362.749	87.69
362.976	77.69
363.203	78.69
363.429	99.69
363.656	80.69
363.882	82.69
364.109	86.69
364.335	88.69
364.562	78.69
364.788	80.69
365.015	103.69
365.241	95.69
365.468	96.69
365.694	80.69
365.92	92.69
366.147	96.69
366.373	75.69
366.599	81.69
366.826	93.69
367.052	94.69
367.278	101.69
367.505	85.69
367.731	97.69
367.957	84.69
368.184	98.69
368.41	103.69
368.636	89.69
368.862	82.69
369.089	86.69
369.315	74.69
369.541	86.69
369.767	79.69
369.993	84.69
370.219	86.69
370.445	84.69
370.672	95.69
370.898	87.69
371.124	93.69
371.35	85.69
371.576	91.69
371.802	94.69
372.028	89.69
372.254	90.69
372.48	83.69
372.706	96.69
372.932	78.69
373.158	98.69
373.384	97.69
373.61	108.69
373.835	90.69
374.061	93.69
374.287	88.69
374.513	93.69
374.739	85.69
374.965	103.69
375.191	118.69
375.416	95.69
375.642	80.69
375.868	96.69
376.094	82.69
376.319	101.69
376.545	99.69
376.771	80.69
376.997	94.69
377.222	94.69
377.448	95.69
377.674	95.69
377.899	94.69
378.125	95.69
378.35	91.69
378.576	79.69
378.802	90.69
379.027	64.69
379.253	104.69
379.478	98.69
379.704	96.69
379.929	94.69
380.155	91.69
380.38	92.69
380.606	94.69
380.831	88.69
381.057	81.69
381.282	105.69
381.507	74.69
381.733	76.69
381.958	92.69
382.184	88.69
382.409	84.69
382.634	93.69
382.86	78.69
383.085	85.69
383.31	86.69
383.535	88.69
383.761	88.69
383.986	100.69
384.211	89.69
384.436	85.69
384.662	89.69
384.887	90.69
385.112	80.69
385.337	84.69
385.562	77.69
385.787	104.69
386.013	96.69
386.238	82.69
386.463	92.69
386.688	89.69
386.913	108.69
387.138	99.69
387.363	85.69
387.588	94.69
387.813	89.69
388.038	94.69
388.263	100.69
388.488	69.69
388.713	87.69
388.938	85.69
389.163	119.69
389.387	81.69
389.612	88.69
389.837	97.69
390.062	95.69
390.287	97.69
390.512	97.69
390.736	77.69
390.961	78.69
391.186	100.69
391.411	95.69
391.636	90.69
391.86	85.69
392.085	88.69
392.31	87.69
392.534	82.69
392.759	99.69
392.984	104.69
393.208	84.69
393.433	96.69
393.658	86.69
393.882	93.69
394.107	78.69
394.331	75.69
394.556	87.69
394.78	103.69
395.005	111.69
395.229	103.69
395.454	96.69
395.678	94.69
395.903	101.69
396.127	98.69
396.352	96.69
396.576	81.69
396.801	87.69
397.025	93.69
397.249	97.69
397.474	104.69
397.698	96.69
397.922	101.69
398.147	97.69
398.371	89.69
398.595	82.69
398.82	99.69
399.044	97.69
399.268	103.69
399.492	112.69
399.717	101.69
399.941	100.69
400.165	99.69
400.389	94.69
400.613	89.69
400.837	91.69
401.062	88.69
401.286	91.69
401.51	86.69
401.734	90.69
401.958	95.69
402.182	100.69
402.406	88.69
402.63	96.69
402.854	102.69
403.078	93.69
403.302	99.69
403.526	97.69
403.75	96.69
403.974	94.69
404.198	89.69
404.422	96.69
404.645	97.69
404.869	92.69
405.093	92.69
405.317	92.69
405.541	97.69
405.765	112.69
405.988	102.69
406.212	112.69
406.436	91.69
406.66	94.69
406.883	87.69
407.107	94.69
407.331	100.69
407.555	104.69
407.778	96.69
408.002	90.69
408.226	89.69
408.449	103.69
408.673	86.69
408.896	96.69
409.12	98.69
409.344	96.69
409.567	97.69
409.791	98.69
410.014	97.69
410.238	108.69
410.461	79.69
410.685	86.69
410.908	108.69
411.132	93.69
411.355	88.69
411.578	81.69
411.802	99.69
412.025	81.69
412.249	87.69
412.472	90.69
412.695	93.69
412.919	92.69
413.142	90.69
413.365	96.69
413.589	89.69
413.812	81.69
414.035	87.69
414.258	100.69
414.482	88.69
414.705	89.69
414.928	87.69
415.151	92.69
415.374	97.69
415.597	94.69
415.821	101.69
416.044	87.69
416.267	82.69
416.49	85.69
416.713	81.69
416.936	88.69
417.159	104.69
417.382	84.69
417.605	98.69
417.828	84.69
418.051	101.69
418.274	93.69
418.497	94.69
418.72	100.69
418.943	80.69
419.166	95.69
419.389	89.69
419.611	79.69
419.834	88.69
420.057	93.69
420.28	85.69
420.503	89.69
420.726	108.69
420.948	85.69
421.171	83.69
421.394	99.69
421.617	115.69
421.839	89.69
422.062	89.69
422.285	98.69
422.507	101.69
422.73	90.69
422.953	94.69
423.175	91.69
423.398	92.69
423.621	92.69
423.843	93.69
424.066	86.69
424.288	92.69
424.511	99.69
424.733	95.69
424.956	102.69
425.178	93.69
425.401	94.69
425.623	103.69
425.846	93.69
426.068	104.69
426.291	105.69
426.513	94.69
426.735	95.69
426.958	102.69
427.18	88.69
427.402	78.69
427.625	95.69
427.847	88.69
428.069	94.69
428.292	86.69
428.514	97.69
428.736	103.69
428.958	94.69
429.181	78.69
429.403	86.69
429.625	90.69
429.847	86.69
430.069	92.69
430.292	95.69
430.514	86.69
430.736	98.69
430.958	94.69
431.18	96.69
431.402	100.69
431.624	85.69
431.846	76.69
432.068	102.69
432.29	79.69
432.512	88.69
432.734	101.69
432.956	86.69
433.178	77.69
433.4	84.69
433.622	91.69
433.844	89.69
434.066	81.69
434.287	101.69
434.509	88.69
434.731	93.69
434.953	89.69
435.175	92.69
435.397	94.69
435.618	109.69
435.84	98.69
436.062	76.69
436.284	82.69
436.505	96.69
436.727	87.69
436.949	93.69
437.17	85.69
437.392	92.69
437.614	104.69
437.835	94.69
438.057	90.69
438.278	85.69
438.5	95.69
438.721	102.69
438.943	91.69
439.165	97.69
439.386	92.69
439.608	101.69
439.829	84.69
440.05	105.69
440.272	86.69
440.493	85.69
440.715	86.69
440.936	87.69
441.158	90.69
441.379	87.69
441.6	92.69
441.822	103.69
442.043	89.69
442.264	97.69
442.486	99.69
442.707	91.69
442.928	102.69
443.149	80.69
443.371	96.69
443.592	95.69
443.813	100.69
444.034	102.69
444.255	89.69
444.476	81.69
444.698	91.69
444.919	99.69
445.14	188.69
445.361	125.69
445.582	92.69
445.803	95.69
446.024	93.69
446.245	91.69
446.466	100.69
446.687	105.69
446.908	81.69
447.129	100.69
447.35	93.69
447.571	108.69
447.792	78.69
448.013	75.69
448.234	74.69
448.455	89.69
448.675	101.69
448.896	99.69
449.117	105.69
449.338	101.69
449.559	81.69
449.779	87.69
450	94.69
450.221	79.69
450.442	81.69
450.662	92.69
450.883	92.69
451.104	77.69
451.324	91.69
451.545	83.69
451.766	85.69
451.986	83.69
452.207	83.69
452.428	81.69
452.648	93.69
452.869	84.69
453.089	89.69
453.31	83.69
453.53	75.69
453.751	83.69
453.971	97.69
454.192	101.69
454.412	102.69
454.633	91.69
454.853	81.69
455.073	83.69
455.294	100.69
455.514	89.69
455.734	88.69
455.955	88.69
456.175	81.69
456.395	81.69
456.616	88.69
456.836	88.69
457.056	82.69
457.276	86.69
457.497	90.69
457.717	89.69
457.937	102.69
458.157	99.69
458.377	86.69
458.598	88.69
458.818	100.69
459.038	111.69
459.258	94.69
459.478	96.69
459.698	96.69
459.918	94.69
460.138	97.69
460.358	99.69
460.578	114.69
460.798	100.69
461.018	99.69
461.238	96.69
461.458	107.69
461.678	92.69
461.898	99.69
462.118	102.69
462.338	80.69
462.558	91.69
462.777	90.69
462.997	103.69
463.217	114.69
463.437	92.69
463.657	108.69
463.876	117.69
464.096	93.69
464.316	117.69
464.536	93.69
464.755	101.69
464.975	103.69
465.195	99.69
465.414	102.69
465.634	96.69
465.854	88.69
466.073	95.69
466.293	91.69
466.512	85.69
466.732	93.69
466.951	93.69
467.171	96.69
467.391	95.69
467.61	97.69
467.829	111.69
468.049	82.69
468.268	87.69
468.488	84.69
468.707	90.69
468.927	106.69
469.146	84.69
469.365	94.69
469.585	86.69
469.804	95.69
470.023	94.69
470.243	88.69
470.462	83.69
470.681	96.69
470.901	101.69
471.12	97.69
471.339	94.69
471.558	95.69
471.777	95.69
471.997	86.69
472.216	81.69
472.435	76.69
472.654	92.69
472.873	89.69
473.092	95.69
473.311	89.69
473.53	92.69
473.749	94.69
473.968	84.69
474.187	97.69
474.406	97.69
474.625	93.69
474.844	84.69
475.063	95.69
475.282	90.69
475.501	87.69
475.72	100.69
475.939	94.69
476.158	99.69
476.377	95.69
476.596	112.69
476.814	96.69
477.033	93.69
477.252	99.69
477.471	100.69
477.69	86.69
477.908	89.69
478.127	96.69
478.346	101.69
478.564	87.69
478.783	91.69
479.002	103.69
479.22	101.69
479.439	102.69
479.658	100.69
479.876	104.69
480.095	92.69
480.313	96.69
480.532	102.69
480.751	112.69
480.969	85.69
481.188	77.69
481.406	93.69
481.624	88.69
481.843	99.69
482.061	102.69
482.28	85.69
482.498	115.69
482.717	92.69
482.935	87.69
483.153	92.69
483.372	101.69
483.59	95.69
483.808	109.69
484.027	92.69
484.245	94.69
484.463	116.69
484.681	101.69
484.9	95.69
485.118	114.69
485.336	105.69
485.554	97.69
485.772	99.69
485.99	94.69
486.209	88.69
486.427	101.69
486.645	89.69
486.863	96.69
487.081	106.69
487.299	102.69
487.517	106.69
487.735	107.69
487.953	122.69
488.171	108.69
488.389	102.69
488.607	94.69
488.825	98.69
489.043	97.69
489.261	93.69
489.479	84.69
489.696	97.69
489.914	108.69
490.132	95.69
490.35	98.69
490.568	99.69
490.786	105.69
491.003	120.69
491.221	114.69
491.439	88.69
491.657	105.69
491.874	105.69
492.092	104.69
492.31	97.69
492.527	106.69
492.745	118.69
492.963	122.69
493.18	107.69
493.398	112.69
493.615	105.69
493.833	116.69
494.05	114.69
494.268	122.69
494.485	118.69
494.703	109.69
494.92	102.69
495.138	111.69
495.355	100.69
495.573	100.69
495.79	92.69
496.008	102.69
496.225	105.69
496.442	105.69
496.66	100.69
496.877	129.69
497.094	120.69
497.312	100.69
497.529	109.69
497.746	115.69
497.963	110.69
498.181	97.69
498.398	108.69
498.615	119.69
498.832	112.69
499.049	105.69
499.267	126.69
499.484	124.69
499.701	132.69
499.918	131.69
500.135	130.69
500.352	158.69
500.569	151.69
500.786	144.69
501.003	130.69
501.22	131.69
501.437	126.69
501.654	123.69
501.871	124.69
502.088	116.69
502.305	118.69
502.522	125.69
502.739	116.69
502.956	117.69
503.172	117.69
503.389	108.69
503.606	115.69
503.823	98.69
504.04	97.69
504.256	94.69
504.473	114.69
504.69	110.69
504.907	104.69
505.123	115.69
505.34	106.69
505.557	110.69
505.773	104.69
505.99	102.69
506.207	101.69
506.423	112.69
506.64	104.69
506.856	96.69
507.073	82.69
507.289	100.69
507.506	112.69
507.722	94.69
507.939	97.69
508.155	96.69
508.372	96.69
508.588	94.69
508.805	95.69
509.021	98.69
509.238	93.69
509.454	96.69
509.67	88.69
509.887	102.69
510.103	95.69
510.319	87.69
510.536	102.69
510.752	108.69
510.968	89.69
511.184	89.69
511.401	92.69
511.617	108.69
511.833	104.69
512.049	96.69
512.265	103.69
512.481	92.69
512.698	94.69
512.914	101.69
513.13	96.69
513.346	83.69
513.562	91.69
513.778	96.69
513.994	107.69
514.21	95.69
514.426	116.69
514.642	109.69
514.858	84.69
515.074	89.69
515.29	106.69
515.506	101.69
515.721	80.69
515.937	103.69
516.153	102.69
