Data from Location5.07152019.Energy5.Lamp.07192019.3%Agarose_HRD10591_15-38-26-388.txt Node
Date: Fri Jul 19 15:38:26 EDT 2019
User: cochatt
Spectrometer: HR+D1059
Trigger mode: 1
Integration Time (sec): 1.000000E-1
Scans to average: 1
Electric dark correction enabled: true
Nonlinearity correction enabled: false
Boxcar width: 0
XAxis mode: Wavelengths
Number of Pixels in Spectrum: 2048
>>>>>Begin Spectral Data<<<<<
223.165	-25.94
223.4	-25.94
223.635	-25.94
223.869	-21.94
224.104	-25.94
224.338	-18.94
224.573	-19.94
224.808	-2.94
225.042	-20.94
225.277	-2.94
225.511	6.06
225.746	13.06
225.98	2.06
226.215	6.06
226.449	20.06
226.683	16.06
226.918	35.06
227.152	41.06
227.387	23.06
227.621	49.06
227.856	36.06
228.09	56.06
228.324	58.06
228.559	52.06
228.793	55.06
229.027	58.06
229.262	73.06
229.496	68.06
229.73	69.06
229.964	65.06
230.199	69.06
230.433	79.06
230.667	74.06
230.901	90.06
231.136	73.06
231.37	81.06
231.604	75.06
231.838	78.06
232.072	81.06
232.306	78.06
232.541	74.06
232.775	83.06
233.009	74.06
233.243	69.06
233.477	71.06
233.711	90.06
233.945	87.06
234.179	69.06
234.413	81.06
234.647	74.06
234.881	84.06
235.115	75.06
235.349	74.06
235.583	74.06
235.817	78.06
236.051	67.06
236.285	77.06
236.519	72.06
236.753	58.06
236.987	72.06
237.221	78.06
237.455	77.06
237.689	64.06
237.922	81.06
238.156	62.06
238.39	75.06
238.624	77.06
238.858	74.06
239.091	75.06
239.325	65.06
239.559	73.06
239.793	75.06
240.027	86.06
240.26	73.06
240.494	79.06
240.728	63.06
240.961	69.06
241.195	72.06
241.429	87.06
241.662	71.06
241.896	78.06
242.13	68.06
242.363	67.06
242.597	82.06
242.83	77.06
243.064	71.06
243.298	80.06
243.531	58.06
243.765	70.06
243.998	74.06
244.232	78.06
244.465	77.06
244.699	79.06
244.932	73.06
245.166	77.06
245.399	80.06
245.633	67.06
245.866	70.06
246.099	65.06
246.333	74.06
246.566	92.06
246.8	70.06
247.033	73.06
247.266	70.06
247.5	74.06
247.733	93.06
247.966	65.06
248.2	81.06
248.433	75.06
248.666	79.06
248.899	65.06
249.133	87.06
249.366	87.06
249.599	78.06
249.832	75.06
250.066	74.06
250.299	77.06
250.532	82.06
250.765	75.06
250.998	95.06
251.231	71.06
251.465	62.06
251.698	76.06
251.931	63.06
252.164	64.06
252.397	76.06
252.63	68.06
252.863	66.06
253.096	74.06
253.329	69.06
253.562	84.06
253.795	65.06
254.028	85.06
254.261	79.06
254.494	93.06
254.727	87.06
254.96	89.06
255.193	73.06
255.426	85.06
255.659	74.06
255.892	79.06
256.124	80.06
256.357	91.06
256.59	75.06
256.823	70.06
257.056	77.06
257.289	86.06
257.521	94.06
257.754	75.06
257.987	79.06
258.22	81.06
258.452	70.06
258.685	84.06
258.918	82.06
259.151	87.06
259.383	77.06
259.616	74.06
259.849	72.06
260.081	84.06
260.314	88.06
260.547	85.06
260.779	82.06
261.012	73.06
261.244	72.06
261.477	81.06
261.71	72.06
261.942	77.06
262.175	79.06
262.407	81.06
262.64	82.06
262.872	80.06
263.105	80.06
263.337	62.06
263.57	89.06
263.802	93.06
264.035	88.06
264.267	85.06
264.499	75.06
264.732	89.06
264.964	74.06
265.197	82.06
265.429	73.06
265.661	90.06
265.894	88.06
266.126	73.06
266.358	66.06
266.591	73.06
266.823	84.06
267.055	69.06
267.287	96.06
267.52	75.06
267.752	66.06
267.984	73.06
268.216	89.06
268.448	96.06
268.681	90.06
268.913	69.06
269.145	81.06
269.377	84.06
269.609	77.06
269.841	72.06
270.073	81.06
270.306	92.06
270.538	77.06
270.77	76.06
271.002	83.06
271.234	66.06
271.466	78.06
271.698	90.06
271.93	82.06
272.162	90.06
272.394	78.06
272.626	89.06
272.858	85.06
273.09	82.06
273.322	86.06
273.553	79.06
273.785	87.06
274.017	84.06
274.249	68.06
274.481	85.06
274.713	82.06
274.945	58.06
275.176	65.06
275.408	81.06
275.64	73.06
275.872	91.06
276.104	86.06
276.335	83.06
276.567	81.06
276.799	77.06
277.031	87.06
277.262	80.06
277.494	95.06
277.726	72.06
277.957	84.06
278.189	80.06
278.421	71.06
278.652	86.06
278.884	84.06
279.115	83.06
279.347	81.06
279.579	79.06
279.81	84.06
280.042	83.06
280.273	73.06
280.505	77.06
280.736	79.06
280.968	94.06
281.199	87.06
281.431	71.06
281.662	91.06
281.894	74.06
282.125	77.06
282.356	79.06
282.588	77.06
282.819	80.06
283.051	79.06
283.282	74.06
283.513	84.06
283.745	85.06
283.976	93.06
284.207	82.06
284.439	82.06
284.67	99.06
284.901	78.06
285.132	81.06
285.364	63.06
285.595	85.06
285.826	83.06
286.057	84.06
286.288	75.06
286.52	80.06
286.751	80.06
286.982	90.06
287.213	86.06
287.444	74.06
287.675	80.06
287.906	79.06
288.138	84.06
288.369	77.06
288.6	86.06
288.831	95.06
289.062	80.06
289.293	95.06
289.524	86.06
289.755	61.06
289.986	90.06
290.217	87.06
290.448	86.06
290.679	71.06
290.91	93.06
291.141	87.06
291.371	91.06
291.602	87.06
291.833	84.06
292.064	84.06
292.295	83.06
292.526	74.06
292.757	88.06
292.987	86.06
293.218	97.06
293.449	86.06
293.68	75.06
293.91	77.06
294.141	75.06
294.372	88.06
294.603	81.06
294.833	81.06
295.064	79.06
295.295	87.06
295.525	74.06
295.756	91.06
295.987	83.06
296.217	86.06
296.448	84.06
296.679	78.06
296.909	80.06
297.14	89.06
297.37	83.06
297.601	77.06
297.831	93.06
298.062	90.06
298.292	73.06
298.523	79.06
298.753	85.06
298.984	71.06
299.214	94.06
299.445	94.06
299.675	75.06
299.905	79.06
300.136	87.06
300.366	72.06
300.597	89.06
300.827	78.06
301.057	81.06
301.288	99.06
301.518	94.06
301.748	86.06
301.979	83.06
302.209	79.06
302.439	85.06
302.669	80.06
302.9	78.06
303.13	84.06
303.36	72.06
303.59	83.06
303.82	75.06
304.051	82.06
304.281	75.06
304.511	89.06
304.741	84.06
304.971	86.06
305.201	111.06
305.431	85.06
305.661	100.06
305.891	93.06
306.121	85.06
306.352	92.06
306.582	73.06
306.812	82.06
307.042	83.06
307.272	74.06
307.502	91.06
307.731	81.06
307.961	86.06
308.191	87.06
308.421	77.06
308.651	81.06
308.881	73.06
309.111	89.06
309.341	85.06
309.571	91.06
309.8	76.06
310.03	73.06
310.26	78.06
310.49	73.06
310.72	81.06
310.949	75.06
311.179	88.06
311.409	73.06
311.639	87.06
311.868	97.06
312.098	75.06
312.328	80.06
312.557	74.06
312.787	75.06
313.017	85.06
313.246	77.06
313.476	83.06
313.706	86.06
313.935	88.06
314.165	72.06
314.394	72.06
314.624	81.06
314.853	86.06
315.083	82.06
315.312	81.06
315.542	98.06
315.771	94.06
316.001	85.06
316.23	86.06
316.46	70.06
316.689	92.06
316.919	79.06
317.148	79.06
317.377	106.06
317.607	84.06
317.836	72.06
318.065	86.06
318.295	81.06
318.524	90.06
318.753	80.06
318.983	87.06
319.212	90.06
319.441	77.06
319.67	80.06
319.9	67.06
320.129	72.06
320.358	89.06
320.587	83.06
320.816	81.06
321.046	83.06
321.275	84.06
321.504	93.06
321.733	81.06
321.962	85.06
322.191	84.06
322.42	85.06
322.649	93.06
322.878	79.06
323.108	91.06
323.337	78.06
323.566	101.06
323.795	85.06
324.024	81.06
324.253	92.06
324.482	74.06
324.71	79.06
324.939	74.06
325.168	81.06
325.397	83.06
325.626	75.06
325.855	92.06
326.084	83.06
326.313	95.06
326.542	80.06
326.77	82.06
326.999	90.06
327.228	98.06
327.457	72.06
327.686	77.06
327.914	84.06
328.143	83.06
328.372	88.06
328.6	80.06
328.829	85.06
329.058	86.06
329.287	102.06
329.515	77.06
329.744	71.06
329.972	98.06
330.201	93.06
330.43	71.06
330.658	80.06
330.887	71.06
331.115	80.06
331.344	79.06
331.572	94.06
331.801	89.06
332.03	89.06
332.258	83.06
332.486	81.06
332.715	86.06
332.943	80.06
333.172	74.06
333.4	87.06
333.629	65.06
333.857	75.06
334.085	76.06
334.314	88.06
334.542	68.06
334.771	75.06
334.999	67.06
335.227	81.06
335.455	74.06
335.684	82.06
335.912	98.06
336.14	81.06
336.369	84.06
336.597	89.06
336.825	84.06
337.053	78.06
337.281	73.06
337.51	77.06
337.738	90.06
337.966	86.06
338.194	71.06
338.422	81.06
338.65	80.06
338.878	88.06
339.106	91.06
339.334	82.06
339.562	72.06
339.79	81.06
340.018	75.06
340.246	87.06
340.474	81.06
340.702	85.06
340.93	86.06
341.158	80.06
341.386	81.06
341.614	67.06
341.842	86.06
342.07	78.06
342.298	84.06
342.526	91.06
342.754	83.06
342.981	75.06
343.209	88.06
343.437	75.06
343.665	79.06
343.893	94.06
344.12	80.06
344.348	81.06
344.576	81.06
344.804	78.06
345.031	67.06
345.259	79.06
345.487	68.06
345.714	80.06
345.942	88.06
346.17	96.06
346.397	93.06
346.625	83.06
346.853	75.06
347.08	78.06
347.308	79.06
347.535	84.06
347.763	89.06
347.99	76.06
348.218	85.06
348.445	75.06
348.673	88.06
348.9	78.06
349.128	86.06
349.355	87.06
349.583	73.06
349.81	82.06
350.037	93.06
350.265	77.06
350.492	74.06
350.72	84.06
350.947	71.06
351.174	79.06
351.402	87.06
351.629	78.06
351.856	90.06
352.083	75.06
352.311	83.06
352.538	83.06
352.765	91.06
352.992	98.06
353.22	69.06
353.447	72.06
353.674	73.06
353.901	78.06
354.128	63.06
354.355	90.06
354.583	78.06
354.81	82.06
355.037	79.06
355.264	81.06
355.491	69.06
355.718	63.06
355.945	90.06
356.172	85.06
356.399	81.06
356.626	74.06
356.853	81.06
357.08	78.06
357.307	85.06
357.534	84.06
357.761	74.06
357.988	74.06
358.215	83.06
358.441	85.06
358.668	83.06
358.895	80.06
359.122	75.06
359.349	85.06
359.576	84.06
359.802	73.06
360.029	72.06
360.256	74.06
360.483	82.06
360.709	87.06
360.936	89.06
361.163	76.06
361.39	85.06
361.616	76.06
361.843	82.06
362.07	81.06
362.296	67.06
362.523	83.06
362.749	83.06
362.976	77.06
363.203	88.06
363.429	90.06
363.656	82.06
363.882	80.06
364.109	89.06
364.335	105.06
364.562	83.06
364.788	74.06
365.015	79.06
365.241	82.06
365.468	71.06
365.694	91.06
365.92	70.06
366.147	81.06
366.373	71.06
366.599	81.06
366.826	69.06
367.052	82.06
367.278	82.06
367.505	80.06
367.731	81.06
367.957	81.06
368.184	87.06
368.41	76.06
368.636	84.06
368.862	87.06
369.089	77.06
369.315	92.06
369.541	89.06
369.767	83.06
369.993	92.06
370.219	87.06
370.445	86.06
370.672	91.06
370.898	75.06
371.124	97.06
371.35	83.06
371.576	78.06
371.802	88.06
372.028	70.06
372.254	85.06
372.48	83.06
372.706	84.06
372.932	83.06
373.158	83.06
373.384	73.06
373.61	85.06
373.835	82.06
374.061	83.06
374.287	82.06
374.513	73.06
374.739	85.06
374.965	80.06
375.191	96.06
375.416	79.06
375.642	97.06
375.868	68.06
376.094	71.06
376.319	81.06
376.545	80.06
376.771	75.06
376.997	82.06
377.222	72.06
377.448	80.06
377.674	82.06
377.899	86.06
378.125	83.06
378.35	84.06
378.576	75.06
378.802	76.06
379.027	81.06
379.253	85.06
379.478	79.06
379.704	83.06
379.929	88.06
380.155	64.06
380.38	79.06
380.606	82.06
380.831	87.06
381.057	98.06
381.282	82.06
381.507	78.06
381.733	83.06
381.958	86.06
382.184	83.06
382.409	86.06
382.634	87.06
382.86	71.06
383.085	80.06
383.31	81.06
383.535	89.06
383.761	83.06
383.986	78.06
384.211	88.06
384.436	85.06
384.662	100.06
384.887	96.06
385.112	99.06
385.337	82.06
385.562	88.06
385.787	79.06
386.013	78.06
386.238	84.06
386.463	81.06
386.688	87.06
386.913	89.06
387.138	82.06
387.363	89.06
387.588	92.06
387.813	86.06
388.038	90.06
388.263	71.06
388.488	73.06
388.713	78.06
388.938	80.06
389.163	86.06
389.387	70.06
389.612	86.06
389.837	73.06
390.062	84.06
390.287	84.06
390.512	96.06
390.736	78.06
390.961	65.06
391.186	75.06
391.411	101.06
391.636	85.06
391.86	81.06
392.085	88.06
392.31	90.06
392.534	84.06
392.759	82.06
392.984	82.06
393.208	83.06
393.433	82.06
393.658	86.06
393.882	78.06
394.107	81.06
394.331	91.06
394.556	77.06
394.78	81.06
395.005	75.06
395.229	81.06
395.454	85.06
395.678	77.06
395.903	86.06
396.127	81.06
396.352	92.06
396.576	81.06
396.801	82.06
397.025	80.06
397.249	81.06
397.474	76.06
397.698	81.06
397.922	96.06
398.147	81.06
398.371	86.06
398.595	95.06
398.82	83.06
399.044	73.06
399.268	97.06
399.492	81.06
399.717	80.06
399.941	82.06
400.165	78.06
400.389	81.06
400.613	75.06
400.837	89.06
401.062	85.06
401.286	76.06
401.51	91.06
401.734	88.06
401.958	84.06
402.182	74.06
402.406	86.06
402.63	93.06
402.854	96.06
403.078	89.06
403.302	73.06
403.526	94.06
403.75	101.06
403.974	76.06
404.198	85.06
404.422	89.06
404.645	86.06
404.869	93.06
405.093	69.06
405.317	86.06
405.541	91.06
405.765	79.06
405.988	98.06
406.212	99.06
406.436	76.06
406.66	80.06
406.883	74.06
407.107	84.06
407.331	78.06
407.555	103.06
407.778	81.06
408.002	77.06
408.226	89.06
408.449	82.06
408.673	69.06
408.896	81.06
409.12	87.06
409.344	86.06
409.567	83.06
409.791	95.06
410.014	96.06
410.238	87.06
410.461	91.06
410.685	94.06
410.908	77.06
411.132	89.06
411.355	89.06
411.578	81.06
411.802	91.06
412.025	87.06
412.249	89.06
412.472	102.06
412.695	99.06
412.919	85.06
413.142	92.06
413.365	85.06
413.589	106.06
413.812	91.06
414.035	94.06
414.258	96.06
414.482	86.06
414.705	84.06
414.928	90.06
415.151	87.06
415.374	81.06
415.597	87.06
415.821	94.06
416.044	97.06
416.267	89.06
416.49	99.06
416.713	71.06
416.936	83.06
417.159	94.06
417.382	90.06
417.605	111.06
417.828	93.06
418.051	87.06
418.274	99.06
418.497	98.06
418.72	79.06
418.943	88.06
419.166	97.06
419.389	85.06
419.611	82.06
419.834	94.06
420.057	98.06
420.28	116.06
420.503	89.06
420.726	74.06
420.948	78.06
421.171	78.06
421.394	82.06
421.617	78.06
421.839	96.06
422.062	103.06
422.285	86.06
422.507	89.06
422.73	93.06
422.953	103.06
423.175	90.06
423.398	85.06
423.621	109.06
423.843	93.06
424.066	91.06
424.288	93.06
424.511	96.06
424.733	88.06
424.956	83.06
425.178	99.06
425.401	99.06
425.623	99.06
425.846	98.06
426.068	84.06
426.291	87.06
426.513	88.06
426.735	84.06
426.958	93.06
427.18	94.06
427.402	100.06
427.625	101.06
427.847	87.06
428.069	93.06
428.292	91.06
428.514	83.06
428.736	95.06
428.958	89.06
429.181	79.06
429.403	94.06
429.625	82.06
429.847	98.06
430.069	95.06
430.292	97.06
430.514	98.06
430.736	90.06
430.958	76.06
431.18	87.06
431.402	90.06
431.624	95.06
431.846	81.06
432.068	78.06
432.29	79.06
432.512	88.06
432.734	86.06
432.956	84.06
433.178	82.06
433.4	99.06
433.622	93.06
433.844	92.06
434.066	102.06
434.287	99.06
434.509	78.06
434.731	81.06
434.953	69.06
435.175	93.06
435.397	93.06
435.618	82.06
435.84	87.06
436.062	106.06
436.284	96.06
436.505	91.06
436.727	83.06
436.949	97.06
437.17	82.06
437.392	89.06
437.614	106.06
437.835	92.06
438.057	80.06
438.278	86.06
438.5	88.06
438.721	88.06
438.943	82.06
439.165	89.06
439.386	111.06
439.608	97.06
439.829	86.06
440.05	105.06
440.272	89.06
440.493	95.06
440.715	87.06
440.936	106.06
441.158	105.06
441.379	86.06
441.6	100.06
441.822	82.06
442.043	110.06
442.264	101.06
442.486	104.06
442.707	95.06
442.928	91.06
443.149	98.06
443.371	92.06
443.592	93.06
443.813	90.06
444.034	103.06
444.255	98.06
444.476	80.06
444.698	78.06
444.919	78.06
445.14	213.06
445.361	144.06
445.582	104.06
445.803	94.06
446.024	84.06
446.245	77.06
446.466	96.06
446.687	111.06
446.908	102.06
447.129	103.06
447.35	96.06
447.571	90.06
447.792	99.06
448.013	86.06
448.234	95.06
448.455	77.06
448.675	94.06
448.896	79.06
449.117	90.06
449.338	97.06
449.559	95.06
449.779	109.06
450	83.06
450.221	86.06
450.442	84.06
450.662	89.06
450.883	102.06
451.104	99.06
451.324	91.06
451.545	89.06
451.766	91.06
451.986	105.06
452.207	98.06
452.428	80.06
452.648	86.06
452.869	93.06
453.089	96.06
453.31	85.06
453.53	90.06
453.751	90.06
453.971	98.06
454.192	87.06
454.412	82.06
454.633	102.06
454.853	77.06
455.073	87.06
455.294	88.06
455.514	84.06
455.734	85.06
455.955	92.06
456.175	97.06
456.395	96.06
456.616	84.06
456.836	78.06
457.056	82.06
457.276	85.06
457.497	89.06
457.717	90.06
457.937	80.06
458.157	73.06
458.377	94.06
458.598	87.06
458.818	83.06
459.038	78.06
459.258	71.06
459.478	80.06
459.698	90.06
459.918	68.06
460.138	75.06
460.358	82.06
460.578	83.06
460.798	86.06
461.018	97.06
461.238	90.06
461.458	88.06
461.678	88.06
461.898	80.06
462.118	106.06
462.338	90.06
462.558	82.06
462.777	86.06
462.997	98.06
463.217	80.06
463.437	94.06
463.657	84.06
463.876	79.06
464.096	82.06
464.316	87.06
464.536	104.06
464.755	92.06
464.975	94.06
465.195	90.06
465.414	103.06
465.634	98.06
465.854	93.06
466.073	98.06
466.293	93.06
466.512	93.06
466.732	86.06
466.951	88.06
467.171	108.06
467.391	84.06
467.61	114.06
467.829	102.06
468.049	93.06
468.268	105.06
468.488	92.06
468.707	87.06
468.927	98.06
469.146	88.06
469.365	95.06
469.585	101.06
469.804	98.06
470.023	88.06
470.243	97.06
470.462	82.06
470.681	99.06
470.901	97.06
471.12	97.06
471.339	98.06
471.558	98.06
471.777	88.06
471.997	88.06
472.216	93.06
472.435	87.06
472.654	81.06
472.873	98.06
473.092	87.06
473.311	106.06
473.53	80.06
473.749	93.06
473.968	101.06
474.187	84.06
474.406	87.06
474.625	78.06
474.844	87.06
475.063	79.06
475.282	81.06
475.501	102.06
475.72	86.06
475.939	88.06
476.158	83.06
476.377	80.06
476.596	89.06
476.814	83.06
477.033	77.06
477.252	73.06
477.471	85.06
477.69	106.06
477.908	97.06
478.127	102.06
478.346	90.06
478.564	85.06
478.783	99.06
479.002	94.06
479.22	101.06
479.439	89.06
479.658	91.06
479.876	99.06
480.095	96.06
480.313	92.06
480.532	88.06
480.751	85.06
480.969	93.06
481.188	79.06
481.406	82.06
481.624	85.06
481.843	100.06
482.061	89.06
482.28	82.06
482.498	85.06
482.717	86.06
482.935	83.06
483.153	91.06
483.372	95.06
483.59	102.06
483.808	102.06
484.027	92.06
484.245	83.06
484.463	86.06
484.681	117.06
484.9	96.06
485.118	80.06
485.336	102.06
485.554	88.06
485.772	92.06
485.99	77.06
486.209	75.06
486.427	82.06
486.645	86.06
486.863	91.06
487.081	82.06
487.299	97.06
487.517	91.06
487.735	85.06
487.953	102.06
488.171	107.06
488.389	92.06
488.607	94.06
488.825	81.06
489.043	86.06
489.261	92.06
489.479	84.06
489.696	88.06
489.914	100.06
490.132	101.06
490.35	98.06
490.568	104.06
490.786	104.06
491.003	107.06
491.221	109.06
491.439	95.06
491.657	113.06
491.874	120.06
492.092	119.06
492.31	119.06
492.527	126.06
492.745	107.06
492.963	107.06
493.18	114.06
493.398	115.06
493.615	103.06
493.833	98.06
494.05	117.06
494.268	90.06
494.485	109.06
494.703	111.06
494.92	107.06
495.138	118.06
495.355	92.06
495.573	117.06
495.79	102.06
496.008	104.06
496.225	105.06
496.442	102.06
496.66	104.06
496.877	101.06
497.094	100.06
497.312	95.06
497.529	96.06
497.746	91.06
497.963	101.06
498.181	111.06
498.398	87.06
498.615	99.06
498.832	103.06
499.049	85.06
499.267	87.06
499.484	84.06
499.701	79.06
499.918	87.06
500.135	87.06
500.352	84.06
500.569	86.06
500.786	108.06
501.003	104.06
501.22	86.06
501.437	89.06
501.654	82.06
501.871	92.06
502.088	99.06
502.305	94.06
502.522	89.06
502.739	86.06
502.956	89.06
503.172	90.06
503.389	91.06
503.606	84.06
503.823	83.06
504.04	80.06
504.256	81.06
504.473	91.06
504.69	92.06
504.907	107.06
505.123	81.06
505.34	90.06
505.557	96.06
505.773	95.06
505.99	106.06
506.207	76.06
506.423	89.06
506.64	89.06
506.856	97.06
507.073	97.06
507.289	78.06
507.506	87.06
507.722	97.06
507.939	89.06
508.155	92.06
508.372	84.06
508.588	79.06
508.805	87.06
509.021	115.06
509.238	82.06
509.454	79.06
509.67	80.06
509.887	81.06
510.103	89.06
510.319	80.06
510.536	83.06
510.752	80.06
510.968	77.06
511.184	78.06
511.401	75.06
511.617	90.06
511.833	82.06
512.049	75.06
512.265	88.06
512.481	85.06
512.698	91.06
512.914	67.06
513.13	87.06
513.346	71.06
513.562	92.06
513.778	90.06
513.994	77.06
514.21	83.06
514.426	96.06
514.642	93.06
514.858	85.06
515.074	75.06
515.29	90.06
515.506	71.06
515.721	90.06
515.937	98.06
516.153	85.06
516.369	72.06
516.585	77.06
516.801	84.06
517.016	80.06
517.232	88.06
517.448	92.06
517.664	84.06
517.879	98.06
518.095	86.06
