Data from Location5.07152019.Energy5.Lamp.07192019.3%Agarose_HRD10591_15-38-01-387.txt Node
Date: Fri Jul 19 15:38:01 EDT 2019
User: cochatt
Spectrometer: HR+D1059
Trigger mode: 1
Integration Time (sec): 1.000000E-1
Scans to average: 1
Electric dark correction enabled: true
Nonlinearity correction enabled: false
Boxcar width: 0
XAxis mode: Wavelengths
Number of Pixels in Spectrum: 2048
>>>>>Begin Spectral Data<<<<<
223.165	-28.81
223.4	-28.81
223.635	-28.81
223.869	-11.81
224.104	-17.81
224.338	-11.81
224.573	-20.81
224.808	-1.81
225.042	0.19
225.277	-7.81
225.511	-19.81
225.746	12.19
225.98	1.19
226.215	26.19
226.449	19.19
226.683	15.19
226.918	19.19
227.152	27.19
227.387	26.19
227.621	20.19
227.856	50.19
228.09	46.19
228.324	47.19
228.559	54.19
228.793	72.19
229.027	55.19
229.262	68.19
229.496	71.19
229.73	56.19
229.964	66.19
230.199	89.19
230.433	66.19
230.667	86.19
230.901	80.19
231.136	77.19
231.37	89.19
231.604	87.19
231.838	83.19
232.072	73.19
232.306	83.19
232.541	72.19
232.775	77.19
233.009	73.19
233.243	86.19
233.477	69.19
233.711	86.19
233.945	86.19
234.179	76.19
234.413	84.19
234.647	89.19
234.881	88.19
235.115	72.19
235.349	79.19
235.583	87.19
235.817	64.19
236.051	72.19
236.285	80.19
236.519	79.19
236.753	93.19
236.987	80.19
237.221	92.19
237.455	88.19
237.689	79.19
237.922	72.19
238.156	100.19
238.39	96.19
238.624	88.19
238.858	79.19
239.091	80.19
239.325	84.19
239.559	75.19
239.793	81.19
240.027	83.19
240.26	71.19
240.494	68.19
240.728	63.19
240.961	68.19
241.195	80.19
241.429	78.19
241.662	76.19
241.896	73.19
242.13	72.19
242.363	67.19
242.597	66.19
242.83	85.19
243.064	83.19
243.298	88.19
243.531	58.19
243.765	79.19
243.998	96.19
244.232	78.19
244.465	78.19
244.699	69.19
244.932	75.19
245.166	66.19
245.399	69.19
245.633	88.19
245.866	69.19
246.099	86.19
246.333	79.19
246.566	81.19
246.8	78.19
247.033	84.19
247.266	66.19
247.5	63.19
247.733	76.19
247.966	100.19
248.2	83.19
248.433	72.19
248.666	76.19
248.899	83.19
249.133	89.19
249.366	81.19
249.599	76.19
249.832	79.19
250.066	94.19
250.299	89.19
250.532	70.19
250.765	69.19
250.998	94.19
251.231	100.19
251.465	79.19
251.698	73.19
251.931	74.19
252.164	75.19
252.397	71.19
252.63	88.19
252.863	77.19
253.096	94.19
253.329	80.19
253.562	68.19
253.795	80.19
254.028	86.19
254.261	85.19
254.494	90.19
254.727	85.19
254.96	81.19
255.193	67.19
255.426	96.19
255.659	71.19
255.892	82.19
256.124	78.19
256.357	79.19
256.59	88.19
256.823	72.19
257.056	91.19
257.289	81.19
257.521	68.19
257.754	86.19
257.987	75.19
258.22	80.19
258.452	80.19
258.685	99.19
258.918	72.19
259.151	69.19
259.383	90.19
259.616	83.19
259.849	78.19
260.081	81.19
260.314	72.19
260.547	90.19
260.779	82.19
261.012	79.19
261.244	85.19
261.477	87.19
261.71	74.19
261.942	91.19
262.175	73.19
262.407	101.19
262.64	87.19
262.872	83.19
263.105	76.19
263.337	93.19
263.57	88.19
263.802	84.19
264.035	93.19
264.267	78.19
264.499	83.19
264.732	81.19
264.964	81.19
265.197	83.19
265.429	79.19
265.661	82.19
265.894	90.19
266.126	82.19
266.358	88.19
266.591	80.19
266.823	72.19
267.055	79.19
267.287	86.19
267.52	87.19
267.752	80.19
267.984	96.19
268.216	70.19
268.448	78.19
268.681	74.19
268.913	77.19
269.145	85.19
269.377	99.19
269.609	76.19
269.841	90.19
270.073	98.19
270.306	74.19
270.538	67.19
270.77	74.19
271.002	78.19
271.234	73.19
271.466	89.19
271.698	85.19
271.93	78.19
272.162	96.19
272.394	81.19
272.626	88.19
272.858	74.19
273.09	82.19
273.322	81.19
273.553	81.19
273.785	90.19
274.017	82.19
274.249	82.19
274.481	72.19
274.713	75.19
274.945	89.19
275.176	82.19
275.408	102.19
275.64	98.19
275.872	76.19
276.104	91.19
276.335	88.19
276.567	81.19
276.799	87.19
277.031	74.19
277.262	96.19
277.494	91.19
277.726	86.19
277.957	80.19
278.189	77.19
278.421	76.19
278.652	84.19
278.884	91.19
279.115	94.19
279.347	78.19
279.579	84.19
279.81	68.19
280.042	72.19
280.273	83.19
280.505	91.19
280.736	84.19
280.968	80.19
281.199	87.19
281.431	94.19
281.662	66.19
281.894	79.19
282.125	92.19
282.356	96.19
282.588	92.19
282.819	94.19
283.051	84.19
283.282	89.19
283.513	89.19
283.745	82.19
283.976	83.19
284.207	83.19
284.439	86.19
284.67	94.19
284.901	96.19
285.132	101.19
285.364	89.19
285.595	69.19
285.826	82.19
286.057	78.19
286.288	87.19
286.52	88.19
286.751	93.19
286.982	87.19
287.213	87.19
287.444	88.19
287.675	90.19
287.906	97.19
288.138	92.19
288.369	81.19
288.6	81.19
288.831	82.19
289.062	91.19
289.293	77.19
289.524	81.19
289.755	94.19
289.986	87.19
290.217	81.19
290.448	74.19
290.679	86.19
290.91	73.19
291.141	87.19
291.371	86.19
291.602	90.19
291.833	95.19
292.064	93.19
292.295	84.19
292.526	79.19
292.757	86.19
292.987	81.19
293.218	83.19
293.449	74.19
293.68	86.19
293.91	97.19
294.141	72.19
294.372	85.19
294.603	88.19
294.833	72.19
295.064	92.19
295.295	92.19
295.525	83.19
295.756	94.19
295.987	95.19
296.217	100.19
296.448	82.19
296.679	84.19
296.909	81.19
297.14	100.19
297.37	81.19
297.601	76.19
297.831	92.19
298.062	86.19
298.292	88.19
298.523	88.19
298.753	80.19
298.984	86.19
299.214	89.19
299.445	88.19
299.675	83.19
299.905	93.19
300.136	66.19
300.366	89.19
300.597	87.19
300.827	93.19
301.057	82.19
301.288	75.19
301.518	74.19
301.748	83.19
301.979	96.19
302.209	86.19
302.439	78.19
302.669	91.19
302.9	78.19
303.13	82.19
303.36	86.19
303.59	89.19
303.82	96.19
304.051	92.19
304.281	71.19
304.511	91.19
304.741	87.19
304.971	95.19
305.201	83.19
305.431	97.19
305.661	79.19
305.891	82.19
306.121	68.19
306.352	78.19
306.582	80.19
306.812	89.19
307.042	84.19
307.272	95.19
307.502	92.19
307.731	89.19
307.961	93.19
308.191	81.19
308.421	73.19
308.651	96.19
308.881	93.19
309.111	89.19
309.341	92.19
309.571	66.19
309.8	80.19
310.03	81.19
310.26	98.19
310.49	87.19
310.72	86.19
310.949	87.19
311.179	91.19
311.409	74.19
311.639	91.19
311.868	80.19
312.098	85.19
312.328	95.19
312.557	95.19
312.787	97.19
313.017	83.19
313.246	94.19
313.476	82.19
313.706	96.19
313.935	63.19
314.165	88.19
314.394	77.19
314.624	87.19
314.853	88.19
315.083	85.19
315.312	89.19
315.542	88.19
315.771	90.19
316.001	89.19
316.23	86.19
316.46	66.19
316.689	87.19
316.919	90.19
317.148	87.19
317.377	83.19
317.607	85.19
317.836	71.19
318.065	84.19
318.295	82.19
318.524	79.19
318.753	85.19
318.983	82.19
319.212	81.19
319.441	93.19
319.67	90.19
319.9	82.19
320.129	77.19
320.358	86.19
320.587	83.19
320.816	74.19
321.046	96.19
321.275	86.19
321.504	83.19
321.733	82.19
321.962	81.19
322.191	86.19
322.42	94.19
322.649	74.19
322.878	87.19
323.108	96.19
323.337	99.19
323.566	88.19
323.795	77.19
324.024	83.19
324.253	101.19
324.482	85.19
324.71	82.19
324.939	80.19
325.168	86.19
325.397	95.19
325.626	83.19
325.855	82.19
326.084	90.19
326.313	83.19
326.542	89.19
326.77	93.19
326.999	87.19
327.228	87.19
327.457	84.19
327.686	79.19
327.914	85.19
328.143	95.19
328.372	85.19
328.6	83.19
328.829	74.19
329.058	79.19
329.287	87.19
329.515	93.19
329.744	83.19
329.972	92.19
330.201	73.19
330.43	73.19
330.658	82.19
330.887	92.19
331.115	91.19
331.344	97.19
331.572	86.19
331.801	81.19
332.03	82.19
332.258	74.19
332.486	92.19
332.715	86.19
332.943	65.19
333.172	81.19
333.4	100.19
333.629	103.19
333.857	94.19
334.085	93.19
334.314	87.19
334.542	84.19
334.771	83.19
334.999	81.19
335.227	98.19
335.455	88.19
335.684	82.19
335.912	74.19
336.14	85.19
336.369	89.19
336.597	83.19
336.825	79.19
337.053	93.19
337.281	102.19
337.51	88.19
337.738	66.19
337.966	92.19
338.194	71.19
338.422	87.19
338.65	94.19
338.878	80.19
339.106	86.19
339.334	85.19
339.562	86.19
339.79	79.19
340.018	76.19
340.246	94.19
340.474	95.19
340.702	76.19
340.93	90.19
341.158	87.19
341.386	85.19
341.614	81.19
341.842	99.19
342.07	89.19
342.298	80.19
342.526	89.19
342.754	83.19
342.981	94.19
343.209	88.19
343.437	79.19
343.665	83.19
343.893	89.19
344.12	84.19
344.348	74.19
344.576	96.19
344.804	76.19
345.031	84.19
345.259	85.19
345.487	82.19
345.714	73.19
345.942	74.19
346.17	77.19
346.397	81.19
346.625	81.19
346.853	85.19
347.08	92.19
347.308	82.19
347.535	96.19
347.763	89.19
347.99	94.19
348.218	76.19
348.445	91.19
348.673	100.19
348.9	75.19
349.128	84.19
349.355	88.19
349.583	76.19
349.81	74.19
350.037	79.19
350.265	83.19
350.492	88.19
350.72	80.19
350.947	90.19
351.174	94.19
351.402	75.19
351.629	89.19
351.856	87.19
352.083	71.19
352.311	107.19
352.538	101.19
352.765	81.19
352.992	86.19
353.22	83.19
353.447	77.19
353.674	81.19
353.901	89.19
354.128	85.19
354.355	96.19
354.583	76.19
354.81	66.19
355.037	82.19
355.264	74.19
355.491	87.19
355.718	76.19
355.945	88.19
356.172	98.19
356.399	89.19
356.626	85.19
356.853	76.19
357.08	86.19
357.307	88.19
357.534	88.19
357.761	80.19
357.988	83.19
358.215	81.19
358.441	76.19
358.668	89.19
358.895	88.19
359.122	86.19
359.349	83.19
359.576	81.19
359.802	73.19
360.029	91.19
360.256	87.19
360.483	83.19
360.709	79.19
360.936	96.19
361.163	84.19
361.39	90.19
361.616	70.19
361.843	76.19
362.07	80.19
362.296	92.19
362.523	104.19
362.749	88.19
362.976	94.19
363.203	92.19
363.429	75.19
363.656	96.19
363.882	85.19
364.109	82.19
364.335	94.19
364.562	83.19
364.788	76.19
365.015	88.19
365.241	82.19
365.468	90.19
365.694	80.19
365.92	80.19
366.147	100.19
366.373	96.19
366.599	91.19
366.826	88.19
367.052	77.19
367.278	72.19
367.505	92.19
367.731	84.19
367.957	91.19
368.184	87.19
368.41	95.19
368.636	89.19
368.862	84.19
369.089	87.19
369.315	85.19
369.541	82.19
369.767	73.19
369.993	87.19
370.219	62.19
370.445	73.19
370.672	81.19
370.898	89.19
371.124	87.19
371.35	82.19
371.576	72.19
371.802	86.19
372.028	94.19
372.254	79.19
372.48	80.19
372.706	72.19
372.932	78.19
373.158	79.19
373.384	83.19
373.61	83.19
373.835	87.19
374.061	80.19
374.287	87.19
374.513	104.19
374.739	88.19
374.965	82.19
375.191	94.19
375.416	84.19
375.642	75.19
375.868	98.19
376.094	92.19
376.319	79.19
376.545	84.19
376.771	80.19
376.997	76.19
377.222	90.19
377.448	87.19
377.674	80.19
377.899	91.19
378.125	82.19
378.35	87.19
378.576	94.19
378.802	66.19
379.027	85.19
379.253	87.19
379.478	96.19
379.704	79.19
379.929	84.19
380.155	83.19
380.38	99.19
380.606	88.19
380.831	86.19
381.057	87.19
381.282	87.19
381.507	82.19
381.733	92.19
381.958	81.19
382.184	84.19
382.409	88.19
382.634	97.19
382.86	86.19
383.085	69.19
383.31	95.19
383.535	85.19
383.761	82.19
383.986	82.19
384.211	89.19
384.436	85.19
384.662	59.19
384.887	86.19
385.112	89.19
385.337	77.19
385.562	81.19
385.787	84.19
386.013	79.19
386.238	83.19
386.463	89.19
386.688	83.19
386.913	76.19
387.138	87.19
387.363	91.19
387.588	100.19
387.813	89.19
388.038	94.19
388.263	95.19
388.488	83.19
388.713	94.19
388.938	93.19
389.163	88.19
389.387	93.19
389.612	77.19
389.837	83.19
390.062	87.19
390.287	85.19
390.512	80.19
390.736	92.19
390.961	84.19
391.186	95.19
391.411	99.19
391.636	78.19
391.86	85.19
392.085	88.19
392.31	78.19
392.534	88.19
392.759	91.19
392.984	94.19
393.208	101.19
393.433	90.19
393.658	89.19
393.882	79.19
394.107	92.19
394.331	74.19
394.556	90.19
394.78	84.19
395.005	76.19
395.229	96.19
395.454	87.19
395.678	84.19
395.903	76.19
396.127	90.19
396.352	76.19
396.576	89.19
396.801	76.19
397.025	74.19
397.249	87.19
397.474	99.19
397.698	96.19
397.922	91.19
398.147	83.19
398.371	83.19
398.595	102.19
398.82	81.19
399.044	93.19
399.268	83.19
399.492	86.19
399.717	87.19
399.941	92.19
400.165	85.19
400.389	99.19
400.613	76.19
400.837	82.19
401.062	88.19
401.286	83.19
401.51	99.19
401.734	88.19
401.958	82.19
402.182	92.19
402.406	99.19
402.63	82.19
402.854	97.19
403.078	87.19
403.302	88.19
403.526	96.19
403.75	78.19
403.974	80.19
404.198	84.19
404.422	86.19
404.645	94.19
404.869	92.19
405.093	91.19
405.317	93.19
405.541	91.19
405.765	95.19
405.988	90.19
406.212	75.19
406.436	81.19
406.66	100.19
406.883	91.19
407.107	95.19
407.331	94.19
407.555	88.19
407.778	94.19
408.002	82.19
408.226	93.19
408.449	78.19
408.673	85.19
408.896	83.19
409.12	88.19
409.344	87.19
409.567	98.19
409.791	90.19
410.014	98.19
410.238	91.19
410.461	92.19
410.685	93.19
410.908	105.19
411.132	94.19
411.355	97.19
411.578	86.19
411.802	84.19
412.025	79.19
412.249	86.19
412.472	90.19
412.695	93.19
412.919	82.19
413.142	94.19
413.365	96.19
413.589	87.19
413.812	100.19
414.035	94.19
414.258	84.19
414.482	98.19
414.705	90.19
414.928	93.19
415.151	88.19
415.374	86.19
415.597	112.19
415.821	90.19
416.044	99.19
416.267	101.19
416.49	96.19
416.713	79.19
416.936	85.19
417.159	96.19
417.382	97.19
417.605	87.19
417.828	89.19
418.051	91.19
418.274	84.19
418.497	92.19
418.72	82.19
418.943	98.19
419.166	85.19
419.389	100.19
419.611	93.19
419.834	94.19
420.057	103.19
420.28	94.19
420.503	98.19
420.726	84.19
420.948	99.19
421.171	100.19
421.394	93.19
421.617	93.19
421.839	103.19
422.062	101.19
422.285	103.19
422.507	98.19
422.73	94.19
422.953	90.19
423.175	85.19
423.398	89.19
423.621	101.19
423.843	100.19
424.066	94.19
424.288	87.19
424.511	99.19
424.733	97.19
424.956	102.19
425.178	91.19
425.401	94.19
425.623	85.19
425.846	97.19
426.068	85.19
426.291	81.19
426.513	87.19
426.735	92.19
426.958	103.19
427.18	81.19
427.402	84.19
427.625	94.19
427.847	87.19
428.069	92.19
428.292	91.19
428.514	95.19
428.736	99.19
428.958	81.19
429.181	87.19
429.403	95.19
429.625	69.19
429.847	96.19
430.069	91.19
430.292	97.19
430.514	99.19
430.736	98.19
430.958	93.19
431.18	98.19
431.402	100.19
431.624	84.19
431.846	72.19
432.068	88.19
432.29	92.19
432.512	89.19
432.734	92.19
432.956	103.19
433.178	86.19
433.4	99.19
433.622	89.19
433.844	96.19
434.066	65.19
434.287	84.19
434.509	86.19
434.731	91.19
434.953	83.19
435.175	92.19
435.397	82.19
435.618	106.19
435.84	84.19
436.062	85.19
436.284	100.19
436.505	83.19
436.727	94.19
436.949	80.19
437.17	75.19
437.392	88.19
437.614	91.19
437.835	87.19
438.057	87.19
438.278	88.19
438.5	82.19
438.721	103.19
438.943	86.19
439.165	88.19
439.386	104.19
439.608	95.19
439.829	101.19
440.05	99.19
440.272	99.19
440.493	87.19
440.715	85.19
440.936	103.19
441.158	105.19
441.379	91.19
441.6	97.19
441.822	88.19
442.043	95.19
442.264	89.19
442.486	104.19
442.707	103.19
442.928	103.19
443.149	102.19
443.371	100.19
443.592	95.19
443.813	94.19
444.034	96.19
444.255	84.19
444.476	98.19
444.698	98.19
444.919	103.19
445.14	182.19
445.361	135.19
445.582	87.19
445.803	88.19
446.024	105.19
446.245	114.19
446.466	98.19
446.687	105.19
446.908	102.19
447.129	96.19
447.35	86.19
447.571	89.19
447.792	106.19
448.013	89.19
448.234	95.19
448.455	98.19
448.675	90.19
448.896	100.19
449.117	89.19
449.338	89.19
449.559	96.19
449.779	89.19
450	97.19
450.221	97.19
450.442	100.19
450.662	89.19
450.883	97.19
451.104	105.19
451.324	101.19
451.545	104.19
451.766	94.19
451.986	88.19
452.207	90.19
452.428	95.19
452.648	94.19
452.869	102.19
453.089	95.19
453.31	93.19
453.53	86.19
453.751	94.19
453.971	67.19
454.192	95.19
454.412	73.19
454.633	100.19
454.853	102.19
455.073	88.19
455.294	102.19
455.514	95.19
455.734	91.19
455.955	99.19
456.175	89.19
456.395	82.19
456.616	90.19
456.836	72.19
457.056	95.19
457.276	91.19
457.497	74.19
457.717	75.19
457.937	81.19
458.157	88.19
458.377	82.19
458.598	85.19
458.818	82.19
459.038	81.19
459.258	78.19
459.478	85.19
459.698	81.19
459.918	78.19
460.138	89.19
460.358	91.19
460.578	92.19
460.798	94.19
461.018	82.19
461.238	87.19
461.458	93.19
461.678	98.19
461.898	87.19
462.118	93.19
462.338	97.19
462.558	94.19
462.777	91.19
462.997	94.19
463.217	92.19
463.437	89.19
463.657	94.19
463.876	93.19
464.096	109.19
464.316	88.19
464.536	79.19
464.755	80.19
464.975	92.19
465.195	97.19
465.414	99.19
465.634	83.19
465.854	81.19
466.073	92.19
466.293	92.19
466.512	92.19
466.732	91.19
466.951	92.19
467.171	92.19
467.391	99.19
467.61	80.19
467.829	118.19
468.049	108.19
468.268	96.19
468.488	90.19
468.707	103.19
468.927	106.19
469.146	91.19
469.365	95.19
469.585	89.19
469.804	77.19
470.023	98.19
470.243	104.19
470.462	102.19
470.681	106.19
470.901	95.19
471.12	98.19
471.339	90.19
471.558	87.19
471.777	85.19
471.997	90.19
472.216	98.19
472.435	77.19
472.654	92.19
472.873	89.19
473.092	79.19
473.311	76.19
473.53	86.19
473.749	91.19
473.968	93.19
474.187	89.19
474.406	91.19
474.625	94.19
474.844	95.19
475.063	89.19
475.282	89.19
475.501	99.19
475.72	101.19
475.939	102.19
476.158	99.19
476.377	87.19
476.596	108.19
476.814	86.19
477.033	87.19
477.252	91.19
477.471	99.19
477.69	76.19
477.908	112.19
478.127	110.19
478.346	110.19
478.564	96.19
478.783	102.19
479.002	98.19
479.22	76.19
479.439	103.19
479.658	74.19
479.876	98.19
480.095	84.19
480.313	83.19
480.532	91.19
480.751	82.19
480.969	90.19
481.188	83.19
481.406	89.19
481.624	76.19
481.843	86.19
482.061	80.19
482.28	97.19
482.498	95.19
482.717	107.19
482.935	91.19
483.153	98.19
483.372	98.19
483.59	106.19
483.808	100.19
484.027	89.19
484.245	90.19
484.463	84.19
484.681	103.19
484.9	101.19
485.118	113.19
485.336	90.19
485.554	85.19
485.772	77.19
485.99	86.19
486.209	107.19
486.427	94.19
486.645	99.19
486.863	99.19
487.081	87.19
487.299	80.19
487.517	94.19
487.735	95.19
487.953	101.19
488.171	96.19
488.389	93.19
488.607	102.19
488.825	89.19
489.043	95.19
489.261	84.19
489.479	94.19
489.696	101.19
489.914	86.19
490.132	92.19
490.35	108.19
490.568	120.19
490.786	120.19
491.003	117.19
491.221	86.19
491.439	115.19
491.657	120.19
491.874	120.19
492.092	114.19
492.31	122.19
492.527	121.19
492.745	120.19
492.963	112.19
493.18	115.19
493.398	96.19
493.615	101.19
493.833	118.19
494.05	102.19
494.268	105.19
494.485	104.19
494.703	98.19
494.92	102.19
495.138	112.19
495.355	102.19
495.573	113.19
495.79	106.19
496.008	119.19
496.225	99.19
496.442	114.19
496.66	93.19
496.877	101.19
497.094	105.19
497.312	100.19
497.529	131.19
497.746	107.19
497.963	99.19
498.181	80.19
498.398	93.19
498.615	87.19
498.832	87.19
499.049	89.19
499.267	88.19
499.484	93.19
499.701	94.19
499.918	102.19
500.135	100.19
500.352	87.19
500.569	98.19
500.786	89.19
501.003	97.19
501.22	76.19
501.437	94.19
501.654	105.19
501.871	97.19
502.088	103.19
502.305	102.19
502.522	96.19
502.739	88.19
502.956	86.19
503.172	94.19
503.389	77.19
503.606	84.19
503.823	91.19
504.04	90.19
504.256	89.19
504.473	90.19
504.69	88.19
504.907	97.19
505.123	95.19
505.34	94.19
505.557	98.19
505.773	104.19
505.99	86.19
506.207	100.19
506.423	110.19
506.64	87.19
506.856	80.19
507.073	89.19
507.289	92.19
507.506	80.19
507.722	83.19
507.939	107.19
508.155	92.19
508.372	81.19
508.588	96.19
508.805	93.19
509.021	77.19
509.238	95.19
509.454	83.19
509.67	87.19
509.887	91.19
510.103	87.19
510.319	84.19
510.536	89.19
510.752	80.19
510.968	75.19
511.184	66.19
511.401	79.19
511.617	77.19
511.833	64.19
512.049	95.19
512.265	96.19
512.481	82.19
512.698	97.19
512.914	99.19
513.13	102.19
513.346	85.19
513.562	91.19
513.778	73.19
513.994	82.19
514.21	94.19
514.426	90.19
514.642	75.19
514.858	87.19
515.074	96.19
515.29	98.19
515.506	86.19
515.721	85.19
515.937	86.19
516.153	75.19
516.369	83.19
516.585	83.19
516.801	84.19
517.016	82.19
517.232	87.19
517.448	79.19
517.664	90.19
