Data from Location5.07152019.Energy5.Lamp.07192019.3%Agarose_HRD10591_15-37-13-387.txt Node
Date: Fri Jul 19 15:37:13 EDT 2019
User: cochatt
Spectrometer: HR+D1059
Trigger mode: 1
Integration Time (sec): 1.000000E-1
Scans to average: 1
Electric dark correction enabled: true
Nonlinearity correction enabled: false
Boxcar width: 0
XAxis mode: Wavelengths
Number of Pixels in Spectrum: 2048
>>>>>Begin Spectral Data<<<<<
223.165	-26.25
223.4	-26.25
223.635	-26.25
223.869	-17.25
224.104	-3.25
224.338	-14.25
224.573	-1.25
224.808	-19.25
225.042	-18.25
225.277	-12.25
225.511	-0.25
225.746	0.75
225.98	-5.25
226.215	3.75
226.449	16.75
226.683	19.75
226.918	39.75
227.152	36.75
227.387	25.75
227.621	29.75
227.856	31.75
228.09	56.75
228.324	61.75
228.559	65.75
228.793	69.75
229.027	59.75
229.262	74.75
229.496	75.75
229.73	73.75
229.964	66.75
230.199	61.75
230.433	85.75
230.667	75.75
230.901	75.75
231.136	70.75
231.37	78.75
231.604	91.75
231.838	78.75
232.072	73.75
232.306	69.75
232.541	74.75
232.775	73.75
233.009	69.75
233.243	81.75
233.477	85.75
233.711	84.75
233.945	77.75
234.179	64.75
234.413	64.75
234.647	78.75
234.881	74.75
235.115	63.75
235.349	84.75
235.583	80.75
235.817	79.75
236.051	82.75
236.285	61.75
236.519	71.75
236.753	85.75
236.987	69.75
237.221	81.75
237.455	78.75
237.689	79.75
237.922	87.75
238.156	73.75
238.39	66.75
238.624	93.75
238.858	78.75
239.091	87.75
239.325	74.75
239.559	68.75
239.793	74.75
240.027	74.75
240.26	72.75
240.494	71.75
240.728	83.75
240.961	76.75
241.195	63.75
241.429	70.75
241.662	81.75
241.896	84.75
242.13	70.75
242.363	90.75
242.597	79.75
242.83	77.75
243.064	88.75
243.298	78.75
243.531	72.75
243.765	65.75
243.998	81.75
244.232	98.75
244.465	80.75
244.699	72.75
244.932	66.75
245.166	66.75
245.399	76.75
245.633	78.75
245.866	78.75
246.099	83.75
246.333	64.75
246.566	72.75
246.8	70.75
247.033	71.75
247.266	86.75
247.5	76.75
247.733	85.75
247.966	80.75
248.2	70.75
248.433	70.75
248.666	88.75
248.899	76.75
249.133	79.75
249.366	83.75
249.599	69.75
249.832	84.75
250.066	77.75
250.299	67.75
250.532	80.75
250.765	78.75
250.998	79.75
251.231	79.75
251.465	74.75
251.698	72.75
251.931	83.75
252.164	72.75
252.397	71.75
252.63	78.75
252.863	68.75
253.096	78.75
253.329	75.75
253.562	77.75
253.795	74.75
254.028	84.75
254.261	79.75
254.494	71.75
254.727	82.75
254.96	67.75
255.193	79.75
255.426	78.75
255.659	71.75
255.892	74.75
256.124	77.75
256.357	85.75
256.59	74.75
256.823	70.75
257.056	68.75
257.289	66.75
257.521	84.75
257.754	81.75
257.987	77.75
258.22	77.75
258.452	80.75
258.685	68.75
258.918	71.75
259.151	75.75
259.383	96.75
259.616	92.75
259.849	82.75
260.081	69.75
260.314	80.75
260.547	76.75
260.779	93.75
261.012	81.75
261.244	80.75
261.477	78.75
261.71	81.75
261.942	82.75
262.175	84.75
262.407	76.75
262.64	82.75
262.872	74.75
263.105	68.75
263.337	70.75
263.57	67.75
263.802	78.75
264.035	69.75
264.267	77.75
264.499	81.75
264.732	92.75
264.964	75.75
265.197	79.75
265.429	87.75
265.661	74.75
265.894	75.75
266.126	89.75
266.358	79.75
266.591	83.75
266.823	90.75
267.055	78.75
267.287	82.75
267.52	85.75
267.752	81.75
267.984	83.75
268.216	71.75
268.448	87.75
268.681	97.75
268.913	94.75
269.145	64.75
269.377	82.75
269.609	74.75
269.841	81.75
270.073	80.75
270.306	72.75
270.538	90.75
270.77	86.75
271.002	74.75
271.234	78.75
271.466	85.75
271.698	87.75
271.93	77.75
272.162	99.75
272.394	75.75
272.626	84.75
272.858	86.75
273.09	67.75
273.322	62.75
273.553	70.75
273.785	75.75
274.017	81.75
274.249	89.75
274.481	70.75
274.713	78.75
274.945	79.75
275.176	83.75
275.408	83.75
275.64	77.75
275.872	89.75
276.104	75.75
276.335	74.75
276.567	95.75
276.799	88.75
277.031	81.75
277.262	93.75
277.494	86.75
277.726	83.75
277.957	80.75
278.189	66.75
278.421	88.75
278.652	87.75
278.884	81.75
279.115	99.75
279.347	79.75
279.579	88.75
279.81	78.75
280.042	74.75
280.273	84.75
280.505	72.75
280.736	88.75
280.968	83.75
281.199	82.75
281.431	74.75
281.662	71.75
281.894	80.75
282.125	71.75
282.356	90.75
282.588	76.75
282.819	80.75
283.051	105.75
283.282	88.75
283.513	98.75
283.745	82.75
283.976	78.75
284.207	78.75
284.439	77.75
284.67	77.75
284.901	91.75
285.132	80.75
285.364	84.75
285.595	68.75
285.826	90.75
286.057	94.75
286.288	73.75
286.52	79.75
286.751	72.75
286.982	85.75
287.213	85.75
287.444	75.75
287.675	94.75
287.906	87.75
288.138	69.75
288.369	81.75
288.6	81.75
288.831	96.75
289.062	75.75
289.293	97.75
289.524	73.75
289.755	79.75
289.986	85.75
290.217	84.75
290.448	68.75
290.679	83.75
290.91	69.75
291.141	78.75
291.371	86.75
291.602	94.75
291.833	76.75
292.064	72.75
292.295	86.75
292.526	92.75
292.757	82.75
292.987	87.75
293.218	73.75
293.449	88.75
293.68	91.75
293.91	74.75
294.141	68.75
294.372	77.75
294.603	75.75
294.833	74.75
295.064	84.75
295.295	96.75
295.525	84.75
295.756	77.75
295.987	78.75
296.217	80.75
296.448	78.75
296.679	89.75
296.909	83.75
297.14	85.75
297.37	87.75
297.601	80.75
297.831	97.75
298.062	81.75
298.292	77.75
298.523	79.75
298.753	78.75
298.984	77.75
299.214	94.75
299.445	78.75
299.675	91.75
299.905	80.75
300.136	94.75
300.366	78.75
300.597	87.75
300.827	78.75
301.057	93.75
301.288	82.75
301.518	78.75
301.748	75.75
301.979	74.75
302.209	93.75
302.439	75.75
302.669	97.75
302.9	83.75
303.13	86.75
303.36	75.75
303.59	89.75
303.82	94.75
304.051	84.75
304.281	81.75
304.511	92.75
304.741	97.75
304.971	80.75
305.201	92.75
305.431	86.75
305.661	84.75
305.891	95.75
306.121	82.75
306.352	86.75
306.582	85.75
306.812	88.75
307.042	78.75
307.272	96.75
307.502	90.75
307.731	88.75
307.961	79.75
308.191	71.75
308.421	81.75
308.651	81.75
308.881	76.75
309.111	65.75
309.341	78.75
309.571	79.75
309.8	87.75
310.03	81.75
310.26	71.75
310.49	99.75
310.72	78.75
310.949	84.75
311.179	86.75
311.409	83.75
311.639	84.75
311.868	80.75
312.098	82.75
312.328	72.75
312.557	82.75
312.787	76.75
313.017	82.75
313.246	92.75
313.476	85.75
313.706	75.75
313.935	80.75
314.165	78.75
314.394	75.75
314.624	85.75
314.853	77.75
315.083	82.75
315.312	72.75
315.542	84.75
315.771	84.75
316.001	80.75
316.23	79.75
316.46	87.75
316.689	76.75
316.919	72.75
317.148	96.75
317.377	88.75
317.607	81.75
317.836	93.75
318.065	86.75
318.295	89.75
318.524	98.75
318.753	86.75
318.983	82.75
319.212	82.75
319.441	84.75
319.67	91.75
319.9	86.75
320.129	73.75
320.358	81.75
320.587	96.75
320.816	89.75
321.046	81.75
321.275	83.75
321.504	65.75
321.733	87.75
321.962	84.75
322.191	85.75
322.42	80.75
322.649	77.75
322.878	70.75
323.108	86.75
323.337	76.75
323.566	71.75
323.795	79.75
324.024	94.75
324.253	93.75
324.482	87.75
324.71	87.75
324.939	84.75
325.168	88.75
325.397	88.75
325.626	78.75
325.855	83.75
326.084	58.75
326.313	75.75
326.542	83.75
326.77	83.75
326.999	80.75
327.228	85.75
327.457	82.75
327.686	84.75
327.914	82.75
328.143	90.75
328.372	68.75
328.6	82.75
328.829	82.75
329.058	103.75
329.287	65.75
329.515	81.75
329.744	78.75
329.972	66.75
330.201	80.75
330.43	83.75
330.658	92.75
330.887	77.75
331.115	81.75
331.344	86.75
331.572	86.75
331.801	81.75
332.03	91.75
332.258	76.75
332.486	79.75
332.715	87.75
332.943	78.75
333.172	86.75
333.4	84.75
333.629	88.75
333.857	89.75
334.085	72.75
334.314	81.75
334.542	74.75
334.771	93.75
334.999	88.75
335.227	91.75
335.455	88.75
335.684	82.75
335.912	79.75
336.14	85.75
336.369	79.75
336.597	60.75
336.825	83.75
337.053	90.75
337.281	86.75
337.51	86.75
337.738	87.75
337.966	80.75
338.194	73.75
338.422	87.75
338.65	82.75
338.878	72.75
339.106	68.75
339.334	85.75
339.562	92.75
339.79	80.75
340.018	85.75
340.246	85.75
340.474	73.75
340.702	72.75
340.93	78.75
341.158	90.75
341.386	82.75
341.614	89.75
341.842	84.75
342.07	82.75
342.298	77.75
342.526	91.75
342.754	78.75
342.981	80.75
343.209	71.75
343.437	86.75
343.665	93.75
343.893	76.75
344.12	85.75
344.348	80.75
344.576	85.75
344.804	68.75
345.031	78.75
345.259	72.75
345.487	72.75
345.714	77.75
345.942	80.75
346.17	85.75
346.397	87.75
346.625	98.75
346.853	86.75
347.08	83.75
347.308	90.75
347.535	87.75
347.763	78.75
347.99	82.75
348.218	80.75
348.445	91.75
348.673	81.75
348.9	98.75
349.128	93.75
349.355	80.75
349.583	85.75
349.81	75.75
350.037	72.75
350.265	84.75
350.492	79.75
350.72	85.75
350.947	71.75
351.174	80.75
351.402	82.75
351.629	73.75
351.856	79.75
352.083	73.75
352.311	75.75
352.538	85.75
352.765	83.75
352.992	86.75
353.22	78.75
353.447	81.75
353.674	68.75
353.901	74.75
354.128	85.75
354.355	87.75
354.583	92.75
354.81	81.75
355.037	63.75
355.264	62.75
355.491	78.75
355.718	78.75
355.945	67.75
356.172	78.75
356.399	81.75
356.626	72.75
356.853	72.75
357.08	85.75
357.307	80.75
357.534	83.75
357.761	90.75
357.988	77.75
358.215	85.75
358.441	83.75
358.668	82.75
358.895	77.75
359.122	81.75
359.349	86.75
359.576	62.75
359.802	96.75
360.029	83.75
360.256	67.75
360.483	86.75
360.709	78.75
360.936	85.75
361.163	64.75
361.39	81.75
361.616	80.75
361.843	79.75
362.07	80.75
362.296	83.75
362.523	61.75
362.749	84.75
362.976	83.75
363.203	83.75
363.429	77.75
363.656	69.75
363.882	76.75
364.109	79.75
364.335	90.75
364.562	78.75
364.788	83.75
365.015	82.75
365.241	92.75
365.468	74.75
365.694	72.75
365.92	70.75
366.147	85.75
366.373	79.75
366.599	84.75
366.826	88.75
367.052	68.75
367.278	72.75
367.505	86.75
367.731	79.75
367.957	77.75
368.184	80.75
368.41	95.75
368.636	85.75
368.862	83.75
369.089	87.75
369.315	64.75
369.541	77.75
369.767	84.75
369.993	68.75
370.219	86.75
370.445	84.75
370.672	81.75
370.898	71.75
371.124	100.75
371.35	84.75
371.576	80.75
371.802	87.75
372.028	71.75
372.254	81.75
372.48	79.75
372.706	88.75
372.932	80.75
373.158	90.75
373.384	98.75
373.61	84.75
373.835	86.75
374.061	85.75
374.287	88.75
374.513	77.75
374.739	72.75
374.965	73.75
375.191	78.75
375.416	88.75
375.642	80.75
375.868	79.75
376.094	78.75
376.319	74.75
376.545	79.75
376.771	83.75
376.997	65.75
377.222	83.75
377.448	80.75
377.674	81.75
377.899	78.75
378.125	78.75
378.35	66.75
378.576	88.75
378.802	92.75
379.027	74.75
379.253	83.75
379.478	76.75
379.704	81.75
379.929	88.75
380.155	98.75
380.38	72.75
380.606	82.75
380.831	83.75
381.057	95.75
381.282	60.75
381.507	73.75
381.733	89.75
381.958	77.75
382.184	84.75
382.409	69.75
382.634	89.75
382.86	80.75
383.085	88.75
383.31	86.75
383.535	77.75
383.761	90.75
383.986	78.75
384.211	82.75
384.436	89.75
384.662	94.75
384.887	81.75
385.112	81.75
385.337	72.75
385.562	92.75
385.787	82.75
386.013	86.75
386.238	78.75
386.463	78.75
386.688	78.75
386.913	69.75
387.138	79.75
387.363	74.75
387.588	84.75
387.813	83.75
388.038	91.75
388.263	95.75
388.488	65.75
388.713	73.75
388.938	81.75
389.163	92.75
389.387	75.75
389.612	81.75
389.837	74.75
390.062	87.75
390.287	87.75
390.512	83.75
390.736	88.75
390.961	83.75
391.186	81.75
391.411	71.75
391.636	84.75
391.86	80.75
392.085	95.75
392.31	90.75
392.534	81.75
392.759	78.75
392.984	94.75
393.208	79.75
393.433	79.75
393.658	89.75
393.882	80.75
394.107	81.75
394.331	93.75
394.556	89.75
394.78	81.75
395.005	87.75
395.229	85.75
395.454	81.75
395.678	85.75
395.903	89.75
396.127	87.75
396.352	91.75
396.576	89.75
396.801	82.75
397.025	87.75
397.249	97.75
397.474	90.75
397.698	84.75
397.922	104.75
398.147	91.75
398.371	83.75
398.595	82.75
398.82	90.75
399.044	83.75
399.268	83.75
399.492	90.75
399.717	88.75
399.941	96.75
400.165	93.75
400.389	79.75
400.613	92.75
400.837	91.75
401.062	89.75
401.286	85.75
401.51	85.75
401.734	90.75
401.958	79.75
402.182	68.75
402.406	82.75
402.63	81.75
402.854	88.75
403.078	91.75
403.302	82.75
403.526	103.75
403.75	93.75
403.974	76.75
404.198	88.75
404.422	74.75
404.645	75.75
404.869	81.75
405.093	90.75
405.317	86.75
405.541	88.75
405.765	100.75
405.988	95.75
406.212	78.75
406.436	84.75
406.66	78.75
406.883	80.75
407.107	85.75
407.331	87.75
407.555	100.75
407.778	89.75
408.002	84.75
408.226	75.75
408.449	71.75
408.673	82.75
408.896	99.75
409.12	93.75
409.344	82.75
409.567	92.75
409.791	84.75
410.014	81.75
410.238	87.75
410.461	88.75
410.685	85.75
410.908	83.75
411.132	92.75
411.355	82.75
411.578	89.75
411.802	91.75
412.025	97.75
412.249	85.75
412.472	87.75
412.695	96.75
412.919	84.75
413.142	94.75
413.365	82.75
413.589	94.75
413.812	89.75
414.035	86.75
414.258	86.75
414.482	92.75
414.705	92.75
414.928	78.75
415.151	79.75
415.374	97.75
415.597	87.75
415.821	81.75
416.044	83.75
416.267	90.75
416.49	89.75
416.713	91.75
416.936	96.75
417.159	84.75
417.382	81.75
417.605	83.75
417.828	90.75
418.051	100.75
418.274	103.75
418.497	101.75
418.72	100.75
418.943	85.75
419.166	97.75
419.389	81.75
419.611	88.75
419.834	96.75
420.057	80.75
420.28	89.75
420.503	93.75
420.726	83.75
420.948	84.75
421.171	104.75
421.394	91.75
421.617	88.75
421.839	90.75
422.062	90.75
422.285	103.75
422.507	88.75
422.73	93.75
422.953	85.75
423.175	93.75
423.398	81.75
423.621	86.75
423.843	94.75
424.066	85.75
424.288	94.75
424.511	85.75
424.733	85.75
424.956	80.75
425.178	90.75
425.401	77.75
425.623	95.75
425.846	79.75
426.068	93.75
426.291	91.75
426.513	78.75
426.735	102.75
426.958	92.75
427.18	84.75
427.402	77.75
427.625	95.75
427.847	84.75
428.069	95.75
428.292	92.75
428.514	94.75
428.736	94.75
428.958	95.75
429.181	73.75
429.403	78.75
429.625	86.75
429.847	94.75
430.069	102.75
430.292	83.75
430.514	90.75
430.736	78.75
430.958	98.75
431.18	86.75
431.402	96.75
431.624	109.75
431.846	81.75
432.068	97.75
432.29	79.75
432.512	88.75
432.734	92.75
432.956	78.75
433.178	84.75
433.4	73.75
433.622	90.75
433.844	89.75
434.066	82.75
434.287	74.75
434.509	82.75
434.731	75.75
434.953	80.75
435.175	84.75
435.397	97.75
435.618	90.75
435.84	79.75
436.062	92.75
436.284	82.75
436.505	91.75
436.727	85.75
436.949	98.75
437.17	82.75
437.392	97.75
437.614	84.75
437.835	83.75
438.057	89.75
438.278	77.75
438.5	87.75
438.721	90.75
438.943	90.75
439.165	80.75
439.386	86.75
439.608	90.75
439.829	97.75
440.05	90.75
440.272	91.75
440.493	88.75
440.715	93.75
440.936	98.75
441.158	88.75
441.379	91.75
441.6	90.75
441.822	105.75
442.043	97.75
442.264	94.75
442.486	88.75
442.707	76.75
442.928	108.75
443.149	93.75
443.371	99.75
443.592	86.75
443.813	78.75
444.034	88.75
444.255	92.75
444.476	97.75
444.698	93.75
444.919	88.75
445.14	200.75
445.361	136.75
445.582	102.75
445.803	96.75
446.024	88.75
446.245	96.75
446.466	95.75
446.687	87.75
446.908	101.75
447.129	114.75
447.35	81.75
447.571	88.75
447.792	83.75
448.013	87.75
448.234	114.75
448.455	84.75
448.675	101.75
448.896	93.75
449.117	105.75
449.338	86.75
449.559	83.75
449.779	83.75
450	86.75
450.221	89.75
450.442	95.75
450.662	94.75
450.883	89.75
451.104	121.75
451.324	84.75
451.545	92.75
451.766	94.75
451.986	82.75
452.207	101.75
452.428	88.75
452.648	106.75
452.869	95.75
453.089	89.75
453.31	89.75
453.53	101.75
453.751	86.75
453.971	89.75
454.192	86.75
454.412	77.75
454.633	78.75
454.853	86.75
455.073	82.75
455.294	85.75
455.514	79.75
455.734	76.75
455.955	77.75
456.175	95.75
456.395	79.75
456.616	89.75
456.836	91.75
457.056	88.75
457.276	68.75
457.497	93.75
457.717	87.75
457.937	67.75
458.157	87.75
458.377	86.75
458.598	99.75
458.818	87.75
459.038	68.75
459.258	86.75
459.478	77.75
459.698	73.75
459.918	81.75
460.138	80.75
460.358	75.75
460.578	83.75
460.798	92.75
461.018	82.75
461.238	83.75
461.458	83.75
461.678	80.75
461.898	93.75
462.118	81.75
462.338	83.75
462.558	89.75
462.777	89.75
462.997	83.75
463.217	95.75
463.437	76.75
463.657	90.75
463.876	70.75
464.096	88.75
464.316	81.75
464.536	78.75
464.755	90.75
464.975	97.75
465.195	82.75
465.414	88.75
465.634	96.75
465.854	99.75
466.073	97.75
466.293	84.75
466.512	97.75
466.732	94.75
466.951	96.75
467.171	90.75
467.391	97.75
467.61	78.75
467.829	91.75
468.049	97.75
468.268	95.75
468.488	90.75
468.707	92.75
468.927	100.75
469.146	94.75
469.365	85.75
469.585	74.75
469.804	96.75
470.023	96.75
470.243	95.75
470.462	93.75
470.681	87.75
470.901	91.75
471.12	81.75
471.339	94.75
471.558	95.75
471.777	100.75
471.997	109.75
472.216	93.75
472.435	81.75
472.654	81.75
472.873	98.75
473.092	98.75
473.311	82.75
473.53	81.75
473.749	98.75
473.968	90.75
474.187	92.75
474.406	84.75
474.625	79.75
474.844	87.75
475.063	95.75
475.282	97.75
475.501	85.75
475.72	85.75
475.939	88.75
476.158	91.75
476.377	100.75
476.596	85.75
476.814	97.75
477.033	81.75
477.252	100.75
477.471	88.75
477.69	87.75
477.908	100.75
478.127	89.75
478.346	85.75
478.564	97.75
478.783	91.75
479.002	89.75
479.22	84.75
479.439	89.75
479.658	87.75
479.876	88.75
480.095	98.75
480.313	77.75
480.532	86.75
480.751	81.75
480.969	68.75
481.188	74.75
481.406	89.75
481.624	74.75
481.843	72.75
482.061	68.75
482.28	80.75
482.498	84.75
482.717	90.75
482.935	94.75
483.153	107.75
483.372	85.75
483.59	103.75
483.808	95.75
484.027	89.75
484.245	81.75
484.463	84.75
484.681	95.75
484.9	97.75
485.118	95.75
485.336	93.75
485.554	89.75
485.772	110.75
485.99	89.75
486.209	70.75
486.427	89.75
486.645	81.75
486.863	91.75
487.081	94.75
487.299	97.75
487.517	98.75
487.735	97.75
487.953	110.75
488.171	110.75
488.389	86.75
488.607	106.75
488.825	82.75
489.043	101.75
489.261	108.75
489.479	100.75
489.696	99.75
489.914	104.75
490.132	90.75
490.35	109.75
490.568	94.75
490.786	98.75
491.003	99.75
491.221	110.75
491.439	113.75
491.657	119.75
491.874	116.75
492.092	106.75
492.31	119.75
492.527	114.75
492.745	113.75
492.963	113.75
493.18	102.75
493.398	100.75
493.615	99.75
493.833	96.75
494.05	111.75
494.268	109.75
494.485	99.75
494.703	94.75
494.92	94.75
495.138	98.75
495.355	89.75
495.573	91.75
495.79	85.75
496.008	105.75
496.225	112.75
496.442	100.75
496.66	95.75
496.877	110.75
497.094	108.75
497.312	97.75
497.529	112.75
497.746	93.75
497.963	89.75
498.181	89.75
498.398	92.75
498.615	87.75
498.832	99.75
499.049	85.75
499.267	95.75
499.484	77.75
499.701	73.75
499.918	94.75
500.135	98.75
500.352	106.75
500.569	101.75
500.786	102.75
501.003	113.75
501.22	102.75
501.437	109.75
501.654	90.75
501.871	93.75
502.088	85.75
502.305	88.75
502.522	86.75
502.739	85.75
502.956	93.75
503.172	83.75
503.389	96.75
503.606	80.75
503.823	84.75
504.04	78.75
504.256	89.75
504.473	80.75
504.69	90.75
504.907	86.75
505.123	91.75
505.34	96.75
505.557	94.75
505.773	96.75
505.99	82.75
506.207	92.75
506.423	84.75
506.64	92.75
506.856	89.75
507.073	87.75
507.289	84.75
507.506	88.75
507.722	89.75
507.939	82.75
508.155	88.75
508.372	78.75
508.588	88.75
508.805	89.75
509.021	82.75
509.238	87.75
509.454	94.75
509.67	91.75
509.887	81.75
510.103	69.75
510.319	78.75
510.536	79.75
510.752	83.75
510.968	79.75
511.184	99.75
511.401	73.75
511.617	73.75
511.833	79.75
512.049	82.75
512.265	72.75
512.481	85.75
512.698	82.75
512.914	82.75
513.13	87.75
513.346	88.75
513.562	88.75
513.778	79.75
513.994	73.75
514.21	86.75
514.426	81.75
514.642	90.75
514.858	80.75
515.074	76.75
515.29	84.75
515.506	73.75
515.721	80.75
515.937	86.75
516.153	88.75
516.369	74.75
516.585	90.75
516.801	93.75
517.016	89.75
517.232	80.75
517.448	76.75
517.664	93.75
517.879	79.75
518.095	83.75
518.311	88.75
518.527	76.75
