Data from Location5.07152019.Energy5.Lamp.07192019.3%Agarose_HRD10591_16-04-49-629.txt Node
Date: Fri Jul 19 16:04:49 EDT 2019
User: cochatt
Spectrometer: HR+D1059
Trigger mode: 1
Integration Time (sec): 1.000000E-1
Scans to average: 1
Electric dark correction enabled: true
Nonlinearity correction enabled: false
Boxcar width: 0
XAxis mode: Wavelengths
Number of Pixels in Spectrum: 2048
>>>>>Begin Spectral Data<<<<<
223.165	-11.44
223.4	-11.44
223.635	-11.44
223.869	-14.44
224.104	-8.44
224.338	-13.44
224.573	-14.44
224.808	-15.44
225.042	-12.44
225.277	2.56
225.511	-1.44
225.746	-8.44
225.98	-0.44
226.215	8.56
226.449	14.56
226.683	15.56
226.918	20.56
227.152	38.56
227.387	37.56
227.621	34.56
227.856	37.56
228.09	45.56
228.324	55.56
228.559	50.56
228.793	56.56
229.027	63.56
229.262	66.56
229.496	50.56
229.73	68.56
229.964	73.56
230.199	81.56
230.433	57.56
230.667	78.56
230.901	74.56
231.136	73.56
231.37	87.56
231.604	78.56
231.838	83.56
232.072	85.56
232.306	90.56
232.541	85.56
232.775	65.56
233.009	88.56
233.243	68.56
233.477	83.56
233.711	67.56
233.945	85.56
234.179	77.56
234.413	79.56
234.647	78.56
234.881	86.56
235.115	96.56
235.349	75.56
235.583	72.56
235.817	73.56
236.051	73.56
236.285	76.56
236.519	81.56
236.753	84.56
236.987	89.56
237.221	74.56
237.455	75.56
237.689	67.56
237.922	76.56
238.156	82.56
238.39	78.56
238.624	84.56
238.858	71.56
239.091	79.56
239.325	86.56
239.559	74.56
239.793	76.56
240.027	78.56
240.26	75.56
240.494	79.56
240.728	91.56
240.961	74.56
241.195	81.56
241.429	85.56
241.662	66.56
241.896	80.56
242.13	82.56
242.363	83.56
242.597	67.56
242.83	78.56
243.064	79.56
243.298	91.56
243.531	85.56
243.765	69.56
243.998	70.56
244.232	73.56
244.465	82.56
244.699	62.56
244.932	72.56
245.166	85.56
245.399	88.56
245.633	76.56
245.866	70.56
246.099	86.56
246.333	70.56
246.566	73.56
246.8	66.56
247.033	90.56
247.266	89.56
247.5	71.56
247.733	65.56
247.966	76.56
248.2	76.56
248.433	70.56
248.666	68.56
248.899	93.56
249.133	89.56
249.366	70.56
249.599	85.56
249.832	86.56
250.066	79.56
250.299	87.56
250.532	66.56
250.765	88.56
250.998	78.56
251.231	66.56
251.465	77.56
251.698	75.56
251.931	90.56
252.164	72.56
252.397	82.56
252.63	68.56
252.863	79.56
253.096	90.56
253.329	74.56
253.562	76.56
253.795	69.56
254.028	70.56
254.261	78.56
254.494	76.56
254.727	78.56
254.96	62.56
255.193	85.56
255.426	69.56
255.659	90.56
255.892	84.56
256.124	69.56
256.357	76.56
256.59	77.56
256.823	74.56
257.056	89.56
257.289	81.56
257.521	82.56
257.754	81.56
257.987	80.56
258.22	71.56
258.452	102.56
258.685	69.56
258.918	73.56
259.151	78.56
259.383	83.56
259.616	91.56
259.849	94.56
260.081	84.56
260.314	94.56
260.547	77.56
260.779	81.56
261.012	83.56
261.244	76.56
261.477	81.56
261.71	76.56
261.942	92.56
262.175	91.56
262.407	74.56
262.64	83.56
262.872	79.56
263.105	77.56
263.337	87.56
263.57	88.56
263.802	88.56
264.035	83.56
264.267	88.56
264.499	94.56
264.732	79.56
264.964	72.56
265.197	79.56
265.429	82.56
265.661	77.56
265.894	96.56
266.126	98.56
266.358	94.56
266.591	88.56
266.823	83.56
267.055	82.56
267.287	86.56
267.52	66.56
267.752	87.56
267.984	80.56
268.216	83.56
268.448	88.56
268.681	89.56
268.913	85.56
269.145	89.56
269.377	69.56
269.609	81.56
269.841	76.56
270.073	74.56
270.306	84.56
270.538	83.56
270.77	89.56
271.002	80.56
271.234	86.56
271.466	74.56
271.698	82.56
271.93	79.56
272.162	83.56
272.394	79.56
272.626	75.56
272.858	95.56
273.09	98.56
273.322	85.56
273.553	87.56
273.785	81.56
274.017	89.56
274.249	88.56
274.481	78.56
274.713	80.56
274.945	81.56
275.176	82.56
275.408	87.56
275.64	91.56
275.872	79.56
276.104	101.56
276.335	77.56
276.567	78.56
276.799	76.56
277.031	82.56
277.262	93.56
277.494	95.56
277.726	97.56
277.957	91.56
278.189	91.56
278.421	84.56
278.652	88.56
278.884	82.56
279.115	82.56
279.347	87.56
279.579	87.56
279.81	91.56
280.042	100.56
280.273	80.56
280.505	88.56
280.736	81.56
280.968	86.56
281.199	78.56
281.431	91.56
281.662	84.56
281.894	82.56
282.125	90.56
282.356	87.56
282.588	73.56
282.819	92.56
283.051	80.56
283.282	73.56
283.513	87.56
283.745	73.56
283.976	88.56
284.207	78.56
284.439	87.56
284.67	91.56
284.901	90.56
285.132	96.56
285.364	82.56
285.595	74.56
285.826	92.56
286.057	82.56
286.288	101.56
286.52	86.56
286.751	92.56
286.982	87.56
287.213	79.56
287.444	85.56
287.675	85.56
287.906	91.56
288.138	92.56
288.369	91.56
288.6	81.56
288.831	80.56
289.062	83.56
289.293	85.56
289.524	98.56
289.755	97.56
289.986	94.56
290.217	86.56
290.448	91.56
290.679	86.56
290.91	90.56
291.141	100.56
291.371	87.56
291.602	103.56
291.833	96.56
292.064	86.56
292.295	94.56
292.526	95.56
292.757	85.56
292.987	103.56
293.218	101.56
293.449	91.56
293.68	88.56
293.91	91.56
294.141	84.56
294.372	91.56
294.603	91.56
294.833	86.56
295.064	90.56
295.295	82.56
295.525	90.56
295.756	90.56
295.987	88.56
296.217	88.56
296.448	86.56
296.679	80.56
296.909	80.56
297.14	96.56
297.37	84.56
297.601	82.56
297.831	92.56
298.062	88.56
298.292	101.56
298.523	85.56
298.753	93.56
298.984	84.56
299.214	75.56
299.445	90.56
299.675	88.56
299.905	86.56
300.136	100.56
300.366	85.56
300.597	86.56
300.827	96.56
301.057	94.56
301.288	73.56
301.518	94.56
301.748	90.56
301.979	91.56
302.209	97.56
302.439	101.56
302.669	90.56
302.9	86.56
303.13	84.56
303.36	87.56
303.59	83.56
303.82	102.56
304.051	93.56
304.281	76.56
304.511	86.56
304.741	81.56
304.971	72.56
305.201	89.56
305.431	82.56
305.661	83.56
305.891	82.56
306.121	84.56
306.352	84.56
306.582	100.56
306.812	91.56
307.042	98.56
307.272	89.56
307.502	83.56
307.731	106.56
307.961	88.56
308.191	98.56
308.421	84.56
308.651	82.56
308.881	101.56
309.111	95.56
309.341	96.56
309.571	102.56
309.8	96.56
310.03	96.56
310.26	101.56
310.49	83.56
310.72	80.56
310.949	82.56
311.179	99.56
311.409	91.56
311.639	96.56
311.868	96.56
312.098	95.56
312.328	86.56
312.557	100.56
312.787	88.56
313.017	92.56
313.246	95.56
313.476	81.56
313.706	96.56
313.935	93.56
314.165	101.56
314.394	103.56
314.624	100.56
314.853	96.56
315.083	111.56
315.312	88.56
315.542	96.56
315.771	89.56
316.001	103.56
316.23	94.56
316.46	87.56
316.689	94.56
316.919	91.56
317.148	87.56
317.377	83.56
317.607	87.56
317.836	93.56
318.065	79.56
318.295	86.56
318.524	90.56
318.753	79.56
318.983	81.56
319.212	92.56
319.441	98.56
319.67	89.56
319.9	83.56
320.129	95.56
320.358	91.56
320.587	93.56
320.816	87.56
321.046	90.56
321.275	89.56
321.504	88.56
321.733	103.56
321.962	102.56
322.191	111.56
322.42	84.56
322.649	83.56
322.878	92.56
323.108	86.56
323.337	80.56
323.566	95.56
323.795	93.56
324.024	98.56
324.253	87.56
324.482	93.56
324.71	92.56
324.939	72.56
325.168	91.56
325.397	87.56
325.626	92.56
325.855	94.56
326.084	88.56
326.313	90.56
326.542	88.56
326.77	81.56
326.999	79.56
327.228	103.56
327.457	87.56
327.686	103.56
327.914	87.56
328.143	89.56
328.372	95.56
328.6	98.56
328.829	99.56
329.058	84.56
329.287	105.56
329.515	89.56
329.744	91.56
329.972	93.56
330.201	97.56
330.43	96.56
330.658	96.56
330.887	102.56
331.115	71.56
331.344	94.56
331.572	101.56
331.801	81.56
332.03	88.56
332.258	101.56
332.486	94.56
332.715	92.56
332.943	97.56
333.172	95.56
333.4	85.56
333.629	83.56
333.857	93.56
334.085	89.56
334.314	103.56
334.542	102.56
334.771	94.56
334.999	100.56
335.227	104.56
335.455	96.56
335.684	96.56
335.912	95.56
336.14	102.56
336.369	86.56
336.597	108.56
336.825	85.56
337.053	95.56
337.281	98.56
337.51	84.56
337.738	94.56
337.966	89.56
338.194	90.56
338.422	75.56
338.65	93.56
338.878	83.56
339.106	87.56
339.334	98.56
339.562	85.56
339.79	78.56
340.018	99.56
340.246	99.56
340.474	92.56
340.702	91.56
340.93	98.56
341.158	92.56
341.386	91.56
341.614	80.56
341.842	99.56
342.07	102.56
342.298	93.56
342.526	83.56
342.754	94.56
342.981	80.56
343.209	77.56
343.437	96.56
343.665	92.56
343.893	95.56
344.12	94.56
344.348	86.56
344.576	99.56
344.804	99.56
345.031	81.56
345.259	104.56
345.487	102.56
345.714	92.56
345.942	91.56
346.17	97.56
346.397	92.56
346.625	95.56
346.853	90.56
347.08	91.56
347.308	98.56
347.535	96.56
347.763	98.56
347.99	99.56
348.218	89.56
348.445	92.56
348.673	93.56
348.9	94.56
349.128	89.56
349.355	78.56
349.583	85.56
349.81	90.56
350.037	76.56
350.265	85.56
350.492	91.56
350.72	88.56
350.947	101.56
351.174	83.56
351.402	99.56
351.629	102.56
351.856	86.56
352.083	86.56
352.311	94.56
352.538	91.56
352.765	88.56
352.992	81.56
353.22	94.56
353.447	89.56
353.674	87.56
353.901	79.56
354.128	91.56
354.355	88.56
354.583	90.56
354.81	95.56
355.037	88.56
355.264	94.56
355.491	81.56
355.718	93.56
355.945	87.56
356.172	88.56
356.399	87.56
356.626	84.56
356.853	86.56
357.08	111.56
357.307	95.56
357.534	85.56
357.761	79.56
357.988	106.56
358.215	91.56
358.441	85.56
358.668	86.56
358.895	85.56
359.122	92.56
359.349	89.56
359.576	82.56
359.802	86.56
360.029	89.56
360.256	97.56
360.483	74.56
360.709	92.56
360.936	94.56
361.163	84.56
361.39	81.56
361.616	96.56
361.843	73.56
362.07	95.56
362.296	99.56
362.523	73.56
362.749	88.56
362.976	88.56
363.203	89.56
363.429	90.56
363.656	90.56
363.882	90.56
364.109	96.56
364.335	92.56
364.562	91.56
364.788	76.56
365.015	87.56
365.241	84.56
365.468	96.56
365.694	91.56
365.92	92.56
366.147	94.56
366.373	84.56
366.599	94.56
366.826	85.56
367.052	74.56
367.278	81.56
367.505	79.56
367.731	91.56
367.957	91.56
368.184	90.56
368.41	73.56
368.636	85.56
368.862	82.56
369.089	93.56
369.315	93.56
369.541	86.56
369.767	93.56
369.993	101.56
370.219	92.56
370.445	82.56
370.672	98.56
370.898	80.56
371.124	74.56
371.35	94.56
371.576	88.56
371.802	80.56
372.028	85.56
372.254	92.56
372.48	89.56
372.706	85.56
372.932	100.56
373.158	92.56
373.384	109.56
373.61	97.56
373.835	91.56
374.061	80.56
374.287	94.56
374.513	87.56
374.739	87.56
374.965	88.56
375.191	80.56
375.416	82.56
375.642	87.56
375.868	101.56
376.094	96.56
376.319	97.56
376.545	87.56
376.771	91.56
376.997	92.56
377.222	83.56
377.448	76.56
377.674	93.56
377.899	102.56
378.125	98.56
378.35	90.56
378.576	86.56
378.802	82.56
379.027	98.56
379.253	114.56
379.478	86.56
379.704	90.56
379.929	95.56
380.155	93.56
380.38	84.56
380.606	89.56
380.831	90.56
381.057	98.56
381.282	89.56
381.507	92.56
381.733	89.56
381.958	76.56
382.184	99.56
382.409	101.56
382.634	106.56
382.86	88.56
383.085	82.56
383.31	93.56
383.535	91.56
383.761	97.56
383.986	96.56
384.211	83.56
384.436	98.56
384.662	104.56
384.887	98.56
385.112	76.56
385.337	104.56
385.562	91.56
385.787	88.56
386.013	99.56
386.238	94.56
386.463	72.56
386.688	87.56
386.913	82.56
387.138	84.56
387.363	88.56
387.588	95.56
387.813	92.56
388.038	101.56
388.263	90.56
388.488	82.56
388.713	107.56
388.938	84.56
389.163	97.56
389.387	84.56
389.612	92.56
389.837	82.56
390.062	95.56
390.287	96.56
390.512	102.56
390.736	88.56
390.961	96.56
391.186	92.56
391.411	86.56
391.636	87.56
391.86	89.56
392.085	99.56
392.31	107.56
392.534	99.56
392.759	86.56
392.984	101.56
393.208	98.56
393.433	89.56
393.658	87.56
393.882	90.56
394.107	87.56
394.331	90.56
394.556	88.56
394.78	85.56
395.005	84.56
395.229	94.56
395.454	99.56
395.678	87.56
395.903	104.56
396.127	90.56
396.352	104.56
396.576	98.56
396.801	95.56
397.025	84.56
397.249	92.56
397.474	98.56
397.698	86.56
397.922	80.56
398.147	93.56
398.371	87.56
398.595	87.56
398.82	84.56
399.044	94.56
399.268	102.56
399.492	89.56
399.717	90.56
399.941	107.56
400.165	104.56
400.389	98.56
400.613	77.56
400.837	92.56
401.062	95.56
401.286	86.56
401.51	97.56
401.734	84.56
401.958	84.56
402.182	105.56
402.406	102.56
402.63	91.56
402.854	92.56
403.078	86.56
403.302	103.56
403.526	115.56
403.75	92.56
403.974	99.56
404.198	102.56
404.422	108.56
404.645	96.56
404.869	100.56
405.093	96.56
405.317	97.56
405.541	107.56
405.765	99.56
405.988	95.56
406.212	94.56
406.436	89.56
406.66	91.56
406.883	86.56
407.107	94.56
407.331	91.56
407.555	95.56
407.778	87.56
408.002	102.56
408.226	97.56
408.449	92.56
408.673	109.56
408.896	107.56
409.12	86.56
409.344	103.56
409.567	91.56
409.791	87.56
410.014	81.56
410.238	93.56
410.461	99.56
410.685	87.56
410.908	102.56
411.132	99.56
411.355	86.56
411.578	95.56
411.802	94.56
412.025	102.56
412.249	96.56
412.472	95.56
412.695	101.56
412.919	86.56
413.142	87.56
413.365	97.56
413.589	88.56
413.812	92.56
414.035	96.56
414.258	100.56
414.482	98.56
414.705	95.56
414.928	91.56
415.151	92.56
415.374	94.56
415.597	97.56
415.821	93.56
416.044	66.56
416.267	86.56
416.49	91.56
416.713	80.56
416.936	96.56
417.159	96.56
417.382	104.56
417.605	95.56
417.828	92.56
418.051	89.56
418.274	104.56
418.497	95.56
418.72	98.56
418.943	103.56
419.166	94.56
419.389	98.56
419.611	112.56
419.834	88.56
420.057	90.56
420.28	97.56
420.503	91.56
420.726	91.56
420.948	99.56
421.171	87.56
421.394	100.56
421.617	89.56
421.839	101.56
422.062	97.56
422.285	86.56
422.507	96.56
422.73	100.56
422.953	92.56
423.175	100.56
423.398	94.56
423.621	81.56
423.843	81.56
424.066	87.56
424.288	92.56
424.511	100.56
424.733	105.56
424.956	98.56
425.178	88.56
425.401	86.56
425.623	87.56
425.846	101.56
426.068	88.56
426.291	88.56
426.513	92.56
426.735	101.56
426.958	97.56
427.18	95.56
427.402	97.56
427.625	83.56
427.847	93.56
428.069	92.56
428.292	99.56
428.514	96.56
428.736	89.56
428.958	86.56
429.181	93.56
429.403	95.56
429.625	93.56
429.847	89.56
430.069	86.56
430.292	85.56
430.514	84.56
430.736	92.56
430.958	92.56
431.18	91.56
431.402	97.56
431.624	84.56
431.846	94.56
432.068	92.56
432.29	93.56
432.512	88.56
432.734	94.56
432.956	100.56
433.178	89.56
433.4	94.56
433.622	81.56
433.844	92.56
434.066	96.56
434.287	88.56
434.509	94.56
434.731	90.56
434.953	78.56
435.175	85.56
435.397	100.56
435.618	94.56
435.84	83.56
436.062	76.56
436.284	98.56
436.505	96.56
436.727	88.56
436.949	86.56
437.17	89.56
437.392	95.56
437.614	82.56
437.835	104.56
438.057	90.56
438.278	81.56
438.5	105.56
438.721	95.56
438.943	102.56
439.165	100.56
439.386	90.56
439.608	91.56
439.829	86.56
440.05	96.56
440.272	83.56
440.493	90.56
440.715	85.56
440.936	103.56
441.158	91.56
441.379	90.56
441.6	75.56
441.822	104.56
442.043	86.56
442.264	88.56
442.486	97.56
442.707	98.56
442.928	92.56
443.149	100.56
443.371	102.56
443.592	89.56
443.813	100.56
444.034	83.56
444.255	89.56
444.476	90.56
444.698	98.56
444.919	75.56
445.14	232.56
445.361	159.56
445.582	93.56
445.803	94.56
446.024	102.56
446.245	90.56
446.466	82.56
446.687	88.56
446.908	109.56
447.129	106.56
447.35	95.56
447.571	88.56
447.792	87.56
448.013	91.56
448.234	85.56
448.455	86.56
448.675	96.56
448.896	83.56
449.117	82.56
449.338	96.56
449.559	90.56
449.779	92.56
450	71.56
450.221	90.56
450.442	83.56
450.662	80.56
450.883	96.56
451.104	85.56
451.324	93.56
451.545	81.56
451.766	83.56
451.986	84.56
452.207	85.56
452.428	99.56
452.648	101.56
452.869	89.56
453.089	97.56
453.31	85.56
453.53	80.56
453.751	87.56
453.971	88.56
454.192	86.56
454.412	76.56
454.633	86.56
454.853	81.56
455.073	93.56
455.294	93.56
455.514	76.56
455.734	86.56
455.955	107.56
456.175	84.56
456.395	88.56
456.616	85.56
456.836	84.56
457.056	98.56
457.276	90.56
457.497	85.56
457.717	94.56
457.937	80.56
458.157	94.56
458.377	89.56
458.598	84.56
458.818	87.56
459.038	89.56
459.258	87.56
459.478	82.56
459.698	92.56
459.918	99.56
460.138	90.56
460.358	82.56
460.578	86.56
460.798	89.56
461.018	97.56
461.238	105.56
461.458	101.56
461.678	92.56
461.898	90.56
462.118	79.56
462.338	103.56
462.558	110.56
462.777	100.56
462.997	97.56
463.217	111.56
463.437	96.56
463.657	92.56
463.876	93.56
464.096	89.56
464.316	85.56
464.536	99.56
464.755	98.56
464.975	97.56
465.195	95.56
465.414	90.56
465.634	96.56
465.854	89.56
466.073	91.56
466.293	80.56
466.512	98.56
466.732	97.56
466.951	88.56
467.171	107.56
467.391	99.56
467.61	88.56
467.829	90.56
468.049	87.56
468.268	83.56
468.488	94.56
468.707	90.56
468.927	88.56
469.146	96.56
469.365	89.56
469.585	103.56
469.804	99.56
470.023	107.56
470.243	96.56
470.462	92.56
470.681	95.56
470.901	85.56
471.12	102.56
471.339	107.56
471.558	93.56
471.777	98.56
471.997	86.56
472.216	103.56
472.435	83.56
472.654	82.56
472.873	93.56
473.092	97.56
473.311	102.56
473.53	94.56
473.749	99.56
473.968	90.56
474.187	90.56
474.406	92.56
474.625	93.56
474.844	95.56
475.063	100.56
475.282	88.56
475.501	79.56
475.72	94.56
475.939	94.56
476.158	98.56
476.377	87.56
476.596	92.56
476.814	90.56
477.033	81.56
477.252	98.56
477.471	79.56
477.69	106.56
477.908	102.56
478.127	102.56
478.346	87.56
478.564	95.56
478.783	92.56
479.002	98.56
479.22	105.56
479.439	118.56
479.658	94.56
479.876	103.56
480.095	88.56
480.313	103.56
480.532	102.56
480.751	103.56
480.969	88.56
481.188	88.56
481.406	88.56
481.624	104.56
481.843	96.56
482.061	98.56
482.28	105.56
482.498	100.56
482.717	83.56
482.935	90.56
483.153	99.56
483.372	106.56
483.59	95.56
483.808	99.56
484.027	119.56
484.245	95.56
484.463	108.56
484.681	100.56
484.9	81.56
485.118	98.56
485.336	97.56
485.554	105.56
485.772	84.56
485.99	97.56
486.209	82.56
486.427	102.56
486.645	94.56
486.863	100.56
487.081	107.56
487.299	94.56
487.517	99.56
487.735	97.56
487.953	95.56
488.171	104.56
488.389	112.56
488.607	98.56
488.825	101.56
489.043	82.56
489.261	94.56
489.479	94.56
489.696	94.56
489.914	104.56
490.132	105.56
490.35	125.56
490.568	100.56
490.786	77.56
491.003	103.56
491.221	95.56
491.439	103.56
491.657	104.56
491.874	111.56
492.092	120.56
492.31	118.56
492.527	126.56
492.745	111.56
492.963	112.56
493.18	102.56
493.398	102.56
493.615	113.56
493.833	115.56
494.05	115.56
494.268	96.56
494.485	88.56
494.703	117.56
494.92	110.56
495.138	97.56
495.355	104.56
495.573	107.56
495.79	99.56
496.008	118.56
496.225	118.56
496.442	112.56
496.66	99.56
496.877	117.56
497.094	104.56
497.312	117.56
497.529	104.56
497.746	114.56
497.963	102.56
498.181	105.56
498.398	102.56
498.615	100.56
498.832	105.56
499.049	102.56
499.267	110.56
499.484	119.56
499.701	113.56
499.918	140.56
500.135	143.56
500.352	138.56
500.569	120.56
500.786	145.56
501.003	146.56
501.22	126.56
501.437	124.56
501.654	129.56
501.871	116.56
502.088	115.56
502.305	118.56
502.522	105.56
502.739	95.56
502.956	113.56
503.172	102.56
503.389	112.56
503.606	107.56
503.823	112.56
504.04	108.56
504.256	111.56
504.473	109.56
504.69	112.56
504.907	118.56
505.123	114.56
505.34	108.56
505.557	112.56
505.773	111.56
505.99	104.56
506.207	115.56
506.423	91.56
506.64	92.56
506.856	93.56
507.073	94.56
507.289	104.56
507.506	97.56
507.722	98.56
507.939	95.56
508.155	95.56
508.372	95.56
508.588	104.56
508.805	100.56
509.021	102.56
509.238	110.56
509.454	102.56
509.67	111.56
509.887	80.56
510.103	92.56
510.319	106.56
510.536	88.56
510.752	109.56
510.968	104.56
511.184	102.56
511.401	89.56
511.617	107.56
511.833	105.56
512.049	87.56
512.265	98.56
512.481	90.56
512.698	86.56
512.914	96.56
513.13	98.56
513.346	102.56
513.562	91.56
513.778	94.56
513.994	97.56
514.21	94.56
514.426	91.56
514.642	100.56
514.858	96.56
515.074	100.56
515.29	92.56
515.506	99.56
515.721	109.56
515.937	106.56
516.153	97.56
