Data from Location5.07152019.Energy5.Lamp.07192019.3%Agarose_HRD10591_16-05-09-630.txt Node
Date: Fri Jul 19 16:05:09 EDT 2019
User: cochatt
Spectrometer: HR+D1059
Trigger mode: 1
Integration Time (sec): 1.000000E-1
Scans to average: 1
Electric dark correction enabled: true
Nonlinearity correction enabled: false
Boxcar width: 0
XAxis mode: Wavelengths
Number of Pixels in Spectrum: 2048
>>>>>Begin Spectral Data<<<<<
223.165	-8.81
223.4	-8.81
223.635	-8.81
223.869	-15.81
224.104	-18.81
224.338	-12.81
224.573	-6.81
224.808	-23.81
225.042	2.19
225.277	-13.81
225.511	-10.81
225.746	0.19
225.98	-2.81
226.215	11.19
226.449	23.19
226.683	14.19
226.918	21.19
227.152	42.19
227.387	27.19
227.621	30.19
227.856	33.19
228.09	53.19
228.324	50.19
228.559	68.19
228.793	45.19
229.027	69.19
229.262	69.19
229.496	74.19
229.73	51.19
229.964	73.19
230.199	70.19
230.433	82.19
230.667	77.19
230.901	73.19
231.136	80.19
231.37	77.19
231.604	87.19
231.838	86.19
232.072	83.19
232.306	89.19
232.541	66.19
232.775	87.19
233.009	92.19
233.243	77.19
233.477	75.19
233.711	83.19
233.945	73.19
234.179	83.19
234.413	84.19
234.647	82.19
234.881	70.19
235.115	85.19
235.349	78.19
235.583	74.19
235.817	80.19
236.051	90.19
236.285	66.19
236.519	88.19
236.753	71.19
236.987	64.19
237.221	73.19
237.455	94.19
237.689	81.19
237.922	82.19
238.156	75.19
238.39	83.19
238.624	74.19
238.858	85.19
239.091	75.19
239.325	86.19
239.559	75.19
239.793	91.19
240.027	71.19
240.26	64.19
240.494	83.19
240.728	80.19
240.961	86.19
241.195	66.19
241.429	79.19
241.662	80.19
241.896	75.19
242.13	68.19
242.363	88.19
242.597	85.19
242.83	91.19
243.064	81.19
243.298	81.19
243.531	75.19
243.765	80.19
243.998	86.19
244.232	94.19
244.465	76.19
244.699	72.19
244.932	70.19
245.166	87.19
245.399	91.19
245.633	91.19
245.866	80.19
246.099	73.19
246.333	87.19
246.566	77.19
246.8	63.19
247.033	88.19
247.266	69.19
247.5	69.19
247.733	70.19
247.966	81.19
248.2	68.19
248.433	75.19
248.666	77.19
248.899	74.19
249.133	78.19
249.366	89.19
249.599	74.19
249.832	77.19
250.066	73.19
250.299	68.19
250.532	80.19
250.765	78.19
250.998	62.19
251.231	70.19
251.465	78.19
251.698	69.19
251.931	79.19
252.164	87.19
252.397	73.19
252.63	75.19
252.863	69.19
253.096	80.19
253.329	86.19
253.562	84.19
253.795	71.19
254.028	78.19
254.261	81.19
254.494	84.19
254.727	74.19
254.96	81.19
255.193	75.19
255.426	79.19
255.659	69.19
255.892	75.19
256.124	65.19
256.357	68.19
256.59	95.19
256.823	80.19
257.056	67.19
257.289	83.19
257.521	81.19
257.754	79.19
257.987	69.19
258.22	87.19
258.452	74.19
258.685	85.19
258.918	73.19
259.151	81.19
259.383	85.19
259.616	76.19
259.849	75.19
260.081	81.19
260.314	91.19
260.547	94.19
260.779	78.19
261.012	87.19
261.244	89.19
261.477	85.19
261.71	83.19
261.942	89.19
262.175	90.19
262.407	80.19
262.64	88.19
262.872	88.19
263.105	79.19
263.337	92.19
263.57	85.19
263.802	69.19
264.035	88.19
264.267	64.19
264.499	71.19
264.732	84.19
264.964	75.19
265.197	79.19
265.429	88.19
265.661	94.19
265.894	81.19
266.126	84.19
266.358	89.19
266.591	84.19
266.823	82.19
267.055	73.19
267.287	85.19
267.52	63.19
267.752	85.19
267.984	88.19
268.216	69.19
268.448	88.19
268.681	85.19
268.913	88.19
269.145	88.19
269.377	82.19
269.609	80.19
269.841	78.19
270.073	54.19
270.306	93.19
270.538	96.19
270.77	70.19
271.002	74.19
271.234	77.19
271.466	83.19
271.698	70.19
271.93	85.19
272.162	74.19
272.394	77.19
272.626	77.19
272.858	83.19
273.09	75.19
273.322	81.19
273.553	88.19
273.785	85.19
274.017	88.19
274.249	73.19
274.481	95.19
274.713	74.19
274.945	81.19
275.176	93.19
275.408	109.19
275.64	87.19
275.872	79.19
276.104	71.19
276.335	76.19
276.567	74.19
276.799	93.19
277.031	83.19
277.262	95.19
277.494	88.19
277.726	82.19
277.957	80.19
278.189	87.19
278.421	88.19
278.652	79.19
278.884	90.19
279.115	74.19
279.347	74.19
279.579	101.19
279.81	96.19
280.042	83.19
280.273	82.19
280.505	95.19
280.736	88.19
280.968	80.19
281.199	83.19
281.431	84.19
281.662	74.19
281.894	72.19
282.125	80.19
282.356	93.19
282.588	87.19
282.819	79.19
283.051	83.19
283.282	83.19
283.513	86.19
283.745	92.19
283.976	94.19
284.207	94.19
284.439	83.19
284.67	86.19
284.901	82.19
285.132	67.19
285.364	80.19
285.595	90.19
285.826	71.19
286.057	85.19
286.288	93.19
286.52	90.19
286.751	94.19
286.982	88.19
287.213	86.19
287.444	102.19
287.675	77.19
287.906	74.19
288.138	84.19
288.369	90.19
288.6	82.19
288.831	83.19
289.062	87.19
289.293	87.19
289.524	88.19
289.755	86.19
289.986	92.19
290.217	71.19
290.448	87.19
290.679	86.19
290.91	76.19
291.141	83.19
291.371	75.19
291.602	91.19
291.833	86.19
292.064	87.19
292.295	80.19
292.526	81.19
292.757	75.19
292.987	93.19
293.218	80.19
293.449	78.19
293.68	81.19
293.91	86.19
294.141	86.19
294.372	83.19
294.603	80.19
294.833	61.19
295.064	95.19
295.295	81.19
295.525	95.19
295.756	80.19
295.987	88.19
296.217	94.19
296.448	91.19
296.679	84.19
296.909	88.19
297.14	83.19
297.37	89.19
297.601	78.19
297.831	90.19
298.062	68.19
298.292	83.19
298.523	87.19
298.753	78.19
298.984	100.19
299.214	93.19
299.445	93.19
299.675	90.19
299.905	79.19
300.136	91.19
300.366	89.19
300.597	87.19
300.827	97.19
301.057	94.19
301.288	88.19
301.518	95.19
301.748	97.19
301.979	86.19
302.209	84.19
302.439	96.19
302.669	100.19
302.9	74.19
303.13	92.19
303.36	85.19
303.59	90.19
303.82	101.19
304.051	97.19
304.281	97.19
304.511	101.19
304.741	86.19
304.971	92.19
305.201	90.19
305.431	70.19
305.661	82.19
305.891	93.19
306.121	72.19
306.352	93.19
306.582	91.19
306.812	87.19
307.042	97.19
307.272	88.19
307.502	89.19
307.731	93.19
307.961	100.19
308.191	83.19
308.421	72.19
308.651	85.19
308.881	90.19
309.111	90.19
309.341	81.19
309.571	79.19
309.8	99.19
310.03	76.19
310.26	89.19
310.49	106.19
310.72	88.19
310.949	87.19
311.179	94.19
311.409	85.19
311.639	86.19
311.868	99.19
312.098	82.19
312.328	89.19
312.557	89.19
312.787	89.19
313.017	80.19
313.246	70.19
313.476	82.19
313.706	87.19
313.935	87.19
314.165	87.19
314.394	80.19
314.624	78.19
314.853	86.19
315.083	96.19
315.312	85.19
315.542	86.19
315.771	99.19
316.001	81.19
316.23	85.19
316.46	86.19
316.689	74.19
316.919	90.19
317.148	90.19
317.377	91.19
317.607	93.19
317.836	88.19
318.065	90.19
318.295	69.19
318.524	93.19
318.753	82.19
318.983	84.19
319.212	93.19
319.441	82.19
319.67	86.19
319.9	95.19
320.129	81.19
320.358	83.19
320.587	91.19
320.816	85.19
321.046	87.19
321.275	82.19
321.504	81.19
321.733	89.19
321.962	82.19
322.191	86.19
322.42	98.19
322.649	92.19
322.878	78.19
323.108	94.19
323.337	98.19
323.566	74.19
323.795	94.19
324.024	68.19
324.253	88.19
324.482	93.19
324.71	89.19
324.939	90.19
325.168	85.19
325.397	87.19
325.626	93.19
325.855	83.19
326.084	86.19
326.313	84.19
326.542	88.19
326.77	85.19
326.999	89.19
327.228	77.19
327.457	99.19
327.686	98.19
327.914	103.19
328.143	99.19
328.372	85.19
328.6	82.19
328.829	69.19
329.058	88.19
329.287	92.19
329.515	87.19
329.744	96.19
329.972	71.19
330.201	91.19
330.43	90.19
330.658	86.19
330.887	97.19
331.115	97.19
331.344	86.19
331.572	83.19
331.801	86.19
332.03	80.19
332.258	88.19
332.486	82.19
332.715	84.19
332.943	91.19
333.172	86.19
333.4	95.19
333.629	80.19
333.857	96.19
334.085	97.19
334.314	87.19
334.542	96.19
334.771	85.19
334.999	90.19
335.227	94.19
335.455	95.19
335.684	99.19
335.912	95.19
336.14	92.19
336.369	87.19
336.597	92.19
336.825	95.19
337.053	101.19
337.281	82.19
337.51	85.19
337.738	106.19
337.966	93.19
338.194	85.19
338.422	105.19
338.65	78.19
338.878	79.19
339.106	102.19
339.334	103.19
339.562	97.19
339.79	68.19
340.018	74.19
340.246	97.19
340.474	85.19
340.702	83.19
340.93	92.19
341.158	94.19
341.386	97.19
341.614	85.19
341.842	95.19
342.07	89.19
342.298	86.19
342.526	90.19
342.754	82.19
342.981	83.19
343.209	78.19
343.437	94.19
343.665	77.19
343.893	90.19
344.12	89.19
344.348	73.19
344.576	83.19
344.804	88.19
345.031	78.19
345.259	87.19
345.487	90.19
345.714	99.19
345.942	84.19
346.17	83.19
346.397	78.19
346.625	78.19
346.853	94.19
347.08	86.19
347.308	85.19
347.535	85.19
347.763	95.19
347.99	98.19
348.218	94.19
348.445	83.19
348.673	87.19
348.9	73.19
349.128	85.19
349.355	77.19
349.583	79.19
349.81	84.19
350.037	92.19
350.265	98.19
350.492	94.19
350.72	90.19
350.947	92.19
351.174	93.19
351.402	76.19
351.629	73.19
351.856	86.19
352.083	93.19
352.311	84.19
352.538	82.19
352.765	83.19
352.992	100.19
353.22	112.19
353.447	79.19
353.674	98.19
353.901	88.19
354.128	85.19
354.355	86.19
354.583	89.19
354.81	89.19
355.037	92.19
355.264	90.19
355.491	63.19
355.718	88.19
355.945	85.19
356.172	91.19
356.399	85.19
356.626	94.19
356.853	96.19
357.08	95.19
357.307	86.19
357.534	88.19
357.761	87.19
357.988	95.19
358.215	90.19
358.441	78.19
358.668	83.19
358.895	96.19
359.122	101.19
359.349	81.19
359.576	99.19
359.802	86.19
360.029	89.19
360.256	76.19
360.483	85.19
360.709	90.19
360.936	102.19
361.163	85.19
361.39	71.19
361.616	93.19
361.843	97.19
362.07	67.19
362.296	99.19
362.523	88.19
362.749	79.19
362.976	90.19
363.203	88.19
363.429	82.19
363.656	93.19
363.882	99.19
364.109	85.19
364.335	98.19
364.562	87.19
364.788	81.19
365.015	101.19
365.241	88.19
365.468	97.19
365.694	77.19
365.92	79.19
366.147	91.19
366.373	78.19
366.599	87.19
366.826	86.19
367.052	81.19
367.278	95.19
367.505	81.19
367.731	80.19
367.957	109.19
368.184	83.19
368.41	93.19
368.636	95.19
368.862	95.19
369.089	81.19
369.315	105.19
369.541	94.19
369.767	96.19
369.993	82.19
370.219	93.19
370.445	85.19
370.672	94.19
370.898	83.19
371.124	67.19
371.35	97.19
371.576	100.19
371.802	87.19
372.028	90.19
372.254	87.19
372.48	95.19
372.706	77.19
372.932	84.19
373.158	78.19
373.384	98.19
373.61	86.19
373.835	82.19
374.061	80.19
374.287	89.19
374.513	89.19
374.739	75.19
374.965	92.19
375.191	86.19
375.416	81.19
375.642	69.19
375.868	100.19
376.094	102.19
376.319	94.19
376.545	93.19
376.771	95.19
376.997	78.19
377.222	89.19
377.448	92.19
377.674	81.19
377.899	90.19
378.125	92.19
378.35	93.19
378.576	84.19
378.802	85.19
379.027	94.19
379.253	95.19
379.478	96.19
379.704	92.19
379.929	89.19
380.155	82.19
380.38	84.19
380.606	84.19
380.831	83.19
381.057	97.19
381.282	81.19
381.507	94.19
381.733	78.19
381.958	67.19
382.184	91.19
382.409	82.19
382.634	83.19
382.86	83.19
383.085	96.19
383.31	91.19
383.535	93.19
383.761	100.19
383.986	85.19
384.211	99.19
384.436	89.19
384.662	96.19
384.887	84.19
385.112	91.19
385.337	86.19
385.562	93.19
385.787	89.19
386.013	101.19
386.238	102.19
386.463	89.19
386.688	88.19
386.913	86.19
387.138	99.19
387.363	83.19
387.588	89.19
387.813	91.19
388.038	93.19
388.263	87.19
388.488	98.19
388.713	93.19
388.938	85.19
389.163	77.19
389.387	93.19
389.612	69.19
389.837	85.19
390.062	91.19
390.287	92.19
390.512	70.19
390.736	87.19
390.961	85.19
391.186	79.19
391.411	93.19
391.636	87.19
391.86	87.19
392.085	90.19
392.31	99.19
392.534	88.19
392.759	82.19
392.984	95.19
393.208	87.19
393.433	95.19
393.658	83.19
393.882	85.19
394.107	82.19
394.331	99.19
394.556	106.19
394.78	90.19
395.005	83.19
395.229	80.19
395.454	84.19
395.678	79.19
395.903	93.19
396.127	74.19
396.352	83.19
396.576	86.19
396.801	92.19
397.025	93.19
397.249	95.19
397.474	95.19
397.698	97.19
397.922	87.19
398.147	102.19
398.371	94.19
398.595	88.19
398.82	93.19
399.044	102.19
399.268	97.19
399.492	102.19
399.717	104.19
399.941	96.19
400.165	97.19
400.389	100.19
400.613	101.19
400.837	101.19
401.062	97.19
401.286	77.19
401.51	98.19
401.734	83.19
401.958	78.19
402.182	89.19
402.406	92.19
402.63	97.19
402.854	94.19
403.078	100.19
403.302	93.19
403.526	92.19
403.75	96.19
403.974	87.19
404.198	86.19
404.422	92.19
404.645	99.19
404.869	107.19
405.093	92.19
405.317	92.19
405.541	85.19
405.765	93.19
405.988	91.19
406.212	89.19
406.436	90.19
406.66	89.19
406.883	109.19
407.107	100.19
407.331	107.19
407.555	102.19
407.778	96.19
408.002	96.19
408.226	86.19
408.449	96.19
408.673	90.19
408.896	89.19
409.12	88.19
409.344	99.19
409.567	89.19
409.791	90.19
410.014	91.19
410.238	85.19
410.461	84.19
410.685	97.19
410.908	87.19
411.132	105.19
411.355	89.19
411.578	80.19
411.802	93.19
412.025	104.19
412.249	101.19
412.472	83.19
412.695	96.19
412.919	78.19
413.142	98.19
413.365	90.19
413.589	94.19
413.812	91.19
414.035	97.19
414.258	88.19
414.482	87.19
414.705	103.19
414.928	109.19
415.151	81.19
415.374	84.19
415.597	94.19
415.821	90.19
416.044	86.19
416.267	89.19
416.49	92.19
416.713	105.19
416.936	86.19
417.159	91.19
417.382	89.19
417.605	78.19
417.828	92.19
418.051	84.19
418.274	86.19
418.497	100.19
418.72	96.19
418.943	98.19
419.166	95.19
419.389	80.19
419.611	86.19
419.834	92.19
420.057	73.19
420.28	85.19
420.503	92.19
420.726	87.19
420.948	82.19
421.171	90.19
421.394	93.19
421.617	84.19
421.839	95.19
422.062	93.19
422.285	93.19
422.507	93.19
422.73	83.19
422.953	86.19
423.175	96.19
423.398	109.19
423.621	101.19
423.843	84.19
424.066	87.19
424.288	94.19
424.511	89.19
424.733	93.19
424.956	90.19
425.178	93.19
425.401	93.19
425.623	95.19
425.846	91.19
426.068	91.19
426.291	88.19
426.513	73.19
426.735	86.19
426.958	74.19
427.18	81.19
427.402	84.19
427.625	87.19
427.847	77.19
428.069	95.19
428.292	83.19
428.514	98.19
428.736	91.19
428.958	78.19
429.181	86.19
429.403	80.19
429.625	90.19
429.847	103.19
430.069	95.19
430.292	96.19
430.514	91.19
430.736	81.19
430.958	82.19
431.18	84.19
431.402	93.19
431.624	84.19
431.846	87.19
432.068	82.19
432.29	98.19
432.512	92.19
432.734	83.19
432.956	84.19
433.178	92.19
433.4	78.19
433.622	85.19
433.844	96.19
434.066	77.19
434.287	88.19
434.509	105.19
434.731	85.19
434.953	87.19
435.175	94.19
435.397	75.19
435.618	86.19
435.84	90.19
436.062	100.19
436.284	93.19
436.505	77.19
436.727	79.19
436.949	96.19
437.17	88.19
437.392	86.19
437.614	89.19
437.835	100.19
438.057	70.19
438.278	88.19
438.5	93.19
438.721	97.19
438.943	95.19
439.165	86.19
439.386	82.19
439.608	89.19
439.829	81.19
440.05	84.19
440.272	90.19
440.493	98.19
440.715	82.19
440.936	99.19
441.158	97.19
441.379	81.19
441.6	85.19
441.822	93.19
442.043	87.19
442.264	86.19
442.486	100.19
442.707	89.19
442.928	94.19
443.149	74.19
443.371	70.19
443.592	71.19
443.813	86.19
444.034	90.19
444.255	88.19
444.476	86.19
444.698	101.19
444.919	100.19
445.14	224.19
445.361	133.19
445.582	80.19
445.803	77.19
446.024	86.19
446.245	99.19
446.466	94.19
446.687	71.19
446.908	81.19
447.129	93.19
447.35	79.19
447.571	89.19
447.792	84.19
448.013	77.19
448.234	99.19
448.455	89.19
448.675	100.19
448.896	82.19
449.117	85.19
449.338	103.19
449.559	96.19
449.779	99.19
450	98.19
450.221	88.19
450.442	83.19
450.662	74.19
450.883	86.19
451.104	102.19
451.324	88.19
451.545	104.19
451.766	84.19
451.986	90.19
452.207	94.19
452.428	88.19
452.648	95.19
452.869	88.19
453.089	77.19
453.31	75.19
453.53	75.19
453.751	93.19
453.971	88.19
454.192	84.19
454.412	72.19
454.633	82.19
454.853	85.19
455.073	90.19
455.294	95.19
455.514	90.19
455.734	85.19
455.955	87.19
456.175	107.19
456.395	102.19
456.616	87.19
456.836	84.19
457.056	88.19
457.276	83.19
457.497	93.19
457.717	87.19
457.937	85.19
458.157	85.19
458.377	90.19
458.598	86.19
458.818	93.19
459.038	92.19
459.258	95.19
459.478	83.19
459.698	71.19
459.918	91.19
460.138	102.19
460.358	89.19
460.578	94.19
460.798	85.19
461.018	97.19
461.238	103.19
461.458	84.19
461.678	97.19
461.898	105.19
462.118	89.19
462.338	107.19
462.558	92.19
462.777	106.19
462.997	98.19
463.217	87.19
463.437	104.19
463.657	104.19
463.876	99.19
464.096	97.19
464.316	102.19
464.536	94.19
464.755	74.19
464.975	88.19
465.195	90.19
465.414	102.19
465.634	96.19
465.854	84.19
466.073	96.19
466.293	97.19
466.512	90.19
466.732	67.19
466.951	79.19
467.171	85.19
467.391	88.19
467.61	91.19
467.829	97.19
468.049	78.19
468.268	93.19
468.488	105.19
468.707	79.19
468.927	85.19
469.146	86.19
469.365	85.19
469.585	85.19
469.804	98.19
470.023	98.19
470.243	90.19
470.462	94.19
470.681	95.19
470.901	91.19
471.12	88.19
471.339	88.19
471.558	83.19
471.777	104.19
471.997	105.19
472.216	93.19
472.435	93.19
472.654	73.19
472.873	93.19
473.092	100.19
473.311	96.19
473.53	89.19
473.749	91.19
473.968	88.19
474.187	93.19
474.406	85.19
474.625	75.19
474.844	95.19
475.063	99.19
475.282	82.19
475.501	86.19
475.72	101.19
475.939	88.19
476.158	92.19
476.377	102.19
476.596	96.19
476.814	96.19
477.033	92.19
477.252	96.19
477.471	107.19
477.69	95.19
477.908	87.19
478.127	96.19
478.346	89.19
478.564	94.19
478.783	89.19
479.002	94.19
479.22	109.19
479.439	93.19
479.658	83.19
479.876	84.19
480.095	95.19
480.313	99.19
480.532	111.19
480.751	93.19
480.969	89.19
481.188	92.19
481.406	103.19
481.624	85.19
481.843	83.19
482.061	86.19
482.28	86.19
482.498	90.19
482.717	100.19
482.935	99.19
483.153	95.19
483.372	114.19
483.59	94.19
483.808	86.19
484.027	76.19
484.245	109.19
484.463	107.19
484.681	91.19
484.9	88.19
485.118	89.19
485.336	105.19
485.554	105.19
485.772	94.19
485.99	91.19
486.209	94.19
486.427	106.19
486.645	113.19
486.863	104.19
487.081	96.19
487.299	100.19
487.517	90.19
487.735	116.19
487.953	104.19
488.171	116.19
488.389	97.19
488.607	95.19
488.825	101.19
489.043	79.19
489.261	109.19
489.479	95.19
489.696	102.19
489.914	91.19
490.132	100.19
490.35	95.19
490.568	109.19
490.786	107.19
491.003	109.19
491.221	103.19
491.439	122.19
491.657	98.19
491.874	101.19
492.092	117.19
492.31	113.19
492.527	118.19
492.745	109.19
492.963	121.19
493.18	112.19
493.398	105.19
493.615	101.19
493.833	101.19
494.05	116.19
494.268	111.19
494.485	102.19
494.703	113.19
494.92	98.19
495.138	105.19
495.355	101.19
495.573	103.19
495.79	112.19
496.008	111.19
496.225	115.19
496.442	107.19
496.66	99.19
496.877	97.19
497.094	101.19
497.312	107.19
497.529	97.19
497.746	113.19
497.963	100.19
498.181	111.19
498.398	91.19
498.615	106.19
498.832	102.19
499.049	111.19
499.267	98.19
499.484	113.19
499.701	102.19
499.918	125.19
500.135	136.19
500.352	146.19
500.569	138.19
500.786	148.19
501.003	118.19
501.22	120.19
501.437	118.19
501.654	131.19
501.871	121.19
502.088	100.19
502.305	105.19
502.522	104.19
502.739	107.19
502.956	106.19
503.172	114.19
503.389	104.19
503.606	107.19
503.823	105.19
504.04	125.19
504.256	111.19
504.473	106.19
504.69	98.19
504.907	106.19
505.123	97.19
505.34	105.19
505.557	98.19
505.773	91.19
505.99	104.19
506.207	99.19
506.423	104.19
506.64	102.19
506.856	95.19
507.073	102.19
507.289	101.19
507.506	96.19
507.722	92.19
507.939	97.19
508.155	107.19
508.372	91.19
508.588	89.19
508.805	93.19
509.021	101.19
509.238	94.19
509.454	114.19
509.67	86.19
509.887	111.19
510.103	85.19
510.319	85.19
510.536	78.19
510.752	98.19
510.968	83.19
511.184	85.19
511.401	94.19
511.617	103.19
511.833	85.19
512.049	94.19
512.265	92.19
512.481	100.19
512.698	94.19
512.914	100.19
513.13	79.19
513.346	93.19
513.562	97.19
513.778	99.19
513.994	96.19
514.21	91.19
514.426	97.19
514.642	94.19
514.858	94.19
515.074	108.19
515.29	82.19
515.506	108.19
515.721	86.19
515.937	96.19
516.153	98.19
516.369	101.19
516.585	94.19
516.801	101.19
517.016	83.19
