Data from Location5.07152019.Energy5.Lamp.07192019.3%Agarose_HRD10591_16-04-20-629.txt Node
Date: Fri Jul 19 16:04:20 EDT 2019
User: cochatt
Spectrometer: HR+D1059
Trigger mode: 1
Integration Time (sec): 1.000000E-1
Scans to average: 1
Electric dark correction enabled: true
Nonlinearity correction enabled: false
Boxcar width: 0
XAxis mode: Wavelengths
Number of Pixels in Spectrum: 2048
>>>>>Begin Spectral Data<<<<<
223.165	-8.44
223.4	-8.44
223.635	-8.44
223.869	-20.44
224.104	-25.44
224.338	-23.44
224.573	-9.44
224.808	-12.44
225.042	-19.44
225.277	-1.44
225.511	1.56
225.746	14.56
225.98	-1.44
226.215	10.56
226.449	24.56
226.683	17.56
226.918	38.56
227.152	14.56
227.387	27.56
227.621	29.56
227.856	37.56
228.09	33.56
228.324	38.56
228.559	60.56
228.793	66.56
229.027	55.56
229.262	73.56
229.496	71.56
229.73	79.56
229.964	65.56
230.199	70.56
230.433	79.56
230.667	76.56
230.901	71.56
231.136	80.56
231.37	84.56
231.604	85.56
231.838	91.56
232.072	83.56
232.306	87.56
232.541	81.56
232.775	70.56
233.009	82.56
233.243	80.56
233.477	91.56
233.711	89.56
233.945	79.56
234.179	82.56
234.413	78.56
234.647	86.56
234.881	76.56
235.115	90.56
235.349	66.56
235.583	73.56
235.817	73.56
236.051	71.56
236.285	72.56
236.519	78.56
236.753	66.56
236.987	64.56
237.221	71.56
237.455	77.56
237.689	92.56
237.922	79.56
238.156	84.56
238.39	85.56
238.624	79.56
238.858	80.56
239.091	84.56
239.325	73.56
239.559	76.56
239.793	70.56
240.027	83.56
240.26	73.56
240.494	76.56
240.728	83.56
240.961	74.56
241.195	86.56
241.429	68.56
241.662	75.56
241.896	83.56
242.13	75.56
242.363	82.56
242.597	85.56
242.83	82.56
243.064	76.56
243.298	78.56
243.531	86.56
243.765	78.56
243.998	92.56
244.232	75.56
244.465	84.56
244.699	82.56
244.932	82.56
245.166	65.56
245.399	90.56
245.633	86.56
245.866	75.56
246.099	87.56
246.333	74.56
246.566	94.56
246.8	80.56
247.033	83.56
247.266	69.56
247.5	60.56
247.733	75.56
247.966	74.56
248.2	75.56
248.433	82.56
248.666	69.56
248.899	76.56
249.133	87.56
249.366	80.56
249.599	86.56
249.832	70.56
250.066	82.56
250.299	75.56
250.532	81.56
250.765	78.56
250.998	66.56
251.231	91.56
251.465	87.56
251.698	76.56
251.931	82.56
252.164	77.56
252.397	80.56
252.63	78.56
252.863	81.56
253.096	86.56
253.329	83.56
253.562	69.56
253.795	82.56
254.028	71.56
254.261	77.56
254.494	80.56
254.727	88.56
254.96	71.56
255.193	79.56
255.426	84.56
255.659	70.56
255.892	82.56
256.124	94.56
256.357	98.56
256.59	87.56
256.823	72.56
257.056	71.56
257.289	82.56
257.521	72.56
257.754	75.56
257.987	94.56
258.22	71.56
258.452	70.56
258.685	79.56
258.918	75.56
259.151	78.56
259.383	77.56
259.616	66.56
259.849	85.56
260.081	74.56
260.314	87.56
260.547	90.56
260.779	93.56
261.012	74.56
261.244	75.56
261.477	82.56
261.71	86.56
261.942	97.56
262.175	74.56
262.407	84.56
262.64	89.56
262.872	74.56
263.105	71.56
263.337	91.56
263.57	83.56
263.802	76.56
264.035	75.56
264.267	104.56
264.499	90.56
264.732	68.56
264.964	78.56
265.197	84.56
265.429	89.56
265.661	84.56
265.894	88.56
266.126	87.56
266.358	89.56
266.591	89.56
266.823	91.56
267.055	81.56
267.287	88.56
267.52	80.56
267.752	81.56
267.984	88.56
268.216	80.56
268.448	83.56
268.681	75.56
268.913	82.56
269.145	71.56
269.377	70.56
269.609	82.56
269.841	92.56
270.073	85.56
270.306	83.56
270.538	83.56
270.77	81.56
271.002	89.56
271.234	78.56
271.466	96.56
271.698	71.56
271.93	96.56
272.162	84.56
272.394	92.56
272.626	96.56
272.858	87.56
273.09	86.56
273.322	72.56
273.553	91.56
273.785	75.56
274.017	85.56
274.249	91.56
274.481	95.56
274.713	80.56
274.945	88.56
275.176	81.56
275.408	90.56
275.64	81.56
275.872	83.56
276.104	71.56
276.335	65.56
276.567	87.56
276.799	89.56
277.031	93.56
277.262	91.56
277.494	92.56
277.726	88.56
277.957	89.56
278.189	88.56
278.421	75.56
278.652	79.56
278.884	81.56
279.115	86.56
279.347	80.56
279.579	83.56
279.81	95.56
280.042	92.56
280.273	83.56
280.505	88.56
280.736	94.56
280.968	83.56
281.199	89.56
281.431	84.56
281.662	94.56
281.894	88.56
282.125	86.56
282.356	97.56
282.588	91.56
282.819	89.56
283.051	85.56
283.282	80.56
283.513	74.56
283.745	84.56
283.976	83.56
284.207	84.56
284.439	87.56
284.67	90.56
284.901	96.56
285.132	87.56
285.364	87.56
285.595	80.56
285.826	98.56
286.057	88.56
286.288	90.56
286.52	90.56
286.751	79.56
286.982	92.56
287.213	90.56
287.444	80.56
287.675	95.56
287.906	88.56
288.138	94.56
288.369	92.56
288.6	89.56
288.831	97.56
289.062	88.56
289.293	91.56
289.524	82.56
289.755	91.56
289.986	99.56
290.217	84.56
290.448	93.56
290.679	88.56
290.91	83.56
291.141	89.56
291.371	82.56
291.602	80.56
291.833	91.56
292.064	90.56
292.295	90.56
292.526	89.56
292.757	98.56
292.987	79.56
293.218	89.56
293.449	96.56
293.68	84.56
293.91	89.56
294.141	94.56
294.372	94.56
294.603	92.56
294.833	95.56
295.064	91.56
295.295	88.56
295.525	93.56
295.756	102.56
295.987	91.56
296.217	88.56
296.448	99.56
296.679	107.56
296.909	100.56
297.14	96.56
297.37	91.56
297.601	94.56
297.831	94.56
298.062	89.56
298.292	92.56
298.523	90.56
298.753	107.56
298.984	82.56
299.214	105.56
299.445	83.56
299.675	74.56
299.905	87.56
300.136	99.56
300.366	96.56
300.597	95.56
300.827	79.56
301.057	99.56
301.288	89.56
301.518	101.56
301.748	86.56
301.979	91.56
302.209	92.56
302.439	88.56
302.669	97.56
302.9	88.56
303.13	86.56
303.36	91.56
303.59	83.56
303.82	86.56
304.051	95.56
304.281	92.56
304.511	96.56
304.741	79.56
304.971	75.56
305.201	91.56
305.431	107.56
305.661	92.56
305.891	93.56
306.121	87.56
306.352	65.56
306.582	96.56
306.812	87.56
307.042	95.56
307.272	94.56
307.502	83.56
307.731	100.56
307.961	97.56
308.191	83.56
308.421	83.56
308.651	79.56
308.881	83.56
309.111	77.56
309.341	84.56
309.571	84.56
309.8	95.56
310.03	91.56
310.26	83.56
310.49	84.56
310.72	89.56
310.949	89.56
311.179	98.56
311.409	90.56
311.639	94.56
311.868	99.56
312.098	108.56
312.328	86.56
312.557	83.56
312.787	74.56
313.017	91.56
313.246	87.56
313.476	91.56
313.706	98.56
313.935	89.56
314.165	87.56
314.394	89.56
314.624	92.56
314.853	87.56
315.083	82.56
315.312	99.56
315.542	93.56
315.771	96.56
316.001	89.56
316.23	90.56
316.46	90.56
316.689	89.56
316.919	92.56
317.148	90.56
317.377	86.56
317.607	81.56
317.836	81.56
318.065	108.56
318.295	85.56
318.524	99.56
318.753	82.56
318.983	81.56
319.212	89.56
319.441	87.56
319.67	75.56
319.9	77.56
320.129	73.56
320.358	102.56
320.587	88.56
320.816	100.56
321.046	87.56
321.275	101.56
321.504	94.56
321.733	85.56
321.962	99.56
322.191	94.56
322.42	81.56
322.649	86.56
322.878	85.56
323.108	94.56
323.337	96.56
323.566	74.56
323.795	94.56
324.024	91.56
324.253	92.56
324.482	86.56
324.71	108.56
324.939	82.56
325.168	94.56
325.397	99.56
325.626	95.56
325.855	85.56
326.084	90.56
326.313	91.56
326.542	91.56
326.77	98.56
326.999	81.56
327.228	80.56
327.457	93.56
327.686	92.56
327.914	87.56
328.143	106.56
328.372	88.56
328.6	92.56
328.829	94.56
329.058	84.56
329.287	91.56
329.515	111.56
329.744	104.56
329.972	80.56
330.201	95.56
330.43	83.56
330.658	91.56
330.887	86.56
331.115	97.56
331.344	88.56
331.572	91.56
331.801	91.56
332.03	95.56
332.258	79.56
332.486	91.56
332.715	100.56
332.943	91.56
333.172	89.56
333.4	84.56
333.629	82.56
333.857	100.56
334.085	94.56
334.314	108.56
334.542	92.56
334.771	87.56
334.999	85.56
335.227	100.56
335.455	98.56
335.684	98.56
335.912	100.56
336.14	97.56
336.369	88.56
336.597	92.56
336.825	95.56
337.053	104.56
337.281	100.56
337.51	99.56
337.738	89.56
337.966	94.56
338.194	86.56
338.422	105.56
338.65	95.56
338.878	92.56
339.106	90.56
339.334	100.56
339.562	101.56
339.79	89.56
340.018	77.56
340.246	59.56
340.474	77.56
340.702	94.56
340.93	92.56
341.158	90.56
341.386	95.56
341.614	82.56
341.842	89.56
342.07	83.56
342.298	101.56
342.526	105.56
342.754	94.56
342.981	77.56
343.209	70.56
343.437	96.56
343.665	104.56
343.893	100.56
344.12	87.56
344.348	74.56
344.576	85.56
344.804	86.56
345.031	99.56
345.259	96.56
345.487	74.56
345.714	101.56
345.942	85.56
346.17	86.56
346.397	103.56
346.625	91.56
346.853	89.56
347.08	89.56
347.308	89.56
347.535	91.56
347.763	81.56
347.99	98.56
348.218	78.56
348.445	86.56
348.673	85.56
348.9	97.56
349.128	87.56
349.355	76.56
349.583	89.56
349.81	90.56
350.037	87.56
350.265	85.56
350.492	96.56
350.72	84.56
350.947	95.56
351.174	77.56
351.402	97.56
351.629	85.56
351.856	90.56
352.083	69.56
352.311	92.56
352.538	96.56
352.765	96.56
352.992	107.56
353.22	94.56
353.447	84.56
353.674	92.56
353.901	82.56
354.128	84.56
354.355	96.56
354.583	86.56
354.81	99.56
355.037	102.56
355.264	73.56
355.491	90.56
355.718	92.56
355.945	88.56
356.172	90.56
356.399	70.56
356.626	95.56
356.853	83.56
357.08	98.56
357.307	84.56
357.534	99.56
357.761	80.56
357.988	80.56
358.215	78.56
358.441	101.56
358.668	94.56
358.895	95.56
359.122	84.56
359.349	88.56
359.576	87.56
359.802	85.56
360.029	90.56
360.256	99.56
360.483	87.56
360.709	89.56
360.936	83.56
361.163	88.56
361.39	99.56
361.616	82.56
361.843	97.56
362.07	98.56
362.296	88.56
362.523	94.56
362.749	87.56
362.976	89.56
363.203	87.56
363.429	75.56
363.656	79.56
363.882	95.56
364.109	95.56
364.335	99.56
364.562	92.56
364.788	86.56
365.015	71.56
365.241	90.56
365.468	98.56
365.694	84.56
365.92	90.56
366.147	99.56
366.373	86.56
366.599	81.56
366.826	90.56
367.052	97.56
367.278	94.56
367.505	108.56
367.731	87.56
367.957	92.56
368.184	89.56
368.41	98.56
368.636	94.56
368.862	79.56
369.089	88.56
369.315	96.56
369.541	105.56
369.767	102.56
369.993	98.56
370.219	91.56
370.445	86.56
370.672	101.56
370.898	108.56
371.124	87.56
371.35	87.56
371.576	90.56
371.802	83.56
372.028	93.56
372.254	80.56
372.48	97.56
372.706	96.56
372.932	89.56
373.158	95.56
373.384	95.56
373.61	83.56
373.835	97.56
374.061	98.56
374.287	99.56
374.513	83.56
374.739	102.56
374.965	82.56
375.191	94.56
375.416	98.56
375.642	95.56
375.868	107.56
376.094	71.56
376.319	108.56
376.545	100.56
376.771	97.56
376.997	86.56
377.222	93.56
377.448	95.56
377.674	95.56
377.899	102.56
378.125	77.56
378.35	95.56
378.576	90.56
378.802	74.56
379.027	88.56
379.253	90.56
379.478	94.56
379.704	99.56
379.929	80.56
380.155	101.56
380.38	89.56
380.606	84.56
380.831	82.56
381.057	96.56
381.282	104.56
381.507	89.56
381.733	99.56
381.958	103.56
382.184	87.56
382.409	80.56
382.634	91.56
382.86	79.56
383.085	94.56
383.31	84.56
383.535	106.56
383.761	99.56
383.986	99.56
384.211	93.56
384.436	91.56
384.662	81.56
384.887	91.56
385.112	83.56
385.337	103.56
385.562	94.56
385.787	101.56
386.013	82.56
386.238	77.56
386.463	95.56
386.688	93.56
386.913	88.56
387.138	87.56
387.363	83.56
387.588	95.56
387.813	107.56
388.038	110.56
388.263	99.56
388.488	96.56
388.713	83.56
388.938	77.56
389.163	89.56
389.387	88.56
389.612	94.56
389.837	97.56
390.062	80.56
390.287	86.56
390.512	84.56
390.736	92.56
390.961	77.56
391.186	107.56
391.411	94.56
391.636	88.56
391.86	89.56
392.085	110.56
392.31	97.56
392.534	108.56
392.759	87.56
392.984	100.56
393.208	93.56
393.433	91.56
393.658	96.56
393.882	87.56
394.107	90.56
394.331	89.56
394.556	98.56
394.78	78.56
395.005	100.56
395.229	90.56
395.454	110.56
395.678	105.56
395.903	78.56
396.127	91.56
396.352	75.56
396.576	98.56
396.801	95.56
397.025	92.56
397.249	87.56
397.474	84.56
397.698	93.56
397.922	97.56
398.147	83.56
398.371	79.56
398.595	87.56
398.82	87.56
399.044	110.56
399.268	91.56
399.492	96.56
399.717	106.56
399.941	97.56
400.165	99.56
400.389	95.56
400.613	107.56
400.837	92.56
401.062	102.56
401.286	78.56
401.51	99.56
401.734	80.56
401.958	96.56
402.182	86.56
402.406	91.56
402.63	92.56
402.854	80.56
403.078	97.56
403.302	105.56
403.526	110.56
403.75	94.56
403.974	88.56
404.198	94.56
404.422	85.56
404.645	88.56
404.869	91.56
405.093	85.56
405.317	88.56
405.541	98.56
405.765	90.56
405.988	106.56
406.212	97.56
406.436	84.56
406.66	89.56
406.883	98.56
407.107	100.56
407.331	96.56
407.555	93.56
407.778	89.56
408.002	102.56
408.226	95.56
408.449	82.56
408.673	101.56
408.896	101.56
409.12	87.56
409.344	115.56
409.567	104.56
409.791	87.56
410.014	94.56
410.238	94.56
410.461	105.56
410.685	92.56
410.908	85.56
411.132	96.56
411.355	95.56
411.578	105.56
411.802	94.56
412.025	101.56
412.249	91.56
412.472	92.56
412.695	86.56
412.919	103.56
413.142	97.56
413.365	78.56
413.589	88.56
413.812	90.56
414.035	86.56
414.258	103.56
414.482	95.56
414.705	105.56
414.928	99.56
415.151	81.56
415.374	79.56
415.597	97.56
415.821	90.56
416.044	80.56
416.267	89.56
416.49	94.56
416.713	107.56
416.936	101.56
417.159	88.56
417.382	104.56
417.605	105.56
417.828	89.56
418.051	103.56
418.274	85.56
418.497	94.56
418.72	90.56
418.943	105.56
419.166	96.56
419.389	91.56
419.611	83.56
419.834	94.56
420.057	94.56
420.28	96.56
420.503	91.56
420.726	99.56
420.948	86.56
421.171	95.56
421.394	89.56
421.617	102.56
421.839	86.56
422.062	92.56
422.285	88.56
422.507	103.56
422.73	110.56
422.953	84.56
423.175	87.56
423.398	82.56
423.621	107.56
423.843	100.56
424.066	91.56
424.288	86.56
424.511	100.56
424.733	104.56
424.956	97.56
425.178	108.56
425.401	89.56
425.623	82.56
425.846	97.56
426.068	94.56
426.291	86.56
426.513	88.56
426.735	97.56
426.958	92.56
427.18	95.56
427.402	90.56
427.625	94.56
427.847	92.56
428.069	98.56
428.292	86.56
428.514	98.56
428.736	107.56
428.958	89.56
429.181	86.56
429.403	92.56
429.625	91.56
429.847	98.56
430.069	99.56
430.292	100.56
430.514	96.56
430.736	84.56
430.958	94.56
431.18	98.56
431.402	99.56
431.624	107.56
431.846	80.56
432.068	82.56
432.29	97.56
432.512	95.56
432.734	97.56
432.956	90.56
433.178	100.56
433.4	98.56
433.622	99.56
433.844	80.56
434.066	98.56
434.287	90.56
434.509	84.56
434.731	97.56
434.953	85.56
435.175	99.56
435.397	99.56
435.618	102.56
435.84	68.56
436.062	84.56
436.284	102.56
436.505	89.56
436.727	94.56
436.949	103.56
437.17	88.56
437.392	92.56
437.614	92.56
437.835	91.56
438.057	82.56
438.278	91.56
438.5	99.56
438.721	74.56
438.943	104.56
439.165	97.56
439.386	102.56
439.608	101.56
439.829	91.56
440.05	90.56
440.272	100.56
440.493	92.56
440.715	86.56
440.936	80.56
441.158	88.56
441.379	90.56
441.6	92.56
441.822	90.56
442.043	80.56
442.264	100.56
442.486	104.56
442.707	89.56
442.928	97.56
443.149	102.56
443.371	105.56
443.592	89.56
443.813	87.56
444.034	91.56
444.255	82.56
444.476	94.56
444.698	94.56
444.919	96.56
445.14	207.56
445.361	154.56
445.582	116.56
445.803	95.56
446.024	76.56
446.245	105.56
446.466	93.56
446.687	87.56
446.908	95.56
447.129	80.56
447.35	92.56
447.571	99.56
447.792	93.56
448.013	90.56
448.234	74.56
448.455	88.56
448.675	80.56
448.896	98.56
449.117	92.56
449.338	107.56
449.559	92.56
449.779	97.56
450	97.56
450.221	89.56
450.442	87.56
450.662	99.56
450.883	91.56
451.104	95.56
451.324	82.56
451.545	83.56
451.766	87.56
451.986	89.56
452.207	92.56
452.428	88.56
452.648	103.56
452.869	84.56
453.089	91.56
453.31	104.56
453.53	99.56
453.751	87.56
453.971	82.56
454.192	96.56
454.412	88.56
454.633	94.56
454.853	83.56
455.073	84.56
455.294	94.56
455.514	90.56
455.734	86.56
455.955	107.56
456.175	93.56
456.395	88.56
456.616	85.56
456.836	108.56
457.056	100.56
457.276	101.56
457.497	91.56
457.717	80.56
457.937	94.56
458.157	90.56
458.377	86.56
458.598	84.56
458.818	87.56
459.038	82.56
459.258	91.56
459.478	87.56
459.698	88.56
459.918	84.56
460.138	86.56
460.358	95.56
460.578	106.56
460.798	109.56
461.018	88.56
461.238	98.56
461.458	104.56
461.678	102.56
461.898	90.56
462.118	95.56
462.338	80.56
462.558	83.56
462.777	102.56
462.997	110.56
463.217	115.56
463.437	110.56
463.657	91.56
463.876	92.56
464.096	110.56
464.316	91.56
464.536	100.56
464.755	106.56
464.975	78.56
465.195	102.56
465.414	113.56
465.634	94.56
465.854	99.56
466.073	88.56
466.293	101.56
466.512	99.56
466.732	98.56
466.951	91.56
467.171	93.56
467.391	81.56
467.61	102.56
467.829	96.56
468.049	101.56
468.268	87.56
468.488	90.56
468.707	84.56
468.927	92.56
469.146	87.56
469.365	96.56
469.585	105.56
469.804	94.56
470.023	94.56
470.243	95.56
470.462	94.56
470.681	97.56
470.901	109.56
471.12	93.56
471.339	89.56
471.558	98.56
471.777	112.56
471.997	93.56
472.216	96.56
472.435	103.56
472.654	75.56
472.873	85.56
473.092	89.56
473.311	89.56
473.53	96.56
473.749	88.56
473.968	83.56
474.187	91.56
474.406	108.56
474.625	92.56
474.844	94.56
475.063	91.56
475.282	94.56
475.501	102.56
475.72	94.56
475.939	90.56
476.158	102.56
476.377	86.56
476.596	112.56
476.814	109.56
477.033	98.56
477.252	102.56
477.471	90.56
477.69	89.56
477.908	106.56
478.127	96.56
478.346	104.56
478.564	91.56
478.783	89.56
479.002	96.56
479.22	101.56
479.439	90.56
479.658	98.56
479.876	89.56
480.095	98.56
480.313	92.56
480.532	98.56
480.751	109.56
480.969	94.56
481.188	104.56
481.406	97.56
481.624	99.56
481.843	94.56
482.061	92.56
482.28	111.56
482.498	75.56
482.717	99.56
482.935	109.56
483.153	110.56
483.372	103.56
483.59	91.56
483.808	95.56
484.027	106.56
484.245	83.56
484.463	82.56
484.681	90.56
484.9	106.56
485.118	98.56
485.336	107.56
485.554	105.56
485.772	107.56
485.99	84.56
486.209	100.56
486.427	97.56
486.645	98.56
486.863	90.56
487.081	104.56
487.299	99.56
487.517	103.56
487.735	101.56
487.953	115.56
488.171	106.56
488.389	110.56
488.607	110.56
488.825	97.56
489.043	107.56
489.261	103.56
489.479	100.56
489.696	99.56
489.914	105.56
490.132	102.56
490.35	100.56
490.568	90.56
490.786	98.56
491.003	110.56
491.221	106.56
491.439	97.56
491.657	127.56
491.874	108.56
492.092	107.56
492.31	121.56
492.527	104.56
492.745	100.56
492.963	112.56
493.18	116.56
493.398	92.56
493.615	102.56
493.833	94.56
494.05	113.56
494.268	102.56
494.485	103.56
494.703	105.56
494.92	116.56
495.138	112.56
495.355	110.56
495.573	111.56
495.79	120.56
496.008	106.56
496.225	97.56
496.442	108.56
496.66	114.56
496.877	124.56
497.094	116.56
497.312	125.56
497.529	109.56
497.746	110.56
497.963	103.56
498.181	112.56
498.398	114.56
498.615	100.56
498.832	105.56
499.049	107.56
499.267	104.56
499.484	120.56
499.701	125.56
499.918	126.56
500.135	134.56
500.352	149.56
500.569	138.56
500.786	144.56
501.003	139.56
501.22	126.56
501.437	120.56
501.654	119.56
501.871	110.56
502.088	118.56
502.305	108.56
502.522	116.56
502.739	104.56
502.956	111.56
503.172	116.56
503.389	97.56
503.606	110.56
503.823	114.56
504.04	109.56
504.256	111.56
504.473	99.56
504.69	106.56
504.907	120.56
505.123	94.56
505.34	97.56
505.557	83.56
505.773	102.56
505.99	98.56
506.207	93.56
506.423	110.56
506.64	102.56
506.856	120.56
507.073	92.56
507.289	84.56
507.506	113.56
507.722	100.56
507.939	103.56
508.155	103.56
508.372	114.56
508.588	98.56
508.805	95.56
509.021	106.56
509.238	95.56
509.454	107.56
509.67	99.56
509.887	98.56
510.103	88.56
510.319	105.56
510.536	98.56
510.752	110.56
510.968	108.56
511.184	98.56
511.401	91.56
511.617	94.56
511.833	96.56
512.049	97.56
512.265	97.56
512.481	98.56
512.698	95.56
512.914	105.56
513.13	98.56
513.346	89.56
513.562	102.56
513.778	90.56
513.994	88.56
514.21	99.56
514.426	95.56
514.642	107.56
514.858	91.56
515.074	87.56
515.29	95.56
515.506	115.56
515.721	98.56
515.937	94.56
