Data from Location5.07152019.Energy5.Lamp.07192019.3%Agarose_HRD10591_16-02-57-629.txt Node
Date: Fri Jul 19 16:02:57 EDT 2019
User: cochatt
Spectrometer: HR+D1059
Trigger mode: 1
Integration Time (sec): 1.000000E-1
Scans to average: 1
Electric dark correction enabled: true
Nonlinearity correction enabled: false
Boxcar width: 0
XAxis mode: Wavelengths
Number of Pixels in Spectrum: 2048
>>>>>Begin Spectral Data<<<<<
223.165	-18.81
223.4	-18.81
223.635	-18.81
223.869	-18.81
224.104	-14.81
224.338	-6.81
224.573	-12.81
224.808	-11.81
225.042	-13.81
225.277	-19.81
225.511	-0.81
225.746	3.19
225.98	12.19
226.215	18.19
226.449	21.19
226.683	17.19
226.918	17.19
227.152	29.19
227.387	43.19
227.621	40.19
227.856	30.19
228.09	44.19
228.324	50.19
228.559	60.19
228.793	68.19
229.027	79.19
229.262	74.19
229.496	49.19
229.73	78.19
229.964	82.19
230.199	73.19
230.433	89.19
230.667	72.19
230.901	80.19
231.136	82.19
231.37	95.19
231.604	92.19
231.838	99.19
232.072	78.19
232.306	87.19
232.541	85.19
232.775	86.19
233.009	91.19
233.243	89.19
233.477	103.19
233.711	86.19
233.945	108.19
234.179	71.19
234.413	85.19
234.647	82.19
234.881	82.19
235.115	95.19
235.349	89.19
235.583	90.19
235.817	80.19
236.051	74.19
236.285	75.19
236.519	67.19
236.753	78.19
236.987	76.19
237.221	76.19
237.455	82.19
237.689	80.19
237.922	89.19
238.156	101.19
238.39	71.19
238.624	77.19
238.858	84.19
239.091	84.19
239.325	77.19
239.559	83.19
239.793	93.19
240.027	87.19
240.26	89.19
240.494	88.19
240.728	80.19
240.961	92.19
241.195	92.19
241.429	80.19
241.662	82.19
241.896	76.19
242.13	78.19
242.363	81.19
242.597	69.19
242.83	89.19
243.064	76.19
243.298	77.19
243.531	88.19
243.765	84.19
243.998	73.19
244.232	77.19
244.465	81.19
244.699	83.19
244.932	79.19
245.166	85.19
245.399	78.19
245.633	79.19
245.866	89.19
246.099	81.19
246.333	95.19
246.566	90.19
246.8	85.19
247.033	77.19
247.266	82.19
247.5	86.19
247.733	82.19
247.966	94.19
248.2	69.19
248.433	91.19
248.666	80.19
248.899	93.19
249.133	82.19
249.366	86.19
249.599	77.19
249.832	94.19
250.066	82.19
250.299	82.19
250.532	95.19
250.765	86.19
250.998	80.19
251.231	74.19
251.465	84.19
251.698	79.19
251.931	77.19
252.164	75.19
252.397	88.19
252.63	89.19
252.863	92.19
253.096	98.19
253.329	84.19
253.562	79.19
253.795	96.19
254.028	87.19
254.261	95.19
254.494	87.19
254.727	85.19
254.96	80.19
255.193	86.19
255.426	86.19
255.659	81.19
255.892	89.19
256.124	102.19
256.357	98.19
256.59	92.19
256.823	87.19
257.056	85.19
257.289	106.19
257.521	91.19
257.754	79.19
257.987	83.19
258.22	107.19
258.452	90.19
258.685	96.19
258.918	86.19
259.151	79.19
259.383	79.19
259.616	111.19
259.849	96.19
260.081	82.19
260.314	81.19
260.547	78.19
260.779	89.19
261.012	87.19
261.244	93.19
261.477	72.19
261.71	103.19
261.942	82.19
262.175	77.19
262.407	96.19
262.64	89.19
262.872	96.19
263.105	85.19
263.337	97.19
263.57	95.19
263.802	96.19
264.035	94.19
264.267	86.19
264.499	90.19
264.732	101.19
264.964	91.19
265.197	102.19
265.429	78.19
265.661	89.19
265.894	87.19
266.126	90.19
266.358	76.19
266.591	85.19
266.823	86.19
267.055	79.19
267.287	99.19
267.52	88.19
267.752	88.19
267.984	84.19
268.216	92.19
268.448	83.19
268.681	100.19
268.913	96.19
269.145	95.19
269.377	80.19
269.609	96.19
269.841	95.19
270.073	92.19
270.306	110.19
270.538	95.19
270.77	74.19
271.002	82.19
271.234	82.19
271.466	91.19
271.698	95.19
271.93	98.19
272.162	94.19
272.394	98.19
272.626	89.19
272.858	89.19
273.09	109.19
273.322	86.19
273.553	82.19
273.785	98.19
274.017	87.19
274.249	105.19
274.481	97.19
274.713	86.19
274.945	87.19
275.176	103.19
275.408	108.19
275.64	94.19
275.872	92.19
276.104	101.19
276.335	87.19
276.567	107.19
276.799	94.19
277.031	90.19
277.262	105.19
277.494	101.19
277.726	95.19
277.957	98.19
278.189	89.19
278.421	85.19
278.652	72.19
278.884	98.19
279.115	95.19
279.347	103.19
279.579	94.19
279.81	84.19
280.042	91.19
280.273	90.19
280.505	96.19
280.736	82.19
280.968	95.19
281.199	98.19
281.431	95.19
281.662	88.19
281.894	95.19
282.125	101.19
282.356	90.19
282.588	91.19
282.819	87.19
283.051	98.19
283.282	94.19
283.513	102.19
283.745	89.19
283.976	95.19
284.207	106.19
284.439	89.19
284.67	94.19
284.901	87.19
285.132	104.19
285.364	98.19
285.595	102.19
285.826	85.19
286.057	101.19
286.288	112.19
286.52	110.19
286.751	94.19
286.982	82.19
287.213	105.19
287.444	110.19
287.675	93.19
287.906	93.19
288.138	106.19
288.369	97.19
288.6	92.19
288.831	104.19
289.062	83.19
289.293	96.19
289.524	85.19
289.755	93.19
289.986	117.19
290.217	104.19
290.448	89.19
290.679	93.19
290.91	102.19
291.141	104.19
291.371	105.19
291.602	94.19
291.833	111.19
292.064	103.19
292.295	102.19
292.526	99.19
292.757	104.19
292.987	106.19
293.218	101.19
293.449	96.19
293.68	92.19
293.91	107.19
294.141	100.19
294.372	76.19
294.603	88.19
294.833	108.19
295.064	93.19
295.295	106.19
295.525	106.19
295.756	101.19
295.987	104.19
296.217	97.19
296.448	110.19
296.679	103.19
296.909	91.19
297.14	104.19
297.37	102.19
297.601	86.19
297.831	97.19
298.062	96.19
298.292	93.19
298.523	102.19
298.753	96.19
298.984	83.19
299.214	106.19
299.445	104.19
299.675	106.19
299.905	94.19
300.136	90.19
300.366	89.19
300.597	103.19
300.827	106.19
301.057	88.19
301.288	101.19
301.518	105.19
301.748	98.19
301.979	83.19
302.209	87.19
302.439	83.19
302.669	103.19
302.9	87.19
303.13	92.19
303.36	91.19
303.59	104.19
303.82	77.19
304.051	106.19
304.281	98.19
304.511	111.19
304.741	99.19
304.971	105.19
305.201	98.19
305.431	102.19
305.661	91.19
305.891	99.19
306.121	105.19
306.352	102.19
306.582	96.19
306.812	92.19
307.042	108.19
307.272	98.19
307.502	85.19
307.731	99.19
307.961	95.19
308.191	98.19
308.421	101.19
308.651	117.19
308.881	95.19
309.111	108.19
309.341	89.19
309.571	93.19
309.8	106.19
310.03	90.19
310.26	102.19
310.49	108.19
310.72	89.19
310.949	98.19
311.179	107.19
311.409	113.19
311.639	92.19
311.868	101.19
312.098	75.19
312.328	101.19
312.557	103.19
312.787	93.19
313.017	90.19
313.246	95.19
313.476	104.19
313.706	101.19
313.935	98.19
314.165	94.19
314.394	112.19
314.624	89.19
314.853	103.19
315.083	95.19
315.312	100.19
315.542	90.19
315.771	105.19
316.001	97.19
316.23	94.19
316.46	89.19
316.689	108.19
316.919	107.19
317.148	117.19
317.377	91.19
317.607	95.19
317.836	102.19
318.065	94.19
318.295	89.19
318.524	100.19
318.753	95.19
318.983	91.19
319.212	119.19
319.441	104.19
319.67	90.19
319.9	97.19
320.129	99.19
320.358	94.19
320.587	111.19
320.816	94.19
321.046	95.19
321.275	102.19
321.504	103.19
321.733	96.19
321.962	95.19
322.191	100.19
322.42	85.19
322.649	89.19
322.878	105.19
323.108	102.19
323.337	102.19
323.566	92.19
323.795	99.19
324.024	95.19
324.253	110.19
324.482	105.19
324.71	105.19
324.939	107.19
325.168	102.19
325.397	108.19
325.626	101.19
325.855	102.19
326.084	101.19
326.313	108.19
326.542	104.19
326.77	99.19
326.999	110.19
327.228	88.19
327.457	91.19
327.686	106.19
327.914	105.19
328.143	96.19
328.372	107.19
328.6	95.19
328.829	102.19
329.058	96.19
329.287	92.19
329.515	97.19
329.744	101.19
329.972	112.19
330.201	105.19
330.43	104.19
330.658	98.19
330.887	94.19
331.115	98.19
331.344	100.19
331.572	93.19
331.801	97.19
332.03	101.19
332.258	113.19
332.486	98.19
332.715	113.19
332.943	107.19
333.172	97.19
333.4	109.19
333.629	90.19
333.857	108.19
334.085	91.19
334.314	99.19
334.542	95.19
334.771	101.19
334.999	98.19
335.227	101.19
335.455	106.19
335.684	113.19
335.912	111.19
336.14	112.19
336.369	104.19
336.597	100.19
336.825	100.19
337.053	90.19
337.281	96.19
337.51	87.19
337.738	99.19
337.966	108.19
338.194	99.19
338.422	103.19
338.65	101.19
338.878	104.19
339.106	106.19
339.334	98.19
339.562	117.19
339.79	106.19
340.018	107.19
340.246	107.19
340.474	104.19
340.702	98.19
340.93	105.19
341.158	94.19
341.386	83.19
341.614	97.19
341.842	87.19
342.07	100.19
342.298	105.19
342.526	101.19
342.754	97.19
342.981	113.19
343.209	94.19
343.437	87.19
343.665	105.19
343.893	100.19
344.12	106.19
344.348	102.19
344.576	101.19
344.804	100.19
345.031	94.19
345.259	100.19
345.487	110.19
345.714	102.19
345.942	92.19
346.17	104.19
346.397	93.19
346.625	93.19
346.853	93.19
347.08	88.19
347.308	91.19
347.535	93.19
347.763	99.19
347.99	104.19
348.218	98.19
348.445	104.19
348.673	105.19
348.9	107.19
349.128	111.19
349.355	99.19
349.583	99.19
349.81	111.19
350.037	92.19
350.265	91.19
350.492	104.19
350.72	102.19
350.947	102.19
351.174	111.19
351.402	101.19
351.629	104.19
351.856	108.19
352.083	96.19
352.311	99.19
352.538	103.19
352.765	93.19
352.992	81.19
353.22	106.19
353.447	111.19
353.674	101.19
353.901	99.19
354.128	82.19
354.355	111.19
354.583	91.19
354.81	95.19
355.037	115.19
355.264	102.19
355.491	95.19
355.718	115.19
355.945	102.19
356.172	108.19
356.399	108.19
356.626	88.19
356.853	100.19
357.08	95.19
357.307	101.19
357.534	96.19
357.761	125.19
357.988	100.19
358.215	91.19
358.441	97.19
358.668	101.19
358.895	104.19
359.122	101.19
359.349	93.19
359.576	105.19
359.802	90.19
360.029	91.19
360.256	126.19
360.483	97.19
360.709	82.19
360.936	94.19
361.163	94.19
361.39	95.19
361.616	98.19
361.843	101.19
362.07	113.19
362.296	104.19
362.523	97.19
362.749	90.19
362.976	94.19
363.203	98.19
363.429	89.19
363.656	98.19
363.882	88.19
364.109	103.19
364.335	106.19
364.562	89.19
364.788	102.19
365.015	103.19
365.241	106.19
365.468	101.19
365.694	98.19
365.92	99.19
366.147	92.19
366.373	100.19
366.599	98.19
366.826	101.19
367.052	110.19
367.278	98.19
367.505	107.19
367.731	101.19
367.957	101.19
368.184	111.19
368.41	96.19
368.636	104.19
368.862	106.19
369.089	100.19
369.315	98.19
369.541	84.19
369.767	103.19
369.993	95.19
370.219	114.19
370.445	91.19
370.672	99.19
370.898	95.19
371.124	100.19
371.35	104.19
371.576	98.19
371.802	82.19
372.028	95.19
372.254	97.19
372.48	86.19
372.706	101.19
372.932	92.19
373.158	98.19
373.384	101.19
373.61	99.19
373.835	89.19
374.061	103.19
374.287	96.19
374.513	107.19
374.739	93.19
374.965	97.19
375.191	96.19
375.416	102.19
375.642	105.19
375.868	98.19
376.094	109.19
376.319	93.19
376.545	110.19
376.771	108.19
376.997	106.19
377.222	99.19
377.448	110.19
377.674	102.19
377.899	95.19
378.125	97.19
378.35	108.19
378.576	98.19
378.802	101.19
379.027	95.19
379.253	99.19
379.478	96.19
379.704	103.19
379.929	99.19
380.155	100.19
380.38	105.19
380.606	99.19
380.831	119.19
381.057	110.19
381.282	101.19
381.507	93.19
381.733	111.19
381.958	101.19
382.184	89.19
382.409	114.19
382.634	99.19
382.86	105.19
383.085	118.19
383.31	94.19
383.535	107.19
383.761	112.19
383.986	88.19
384.211	110.19
384.436	103.19
384.662	111.19
384.887	104.19
385.112	97.19
385.337	124.19
385.562	109.19
385.787	96.19
386.013	106.19
386.238	109.19
386.463	113.19
386.688	111.19
386.913	101.19
387.138	99.19
387.363	114.19
387.588	101.19
387.813	105.19
388.038	101.19
388.263	100.19
388.488	97.19
388.713	104.19
388.938	102.19
389.163	113.19
389.387	102.19
389.612	90.19
389.837	106.19
390.062	93.19
390.287	89.19
390.512	102.19
390.736	103.19
390.961	96.19
391.186	100.19
391.411	104.19
391.636	102.19
391.86	108.19
392.085	98.19
392.31	114.19
392.534	94.19
392.759	107.19
392.984	111.19
393.208	117.19
393.433	93.19
393.658	94.19
393.882	104.19
394.107	119.19
394.331	102.19
394.556	109.19
394.78	96.19
395.005	98.19
395.229	103.19
395.454	100.19
395.678	109.19
395.903	123.19
396.127	105.19
396.352	103.19
396.576	110.19
396.801	110.19
397.025	95.19
397.249	112.19
397.474	105.19
397.698	115.19
397.922	117.19
398.147	91.19
398.371	103.19
398.595	105.19
398.82	99.19
399.044	109.19
399.268	105.19
399.492	91.19
399.717	110.19
399.941	107.19
400.165	120.19
400.389	102.19
400.613	106.19
400.837	107.19
401.062	105.19
401.286	103.19
401.51	90.19
401.734	110.19
401.958	91.19
402.182	101.19
402.406	108.19
402.63	108.19
402.854	108.19
403.078	122.19
403.302	117.19
403.526	119.19
403.75	116.19
403.974	97.19
404.198	105.19
404.422	115.19
404.645	108.19
404.869	109.19
405.093	110.19
405.317	110.19
405.541	104.19
405.765	117.19
405.988	109.19
406.212	101.19
406.436	97.19
406.66	108.19
406.883	99.19
407.107	114.19
407.331	105.19
407.555	101.19
407.778	129.19
408.002	112.19
408.226	114.19
408.449	101.19
408.673	121.19
408.896	121.19
409.12	104.19
409.344	102.19
409.567	103.19
409.791	105.19
410.014	95.19
410.238	113.19
410.461	102.19
410.685	122.19
410.908	102.19
411.132	116.19
411.355	111.19
411.578	108.19
411.802	108.19
412.025	99.19
412.249	111.19
412.472	112.19
412.695	106.19
412.919	117.19
413.142	101.19
413.365	109.19
413.589	105.19
413.812	111.19
414.035	104.19
414.258	105.19
414.482	105.19
414.705	108.19
414.928	88.19
415.151	113.19
415.374	104.19
415.597	112.19
415.821	96.19
416.044	103.19
416.267	82.19
416.49	100.19
416.713	112.19
416.936	112.19
417.159	108.19
417.382	107.19
417.605	94.19
417.828	117.19
418.051	112.19
418.274	111.19
418.497	117.19
418.72	103.19
418.943	103.19
419.166	95.19
419.389	85.19
419.611	109.19
419.834	120.19
420.057	93.19
420.28	117.19
420.503	108.19
420.726	117.19
420.948	103.19
421.171	99.19
421.394	101.19
421.617	106.19
421.839	94.19
422.062	119.19
422.285	98.19
422.507	98.19
422.73	112.19
422.953	113.19
423.175	111.19
423.398	103.19
423.621	103.19
423.843	100.19
424.066	96.19
424.288	90.19
424.511	101.19
424.733	112.19
424.956	110.19
425.178	95.19
425.401	109.19
425.623	108.19
425.846	96.19
426.068	102.19
426.291	104.19
426.513	105.19
426.735	115.19
426.958	107.19
427.18	117.19
427.402	106.19
427.625	101.19
427.847	96.19
428.069	96.19
428.292	108.19
428.514	109.19
428.736	104.19
428.958	99.19
429.181	106.19
429.403	97.19
429.625	87.19
429.847	112.19
430.069	111.19
430.292	92.19
430.514	98.19
430.736	114.19
430.958	105.19
431.18	96.19
431.402	109.19
431.624	97.19
431.846	96.19
432.068	105.19
432.29	101.19
432.512	94.19
432.734	107.19
432.956	101.19
433.178	108.19
433.4	105.19
433.622	104.19
433.844	95.19
434.066	97.19
434.287	99.19
434.509	110.19
434.731	106.19
434.953	111.19
435.175	103.19
435.397	117.19
435.618	118.19
435.84	106.19
436.062	97.19
436.284	86.19
436.505	99.19
436.727	107.19
436.949	101.19
437.17	113.19
437.392	91.19
437.614	111.19
437.835	95.19
438.057	102.19
438.278	103.19
438.5	102.19
438.721	112.19
438.943	101.19
439.165	103.19
439.386	110.19
439.608	98.19
439.829	112.19
440.05	114.19
440.272	89.19
440.493	105.19
440.715	101.19
440.936	115.19
441.158	109.19
441.379	110.19
441.6	97.19
441.822	102.19
442.043	98.19
442.264	102.19
442.486	97.19
442.707	107.19
442.928	107.19
443.149	104.19
443.371	91.19
443.592	106.19
443.813	110.19
444.034	96.19
444.255	98.19
444.476	96.19
444.698	102.19
444.919	99.19
445.14	239.19
445.361	170.19
445.582	98.19
445.803	101.19
446.024	105.19
446.245	105.19
446.466	111.19
446.687	95.19
446.908	92.19
447.129	114.19
447.35	108.19
447.571	102.19
447.792	116.19
448.013	89.19
448.234	94.19
448.455	100.19
448.675	97.19
448.896	108.19
449.117	107.19
449.338	104.19
449.559	96.19
449.779	94.19
450	94.19
450.221	110.19
450.442	107.19
450.662	117.19
450.883	94.19
451.104	113.19
451.324	111.19
451.545	98.19
451.766	93.19
451.986	98.19
452.207	94.19
452.428	103.19
452.648	100.19
452.869	101.19
453.089	103.19
453.31	96.19
453.53	98.19
453.751	101.19
453.971	108.19
454.192	107.19
454.412	94.19
454.633	103.19
454.853	110.19
455.073	96.19
455.294	107.19
455.514	95.19
455.734	91.19
455.955	99.19
456.175	93.19
456.395	91.19
456.616	100.19
456.836	88.19
457.056	101.19
457.276	103.19
457.497	102.19
457.717	106.19
457.937	110.19
458.157	93.19
458.377	106.19
458.598	96.19
458.818	93.19
459.038	105.19
459.258	101.19
459.478	96.19
459.698	124.19
459.918	122.19
460.138	98.19
460.358	122.19
460.578	114.19
460.798	116.19
461.018	101.19
461.238	91.19
461.458	105.19
461.678	115.19
461.898	114.19
462.118	105.19
462.338	113.19
462.558	132.19
462.777	104.19
462.997	105.19
463.217	99.19
463.437	104.19
463.657	109.19
463.876	104.19
464.096	115.19
464.316	123.19
464.536	92.19
464.755	99.19
464.975	100.19
465.195	125.19
465.414	107.19
465.634	91.19
465.854	101.19
466.073	98.19
466.293	99.19
466.512	117.19
466.732	98.19
466.951	97.19
467.171	116.19
467.391	101.19
467.61	106.19
467.829	86.19
468.049	107.19
468.268	110.19
468.488	93.19
468.707	106.19
468.927	103.19
469.146	107.19
469.365	115.19
469.585	91.19
469.804	103.19
470.023	105.19
470.243	97.19
470.462	94.19
470.681	106.19
470.901	96.19
471.12	108.19
471.339	125.19
471.558	117.19
471.777	112.19
471.997	105.19
472.216	101.19
472.435	113.19
472.654	106.19
472.873	110.19
473.092	110.19
473.311	106.19
473.53	113.19
473.749	99.19
473.968	107.19
474.187	114.19
474.406	103.19
474.625	96.19
474.844	118.19
475.063	94.19
475.282	107.19
475.501	103.19
475.72	102.19
475.939	103.19
476.158	102.19
476.377	100.19
476.596	101.19
476.814	108.19
477.033	100.19
477.252	109.19
477.471	108.19
477.69	104.19
477.908	106.19
478.127	126.19
478.346	99.19
478.564	106.19
478.783	113.19
479.002	105.19
479.22	96.19
479.439	99.19
479.658	103.19
479.876	114.19
480.095	117.19
480.313	120.19
480.532	107.19
480.751	119.19
480.969	120.19
481.188	118.19
481.406	103.19
481.624	113.19
481.843	109.19
482.061	100.19
482.28	112.19
482.498	109.19
482.717	99.19
482.935	112.19
483.153	117.19
483.372	103.19
483.59	101.19
483.808	109.19
484.027	111.19
484.245	102.19
484.463	111.19
484.681	109.19
484.9	112.19
485.118	119.19
485.336	122.19
485.554	113.19
485.772	117.19
485.99	113.19
486.209	112.19
486.427	116.19
486.645	111.19
486.863	116.19
487.081	119.19
487.299	108.19
487.517	103.19
487.735	117.19
487.953	120.19
488.171	111.19
488.389	101.19
488.607	114.19
488.825	100.19
489.043	122.19
489.261	104.19
489.479	110.19
489.696	106.19
489.914	115.19
490.132	122.19
490.35	110.19
490.568	114.19
490.786	121.19
491.003	107.19
491.221	127.19
491.439	124.19
491.657	114.19
491.874	121.19
492.092	114.19
492.31	128.19
492.527	135.19
492.745	133.19
492.963	127.19
493.18	106.19
493.398	110.19
493.615	114.19
493.833	122.19
494.05	117.19
494.268	117.19
494.485	123.19
494.703	121.19
494.92	123.19
495.138	123.19
495.355	118.19
495.573	126.19
495.79	126.19
496.008	125.19
496.225	135.19
496.442	123.19
496.66	131.19
496.877	132.19
497.094	130.19
497.312	126.19
497.529	121.19
497.746	113.19
497.963	123.19
498.181	123.19
498.398	117.19
498.615	116.19
498.832	128.19
499.049	132.19
499.267	139.19
499.484	136.19
499.701	139.19
499.918	167.19
500.135	174.19
500.352	170.19
500.569	158.19
500.786	174.19
501.003	148.19
501.22	157.19
501.437	142.19
501.654	137.19
501.871	146.19
502.088	127.19
502.305	121.19
502.522	121.19
502.739	131.19
502.956	119.19
503.172	123.19
503.389	118.19
503.606	129.19
503.823	116.19
504.04	125.19
504.256	124.19
504.473	105.19
504.69	119.19
504.907	125.19
505.123	112.19
505.34	105.19
505.557	119.19
505.773	121.19
505.99	112.19
506.207	123.19
506.423	106.19
506.64	111.19
506.856	117.19
507.073	120.19
507.289	122.19
507.506	129.19
507.722	109.19
507.939	113.19
508.155	105.19
508.372	95.19
508.588	107.19
508.805	114.19
509.021	113.19
509.238	114.19
509.454	104.19
