Data from Location5.07152019.Energy5.Lamp.07192019.3%Agarose_HRD10591_16-03-14-629.txt Node
Date: Fri Jul 19 16:03:14 EDT 2019
User: cochatt
Spectrometer: HR+D1059
Trigger mode: 1
Integration Time (sec): 1.000000E-1
Scans to average: 1
Electric dark correction enabled: true
Nonlinearity correction enabled: false
Boxcar width: 0
XAxis mode: Wavelengths
Number of Pixels in Spectrum: 2048
>>>>>Begin Spectral Data<<<<<
223.165	-9.88
223.4	-9.88
223.635	-9.88
223.869	-8.88
224.104	-10.88
224.338	-11.88
224.573	-13.88
224.808	-20.88
225.042	-12.88
225.277	22.12
225.511	-11.88
225.746	1.12
225.98	10.12
226.215	0.12
226.449	11.12
226.683	12.12
226.918	19.12
227.152	25.12
227.387	22.12
227.621	26.12
227.856	37.12
228.09	47.12
228.324	52.12
228.559	66.12
228.793	75.12
229.027	59.12
229.262	68.12
229.496	74.12
229.73	73.12
229.964	69.12
230.199	72.12
230.433	72.12
230.667	78.12
230.901	91.12
231.136	86.12
231.37	84.12
231.604	89.12
231.838	73.12
232.072	92.12
232.306	76.12
232.541	67.12
232.775	79.12
233.009	75.12
233.243	86.12
233.477	73.12
233.711	74.12
233.945	91.12
234.179	89.12
234.413	76.12
234.647	73.12
234.881	84.12
235.115	72.12
235.349	85.12
235.583	95.12
235.817	98.12
236.051	89.12
236.285	86.12
236.519	79.12
236.753	70.12
236.987	55.12
237.221	85.12
237.455	94.12
237.689	85.12
237.922	83.12
238.156	87.12
238.39	78.12
238.624	79.12
238.858	76.12
239.091	80.12
239.325	82.12
239.559	88.12
239.793	77.12
240.027	91.12
240.26	76.12
240.494	70.12
240.728	79.12
240.961	74.12
241.195	81.12
241.429	89.12
241.662	81.12
241.896	70.12
242.13	72.12
242.363	71.12
242.597	72.12
242.83	64.12
243.064	83.12
243.298	74.12
243.531	77.12
243.765	68.12
243.998	81.12
244.232	70.12
244.465	86.12
244.699	81.12
244.932	79.12
245.166	84.12
245.399	83.12
245.633	85.12
245.866	76.12
246.099	81.12
246.333	94.12
246.566	73.12
246.8	66.12
247.033	80.12
247.266	86.12
247.5	83.12
247.733	90.12
247.966	70.12
248.2	82.12
248.433	86.12
248.666	73.12
248.899	71.12
249.133	71.12
249.366	86.12
249.599	89.12
249.832	89.12
250.066	96.12
250.299	80.12
250.532	84.12
250.765	99.12
250.998	84.12
251.231	82.12
251.465	81.12
251.698	79.12
251.931	74.12
252.164	81.12
252.397	84.12
252.63	92.12
252.863	92.12
253.096	67.12
253.329	80.12
253.562	90.12
253.795	88.12
254.028	68.12
254.261	91.12
254.494	63.12
254.727	80.12
254.96	82.12
255.193	87.12
255.426	90.12
255.659	77.12
255.892	78.12
256.124	86.12
256.357	77.12
256.59	93.12
256.823	96.12
257.056	92.12
257.289	74.12
257.521	89.12
257.754	91.12
257.987	77.12
258.22	80.12
258.452	85.12
258.685	81.12
258.918	77.12
259.151	85.12
259.383	87.12
259.616	91.12
259.849	81.12
260.081	97.12
260.314	87.12
260.547	83.12
260.779	86.12
261.012	90.12
261.244	82.12
261.477	91.12
261.71	75.12
261.942	78.12
262.175	100.12
262.407	76.12
262.64	90.12
262.872	81.12
263.105	81.12
263.337	88.12
263.57	82.12
263.802	75.12
264.035	80.12
264.267	87.12
264.499	90.12
264.732	83.12
264.964	90.12
265.197	90.12
265.429	94.12
265.661	86.12
265.894	89.12
266.126	100.12
266.358	88.12
266.591	87.12
266.823	83.12
267.055	89.12
267.287	94.12
267.52	85.12
267.752	76.12
267.984	78.12
268.216	85.12
268.448	84.12
268.681	81.12
268.913	91.12
269.145	92.12
269.377	95.12
269.609	73.12
269.841	69.12
270.073	86.12
270.306	91.12
270.538	88.12
270.77	74.12
271.002	91.12
271.234	81.12
271.466	91.12
271.698	81.12
271.93	91.12
272.162	92.12
272.394	94.12
272.626	97.12
272.858	90.12
273.09	89.12
273.322	97.12
273.553	80.12
273.785	94.12
274.017	85.12
274.249	76.12
274.481	76.12
274.713	94.12
274.945	97.12
275.176	84.12
275.408	79.12
275.64	92.12
275.872	85.12
276.104	95.12
276.335	94.12
276.567	72.12
276.799	70.12
277.031	85.12
277.262	97.12
277.494	85.12
277.726	83.12
277.957	102.12
278.189	83.12
278.421	79.12
278.652	103.12
278.884	90.12
279.115	110.12
279.347	100.12
279.579	84.12
279.81	94.12
280.042	97.12
280.273	80.12
280.505	85.12
280.736	85.12
280.968	83.12
281.199	80.12
281.431	95.12
281.662	81.12
281.894	94.12
282.125	89.12
282.356	90.12
282.588	80.12
282.819	90.12
283.051	88.12
283.282	84.12
283.513	91.12
283.745	92.12
283.976	90.12
284.207	87.12
284.439	93.12
284.67	100.12
284.901	102.12
285.132	94.12
285.364	83.12
285.595	95.12
285.826	87.12
286.057	91.12
286.288	98.12
286.52	97.12
286.751	78.12
286.982	93.12
287.213	91.12
287.444	85.12
287.675	89.12
287.906	98.12
288.138	87.12
288.369	88.12
288.6	99.12
288.831	90.12
289.062	82.12
289.293	92.12
289.524	103.12
289.755	100.12
289.986	83.12
290.217	94.12
290.448	85.12
290.679	110.12
290.91	90.12
291.141	90.12
291.371	97.12
291.602	91.12
291.833	82.12
292.064	94.12
292.295	95.12
292.526	87.12
292.757	97.12
292.987	85.12
293.218	88.12
293.449	84.12
293.68	91.12
293.91	90.12
294.141	88.12
294.372	76.12
294.603	88.12
294.833	86.12
295.064	78.12
295.295	94.12
295.525	96.12
295.756	81.12
295.987	88.12
296.217	100.12
296.448	88.12
296.679	87.12
296.909	94.12
297.14	98.12
297.37	91.12
297.601	106.12
297.831	92.12
298.062	89.12
298.292	95.12
298.523	86.12
298.753	83.12
298.984	78.12
299.214	100.12
299.445	87.12
299.675	98.12
299.905	105.12
300.136	94.12
300.366	83.12
300.597	86.12
300.827	85.12
301.057	110.12
301.288	84.12
301.518	88.12
301.748	92.12
301.979	88.12
302.209	91.12
302.439	98.12
302.669	91.12
302.9	95.12
303.13	100.12
303.36	84.12
303.59	90.12
303.82	88.12
304.051	94.12
304.281	88.12
304.511	94.12
304.741	86.12
304.971	95.12
305.201	88.12
305.431	98.12
305.661	86.12
305.891	86.12
306.121	92.12
306.352	84.12
306.582	92.12
306.812	76.12
307.042	89.12
307.272	91.12
307.502	98.12
307.731	84.12
307.961	91.12
308.191	78.12
308.421	90.12
308.651	100.12
308.881	93.12
309.111	89.12
309.341	80.12
309.571	85.12
309.8	88.12
310.03	87.12
310.26	85.12
310.49	88.12
310.72	90.12
310.949	94.12
311.179	102.12
311.409	80.12
311.639	75.12
311.868	93.12
312.098	89.12
312.328	93.12
312.557	91.12
312.787	85.12
313.017	90.12
313.246	82.12
313.476	91.12
313.706	97.12
313.935	99.12
314.165	99.12
314.394	95.12
314.624	83.12
314.853	79.12
315.083	78.12
315.312	95.12
315.542	87.12
315.771	102.12
316.001	98.12
316.23	96.12
316.46	95.12
316.689	103.12
316.919	89.12
317.148	95.12
317.377	91.12
317.607	97.12
317.836	104.12
318.065	87.12
318.295	84.12
318.524	104.12
318.753	102.12
318.983	92.12
319.212	105.12
319.441	82.12
319.67	89.12
319.9	86.12
320.129	87.12
320.358	92.12
320.587	103.12
320.816	102.12
321.046	92.12
321.275	110.12
321.504	98.12
321.733	94.12
321.962	104.12
322.191	97.12
322.42	109.12
322.649	100.12
322.878	70.12
323.108	85.12
323.337	85.12
323.566	107.12
323.795	100.12
324.024	96.12
324.253	102.12
324.482	87.12
324.71	103.12
324.939	99.12
325.168	88.12
325.397	98.12
325.626	87.12
325.855	86.12
326.084	81.12
326.313	85.12
326.542	92.12
326.77	95.12
326.999	109.12
327.228	92.12
327.457	102.12
327.686	103.12
327.914	97.12
328.143	87.12
328.372	98.12
328.6	82.12
328.829	80.12
329.058	89.12
329.287	94.12
329.515	96.12
329.744	100.12
329.972	83.12
330.201	89.12
330.43	96.12
330.658	104.12
330.887	98.12
331.115	91.12
331.344	81.12
331.572	106.12
331.801	100.12
332.03	93.12
332.258	97.12
332.486	81.12
332.715	97.12
332.943	89.12
333.172	117.12
333.4	100.12
333.629	88.12
333.857	102.12
334.085	98.12
334.314	106.12
334.542	88.12
334.771	100.12
334.999	86.12
335.227	87.12
335.455	89.12
335.684	91.12
335.912	100.12
336.14	104.12
336.369	85.12
336.597	91.12
336.825	106.12
337.053	87.12
337.281	83.12
337.51	93.12
337.738	115.12
337.966	87.12
338.194	87.12
338.422	87.12
338.65	94.12
338.878	103.12
339.106	89.12
339.334	99.12
339.562	91.12
339.79	80.12
340.018	95.12
340.246	99.12
340.474	87.12
340.702	88.12
340.93	87.12
341.158	87.12
341.386	91.12
341.614	85.12
341.842	83.12
342.07	103.12
342.298	90.12
342.526	99.12
342.754	87.12
342.981	74.12
343.209	87.12
343.437	98.12
343.665	91.12
343.893	72.12
344.12	94.12
344.348	92.12
344.576	88.12
344.804	95.12
345.031	99.12
345.259	87.12
345.487	92.12
345.714	88.12
345.942	96.12
346.17	110.12
346.397	80.12
346.625	107.12
346.853	85.12
347.08	99.12
347.308	96.12
347.535	93.12
347.763	107.12
347.99	90.12
348.218	98.12
348.445	87.12
348.673	87.12
348.9	76.12
349.128	89.12
349.355	95.12
349.583	78.12
349.81	82.12
350.037	92.12
350.265	86.12
350.492	80.12
350.72	87.12
350.947	88.12
351.174	95.12
351.402	81.12
351.629	90.12
351.856	83.12
352.083	83.12
352.311	97.12
352.538	101.12
352.765	101.12
352.992	93.12
353.22	87.12
353.447	103.12
353.674	76.12
353.901	90.12
354.128	103.12
354.355	93.12
354.583	105.12
354.81	103.12
355.037	93.12
355.264	82.12
355.491	98.12
355.718	93.12
355.945	101.12
356.172	84.12
356.399	93.12
356.626	96.12
356.853	101.12
357.08	106.12
357.307	101.12
357.534	91.12
357.761	95.12
357.988	99.12
358.215	104.12
358.441	96.12
358.668	93.12
358.895	99.12
359.122	118.12
359.349	83.12
359.576	93.12
359.802	94.12
360.029	90.12
360.256	84.12
360.483	87.12
360.709	114.12
360.936	95.12
361.163	94.12
361.39	101.12
361.616	94.12
361.843	87.12
362.07	94.12
362.296	93.12
362.523	98.12
362.749	77.12
362.976	97.12
363.203	98.12
363.429	100.12
363.656	94.12
363.882	94.12
364.109	91.12
364.335	90.12
364.562	95.12
364.788	97.12
365.015	91.12
365.241	93.12
365.468	90.12
365.694	102.12
365.92	83.12
366.147	94.12
366.373	91.12
366.599	77.12
366.826	83.12
367.052	89.12
367.278	96.12
367.505	100.12
367.731	93.12
367.957	103.12
368.184	97.12
368.41	97.12
368.636	80.12
368.862	89.12
369.089	91.12
369.315	102.12
369.541	87.12
369.767	84.12
369.993	89.12
370.219	97.12
370.445	96.12
370.672	89.12
370.898	90.12
371.124	100.12
371.35	104.12
371.576	91.12
371.802	98.12
372.028	90.12
372.254	83.12
372.48	92.12
372.706	91.12
372.932	99.12
373.158	106.12
373.384	102.12
373.61	84.12
373.835	88.12
374.061	96.12
374.287	93.12
374.513	89.12
374.739	81.12
374.965	82.12
375.191	91.12
375.416	81.12
375.642	90.12
375.868	106.12
376.094	98.12
376.319	103.12
376.545	91.12
376.771	99.12
376.997	93.12
377.222	94.12
377.448	91.12
377.674	84.12
377.899	87.12
378.125	102.12
378.35	84.12
378.576	98.12
378.802	98.12
379.027	103.12
379.253	91.12
379.478	90.12
379.704	94.12
379.929	91.12
380.155	107.12
380.38	88.12
380.606	91.12
380.831	88.12
381.057	104.12
381.282	86.12
381.507	84.12
381.733	99.12
381.958	90.12
382.184	89.12
382.409	83.12
382.634	82.12
382.86	94.12
383.085	103.12
383.31	104.12
383.535	103.12
383.761	97.12
383.986	98.12
384.211	85.12
384.436	90.12
384.662	93.12
384.887	82.12
385.112	98.12
385.337	97.12
385.562	105.12
385.787	101.12
386.013	100.12
386.238	106.12
386.463	98.12
386.688	99.12
386.913	92.12
387.138	91.12
387.363	96.12
387.588	96.12
387.813	90.12
388.038	84.12
388.263	91.12
388.488	99.12
388.713	87.12
388.938	93.12
389.163	91.12
389.387	99.12
389.612	97.12
389.837	100.12
390.062	104.12
390.287	89.12
390.512	101.12
390.736	91.12
390.961	98.12
391.186	87.12
391.411	98.12
391.636	86.12
391.86	113.12
392.085	110.12
392.31	109.12
392.534	114.12
392.759	86.12
392.984	89.12
393.208	96.12
393.433	92.12
393.658	117.12
393.882	100.12
394.107	97.12
394.331	98.12
394.556	101.12
394.78	100.12
395.005	94.12
395.229	101.12
395.454	91.12
395.678	112.12
395.903	104.12
396.127	94.12
396.352	97.12
396.576	95.12
396.801	92.12
397.025	93.12
397.249	83.12
397.474	90.12
397.698	99.12
397.922	104.12
398.147	90.12
398.371	95.12
398.595	107.12
398.82	98.12
399.044	99.12
399.268	104.12
399.492	119.12
399.717	123.12
399.941	101.12
400.165	100.12
400.389	102.12
400.613	97.12
400.837	105.12
401.062	98.12
401.286	96.12
401.51	104.12
401.734	97.12
401.958	108.12
402.182	90.12
402.406	105.12
402.63	90.12
402.854	103.12
403.078	101.12
403.302	98.12
403.526	106.12
403.75	100.12
403.974	89.12
404.198	92.12
404.422	104.12
404.645	90.12
404.869	98.12
405.093	97.12
405.317	78.12
405.541	96.12
405.765	102.12
405.988	103.12
406.212	102.12
406.436	103.12
406.66	93.12
406.883	98.12
407.107	91.12
407.331	91.12
407.555	100.12
407.778	96.12
408.002	98.12
408.226	92.12
408.449	91.12
408.673	96.12
408.896	94.12
409.12	100.12
409.344	106.12
409.567	103.12
409.791	103.12
410.014	106.12
410.238	102.12
410.461	95.12
410.685	87.12
410.908	93.12
411.132	100.12
411.355	101.12
411.578	103.12
411.802	92.12
412.025	96.12
412.249	107.12
412.472	103.12
412.695	108.12
412.919	92.12
413.142	105.12
413.365	90.12
413.589	86.12
413.812	114.12
414.035	99.12
414.258	98.12
414.482	96.12
414.705	104.12
414.928	87.12
415.151	89.12
415.374	103.12
415.597	85.12
415.821	104.12
416.044	90.12
416.267	86.12
416.49	93.12
416.713	85.12
416.936	95.12
417.159	83.12
417.382	91.12
417.605	90.12
417.828	94.12
418.051	93.12
418.274	101.12
418.497	101.12
418.72	98.12
418.943	101.12
419.166	107.12
419.389	96.12
419.611	90.12
419.834	105.12
420.057	92.12
420.28	83.12
420.503	99.12
420.726	98.12
420.948	84.12
421.171	105.12
421.394	84.12
421.617	98.12
421.839	91.12
422.062	94.12
422.285	113.12
422.507	88.12
422.73	92.12
422.953	100.12
423.175	94.12
423.398	96.12
423.621	85.12
423.843	112.12
424.066	82.12
424.288	94.12
424.511	104.12
424.733	91.12
424.956	98.12
425.178	89.12
425.401	101.12
425.623	90.12
425.846	89.12
426.068	95.12
426.291	107.12
426.513	99.12
426.735	94.12
426.958	110.12
427.18	95.12
427.402	101.12
427.625	94.12
427.847	104.12
428.069	92.12
428.292	88.12
428.514	101.12
428.736	104.12
428.958	89.12
429.181	96.12
429.403	107.12
429.625	86.12
429.847	81.12
430.069	99.12
430.292	86.12
430.514	103.12
430.736	92.12
430.958	105.12
431.18	102.12
431.402	94.12
431.624	90.12
431.846	89.12
432.068	98.12
432.29	98.12
432.512	99.12
432.734	89.12
432.956	97.12
433.178	98.12
433.4	97.12
433.622	82.12
433.844	107.12
434.066	101.12
434.287	103.12
434.509	111.12
434.731	92.12
434.953	100.12
435.175	105.12
435.397	104.12
435.618	96.12
435.84	97.12
436.062	100.12
436.284	91.12
436.505	90.12
436.727	102.12
436.949	92.12
437.17	102.12
437.392	80.12
437.614	103.12
437.835	112.12
438.057	107.12
438.278	105.12
438.5	86.12
438.721	96.12
438.943	110.12
439.165	107.12
439.386	89.12
439.608	94.12
439.829	95.12
440.05	105.12
440.272	84.12
440.493	86.12
440.715	100.12
440.936	99.12
441.158	90.12
441.379	78.12
441.6	100.12
441.822	109.12
442.043	107.12
442.264	103.12
442.486	87.12
442.707	90.12
442.928	100.12
443.149	96.12
443.371	104.12
443.592	102.12
443.813	95.12
444.034	93.12
444.255	92.12
444.476	95.12
444.698	90.12
444.919	91.12
445.14	216.12
445.361	152.12
445.582	106.12
445.803	94.12
446.024	101.12
446.245	95.12
446.466	99.12
446.687	98.12
446.908	90.12
447.129	94.12
447.35	101.12
447.571	96.12
447.792	103.12
448.013	82.12
448.234	94.12
448.455	90.12
448.675	96.12
448.896	96.12
449.117	92.12
449.338	93.12
449.559	101.12
449.779	95.12
450	101.12
450.221	107.12
450.442	88.12
450.662	104.12
450.883	90.12
451.104	97.12
451.324	96.12
451.545	87.12
451.766	97.12
451.986	92.12
452.207	94.12
452.428	97.12
452.648	82.12
452.869	105.12
453.089	99.12
453.31	100.12
453.53	97.12
453.751	100.12
453.971	97.12
454.192	104.12
454.412	94.12
454.633	98.12
454.853	90.12
455.073	92.12
455.294	85.12
455.514	98.12
455.734	86.12
455.955	94.12
456.175	87.12
456.395	87.12
456.616	87.12
456.836	85.12
457.056	88.12
457.276	86.12
457.497	109.12
457.717	108.12
457.937	83.12
458.157	104.12
458.377	100.12
458.598	108.12
458.818	102.12
459.038	87.12
459.258	95.12
459.478	117.12
459.698	98.12
459.918	107.12
460.138	100.12
460.358	87.12
460.578	94.12
460.798	97.12
461.018	83.12
461.238	92.12
461.458	83.12
461.678	81.12
461.898	104.12
462.118	103.12
462.338	82.12
462.558	102.12
462.777	92.12
462.997	116.12
463.217	116.12
463.437	119.12
463.657	112.12
463.876	108.12
464.096	107.12
464.316	105.12
464.536	104.12
464.755	106.12
464.975	98.12
465.195	99.12
465.414	123.12
465.634	102.12
465.854	91.12
466.073	97.12
466.293	84.12
466.512	96.12
466.732	115.12
466.951	94.12
467.171	97.12
467.391	88.12
467.61	96.12
467.829	97.12
468.049	91.12
468.268	89.12
468.488	96.12
468.707	99.12
468.927	106.12
469.146	94.12
469.365	105.12
469.585	106.12
469.804	115.12
470.023	105.12
470.243	92.12
470.462	107.12
470.681	82.12
470.901	105.12
471.12	114.12
471.339	94.12
471.558	99.12
471.777	104.12
471.997	100.12
472.216	99.12
472.435	107.12
472.654	98.12
472.873	88.12
473.092	92.12
473.311	101.12
473.53	113.12
473.749	107.12
473.968	108.12
474.187	104.12
474.406	118.12
474.625	87.12
474.844	100.12
475.063	111.12
475.282	104.12
475.501	101.12
475.72	104.12
475.939	114.12
476.158	97.12
476.377	102.12
476.596	107.12
476.814	104.12
477.033	98.12
477.252	116.12
477.471	100.12
477.69	107.12
477.908	103.12
478.127	106.12
478.346	93.12
478.564	100.12
478.783	94.12
479.002	106.12
479.22	100.12
479.439	97.12
479.658	113.12
479.876	95.12
480.095	111.12
480.313	98.12
480.532	100.12
480.751	115.12
480.969	109.12
481.188	94.12
481.406	119.12
481.624	91.12
481.843	101.12
482.061	94.12
482.28	101.12
482.498	95.12
482.717	97.12
482.935	95.12
483.153	109.12
483.372	112.12
483.59	99.12
483.808	101.12
484.027	106.12
484.245	104.12
484.463	95.12
484.681	103.12
484.9	109.12
485.118	112.12
485.336	116.12
485.554	99.12
485.772	92.12
485.99	96.12
486.209	93.12
486.427	115.12
486.645	88.12
486.863	102.12
487.081	108.12
487.299	99.12
487.517	108.12
487.735	117.12
487.953	123.12
488.171	105.12
488.389	103.12
488.607	101.12
488.825	111.12
489.043	109.12
489.261	108.12
489.479	97.12
489.696	100.12
489.914	117.12
490.132	118.12
490.35	117.12
490.568	115.12
490.786	115.12
491.003	122.12
491.221	111.12
491.439	97.12
491.657	96.12
491.874	113.12
492.092	104.12
492.31	126.12
492.527	118.12
492.745	116.12
492.963	111.12
493.18	106.12
493.398	112.12
493.615	106.12
493.833	108.12
494.05	129.12
494.268	115.12
494.485	104.12
494.703	107.12
494.92	112.12
495.138	112.12
495.355	108.12
495.573	108.12
495.79	108.12
496.008	112.12
496.225	117.12
496.442	123.12
496.66	139.12
496.877	119.12
497.094	121.12
497.312	126.12
497.529	120.12
497.746	120.12
497.963	112.12
498.181	119.12
498.398	115.12
498.615	104.12
498.832	115.12
499.049	115.12
499.267	129.12
499.484	114.12
499.701	127.12
499.918	135.12
500.135	150.12
500.352	143.12
500.569	155.12
500.786	153.12
501.003	150.12
501.22	155.12
501.437	141.12
501.654	136.12
501.871	126.12
502.088	126.12
502.305	119.12
502.522	122.12
502.739	120.12
502.956	104.12
503.172	116.12
503.389	120.12
503.606	112.12
503.823	111.12
504.04	106.12
504.256	89.12
504.473	106.12
504.69	112.12
504.907	119.12
505.123	121.12
505.34	115.12
505.557	114.12
505.773	103.12
505.99	110.12
506.207	108.12
506.423	122.12
506.64	106.12
506.856	115.12
507.073	92.12
507.289	100.12
507.506	93.12
507.722	92.12
507.939	100.12
508.155	93.12
508.372	94.12
508.588	104.12
508.805	104.12
509.021	98.12
509.238	111.12
509.454	102.12
509.67	102.12
509.887	98.12
510.103	103.12
510.319	92.12
510.536	117.12
510.752	103.12
510.968	105.12
511.184	118.12
511.401	104.12
511.617	105.12
511.833	105.12
512.049	108.12
512.265	86.12
512.481	105.12
512.698	92.12
512.914	107.12
513.13	111.12
513.346	90.12
513.562	95.12
513.778	123.12
513.994	101.12
