Data from Location5.07152019.Energy5.Lamp.07192019.3%Agarose_HRD10591_15-38-44-388.txt Node
Date: Fri Jul 19 15:38:44 EDT 2019
User: cochatt
Spectrometer: HR+D1059
Trigger mode: 1
Integration Time (sec): 1.000000E-1
Scans to average: 1
Electric dark correction enabled: true
Nonlinearity correction enabled: false
Boxcar width: 0
XAxis mode: Wavelengths
Number of Pixels in Spectrum: 2048
>>>>>Begin Spectral Data<<<<<
223.165	-14.69
223.4	-14.69
223.635	-14.69
223.869	0.31
224.104	-20.69
224.338	-6.69
224.573	-4.69
224.808	-10.69
225.042	-14.69
225.277	2.31
225.511	-1.69
225.746	-0.69
225.98	-6.69
226.215	7.31
226.449	6.31
226.683	23.31
226.918	22.31
227.152	19.31
227.387	31.31
227.621	44.31
227.856	39.31
228.09	47.31
228.324	50.31
228.559	49.31
228.793	65.31
229.027	61.31
229.262	65.31
229.496	42.31
229.73	63.31
229.964	65.31
230.199	82.31
230.433	76.31
230.667	88.31
230.901	65.31
231.136	72.31
231.37	71.31
231.604	69.31
231.838	87.31
232.072	96.31
232.306	80.31
232.541	78.31
232.775	95.31
233.009	68.31
233.243	92.31
233.477	87.31
233.711	84.31
233.945	77.31
234.179	75.31
234.413	97.31
234.647	81.31
234.881	80.31
235.115	85.31
235.349	93.31
235.583	69.31
235.817	74.31
236.051	95.31
236.285	75.31
236.519	75.31
236.753	82.31
236.987	74.31
237.221	70.31
237.455	66.31
237.689	69.31
237.922	74.31
238.156	74.31
238.39	69.31
238.624	72.31
238.858	81.31
239.091	76.31
239.325	82.31
239.559	84.31
239.793	76.31
240.027	80.31
240.26	76.31
240.494	87.31
240.728	99.31
240.961	68.31
241.195	69.31
241.429	89.31
241.662	94.31
241.896	76.31
242.13	74.31
242.363	82.31
242.597	79.31
242.83	75.31
243.064	71.31
243.298	72.31
243.531	74.31
243.765	63.31
243.998	75.31
244.232	90.31
244.465	68.31
244.699	64.31
244.932	75.31
245.166	71.31
245.399	78.31
245.633	76.31
245.866	85.31
246.099	61.31
246.333	89.31
246.566	75.31
246.8	69.31
247.033	72.31
247.266	69.31
247.5	76.31
247.733	59.31
247.966	77.31
248.2	81.31
248.433	71.31
248.666	75.31
248.899	73.31
249.133	82.31
249.366	77.31
249.599	78.31
249.832	79.31
250.066	80.31
250.299	95.31
250.532	84.31
250.765	86.31
250.998	86.31
251.231	81.31
251.465	89.31
251.698	77.31
251.931	66.31
252.164	75.31
252.397	85.31
252.63	84.31
252.863	82.31
253.096	90.31
253.329	80.31
253.562	82.31
253.795	85.31
254.028	77.31
254.261	81.31
254.494	73.31
254.727	85.31
254.96	83.31
255.193	64.31
255.426	89.31
255.659	72.31
255.892	75.31
256.124	89.31
256.357	79.31
256.59	78.31
256.823	72.31
257.056	80.31
257.289	83.31
257.521	71.31
257.754	87.31
257.987	81.31
258.22	78.31
258.452	90.31
258.685	75.31
258.918	81.31
259.151	76.31
259.383	79.31
259.616	84.31
259.849	88.31
260.081	72.31
260.314	73.31
260.547	64.31
260.779	87.31
261.012	86.31
261.244	74.31
261.477	81.31
261.71	92.31
261.942	70.31
262.175	78.31
262.407	87.31
262.64	70.31
262.872	98.31
263.105	91.31
263.337	78.31
263.57	91.31
263.802	93.31
264.035	84.31
264.267	86.31
264.499	85.31
264.732	82.31
264.964	81.31
265.197	81.31
265.429	73.31
265.661	78.31
265.894	85.31
266.126	88.31
266.358	71.31
266.591	96.31
266.823	88.31
267.055	97.31
267.287	85.31
267.52	87.31
267.752	87.31
267.984	83.31
268.216	86.31
268.448	82.31
268.681	85.31
268.913	84.31
269.145	75.31
269.377	87.31
269.609	82.31
269.841	86.31
270.073	84.31
270.306	74.31
270.538	81.31
270.77	76.31
271.002	78.31
271.234	70.31
271.466	76.31
271.698	88.31
271.93	79.31
272.162	83.31
272.394	94.31
272.626	92.31
272.858	90.31
273.09	90.31
273.322	98.31
273.553	83.31
273.785	89.31
274.017	86.31
274.249	87.31
274.481	72.31
274.713	85.31
274.945	99.31
275.176	92.31
275.408	90.31
275.64	91.31
275.872	71.31
276.104	97.31
276.335	77.31
276.567	93.31
276.799	77.31
277.031	100.31
277.262	104.31
277.494	85.31
277.726	78.31
277.957	77.31
278.189	87.31
278.421	76.31
278.652	93.31
278.884	94.31
279.115	90.31
279.347	79.31
279.579	79.31
279.81	82.31
280.042	82.31
280.273	74.31
280.505	71.31
280.736	93.31
280.968	90.31
281.199	93.31
281.431	82.31
281.662	73.31
281.894	80.31
282.125	78.31
282.356	83.31
282.588	87.31
282.819	83.31
283.051	74.31
283.282	84.31
283.513	90.31
283.745	81.31
283.976	75.31
284.207	76.31
284.439	85.31
284.67	93.31
284.901	89.31
285.132	77.31
285.364	92.31
285.595	75.31
285.826	88.31
286.057	88.31
286.288	89.31
286.52	90.31
286.751	85.31
286.982	82.31
287.213	73.31
287.444	70.31
287.675	89.31
287.906	83.31
288.138	94.31
288.369	93.31
288.6	84.31
288.831	90.31
289.062	86.31
289.293	86.31
289.524	84.31
289.755	73.31
289.986	92.31
290.217	95.31
290.448	87.31
290.679	83.31
290.91	78.31
291.141	75.31
291.371	83.31
291.602	91.31
291.833	96.31
292.064	76.31
292.295	77.31
292.526	82.31
292.757	92.31
292.987	83.31
293.218	79.31
293.449	86.31
293.68	80.31
293.91	82.31
294.141	87.31
294.372	68.31
294.603	85.31
294.833	73.31
295.064	81.31
295.295	79.31
295.525	89.31
295.756	90.31
295.987	95.31
296.217	85.31
296.448	93.31
296.679	83.31
296.909	99.31
297.14	76.31
297.37	86.31
297.601	92.31
297.831	76.31
298.062	80.31
298.292	89.31
298.523	82.31
298.753	76.31
298.984	79.31
299.214	104.31
299.445	76.31
299.675	70.31
299.905	94.31
300.136	98.31
300.366	80.31
300.597	74.31
300.827	89.31
301.057	92.31
301.288	94.31
301.518	90.31
301.748	105.31
301.979	92.31
302.209	96.31
302.439	83.31
302.669	92.31
302.9	100.31
303.13	76.31
303.36	82.31
303.59	88.31
303.82	93.31
304.051	83.31
304.281	79.31
304.511	80.31
304.741	95.31
304.971	85.31
305.201	83.31
305.431	83.31
305.661	92.31
305.891	89.31
306.121	81.31
306.352	89.31
306.582	83.31
306.812	80.31
307.042	82.31
307.272	91.31
307.502	90.31
307.731	86.31
307.961	83.31
308.191	89.31
308.421	78.31
308.651	95.31
308.881	83.31
309.111	85.31
309.341	90.31
309.571	75.31
309.8	68.31
310.03	84.31
310.26	76.31
310.49	82.31
310.72	85.31
310.949	97.31
311.179	87.31
311.409	85.31
311.639	78.31
311.868	78.31
312.098	81.31
312.328	69.31
312.557	72.31
312.787	91.31
313.017	86.31
313.246	90.31
313.476	100.31
313.706	77.31
313.935	84.31
314.165	100.31
314.394	81.31
314.624	86.31
314.853	93.31
315.083	89.31
315.312	87.31
315.542	74.31
315.771	69.31
316.001	76.31
316.23	81.31
316.46	86.31
316.689	93.31
316.919	85.31
317.148	82.31
317.377	95.31
317.607	91.31
317.836	95.31
318.065	91.31
318.295	83.31
318.524	88.31
318.753	80.31
318.983	105.31
319.212	85.31
319.441	88.31
319.67	84.31
319.9	70.31
320.129	83.31
320.358	78.31
320.587	74.31
320.816	86.31
321.046	87.31
321.275	89.31
321.504	79.31
321.733	93.31
321.962	88.31
322.191	97.31
322.42	94.31
322.649	87.31
322.878	83.31
323.108	95.31
323.337	76.31
323.566	92.31
323.795	88.31
324.024	98.31
324.253	89.31
324.482	89.31
324.71	87.31
324.939	92.31
325.168	81.31
325.397	84.31
325.626	83.31
325.855	96.31
326.084	92.31
326.313	76.31
326.542	93.31
326.77	87.31
326.999	89.31
327.228	96.31
327.457	84.31
327.686	87.31
327.914	81.31
328.143	77.31
328.372	81.31
328.6	91.31
328.829	100.31
329.058	93.31
329.287	97.31
329.515	85.31
329.744	85.31
329.972	85.31
330.201	74.31
330.43	77.31
330.658	93.31
330.887	92.31
331.115	86.31
331.344	86.31
331.572	78.31
331.801	87.31
332.03	77.31
332.258	89.31
332.486	86.31
332.715	76.31
332.943	80.31
333.172	86.31
333.4	88.31
333.629	99.31
333.857	95.31
334.085	83.31
334.314	94.31
334.542	85.31
334.771	76.31
334.999	88.31
335.227	82.31
335.455	94.31
335.684	91.31
335.912	93.31
336.14	99.31
336.369	77.31
336.597	75.31
336.825	73.31
337.053	90.31
337.281	71.31
337.51	89.31
337.738	89.31
337.966	81.31
338.194	85.31
338.422	94.31
338.65	87.31
338.878	103.31
339.106	87.31
339.334	91.31
339.562	84.31
339.79	93.31
340.018	86.31
340.246	93.31
340.474	79.31
340.702	82.31
340.93	80.31
341.158	94.31
341.386	77.31
341.614	91.31
341.842	87.31
342.07	83.31
342.298	97.31
342.526	84.31
342.754	69.31
342.981	72.31
343.209	81.31
343.437	75.31
343.665	90.31
343.893	100.31
344.12	99.31
344.348	73.31
344.576	99.31
344.804	68.31
345.031	85.31
345.259	86.31
345.487	75.31
345.714	73.31
345.942	83.31
346.17	102.31
346.397	78.31
346.625	87.31
346.853	95.31
347.08	84.31
347.308	84.31
347.535	80.31
347.763	88.31
347.99	89.31
348.218	84.31
348.445	80.31
348.673	97.31
348.9	100.31
349.128	91.31
349.355	73.31
349.583	98.31
349.81	83.31
350.037	93.31
350.265	81.31
350.492	83.31
350.72	85.31
350.947	80.31
351.174	83.31
351.402	75.31
351.629	75.31
351.856	88.31
352.083	94.31
352.311	95.31
352.538	76.31
352.765	80.31
352.992	74.31
353.22	82.31
353.447	67.31
353.674	83.31
353.901	89.31
354.128	83.31
354.355	83.31
354.583	87.31
354.81	82.31
355.037	76.31
355.264	95.31
355.491	102.31
355.718	77.31
355.945	87.31
356.172	69.31
356.399	86.31
356.626	91.31
356.853	74.31
357.08	78.31
357.307	80.31
357.534	99.31
357.761	83.31
357.988	81.31
358.215	99.31
358.441	82.31
358.668	75.31
358.895	87.31
359.122	77.31
359.349	95.31
359.576	83.31
359.802	97.31
360.029	92.31
360.256	90.31
360.483	84.31
360.709	60.31
360.936	75.31
361.163	82.31
361.39	81.31
361.616	96.31
361.843	75.31
362.07	88.31
362.296	83.31
362.523	79.31
362.749	86.31
362.976	88.31
363.203	84.31
363.429	84.31
363.656	98.31
363.882	90.31
364.109	100.31
364.335	96.31
364.562	85.31
364.788	74.31
365.015	88.31
365.241	94.31
365.468	102.31
365.694	88.31
365.92	87.31
366.147	67.31
366.373	84.31
366.599	86.31
366.826	97.31
367.052	96.31
367.278	80.31
367.505	81.31
367.731	77.31
367.957	95.31
368.184	92.31
368.41	94.31
368.636	80.31
368.862	82.31
369.089	79.31
369.315	73.31
369.541	66.31
369.767	82.31
369.993	77.31
370.219	83.31
370.445	84.31
370.672	93.31
370.898	81.31
371.124	75.31
371.35	88.31
371.576	85.31
371.802	75.31
372.028	87.31
372.254	88.31
372.48	85.31
372.706	85.31
372.932	81.31
373.158	81.31
373.384	94.31
373.61	83.31
373.835	68.31
374.061	87.31
374.287	84.31
374.513	89.31
374.739	88.31
374.965	89.31
375.191	84.31
375.416	88.31
375.642	89.31
375.868	82.31
376.094	96.31
376.319	79.31
376.545	67.31
376.771	84.31
376.997	90.31
377.222	83.31
377.448	91.31
377.674	80.31
377.899	88.31
378.125	79.31
378.35	90.31
378.576	88.31
378.802	103.31
379.027	92.31
379.253	95.31
379.478	81.31
379.704	86.31
379.929	99.31
380.155	87.31
380.38	88.31
380.606	90.31
380.831	85.31
381.057	93.31
381.282	101.31
381.507	83.31
381.733	90.31
381.958	82.31
382.184	96.31
382.409	80.31
382.634	87.31
382.86	82.31
383.085	84.31
383.31	86.31
383.535	81.31
383.761	87.31
383.986	98.31
384.211	83.31
384.436	77.31
384.662	83.31
384.887	90.31
385.112	94.31
385.337	96.31
385.562	99.31
385.787	82.31
386.013	88.31
386.238	89.31
386.463	81.31
386.688	90.31
386.913	75.31
387.138	93.31
387.363	84.31
387.588	88.31
387.813	98.31
388.038	89.31
388.263	89.31
388.488	85.31
388.713	98.31
388.938	85.31
389.163	84.31
389.387	77.31
389.612	90.31
389.837	96.31
390.062	86.31
390.287	92.31
390.512	93.31
390.736	80.31
390.961	81.31
391.186	83.31
391.411	88.31
391.636	91.31
391.86	89.31
392.085	87.31
392.31	88.31
392.534	80.31
392.759	87.31
392.984	85.31
393.208	78.31
393.433	92.31
393.658	76.31
393.882	86.31
394.107	81.31
394.331	77.31
394.556	92.31
394.78	91.31
395.005	98.31
395.229	95.31
395.454	93.31
395.678	95.31
395.903	92.31
396.127	73.31
396.352	90.31
396.576	81.31
396.801	92.31
397.025	90.31
397.249	63.31
397.474	85.31
397.698	90.31
397.922	86.31
398.147	87.31
398.371	81.31
398.595	84.31
398.82	82.31
399.044	74.31
399.268	90.31
399.492	96.31
399.717	85.31
399.941	98.31
400.165	78.31
400.389	87.31
400.613	94.31
400.837	95.31
401.062	87.31
401.286	81.31
401.51	88.31
401.734	88.31
401.958	79.31
402.182	76.31
402.406	89.31
402.63	90.31
402.854	88.31
403.078	86.31
403.302	81.31
403.526	91.31
403.75	86.31
403.974	112.31
404.198	97.31
404.422	81.31
404.645	96.31
404.869	92.31
405.093	98.31
405.317	97.31
405.541	92.31
405.765	94.31
405.988	97.31
406.212	99.31
406.436	80.31
406.66	77.31
406.883	79.31
407.107	94.31
407.331	91.31
407.555	90.31
407.778	101.31
408.002	90.31
408.226	73.31
408.449	79.31
408.673	83.31
408.896	91.31
409.12	86.31
409.344	99.31
409.567	85.31
409.791	95.31
410.014	102.31
410.238	87.31
410.461	88.31
410.685	85.31
410.908	85.31
411.132	87.31
411.355	83.31
411.578	95.31
411.802	97.31
412.025	90.31
412.249	96.31
412.472	83.31
412.695	91.31
412.919	100.31
413.142	81.31
413.365	86.31
413.589	83.31
413.812	92.31
414.035	91.31
414.258	92.31
414.482	94.31
414.705	99.31
414.928	85.31
415.151	89.31
415.374	92.31
415.597	91.31
415.821	92.31
416.044	97.31
416.267	107.31
416.49	117.31
416.713	91.31
416.936	93.31
417.159	92.31
417.382	116.31
417.605	100.31
417.828	90.31
418.051	86.31
418.274	95.31
418.497	87.31
418.72	99.31
418.943	100.31
419.166	95.31
419.389	95.31
419.611	93.31
419.834	91.31
420.057	103.31
420.28	91.31
420.503	84.31
420.726	103.31
420.948	90.31
421.171	92.31
421.394	89.31
421.617	102.31
421.839	91.31
422.062	92.31
422.285	82.31
422.507	91.31
422.73	87.31
422.953	81.31
423.175	92.31
423.398	98.31
423.621	98.31
423.843	101.31
424.066	106.31
424.288	97.31
424.511	99.31
424.733	90.31
424.956	91.31
425.178	98.31
425.401	98.31
425.623	83.31
425.846	89.31
426.068	100.31
426.291	79.31
426.513	105.31
426.735	95.31
426.958	99.31
427.18	89.31
427.402	92.31
427.625	99.31
427.847	81.31
428.069	90.31
428.292	89.31
428.514	101.31
428.736	94.31
428.958	104.31
429.181	83.31
429.403	102.31
429.625	91.31
429.847	99.31
430.069	95.31
430.292	77.31
430.514	99.31
430.736	87.31
430.958	88.31
431.18	92.31
431.402	102.31
431.624	90.31
431.846	92.31
432.068	85.31
432.29	85.31
432.512	92.31
432.734	85.31
432.956	100.31
433.178	96.31
433.4	96.31
433.622	95.31
433.844	91.31
434.066	108.31
434.287	85.31
434.509	78.31
434.731	84.31
434.953	93.31
435.175	86.31
435.397	93.31
435.618	98.31
435.84	101.31
436.062	92.31
436.284	85.31
436.505	86.31
436.727	83.31
436.949	98.31
437.17	90.31
437.392	82.31
437.614	84.31
437.835	89.31
438.057	74.31
438.278	92.31
438.5	79.31
438.721	97.31
438.943	94.31
439.165	86.31
439.386	87.31
439.608	98.31
439.829	100.31
440.05	89.31
440.272	91.31
440.493	96.31
440.715	90.31
440.936	96.31
441.158	92.31
441.379	95.31
441.6	97.31
441.822	97.31
442.043	98.31
442.264	105.31
442.486	100.31
442.707	87.31
442.928	95.31
443.149	78.31
443.371	87.31
443.592	99.31
443.813	96.31
444.034	112.31
444.255	97.31
444.476	97.31
444.698	97.31
444.919	92.31
445.14	204.31
445.361	158.31
445.582	119.31
445.803	96.31
446.024	95.31
446.245	97.31
446.466	101.31
446.687	109.31
446.908	85.31
447.129	107.31
447.35	107.31
447.571	95.31
447.792	87.31
448.013	85.31
448.234	70.31
448.455	81.31
448.675	90.31
448.896	102.31
449.117	85.31
449.338	97.31
449.559	87.31
449.779	104.31
450	90.31
450.221	87.31
450.442	88.31
450.662	95.31
450.883	95.31
451.104	90.31
451.324	101.31
451.545	93.31
451.766	93.31
451.986	90.31
452.207	93.31
452.428	93.31
452.648	87.31
452.869	89.31
453.089	86.31
453.31	74.31
453.53	91.31
453.751	82.31
453.971	94.31
454.192	98.31
454.412	103.31
454.633	84.31
454.853	89.31
455.073	98.31
455.294	90.31
455.514	94.31
455.734	92.31
455.955	88.31
456.175	107.31
456.395	83.31
456.616	84.31
456.836	92.31
457.056	75.31
457.276	82.31
457.497	88.31
457.717	81.31
457.937	84.31
458.157	86.31
458.377	96.31
458.598	80.31
458.818	80.31
459.038	72.31
459.258	86.31
459.478	79.31
459.698	68.31
459.918	92.31
460.138	99.31
460.358	105.31
460.578	100.31
460.798	84.31
461.018	89.31
461.238	99.31
461.458	74.31
461.678	75.31
461.898	93.31
462.118	96.31
462.338	83.31
462.558	95.31
462.777	93.31
462.997	94.31
463.217	88.31
463.437	89.31
463.657	88.31
463.876	86.31
464.096	95.31
464.316	90.31
464.536	81.31
464.755	84.31
464.975	91.31
465.195	93.31
465.414	91.31
465.634	81.31
465.854	89.31
466.073	92.31
466.293	86.31
466.512	83.31
466.732	92.31
466.951	104.31
467.171	94.31
467.391	91.31
467.61	96.31
467.829	94.31
468.049	82.31
468.268	90.31
468.488	116.31
468.707	105.31
468.927	104.31
469.146	97.31
469.365	101.31
469.585	101.31
469.804	102.31
470.023	94.31
470.243	89.31
470.462	103.31
470.681	87.31
470.901	94.31
471.12	95.31
471.339	84.31
471.558	95.31
471.777	82.31
471.997	103.31
472.216	99.31
472.435	94.31
472.654	75.31
472.873	76.31
473.092	101.31
473.311	99.31
473.53	94.31
473.749	88.31
473.968	104.31
474.187	99.31
474.406	83.31
474.625	97.31
474.844	85.31
475.063	98.31
475.282	92.31
475.501	97.31
475.72	98.31
475.939	91.31
476.158	87.31
476.377	100.31
476.596	100.31
476.814	95.31
477.033	98.31
477.252	98.31
477.471	91.31
477.69	87.31
477.908	78.31
478.127	89.31
478.346	92.31
478.564	83.31
478.783	89.31
479.002	102.31
479.22	107.31
479.439	108.31
479.658	103.31
479.876	74.31
480.095	94.31
480.313	87.31
480.532	89.31
480.751	80.31
480.969	86.31
481.188	68.31
481.406	76.31
481.624	79.31
481.843	80.31
482.061	90.31
482.28	84.31
482.498	93.31
482.717	90.31
482.935	103.31
483.153	85.31
483.372	99.31
483.59	98.31
483.808	103.31
484.027	98.31
484.245	106.31
484.463	103.31
484.681	102.31
484.9	98.31
485.118	98.31
485.336	93.31
485.554	91.31
485.772	96.31
485.99	90.31
486.209	89.31
486.427	84.31
486.645	90.31
486.863	104.31
487.081	96.31
487.299	80.31
487.517	100.31
487.735	108.31
487.953	108.31
488.171	116.31
488.389	115.31
488.607	108.31
488.825	98.31
489.043	97.31
489.261	100.31
489.479	96.31
489.696	82.31
489.914	93.31
490.132	98.31
490.35	99.31
490.568	96.31
490.786	109.31
491.003	91.31
491.221	102.31
491.439	103.31
491.657	109.31
491.874	116.31
492.092	127.31
492.31	129.31
492.527	123.31
492.745	108.31
492.963	123.31
493.18	117.31
493.398	112.31
493.615	103.31
493.833	113.31
494.05	91.31
494.268	107.31
494.485	101.31
494.703	102.31
494.92	105.31
495.138	111.31
495.355	102.31
495.573	87.31
495.79	94.31
496.008	104.31
496.225	112.31
496.442	121.31
496.66	107.31
496.877	115.31
497.094	108.31
497.312	103.31
497.529	96.31
497.746	94.31
497.963	96.31
498.181	86.31
498.398	82.31
498.615	90.31
498.832	95.31
499.049	83.31
499.267	97.31
499.484	96.31
499.701	99.31
499.918	98.31
500.135	103.31
500.352	87.31
500.569	92.31
500.786	116.31
501.003	109.31
501.22	113.31
501.437	103.31
501.654	100.31
501.871	91.31
502.088	88.31
502.305	85.31
502.522	87.31
502.739	78.31
502.956	97.31
503.172	97.31
503.389	87.31
503.606	82.31
503.823	89.31
504.04	95.31
504.256	103.31
504.473	100.31
504.69	76.31
504.907	101.31
505.123	92.31
505.34	93.31
505.557	106.31
505.773	111.31
505.99	101.31
506.207	87.31
506.423	93.31
506.64	84.31
506.856	93.31
507.073	95.31
507.289	96.31
507.506	89.31
507.722	99.31
507.939	102.31
508.155	107.31
508.372	97.31
508.588	89.31
508.805	83.31
509.021	81.31
509.238	75.31
509.454	99.31
509.67	92.31
509.887	90.31
510.103	99.31
510.319	88.31
510.536	84.31
510.752	82.31
510.968	78.31
511.184	80.31
511.401	89.31
511.617	91.31
511.833	98.31
512.049	91.31
512.265	83.31
512.481	77.31
512.698	82.31
512.914	92.31
513.13	98.31
513.346	91.31
513.562	85.31
513.778	86.31
513.994	96.31
514.21	93.31
514.426	107.31
514.642	73.31
514.858	89.31
515.074	97.31
515.29	82.31
515.506	90.31
515.721	87.31
515.937	77.31
516.153	70.31
516.369	93.31
516.585	90.31
516.801	86.31
517.016	89.31
517.232	81.31
517.448	98.31
517.664	89.31
