Data from Location5.07152019.Energy5.Lamp.07192019.3%Agarose_HRD10591_15-36-42-387.txt Node
Date: Fri Jul 19 15:36:42 EDT 2019
User: cochatt
Spectrometer: HR+D1059
Trigger mode: 1
Integration Time (sec): 1.000000E-1
Scans to average: 1
Electric dark correction enabled: true
Nonlinearity correction enabled: false
Boxcar width: 0
XAxis mode: Wavelengths
Number of Pixels in Spectrum: 2048
>>>>>Begin Spectral Data<<<<<
223.165	-19.38
223.4	-19.38
223.635	-19.38
223.869	-15.38
224.104	-26.38
224.338	-8.38
224.573	-1.38
224.808	-13.38
225.042	-16.38
225.277	-4.38
225.511	-12.38
225.746	-5.38
225.98	17.62
226.215	20.62
226.449	25.62
226.683	-2.38
226.918	26.62
227.152	34.62
227.387	32.62
227.621	40.62
227.856	41.62
228.09	41.62
228.324	55.62
228.559	53.62
228.793	61.62
229.027	60.62
229.262	62.62
229.496	75.62
229.73	70.62
229.964	64.62
230.199	69.62
230.433	69.62
230.667	69.62
230.901	79.62
231.136	75.62
231.37	86.62
231.604	78.62
231.838	84.62
232.072	86.62
232.306	82.62
232.541	78.62
232.775	77.62
233.009	87.62
233.243	81.62
233.477	85.62
233.711	89.62
233.945	88.62
234.179	80.62
234.413	90.62
234.647	102.62
234.881	77.62
235.115	64.62
235.349	70.62
235.583	88.62
235.817	83.62
236.051	81.62
236.285	87.62
236.519	79.62
236.753	71.62
236.987	67.62
237.221	70.62
237.455	77.62
237.689	70.62
237.922	78.62
238.156	73.62
238.39	69.62
238.624	79.62
238.858	77.62
239.091	78.62
239.325	86.62
239.559	85.62
239.793	70.62
240.027	70.62
240.26	71.62
240.494	83.62
240.728	82.62
240.961	81.62
241.195	72.62
241.429	62.62
241.662	75.62
241.896	91.62
242.13	90.62
242.363	74.62
242.597	68.62
242.83	90.62
243.064	75.62
243.298	70.62
243.531	73.62
243.765	79.62
243.998	76.62
244.232	80.62
244.465	78.62
244.699	90.62
244.932	87.62
245.166	81.62
245.399	76.62
245.633	88.62
245.866	86.62
246.099	66.62
246.333	77.62
246.566	81.62
246.8	73.62
247.033	71.62
247.266	77.62
247.5	78.62
247.733	74.62
247.966	71.62
248.2	83.62
248.433	85.62
248.666	78.62
248.899	82.62
249.133	80.62
249.366	76.62
249.599	88.62
249.832	62.62
250.066	91.62
250.299	98.62
250.532	69.62
250.765	94.62
250.998	81.62
251.231	79.62
251.465	91.62
251.698	73.62
251.931	71.62
252.164	77.62
252.397	81.62
252.63	89.62
252.863	81.62
253.096	82.62
253.329	88.62
253.562	79.62
253.795	79.62
254.028	86.62
254.261	78.62
254.494	86.62
254.727	75.62
254.96	84.62
255.193	79.62
255.426	91.62
255.659	66.62
255.892	90.62
256.124	82.62
256.357	83.62
256.59	86.62
256.823	78.62
257.056	77.62
257.289	75.62
257.521	82.62
257.754	69.62
257.987	73.62
258.22	80.62
258.452	76.62
258.685	75.62
258.918	86.62
259.151	89.62
259.383	87.62
259.616	85.62
259.849	73.62
260.081	72.62
260.314	84.62
260.547	75.62
260.779	94.62
261.012	90.62
261.244	69.62
261.477	78.62
261.71	80.62
261.942	92.62
262.175	79.62
262.407	74.62
262.64	74.62
262.872	88.62
263.105	81.62
263.337	79.62
263.57	74.62
263.802	83.62
264.035	81.62
264.267	79.62
264.499	79.62
264.732	85.62
264.964	82.62
265.197	74.62
265.429	93.62
265.661	86.62
265.894	71.62
266.126	79.62
266.358	70.62
266.591	78.62
266.823	63.62
267.055	88.62
267.287	80.62
267.52	92.62
267.752	83.62
267.984	63.62
268.216	75.62
268.448	83.62
268.681	88.62
268.913	86.62
269.145	77.62
269.377	89.62
269.609	92.62
269.841	87.62
270.073	86.62
270.306	98.62
270.538	76.62
270.77	85.62
271.002	80.62
271.234	82.62
271.466	87.62
271.698	82.62
271.93	83.62
272.162	92.62
272.394	96.62
272.626	86.62
272.858	85.62
273.09	86.62
273.322	97.62
273.553	74.62
273.785	85.62
274.017	97.62
274.249	92.62
274.481	87.62
274.713	86.62
274.945	85.62
275.176	83.62
275.408	86.62
275.64	72.62
275.872	96.62
276.104	82.62
276.335	80.62
276.567	76.62
276.799	94.62
277.031	81.62
277.262	75.62
277.494	80.62
277.726	84.62
277.957	97.62
278.189	84.62
278.421	69.62
278.652	73.62
278.884	74.62
279.115	85.62
279.347	78.62
279.579	94.62
279.81	81.62
280.042	83.62
280.273	77.62
280.505	71.62
280.736	79.62
280.968	91.62
281.199	95.62
281.431	83.62
281.662	81.62
281.894	88.62
282.125	91.62
282.356	87.62
282.588	88.62
282.819	77.62
283.051	75.62
283.282	88.62
283.513	90.62
283.745	87.62
283.976	66.62
284.207	73.62
284.439	71.62
284.67	80.62
284.901	88.62
285.132	89.62
285.364	74.62
285.595	92.62
285.826	81.62
286.057	81.62
286.288	87.62
286.52	86.62
286.751	86.62
286.982	73.62
287.213	85.62
287.444	89.62
287.675	99.62
287.906	92.62
288.138	79.62
288.369	80.62
288.6	86.62
288.831	70.62
289.062	94.62
289.293	77.62
289.524	73.62
289.755	72.62
289.986	75.62
290.217	92.62
290.448	89.62
290.679	73.62
290.91	70.62
291.141	88.62
291.371	83.62
291.602	88.62
291.833	85.62
292.064	74.62
292.295	80.62
292.526	92.62
292.757	104.62
292.987	88.62
293.218	76.62
293.449	97.62
293.68	75.62
293.91	76.62
294.141	80.62
294.372	92.62
294.603	96.62
294.833	82.62
295.064	83.62
295.295	92.62
295.525	98.62
295.756	87.62
295.987	75.62
296.217	76.62
296.448	80.62
296.679	83.62
296.909	80.62
297.14	76.62
297.37	76.62
297.601	90.62
297.831	80.62
298.062	97.62
298.292	80.62
298.523	93.62
298.753	80.62
298.984	87.62
299.214	99.62
299.445	85.62
299.675	86.62
299.905	85.62
300.136	100.62
300.366	92.62
300.597	90.62
300.827	100.62
301.057	78.62
301.288	80.62
301.518	82.62
301.748	86.62
301.979	81.62
302.209	82.62
302.439	90.62
302.669	89.62
302.9	86.62
303.13	93.62
303.36	80.62
303.59	99.62
303.82	81.62
304.051	92.62
304.281	88.62
304.511	106.62
304.741	89.62
304.971	82.62
305.201	81.62
305.431	79.62
305.661	88.62
305.891	88.62
306.121	93.62
306.352	75.62
306.582	94.62
306.812	81.62
307.042	86.62
307.272	93.62
307.502	86.62
307.731	90.62
307.961	71.62
308.191	83.62
308.421	84.62
308.651	89.62
308.881	94.62
309.111	86.62
309.341	72.62
309.571	87.62
309.8	88.62
310.03	98.62
310.26	97.62
310.49	94.62
310.72	92.62
310.949	82.62
311.179	88.62
311.409	75.62
311.639	85.62
311.868	75.62
312.098	86.62
312.328	95.62
312.557	95.62
312.787	86.62
313.017	84.62
313.246	90.62
313.476	83.62
313.706	72.62
313.935	78.62
314.165	82.62
314.394	93.62
314.624	83.62
314.853	88.62
315.083	80.62
315.312	71.62
315.542	87.62
315.771	85.62
316.001	84.62
316.23	82.62
316.46	80.62
316.689	89.62
316.919	90.62
317.148	87.62
317.377	95.62
317.607	73.62
317.836	93.62
318.065	105.62
318.295	87.62
318.524	84.62
318.753	87.62
318.983	87.62
319.212	72.62
319.441	72.62
319.67	76.62
319.9	90.62
320.129	83.62
320.358	67.62
320.587	88.62
320.816	83.62
321.046	69.62
321.275	82.62
321.504	85.62
321.733	81.62
321.962	86.62
322.191	76.62
322.42	66.62
322.649	83.62
322.878	79.62
323.108	77.62
323.337	92.62
323.566	99.62
323.795	82.62
324.024	88.62
324.253	74.62
324.482	86.62
324.71	86.62
324.939	80.62
325.168	88.62
325.397	88.62
325.626	78.62
325.855	80.62
326.084	84.62
326.313	75.62
326.542	80.62
326.77	69.62
326.999	88.62
327.228	79.62
327.457	73.62
327.686	79.62
327.914	85.62
328.143	98.62
328.372	88.62
328.6	87.62
328.829	90.62
329.058	93.62
329.287	91.62
329.515	88.62
329.744	89.62
329.972	81.62
330.201	93.62
330.43	85.62
330.658	90.62
330.887	80.62
331.115	79.62
331.344	76.62
331.572	67.62
331.801	84.62
332.03	86.62
332.258	97.62
332.486	87.62
332.715	92.62
332.943	89.62
333.172	82.62
333.4	76.62
333.629	70.62
333.857	88.62
334.085	84.62
334.314	88.62
334.542	84.62
334.771	80.62
334.999	79.62
335.227	75.62
335.455	79.62
335.684	74.62
335.912	84.62
336.14	72.62
336.369	86.62
336.597	93.62
336.825	69.62
337.053	89.62
337.281	86.62
337.51	71.62
337.738	88.62
337.966	73.62
338.194	78.62
338.422	79.62
338.65	95.62
338.878	105.62
339.106	95.62
339.334	86.62
339.562	85.62
339.79	84.62
340.018	90.62
340.246	74.62
340.474	98.62
340.702	78.62
340.93	88.62
341.158	82.62
341.386	74.62
341.614	99.62
341.842	88.62
342.07	77.62
342.298	86.62
342.526	100.62
342.754	77.62
342.981	90.62
343.209	70.62
343.437	83.62
343.665	83.62
343.893	79.62
344.12	83.62
344.348	80.62
344.576	87.62
344.804	94.62
345.031	83.62
345.259	78.62
345.487	88.62
345.714	76.62
345.942	76.62
346.17	76.62
346.397	82.62
346.625	65.62
346.853	92.62
347.08	79.62
347.308	82.62
347.535	96.62
347.763	86.62
347.99	98.62
348.218	72.62
348.445	87.62
348.673	87.62
348.9	94.62
349.128	80.62
349.355	85.62
349.583	76.62
349.81	79.62
350.037	82.62
350.265	85.62
350.492	87.62
350.72	86.62
350.947	73.62
351.174	76.62
351.402	72.62
351.629	81.62
351.856	64.62
352.083	93.62
352.311	95.62
352.538	89.62
352.765	96.62
352.992	88.62
353.22	79.62
353.447	86.62
353.674	81.62
353.901	80.62
354.128	87.62
354.355	83.62
354.583	82.62
354.81	98.62
355.037	87.62
355.264	82.62
355.491	95.62
355.718	82.62
355.945	93.62
356.172	71.62
356.399	73.62
356.626	76.62
356.853	99.62
357.08	76.62
357.307	87.62
357.534	88.62
357.761	75.62
357.988	100.62
358.215	91.62
358.441	86.62
358.668	68.62
358.895	72.62
359.122	88.62
359.349	68.62
359.576	82.62
359.802	80.62
360.029	81.62
360.256	77.62
360.483	90.62
360.709	84.62
360.936	79.62
361.163	73.62
361.39	97.62
361.616	70.62
361.843	77.62
362.07	91.62
362.296	82.62
362.523	73.62
362.749	91.62
362.976	78.62
363.203	91.62
363.429	75.62
363.656	83.62
363.882	92.62
364.109	92.62
364.335	104.62
364.562	92.62
364.788	76.62
365.015	93.62
365.241	87.62
365.468	78.62
365.694	80.62
365.92	72.62
366.147	82.62
366.373	79.62
366.599	84.62
366.826	89.62
367.052	72.62
367.278	75.62
367.505	90.62
367.731	87.62
367.957	92.62
368.184	86.62
368.41	82.62
368.636	82.62
368.862	86.62
369.089	99.62
369.315	75.62
369.541	80.62
369.767	82.62
369.993	73.62
370.219	76.62
370.445	98.62
370.672	87.62
370.898	82.62
371.124	79.62
371.35	64.62
371.576	76.62
371.802	80.62
372.028	75.62
372.254	94.62
372.48	84.62
372.706	82.62
372.932	95.62
373.158	89.62
373.384	81.62
373.61	80.62
373.835	92.62
374.061	83.62
374.287	78.62
374.513	79.62
374.739	80.62
374.965	92.62
375.191	88.62
375.416	94.62
375.642	79.62
375.868	85.62
376.094	90.62
376.319	73.62
376.545	74.62
376.771	82.62
376.997	91.62
377.222	87.62
377.448	89.62
377.674	81.62
377.899	76.62
378.125	95.62
378.35	75.62
378.576	72.62
378.802	73.62
379.027	82.62
379.253	77.62
379.478	88.62
379.704	93.62
379.929	74.62
380.155	94.62
380.38	88.62
380.606	72.62
380.831	79.62
381.057	79.62
381.282	78.62
381.507	84.62
381.733	98.62
381.958	86.62
382.184	93.62
382.409	81.62
382.634	81.62
382.86	80.62
383.085	98.62
383.31	81.62
383.535	94.62
383.761	86.62
383.986	70.62
384.211	95.62
384.436	88.62
384.662	83.62
384.887	85.62
385.112	77.62
385.337	87.62
385.562	73.62
385.787	90.62
386.013	88.62
386.238	83.62
386.463	95.62
386.688	92.62
386.913	95.62
387.138	84.62
387.363	90.62
387.588	84.62
387.813	78.62
388.038	72.62
388.263	91.62
388.488	73.62
388.713	80.62
388.938	74.62
389.163	77.62
389.387	75.62
389.612	75.62
389.837	80.62
390.062	66.62
390.287	99.62
390.512	91.62
390.736	82.62
390.961	92.62
391.186	102.62
391.411	73.62
391.636	91.62
391.86	82.62
392.085	80.62
392.31	95.62
392.534	93.62
392.759	79.62
392.984	97.62
393.208	86.62
393.433	88.62
393.658	76.62
393.882	74.62
394.107	88.62
394.331	102.62
394.556	84.62
394.78	91.62
395.005	72.62
395.229	72.62
395.454	83.62
395.678	82.62
395.903	73.62
396.127	85.62
396.352	87.62
396.576	74.62
396.801	93.62
397.025	94.62
397.249	84.62
397.474	99.62
397.698	80.62
397.922	94.62
398.147	87.62
398.371	79.62
398.595	83.62
398.82	86.62
399.044	91.62
399.268	84.62
399.492	91.62
399.717	91.62
399.941	105.62
400.165	81.62
400.389	89.62
400.613	86.62
400.837	75.62
401.062	82.62
401.286	82.62
401.51	84.62
401.734	85.62
401.958	87.62
402.182	93.62
402.406	83.62
402.63	89.62
402.854	89.62
403.078	74.62
403.302	86.62
403.526	91.62
403.75	85.62
403.974	77.62
404.198	71.62
404.422	81.62
404.645	88.62
404.869	79.62
405.093	89.62
405.317	89.62
405.541	95.62
405.765	102.62
405.988	81.62
406.212	98.62
406.436	86.62
406.66	105.62
406.883	96.62
407.107	80.62
407.331	86.62
407.555	89.62
407.778	83.62
408.002	96.62
408.226	89.62
408.449	86.62
408.673	101.62
408.896	94.62
409.12	82.62
409.344	87.62
409.567	95.62
409.791	95.62
410.014	100.62
410.238	78.62
410.461	75.62
410.685	91.62
410.908	85.62
411.132	84.62
411.355	107.62
411.578	98.62
411.802	96.62
412.025	80.62
412.249	96.62
412.472	80.62
412.695	99.62
412.919	74.62
413.142	94.62
413.365	88.62
413.589	94.62
413.812	82.62
414.035	105.62
414.258	92.62
414.482	86.62
414.705	93.62
414.928	91.62
415.151	101.62
415.374	96.62
415.597	91.62
415.821	103.62
416.044	90.62
416.267	83.62
416.49	84.62
416.713	90.62
416.936	88.62
417.159	91.62
417.382	83.62
417.605	98.62
417.828	88.62
418.051	93.62
418.274	100.62
418.497	102.62
418.72	87.62
418.943	86.62
419.166	86.62
419.389	87.62
419.611	90.62
419.834	88.62
420.057	103.62
420.28	89.62
420.503	79.62
420.726	98.62
420.948	99.62
421.171	99.62
421.394	82.62
421.617	88.62
421.839	97.62
422.062	99.62
422.285	84.62
422.507	94.62
422.73	90.62
422.953	84.62
423.175	84.62
423.398	102.62
423.621	103.62
423.843	70.62
424.066	92.62
424.288	97.62
424.511	90.62
424.733	104.62
424.956	90.62
425.178	104.62
425.401	99.62
425.623	83.62
425.846	91.62
426.068	89.62
426.291	96.62
426.513	94.62
426.735	105.62
426.958	105.62
427.18	88.62
427.402	99.62
427.625	84.62
427.847	97.62
428.069	82.62
428.292	95.62
428.514	100.62
428.736	96.62
428.958	84.62
429.181	103.62
429.403	95.62
429.625	90.62
429.847	95.62
430.069	87.62
430.292	89.62
430.514	101.62
430.736	77.62
430.958	95.62
431.18	98.62
431.402	84.62
431.624	85.62
431.846	94.62
432.068	76.62
432.29	81.62
432.512	88.62
432.734	88.62
432.956	90.62
433.178	105.62
433.4	90.62
433.622	97.62
433.844	105.62
434.066	94.62
434.287	92.62
434.509	92.62
434.731	86.62
434.953	84.62
435.175	99.62
435.397	91.62
435.618	79.62
435.84	86.62
436.062	87.62
436.284	88.62
436.505	99.62
436.727	87.62
436.949	97.62
437.17	95.62
437.392	84.62
437.614	100.62
437.835	88.62
438.057	81.62
438.278	81.62
438.5	71.62
438.721	95.62
438.943	92.62
439.165	99.62
439.386	101.62
439.608	101.62
439.829	94.62
440.05	106.62
440.272	105.62
440.493	100.62
440.715	95.62
440.936	90.62
441.158	101.62
441.379	90.62
441.6	89.62
441.822	89.62
442.043	95.62
442.264	89.62
442.486	99.62
442.707	81.62
442.928	85.62
443.149	100.62
443.371	98.62
443.592	104.62
443.813	106.62
444.034	91.62
444.255	87.62
444.476	80.62
444.698	90.62
444.919	100.62
445.14	216.62
445.361	138.62
445.582	108.62
445.803	100.62
446.024	92.62
446.245	112.62
446.466	93.62
446.687	99.62
446.908	109.62
447.129	96.62
447.35	95.62
447.571	100.62
447.792	94.62
448.013	90.62
448.234	96.62
448.455	90.62
448.675	92.62
448.896	91.62
449.117	92.62
449.338	99.62
449.559	94.62
449.779	88.62
450	88.62
450.221	86.62
450.442	92.62
450.662	81.62
450.883	100.62
451.104	111.62
451.324	94.62
451.545	71.62
451.766	91.62
451.986	78.62
452.207	87.62
452.428	98.62
452.648	91.62
452.869	83.62
453.089	90.62
453.31	77.62
453.53	84.62
453.751	82.62
453.971	80.62
454.192	82.62
454.412	90.62
454.633	91.62
454.853	76.62
455.073	95.62
455.294	90.62
455.514	89.62
455.734	91.62
455.955	88.62
456.175	90.62
456.395	91.62
456.616	84.62
456.836	84.62
457.056	88.62
457.276	91.62
457.497	96.62
457.717	82.62
457.937	74.62
458.157	88.62
458.377	95.62
458.598	85.62
458.818	90.62
459.038	94.62
459.258	95.62
459.478	75.62
459.698	86.62
459.918	81.62
460.138	91.62
460.358	89.62
460.578	82.62
460.798	83.62
461.018	88.62
461.238	86.62
461.458	99.62
461.678	95.62
461.898	90.62
462.118	74.62
462.338	77.62
462.558	94.62
462.777	76.62
462.997	91.62
463.217	93.62
463.437	100.62
463.657	90.62
463.876	82.62
464.096	82.62
464.316	90.62
464.536	85.62
464.755	97.62
464.975	90.62
465.195	88.62
465.414	90.62
465.634	83.62
465.854	91.62
466.073	83.62
466.293	85.62
466.512	76.62
466.732	81.62
466.951	108.62
467.171	89.62
467.391	98.62
467.61	100.62
467.829	79.62
468.049	93.62
468.268	89.62
468.488	95.62
468.707	93.62
468.927	92.62
469.146	83.62
469.365	104.62
469.585	84.62
469.804	96.62
470.023	95.62
470.243	92.62
470.462	98.62
470.681	88.62
470.901	103.62
471.12	87.62
471.339	98.62
471.558	87.62
471.777	99.62
471.997	93.62
472.216	106.62
472.435	96.62
472.654	87.62
472.873	86.62
473.092	81.62
473.311	80.62
473.53	87.62
473.749	111.62
473.968	93.62
474.187	93.62
474.406	91.62
474.625	91.62
474.844	102.62
475.063	88.62
475.282	92.62
475.501	92.62
475.72	85.62
475.939	86.62
476.158	84.62
476.377	94.62
476.596	84.62
476.814	83.62
477.033	88.62
477.252	89.62
477.471	83.62
477.69	91.62
477.908	103.62
478.127	86.62
478.346	101.62
478.564	114.62
478.783	104.62
479.002	105.62
479.22	86.62
479.439	91.62
479.658	87.62
479.876	80.62
480.095	87.62
480.313	97.62
480.532	90.62
480.751	90.62
480.969	91.62
481.188	93.62
481.406	96.62
481.624	87.62
481.843	81.62
482.061	88.62
482.28	79.62
482.498	88.62
482.717	90.62
482.935	83.62
483.153	106.62
483.372	92.62
483.59	93.62
483.808	87.62
484.027	95.62
484.245	97.62
484.463	88.62
484.681	99.62
484.9	107.62
485.118	98.62
485.336	95.62
485.554	89.62
485.772	96.62
485.99	88.62
486.209	87.62
486.427	84.62
486.645	88.62
486.863	89.62
487.081	93.62
487.299	95.62
487.517	97.62
487.735	115.62
487.953	110.62
488.171	118.62
488.389	111.62
488.607	112.62
488.825	91.62
489.043	78.62
489.261	91.62
489.479	97.62
489.696	113.62
489.914	94.62
490.132	108.62
490.35	99.62
490.568	91.62
490.786	103.62
491.003	105.62
491.221	103.62
491.439	95.62
491.657	119.62
491.874	116.62
492.092	105.62
492.31	120.62
492.527	126.62
492.745	117.62
492.963	108.62
493.18	107.62
493.398	121.62
493.615	100.62
493.833	115.62
494.05	117.62
494.268	93.62
494.485	104.62
494.703	102.62
494.92	101.62
495.138	108.62
495.355	95.62
495.573	114.62
495.79	110.62
496.008	106.62
496.225	103.62
496.442	98.62
496.66	102.62
496.877	83.62
497.094	98.62
497.312	107.62
497.529	107.62
497.746	116.62
497.963	106.62
498.181	101.62
498.398	91.62
498.615	102.62
498.832	91.62
499.049	94.62
499.267	93.62
499.484	97.62
499.701	102.62
499.918	102.62
500.135	105.62
500.352	95.62
500.569	99.62
500.786	104.62
501.003	87.62
501.22	87.62
501.437	100.62
501.654	90.62
501.871	101.62
502.088	98.62
502.305	92.62
502.522	90.62
502.739	99.62
502.956	99.62
503.172	87.62
503.389	89.62
503.606	91.62
503.823	89.62
504.04	97.62
504.256	84.62
504.473	98.62
504.69	105.62
504.907	95.62
505.123	98.62
505.34	99.62
505.557	84.62
505.773	94.62
505.99	106.62
506.207	100.62
506.423	96.62
506.64	96.62
506.856	93.62
507.073	96.62
507.289	92.62
507.506	94.62
507.722	99.62
507.939	89.62
508.155	99.62
508.372	84.62
508.588	94.62
508.805	84.62
509.021	88.62
509.238	103.62
509.454	80.62
509.67	83.62
509.887	91.62
510.103	92.62
510.319	80.62
510.536	98.62
510.752	71.62
510.968	83.62
511.184	88.62
511.401	80.62
511.617	74.62
511.833	74.62
512.049	81.62
512.265	77.62
512.481	94.62
512.698	94.62
512.914	94.62
513.13	80.62
513.346	86.62
513.562	84.62
513.778	83.62
513.994	96.62
514.21	94.62
514.426	86.62
514.642	89.62
514.858	90.62
515.074	85.62
515.29	82.62
515.506	81.62
515.721	73.62
515.937	80.62
516.153	82.62
516.369	94.62
516.585	86.62
516.801	73.62
517.016	79.62
517.232	98.62
517.448	82.62
517.664	91.62
517.879	86.62
