Data from Location5.07152019.Energy5.Lamp.07192019.3%Agarose_HRD10591_15-38-27-387.txt Node
Date: Fri Jul 19 15:38:27 EDT 2019
User: cochatt
Spectrometer: HR+D1059
Trigger mode: 1
Integration Time (sec): 1.000000E-1
Scans to average: 1
Electric dark correction enabled: true
Nonlinearity correction enabled: false
Boxcar width: 0
XAxis mode: Wavelengths
Number of Pixels in Spectrum: 2048
>>>>>Begin Spectral Data<<<<<
223.165	-4.56
223.4	-4.56
223.635	-4.56
223.869	-14.56
224.104	-24.56
224.338	-24.56
224.573	-12.56
224.808	-15.56
225.042	-7.56
225.277	-2.56
225.511	0.44
225.746	-2.56
225.98	10.44
226.215	9.44
226.449	21.44
226.683	14.44
226.918	26.44
227.152	26.44
227.387	19.44
227.621	33.44
227.856	53.44
228.09	41.44
228.324	43.44
228.559	57.44
228.793	72.44
229.027	64.44
229.262	70.44
229.496	70.44
229.73	70.44
229.964	78.44
230.199	83.44
230.433	66.44
230.667	73.44
230.901	72.44
231.136	86.44
231.37	77.44
231.604	76.44
231.838	79.44
232.072	77.44
232.306	74.44
232.541	84.44
232.775	82.44
233.009	79.44
233.243	81.44
233.477	94.44
233.711	86.44
233.945	86.44
234.179	74.44
234.413	81.44
234.647	79.44
234.881	79.44
235.115	100.44
235.349	87.44
235.583	72.44
235.817	98.44
236.051	90.44
236.285	70.44
236.519	74.44
236.753	82.44
236.987	81.44
237.221	70.44
237.455	91.44
237.689	91.44
237.922	71.44
238.156	80.44
238.39	57.44
238.624	69.44
238.858	67.44
239.091	73.44
239.325	69.44
239.559	88.44
239.793	83.44
240.027	78.44
240.26	76.44
240.494	86.44
240.728	73.44
240.961	74.44
241.195	85.44
241.429	79.44
241.662	73.44
241.896	70.44
242.13	67.44
242.363	71.44
242.597	84.44
242.83	73.44
243.064	87.44
243.298	75.44
243.531	86.44
243.765	95.44
243.998	83.44
244.232	74.44
244.465	92.44
244.699	79.44
244.932	84.44
245.166	72.44
245.399	84.44
245.633	69.44
245.866	75.44
246.099	69.44
246.333	82.44
246.566	82.44
246.8	88.44
247.033	77.44
247.266	83.44
247.5	76.44
247.733	93.44
247.966	75.44
248.2	81.44
248.433	83.44
248.666	70.44
248.899	86.44
249.133	74.44
249.366	84.44
249.599	94.44
249.832	91.44
250.066	71.44
250.299	81.44
250.532	76.44
250.765	77.44
250.998	70.44
251.231	87.44
251.465	77.44
251.698	89.44
251.931	78.44
252.164	94.44
252.397	67.44
252.63	78.44
252.863	67.44
253.096	76.44
253.329	82.44
253.562	74.44
253.795	78.44
254.028	84.44
254.261	83.44
254.494	74.44
254.727	93.44
254.96	80.44
255.193	73.44
255.426	79.44
255.659	83.44
255.892	87.44
256.124	75.44
256.357	72.44
256.59	93.44
256.823	86.44
257.056	83.44
257.289	87.44
257.521	75.44
257.754	89.44
257.987	77.44
258.22	82.44
258.452	83.44
258.685	80.44
258.918	86.44
259.151	86.44
259.383	96.44
259.616	77.44
259.849	74.44
260.081	101.44
260.314	87.44
260.547	87.44
260.779	88.44
261.012	89.44
261.244	87.44
261.477	73.44
261.71	77.44
261.942	75.44
262.175	74.44
262.407	76.44
262.64	80.44
262.872	87.44
263.105	86.44
263.337	84.44
263.57	91.44
263.802	81.44
264.035	82.44
264.267	83.44
264.499	83.44
264.732	82.44
264.964	71.44
265.197	82.44
265.429	96.44
265.661	83.44
265.894	82.44
266.126	84.44
266.358	78.44
266.591	93.44
266.823	77.44
267.055	75.44
267.287	92.44
267.52	86.44
267.752	98.44
267.984	82.44
268.216	86.44
268.448	86.44
268.681	86.44
268.913	88.44
269.145	99.44
269.377	92.44
269.609	85.44
269.841	63.44
270.073	75.44
270.306	77.44
270.538	75.44
270.77	78.44
271.002	81.44
271.234	82.44
271.466	85.44
271.698	73.44
271.93	82.44
272.162	78.44
272.394	84.44
272.626	88.44
272.858	86.44
273.09	78.44
273.322	89.44
273.553	81.44
273.785	82.44
274.017	75.44
274.249	85.44
274.481	78.44
274.713	74.44
274.945	80.44
275.176	77.44
275.408	88.44
275.64	85.44
275.872	77.44
276.104	88.44
276.335	71.44
276.567	75.44
276.799	84.44
277.031	71.44
277.262	83.44
277.494	76.44
277.726	70.44
277.957	82.44
278.189	81.44
278.421	93.44
278.652	81.44
278.884	73.44
279.115	89.44
279.347	85.44
279.579	81.44
279.81	88.44
280.042	94.44
280.273	65.44
280.505	69.44
280.736	92.44
280.968	82.44
281.199	82.44
281.431	84.44
281.662	77.44
281.894	90.44
282.125	84.44
282.356	75.44
282.588	86.44
282.819	82.44
283.051	102.44
283.282	96.44
283.513	90.44
283.745	76.44
283.976	85.44
284.207	90.44
284.439	90.44
284.67	68.44
284.901	68.44
285.132	73.44
285.364	68.44
285.595	98.44
285.826	80.44
286.057	80.44
286.288	82.44
286.52	79.44
286.751	84.44
286.982	76.44
287.213	85.44
287.444	78.44
287.675	81.44
287.906	81.44
288.138	69.44
288.369	79.44
288.6	99.44
288.831	88.44
289.062	93.44
289.293	80.44
289.524	78.44
289.755	79.44
289.986	71.44
290.217	80.44
290.448	101.44
290.679	96.44
290.91	78.44
291.141	80.44
291.371	71.44
291.602	84.44
291.833	92.44
292.064	81.44
292.295	80.44
292.526	90.44
292.757	92.44
292.987	96.44
293.218	87.44
293.449	80.44
293.68	64.44
293.91	84.44
294.141	90.44
294.372	88.44
294.603	90.44
294.833	81.44
295.064	97.44
295.295	84.44
295.525	90.44
295.756	74.44
295.987	77.44
296.217	85.44
296.448	77.44
296.679	78.44
296.909	77.44
297.14	82.44
297.37	106.44
297.601	79.44
297.831	88.44
298.062	81.44
298.292	82.44
298.523	94.44
298.753	87.44
298.984	83.44
299.214	94.44
299.445	83.44
299.675	95.44
299.905	91.44
300.136	80.44
300.366	69.44
300.597	97.44
300.827	93.44
301.057	73.44
301.288	87.44
301.518	75.44
301.748	69.44
301.979	96.44
302.209	90.44
302.439	79.44
302.669	85.44
302.9	78.44
303.13	85.44
303.36	91.44
303.59	75.44
303.82	78.44
304.051	82.44
304.281	79.44
304.511	76.44
304.741	91.44
304.971	97.44
305.201	91.44
305.431	93.44
305.661	92.44
305.891	87.44
306.121	75.44
306.352	88.44
306.582	88.44
306.812	88.44
307.042	90.44
307.272	74.44
307.502	88.44
307.731	85.44
307.961	91.44
308.191	78.44
308.421	87.44
308.651	101.44
308.881	83.44
309.111	82.44
309.341	83.44
309.571	98.44
309.8	100.44
310.03	89.44
310.26	76.44
310.49	88.44
310.72	79.44
310.949	90.44
311.179	78.44
311.409	82.44
311.639	66.44
311.868	76.44
312.098	83.44
312.328	99.44
312.557	84.44
312.787	88.44
313.017	90.44
313.246	94.44
313.476	74.44
313.706	87.44
313.935	95.44
314.165	83.44
314.394	90.44
314.624	82.44
314.853	94.44
315.083	83.44
315.312	83.44
315.542	92.44
315.771	98.44
316.001	91.44
316.23	82.44
316.46	75.44
316.689	92.44
316.919	84.44
317.148	83.44
317.377	106.44
317.607	79.44
317.836	84.44
318.065	77.44
318.295	94.44
318.524	80.44
318.753	54.44
318.983	86.44
319.212	89.44
319.441	76.44
319.67	91.44
319.9	83.44
320.129	78.44
320.358	77.44
320.587	82.44
320.816	72.44
321.046	83.44
321.275	100.44
321.504	84.44
321.733	82.44
321.962	96.44
322.191	79.44
322.42	85.44
322.649	88.44
322.878	82.44
323.108	92.44
323.337	79.44
323.566	96.44
323.795	82.44
324.024	81.44
324.253	98.44
324.482	92.44
324.71	87.44
324.939	99.44
325.168	99.44
325.397	90.44
325.626	91.44
325.855	84.44
326.084	87.44
326.313	83.44
326.542	72.44
326.77	91.44
326.999	79.44
327.228	87.44
327.457	79.44
327.686	90.44
327.914	69.44
328.143	84.44
328.372	80.44
328.6	88.44
328.829	85.44
329.058	82.44
329.287	103.44
329.515	79.44
329.744	85.44
329.972	87.44
330.201	82.44
330.43	64.44
330.658	68.44
330.887	80.44
331.115	83.44
331.344	83.44
331.572	80.44
331.801	88.44
332.03	82.44
332.258	97.44
332.486	91.44
332.715	90.44
332.943	83.44
333.172	88.44
333.4	81.44
333.629	77.44
333.857	86.44
334.085	69.44
334.314	85.44
334.542	77.44
334.771	74.44
334.999	78.44
335.227	85.44
335.455	90.44
335.684	86.44
335.912	77.44
336.14	92.44
336.369	74.44
336.597	67.44
336.825	93.44
337.053	85.44
337.281	79.44
337.51	90.44
337.738	89.44
337.966	80.44
338.194	91.44
338.422	80.44
338.65	91.44
338.878	83.44
339.106	80.44
339.334	81.44
339.562	82.44
339.79	76.44
340.018	80.44
340.246	90.44
340.474	83.44
340.702	105.44
340.93	98.44
341.158	100.44
341.386	97.44
341.614	85.44
341.842	76.44
342.07	82.44
342.298	75.44
342.526	92.44
342.754	90.44
342.981	89.44
343.209	94.44
343.437	87.44
343.665	73.44
343.893	82.44
344.12	93.44
344.348	93.44
344.576	88.44
344.804	87.44
345.031	79.44
345.259	80.44
345.487	94.44
345.714	83.44
345.942	83.44
346.17	77.44
346.397	77.44
346.625	96.44
346.853	100.44
347.08	89.44
347.308	94.44
347.535	71.44
347.763	83.44
347.99	77.44
348.218	94.44
348.445	88.44
348.673	87.44
348.9	81.44
349.128	91.44
349.355	92.44
349.583	78.44
349.81	81.44
350.037	83.44
350.265	85.44
350.492	79.44
350.72	91.44
350.947	76.44
351.174	89.44
351.402	96.44
351.629	88.44
351.856	81.44
352.083	86.44
352.311	87.44
352.538	93.44
352.765	66.44
352.992	79.44
353.22	83.44
353.447	85.44
353.674	67.44
353.901	102.44
354.128	83.44
354.355	93.44
354.583	87.44
354.81	77.44
355.037	88.44
355.264	85.44
355.491	82.44
355.718	88.44
355.945	100.44
356.172	92.44
356.399	79.44
356.626	86.44
356.853	76.44
357.08	81.44
357.307	79.44
357.534	91.44
357.761	81.44
357.988	87.44
358.215	72.44
358.441	79.44
358.668	77.44
358.895	87.44
359.122	78.44
359.349	90.44
359.576	98.44
359.802	71.44
360.029	83.44
360.256	91.44
360.483	84.44
360.709	77.44
360.936	82.44
361.163	99.44
361.39	94.44
361.616	86.44
361.843	90.44
362.07	88.44
362.296	79.44
362.523	90.44
362.749	75.44
362.976	81.44
363.203	79.44
363.429	75.44
363.656	77.44
363.882	83.44
364.109	82.44
364.335	80.44
364.562	77.44
364.788	83.44
365.015	86.44
365.241	86.44
365.468	102.44
365.694	83.44
365.92	82.44
366.147	79.44
366.373	74.44
366.599	84.44
366.826	83.44
367.052	84.44
367.278	80.44
367.505	82.44
367.731	93.44
367.957	82.44
368.184	76.44
368.41	73.44
368.636	84.44
368.862	82.44
369.089	85.44
369.315	86.44
369.541	88.44
369.767	76.44
369.993	89.44
370.219	79.44
370.445	74.44
370.672	91.44
370.898	92.44
371.124	81.44
371.35	85.44
371.576	76.44
371.802	78.44
372.028	90.44
372.254	84.44
372.48	89.44
372.706	81.44
372.932	97.44
373.158	90.44
373.384	81.44
373.61	84.44
373.835	74.44
374.061	102.44
374.287	90.44
374.513	95.44
374.739	96.44
374.965	99.44
375.191	73.44
375.416	81.44
375.642	90.44
375.868	87.44
376.094	79.44
376.319	77.44
376.545	95.44
376.771	66.44
376.997	83.44
377.222	84.44
377.448	80.44
377.674	88.44
377.899	92.44
378.125	71.44
378.35	87.44
378.576	84.44
378.802	91.44
379.027	77.44
379.253	80.44
379.478	83.44
379.704	94.44
379.929	67.44
380.155	90.44
380.38	80.44
380.606	87.44
380.831	86.44
381.057	83.44
381.282	96.44
381.507	93.44
381.733	81.44
381.958	82.44
382.184	93.44
382.409	80.44
382.634	84.44
382.86	77.44
383.085	85.44
383.31	82.44
383.535	94.44
383.761	85.44
383.986	81.44
384.211	75.44
384.436	83.44
384.662	78.44
384.887	73.44
385.112	72.44
385.337	98.44
385.562	92.44
385.787	85.44
386.013	82.44
386.238	75.44
386.463	83.44
386.688	86.44
386.913	88.44
387.138	68.44
387.363	84.44
387.588	95.44
387.813	84.44
388.038	87.44
388.263	80.44
388.488	87.44
388.713	82.44
388.938	91.44
389.163	98.44
389.387	85.44
389.612	92.44
389.837	72.44
390.062	92.44
390.287	82.44
390.512	83.44
390.736	75.44
390.961	79.44
391.186	89.44
391.411	91.44
391.636	98.44
391.86	90.44
392.085	90.44
392.31	75.44
392.534	72.44
392.759	89.44
392.984	89.44
393.208	82.44
393.433	90.44
393.658	83.44
393.882	85.44
394.107	101.44
394.331	81.44
394.556	78.44
394.78	86.44
395.005	78.44
395.229	75.44
395.454	85.44
395.678	83.44
395.903	82.44
396.127	75.44
396.352	81.44
396.576	93.44
396.801	76.44
397.025	74.44
397.249	89.44
397.474	88.44
397.698	86.44
397.922	90.44
398.147	90.44
398.371	82.44
398.595	83.44
398.82	81.44
399.044	94.44
399.268	101.44
399.492	77.44
399.717	86.44
399.941	91.44
400.165	81.44
400.389	73.44
400.613	85.44
400.837	90.44
401.062	89.44
401.286	90.44
401.51	90.44
401.734	92.44
401.958	83.44
402.182	85.44
402.406	80.44
402.63	91.44
402.854	81.44
403.078	88.44
403.302	76.44
403.526	93.44
403.75	85.44
403.974	83.44
404.198	86.44
404.422	85.44
404.645	86.44
404.869	97.44
405.093	85.44
405.317	105.44
405.541	100.44
405.765	92.44
405.988	86.44
406.212	88.44
406.436	83.44
406.66	84.44
406.883	82.44
407.107	83.44
407.331	87.44
407.555	82.44
407.778	79.44
408.002	80.44
408.226	81.44
408.449	96.44
408.673	98.44
408.896	76.44
409.12	76.44
409.344	92.44
409.567	84.44
409.791	84.44
410.014	91.44
410.238	83.44
410.461	87.44
410.685	90.44
410.908	92.44
411.132	87.44
411.355	100.44
411.578	86.44
411.802	82.44
412.025	82.44
412.249	92.44
412.472	81.44
412.695	108.44
412.919	99.44
413.142	98.44
413.365	93.44
413.589	80.44
413.812	94.44
414.035	93.44
414.258	89.44
414.482	99.44
414.705	94.44
414.928	91.44
415.151	109.44
415.374	82.44
415.597	75.44
415.821	92.44
416.044	110.44
416.267	99.44
416.49	102.44
416.713	90.44
416.936	86.44
417.159	88.44
417.382	91.44
417.605	89.44
417.828	97.44
418.051	80.44
418.274	91.44
418.497	96.44
418.72	84.44
418.943	89.44
419.166	97.44
419.389	88.44
419.611	89.44
419.834	101.44
420.057	100.44
420.28	86.44
420.503	92.44
420.726	93.44
420.948	82.44
421.171	94.44
421.394	85.44
421.617	104.44
421.839	101.44
422.062	106.44
422.285	101.44
422.507	97.44
422.73	69.44
422.953	94.44
423.175	88.44
423.398	88.44
423.621	89.44
423.843	93.44
424.066	96.44
424.288	91.44
424.511	93.44
424.733	99.44
424.956	97.44
425.178	89.44
425.401	96.44
425.623	88.44
425.846	98.44
426.068	101.44
426.291	102.44
426.513	103.44
426.735	96.44
426.958	83.44
427.18	93.44
427.402	105.44
427.625	99.44
427.847	87.44
428.069	97.44
428.292	93.44
428.514	94.44
428.736	89.44
428.958	96.44
429.181	98.44
429.403	92.44
429.625	75.44
429.847	100.44
430.069	96.44
430.292	104.44
430.514	90.44
430.736	91.44
430.958	85.44
431.18	75.44
431.402	88.44
431.624	93.44
431.846	80.44
432.068	97.44
432.29	87.44
432.512	92.44
432.734	89.44
432.956	89.44
433.178	104.44
433.4	84.44
433.622	105.44
433.844	88.44
434.066	89.44
434.287	86.44
434.509	84.44
434.731	76.44
434.953	82.44
435.175	100.44
435.397	106.44
435.618	102.44
435.84	97.44
436.062	87.44
436.284	104.44
436.505	97.44
436.727	92.44
436.949	90.44
437.17	83.44
437.392	85.44
437.614	84.44
437.835	78.44
438.057	89.44
438.278	95.44
438.5	77.44
438.721	104.44
438.943	100.44
439.165	102.44
439.386	107.44
439.608	95.44
439.829	100.44
440.05	95.44
440.272	88.44
440.493	87.44
440.715	90.44
440.936	104.44
441.158	92.44
441.379	107.44
441.6	104.44
441.822	90.44
442.043	97.44
442.264	121.44
442.486	99.44
442.707	100.44
442.928	98.44
443.149	97.44
443.371	87.44
443.592	89.44
443.813	95.44
444.034	93.44
444.255	96.44
444.476	98.44
444.698	99.44
444.919	86.44
445.14	220.44
445.361	167.44
445.582	88.44
445.803	105.44
446.024	90.44
446.245	103.44
446.466	108.44
446.687	99.44
446.908	110.44
447.129	119.44
447.35	95.44
447.571	102.44
447.792	96.44
448.013	88.44
448.234	107.44
448.455	92.44
448.675	90.44
448.896	98.44
449.117	104.44
449.338	93.44
449.559	98.44
449.779	90.44
450	95.44
450.221	91.44
450.442	89.44
450.662	84.44
450.883	101.44
451.104	107.44
451.324	89.44
451.545	97.44
451.766	94.44
451.986	84.44
452.207	88.44
452.428	91.44
452.648	96.44
452.869	112.44
453.089	100.44
453.31	78.44
453.53	92.44
453.751	95.44
453.971	97.44
454.192	89.44
454.412	88.44
454.633	99.44
454.853	91.44
455.073	89.44
455.294	91.44
455.514	86.44
455.734	85.44
455.955	92.44
456.175	82.44
456.395	84.44
456.616	95.44
456.836	86.44
457.056	76.44
457.276	95.44
457.497	75.44
457.717	85.44
457.937	90.44
458.157	81.44
458.377	84.44
458.598	91.44
458.818	82.44
459.038	82.44
459.258	88.44
459.478	81.44
459.698	93.44
459.918	88.44
460.138	101.44
460.358	97.44
460.578	93.44
460.798	80.44
461.018	105.44
461.238	79.44
461.458	103.44
461.678	79.44
461.898	98.44
462.118	96.44
462.338	86.44
462.558	107.44
462.777	97.44
462.997	93.44
463.217	86.44
463.437	85.44
463.657	95.44
463.876	83.44
464.096	95.44
464.316	87.44
464.536	97.44
464.755	89.44
464.975	99.44
465.195	92.44
465.414	95.44
465.634	97.44
465.854	92.44
466.073	97.44
466.293	99.44
466.512	96.44
466.732	90.44
466.951	82.44
467.171	100.44
467.391	102.44
467.61	92.44
467.829	94.44
468.049	92.44
468.268	98.44
468.488	77.44
468.707	90.44
468.927	106.44
469.146	98.44
469.365	95.44
469.585	74.44
469.804	104.44
470.023	95.44
470.243	99.44
470.462	100.44
470.681	94.44
470.901	101.44
471.12	88.44
471.339	113.44
471.558	84.44
471.777	88.44
471.997	94.44
472.216	104.44
472.435	91.44
472.654	93.44
472.873	103.44
473.092	97.44
473.311	95.44
473.53	98.44
473.749	93.44
473.968	95.44
474.187	105.44
474.406	90.44
474.625	78.44
474.844	90.44
475.063	93.44
475.282	87.44
475.501	95.44
475.72	95.44
475.939	89.44
476.158	92.44
476.377	89.44
476.596	94.44
476.814	101.44
477.033	94.44
477.252	96.44
477.471	89.44
477.69	96.44
477.908	103.44
478.127	98.44
478.346	87.44
478.564	91.44
478.783	100.44
479.002	105.44
479.22	99.44
479.439	96.44
479.658	83.44
479.876	104.44
480.095	99.44
480.313	85.44
480.532	86.44
480.751	88.44
480.969	83.44
481.188	71.44
481.406	96.44
481.624	92.44
481.843	90.44
482.061	89.44
482.28	87.44
482.498	83.44
482.717	77.44
482.935	96.44
483.153	105.44
483.372	96.44
483.59	96.44
483.808	90.44
484.027	100.44
484.245	109.44
484.463	104.44
484.681	84.44
484.9	100.44
485.118	105.44
485.336	86.44
485.554	96.44
485.772	97.44
485.99	108.44
486.209	96.44
486.427	90.44
486.645	95.44
486.863	91.44
487.081	81.44
487.299	85.44
487.517	95.44
487.735	111.44
487.953	121.44
488.171	102.44
488.389	101.44
488.607	106.44
488.825	108.44
489.043	98.44
489.261	84.44
489.479	120.44
489.696	101.44
489.914	117.44
490.132	97.44
490.35	108.44
490.568	109.44
490.786	98.44
491.003	105.44
491.221	113.44
491.439	107.44
491.657	117.44
491.874	116.44
492.092	134.44
492.31	127.44
492.527	116.44
492.745	120.44
492.963	121.44
493.18	108.44
493.398	104.44
493.615	107.44
493.833	106.44
494.05	112.44
494.268	113.44
494.485	106.44
494.703	111.44
494.92	109.44
495.138	120.44
495.355	100.44
495.573	100.44
495.79	107.44
496.008	115.44
496.225	107.44
496.442	117.44
496.66	111.44
496.877	109.44
497.094	100.44
497.312	106.44
497.529	128.44
497.746	94.44
497.963	93.44
498.181	107.44
498.398	80.44
498.615	92.44
498.832	95.44
499.049	87.44
499.267	99.44
499.484	95.44
499.701	98.44
499.918	95.44
500.135	95.44
500.352	94.44
500.569	111.44
500.786	99.44
501.003	102.44
501.22	115.44
501.437	105.44
501.654	86.44
501.871	111.44
502.088	95.44
502.305	105.44
502.522	111.44
502.739	105.44
502.956	111.44
503.172	111.44
503.389	72.44
503.606	92.44
503.823	96.44
504.04	88.44
504.256	105.44
504.473	77.44
504.69	103.44
504.907	89.44
505.123	81.44
505.34	78.44
505.557	105.44
505.773	94.44
505.99	90.44
506.207	85.44
506.423	85.44
506.64	100.44
506.856	93.44
507.073	97.44
507.289	100.44
507.506	98.44
507.722	86.44
507.939	95.44
508.155	97.44
508.372	71.44
508.588	93.44
508.805	82.44
509.021	88.44
509.238	82.44
509.454	81.44
509.67	88.44
509.887	75.44
510.103	74.44
510.319	84.44
510.536	80.44
510.752	72.44
510.968	77.44
511.184	88.44
511.401	76.44
511.617	84.44
511.833	72.44
512.049	90.44
512.265	93.44
512.481	101.44
512.698	89.44
512.914	72.44
513.13	86.44
513.346	71.44
513.562	93.44
513.778	85.44
513.994	90.44
514.21	91.44
514.426	96.44
514.642	80.44
514.858	92.44
515.074	94.44
515.29	87.44
515.506	85.44
515.721	91.44
515.937	102.44
516.153	89.44
516.369	90.44
516.585	79.44
516.801	89.44
517.016	82.44
517.232	70.44
517.448	92.44
