Data from Location5.07152019.Energy5.Lamp.07192019.3%Agarose_HRD10591_15-39-06-388.txt Node
Date: Fri Jul 19 15:39:06 EDT 2019
User: cochatt
Spectrometer: HR+D1059
Trigger mode: 1
Integration Time (sec): 1.000000E-1
Scans to average: 1
Electric dark correction enabled: true
Nonlinearity correction enabled: false
Boxcar width: 0
XAxis mode: Wavelengths
Number of Pixels in Spectrum: 2048
>>>>>Begin Spectral Data<<<<<
223.165	-15.31
223.4	-15.31
223.635	-15.31
223.869	-13.31
224.104	-12.31
224.338	-10.31
224.573	-32.31
224.808	-20.31
225.042	-1.31
225.277	-4.31
225.511	-4.31
225.746	-5.31
225.98	9.69
226.215	7.69
226.449	24.69
226.683	23.69
226.918	22.69
227.152	30.69
227.387	35.69
227.621	39.69
227.856	42.69
228.09	57.69
228.324	60.69
228.559	75.69
228.793	68.69
229.027	41.69
229.262	65.69
229.496	68.69
229.73	64.69
229.964	74.69
230.199	75.69
230.433	67.69
230.667	80.69
230.901	85.69
231.136	80.69
231.37	84.69
231.604	73.69
231.838	86.69
232.072	88.69
232.306	92.69
232.541	84.69
232.775	88.69
233.009	77.69
233.243	79.69
233.477	83.69
233.711	65.69
233.945	85.69
234.179	77.69
234.413	76.69
234.647	88.69
234.881	85.69
235.115	78.69
235.349	93.69
235.583	84.69
235.817	85.69
236.051	95.69
236.285	72.69
236.519	74.69
236.753	87.69
236.987	89.69
237.221	73.69
237.455	86.69
237.689	89.69
237.922	65.69
238.156	77.69
238.39	67.69
238.624	90.69
238.858	76.69
239.091	75.69
239.325	63.69
239.559	87.69
239.793	70.69
240.027	88.69
240.26	78.69
240.494	78.69
240.728	98.69
240.961	89.69
241.195	80.69
241.429	75.69
241.662	89.69
241.896	75.69
242.13	77.69
242.363	79.69
242.597	79.69
242.83	74.69
243.064	81.69
243.298	89.69
243.531	77.69
243.765	87.69
243.998	87.69
244.232	84.69
244.465	84.69
244.699	80.69
244.932	69.69
245.166	89.69
245.399	82.69
245.633	77.69
245.866	79.69
246.099	75.69
246.333	71.69
246.566	82.69
246.8	80.69
247.033	76.69
247.266	90.69
247.5	85.69
247.733	80.69
247.966	75.69
248.2	71.69
248.433	66.69
248.666	82.69
248.899	76.69
249.133	78.69
249.366	88.69
249.599	88.69
249.832	86.69
250.066	83.69
250.299	82.69
250.532	83.69
250.765	86.69
250.998	79.69
251.231	72.69
251.465	80.69
251.698	69.69
251.931	77.69
252.164	82.69
252.397	75.69
252.63	79.69
252.863	86.69
253.096	98.69
253.329	88.69
253.562	72.69
253.795	94.69
254.028	84.69
254.261	85.69
254.494	65.69
254.727	88.69
254.96	96.69
255.193	88.69
255.426	79.69
255.659	83.69
255.892	85.69
256.124	93.69
256.357	81.69
256.59	76.69
256.823	84.69
257.056	87.69
257.289	87.69
257.521	97.69
257.754	85.69
257.987	89.69
258.22	87.69
258.452	80.69
258.685	90.69
258.918	105.69
259.151	82.69
259.383	85.69
259.616	85.69
259.849	78.69
260.081	93.69
260.314	82.69
260.547	75.69
260.779	93.69
261.012	83.69
261.244	75.69
261.477	85.69
261.71	77.69
261.942	77.69
262.175	76.69
262.407	84.69
262.64	79.69
262.872	93.69
263.105	90.69
263.337	68.69
263.57	69.69
263.802	73.69
264.035	71.69
264.267	83.69
264.499	74.69
264.732	90.69
264.964	85.69
265.197	78.69
265.429	75.69
265.661	86.69
265.894	88.69
266.126	89.69
266.358	87.69
266.591	75.69
266.823	88.69
267.055	76.69
267.287	82.69
267.52	89.69
267.752	82.69
267.984	83.69
268.216	77.69
268.448	88.69
268.681	76.69
268.913	90.69
269.145	85.69
269.377	93.69
269.609	88.69
269.841	87.69
270.073	81.69
270.306	84.69
270.538	73.69
270.77	75.69
271.002	80.69
271.234	91.69
271.466	89.69
271.698	81.69
271.93	88.69
272.162	84.69
272.394	89.69
272.626	83.69
272.858	84.69
273.09	87.69
273.322	86.69
273.553	84.69
273.785	80.69
274.017	77.69
274.249	88.69
274.481	75.69
274.713	86.69
274.945	81.69
275.176	78.69
275.408	92.69
275.64	69.69
275.872	83.69
276.104	92.69
276.335	76.69
276.567	87.69
276.799	86.69
277.031	89.69
277.262	87.69
277.494	88.69
277.726	93.69
277.957	92.69
278.189	92.69
278.421	84.69
278.652	91.69
278.884	76.69
279.115	73.69
279.347	83.69
279.579	78.69
279.81	81.69
280.042	96.69
280.273	88.69
280.505	88.69
280.736	87.69
280.968	87.69
281.199	77.69
281.431	89.69
281.662	96.69
281.894	79.69
282.125	92.69
282.356	83.69
282.588	78.69
282.819	90.69
283.051	96.69
283.282	83.69
283.513	95.69
283.745	77.69
283.976	91.69
284.207	96.69
284.439	84.69
284.67	90.69
284.901	88.69
285.132	84.69
285.364	75.69
285.595	83.69
285.826	88.69
286.057	81.69
286.288	79.69
286.52	77.69
286.751	93.69
286.982	85.69
287.213	84.69
287.444	93.69
287.675	91.69
287.906	106.69
288.138	88.69
288.369	86.69
288.6	81.69
288.831	90.69
289.062	77.69
289.293	69.69
289.524	87.69
289.755	83.69
289.986	90.69
290.217	90.69
290.448	84.69
290.679	91.69
290.91	102.69
291.141	77.69
291.371	87.69
291.602	81.69
291.833	101.69
292.064	88.69
292.295	95.69
292.526	95.69
292.757	77.69
292.987	87.69
293.218	81.69
293.449	82.69
293.68	92.69
293.91	96.69
294.141	85.69
294.372	80.69
294.603	81.69
294.833	83.69
295.064	89.69
295.295	84.69
295.525	80.69
295.756	82.69
295.987	87.69
296.217	95.69
296.448	90.69
296.679	93.69
296.909	84.69
297.14	75.69
297.37	104.69
297.601	87.69
297.831	73.69
298.062	89.69
298.292	95.69
298.523	87.69
298.753	85.69
298.984	77.69
299.214	84.69
299.445	86.69
299.675	98.69
299.905	97.69
300.136	89.69
300.366	75.69
300.597	98.69
300.827	84.69
301.057	82.69
301.288	75.69
301.518	93.69
301.748	92.69
301.979	97.69
302.209	98.69
302.439	83.69
302.669	91.69
302.9	88.69
303.13	96.69
303.36	96.69
303.59	87.69
303.82	80.69
304.051	93.69
304.281	83.69
304.511	96.69
304.741	96.69
304.971	79.69
305.201	84.69
305.431	92.69
305.661	87.69
305.891	82.69
306.121	78.69
306.352	75.69
306.582	74.69
306.812	97.69
307.042	102.69
307.272	80.69
307.502	89.69
307.731	81.69
307.961	76.69
308.191	92.69
308.421	83.69
308.651	69.69
308.881	87.69
309.111	73.69
309.341	88.69
309.571	99.69
309.8	76.69
310.03	86.69
310.26	81.69
310.49	83.69
310.72	93.69
310.949	92.69
311.179	84.69
311.409	86.69
311.639	90.69
311.868	88.69
312.098	84.69
312.328	95.69
312.557	85.69
312.787	78.69
313.017	81.69
313.246	89.69
313.476	77.69
313.706	85.69
313.935	68.69
314.165	85.69
314.394	94.69
314.624	84.69
314.853	92.69
315.083	101.69
315.312	95.69
315.542	71.69
315.771	67.69
316.001	101.69
316.23	90.69
316.46	68.69
316.689	101.69
316.919	93.69
317.148	103.69
317.377	96.69
317.607	83.69
317.836	87.69
318.065	66.69
318.295	87.69
318.524	91.69
318.753	80.69
318.983	80.69
319.212	83.69
319.441	75.69
319.67	89.69
319.9	90.69
320.129	83.69
320.358	78.69
320.587	85.69
320.816	71.69
321.046	65.69
321.275	81.69
321.504	84.69
321.733	92.69
321.962	97.69
322.191	82.69
322.42	83.69
322.649	94.69
322.878	98.69
323.108	74.69
323.337	92.69
323.566	84.69
323.795	99.69
324.024	85.69
324.253	72.69
324.482	92.69
324.71	95.69
324.939	79.69
325.168	91.69
325.397	95.69
325.626	100.69
325.855	93.69
326.084	80.69
326.313	84.69
326.542	85.69
326.77	87.69
326.999	96.69
327.228	91.69
327.457	83.69
327.686	93.69
327.914	89.69
328.143	87.69
328.372	106.69
328.6	88.69
328.829	73.69
329.058	85.69
329.287	95.69
329.515	76.69
329.744	102.69
329.972	89.69
330.201	73.69
330.43	92.69
330.658	95.69
330.887	87.69
331.115	91.69
331.344	91.69
331.572	75.69
331.801	84.69
332.03	75.69
332.258	91.69
332.486	88.69
332.715	87.69
332.943	87.69
333.172	97.69
333.4	80.69
333.629	83.69
333.857	89.69
334.085	87.69
334.314	90.69
334.542	82.69
334.771	82.69
334.999	92.69
335.227	89.69
335.455	88.69
335.684	82.69
335.912	84.69
336.14	87.69
336.369	88.69
336.597	73.69
336.825	94.69
337.053	82.69
337.281	86.69
337.51	85.69
337.738	84.69
337.966	84.69
338.194	106.69
338.422	101.69
338.65	78.69
338.878	75.69
339.106	87.69
339.334	79.69
339.562	66.69
339.79	80.69
340.018	84.69
340.246	86.69
340.474	75.69
340.702	72.69
340.93	84.69
341.158	87.69
341.386	79.69
341.614	91.69
341.842	83.69
342.07	92.69
342.298	90.69
342.526	86.69
342.754	87.69
342.981	101.69
343.209	101.69
343.437	82.69
343.665	86.69
343.893	87.69
344.12	95.69
344.348	76.69
344.576	79.69
344.804	92.69
345.031	84.69
345.259	90.69
345.487	96.69
345.714	77.69
345.942	85.69
346.17	91.69
346.397	92.69
346.625	70.69
346.853	99.69
347.08	84.69
347.308	80.69
347.535	91.69
347.763	79.69
347.99	95.69
348.218	89.69
348.445	99.69
348.673	83.69
348.9	80.69
349.128	88.69
349.355	95.69
349.583	77.69
349.81	72.69
350.037	82.69
350.265	90.69
350.492	81.69
350.72	85.69
350.947	85.69
351.174	85.69
351.402	89.69
351.629	89.69
351.856	78.69
352.083	80.69
352.311	63.69
352.538	80.69
352.765	95.69
352.992	88.69
353.22	92.69
353.447	91.69
353.674	92.69
353.901	76.69
354.128	91.69
354.355	78.69
354.583	99.69
354.81	97.69
355.037	81.69
355.264	95.69
355.491	81.69
355.718	89.69
355.945	80.69
356.172	83.69
356.399	88.69
356.626	95.69
356.853	88.69
357.08	102.69
357.307	91.69
357.534	91.69
357.761	83.69
357.988	88.69
358.215	87.69
358.441	91.69
358.668	65.69
358.895	84.69
359.122	97.69
359.349	97.69
359.576	86.69
359.802	95.69
360.029	86.69
360.256	84.69
360.483	88.69
360.709	101.69
360.936	84.69
361.163	98.69
361.39	88.69
361.616	76.69
361.843	79.69
362.07	104.69
362.296	95.69
362.523	83.69
362.749	86.69
362.976	94.69
363.203	87.69
363.429	82.69
363.656	91.69
363.882	81.69
364.109	84.69
364.335	85.69
364.562	86.69
364.788	89.69
365.015	86.69
365.241	88.69
365.468	92.69
365.694	84.69
365.92	72.69
366.147	87.69
366.373	96.69
366.599	91.69
366.826	92.69
367.052	79.69
367.278	93.69
367.505	98.69
367.731	73.69
367.957	66.69
368.184	77.69
368.41	91.69
368.636	96.69
368.862	83.69
369.089	83.69
369.315	81.69
369.541	95.69
369.767	91.69
369.993	76.69
370.219	96.69
370.445	92.69
370.672	97.69
370.898	87.69
371.124	90.69
371.35	88.69
371.576	81.69
371.802	80.69
372.028	93.69
372.254	80.69
372.48	82.69
372.706	84.69
372.932	91.69
373.158	88.69
373.384	73.69
373.61	83.69
373.835	85.69
374.061	80.69
374.287	88.69
374.513	84.69
374.739	82.69
374.965	83.69
375.191	91.69
375.416	91.69
375.642	86.69
375.868	98.69
376.094	98.69
376.319	80.69
376.545	71.69
376.771	75.69
376.997	70.69
377.222	83.69
377.448	77.69
377.674	92.69
377.899	95.69
378.125	70.69
378.35	85.69
378.576	91.69
378.802	80.69
379.027	86.69
379.253	90.69
379.478	91.69
379.704	80.69
379.929	90.69
380.155	83.69
380.38	92.69
380.606	87.69
380.831	80.69
381.057	87.69
381.282	90.69
381.507	86.69
381.733	84.69
381.958	91.69
382.184	75.69
382.409	85.69
382.634	94.69
382.86	85.69
383.085	84.69
383.31	96.69
383.535	93.69
383.761	82.69
383.986	90.69
384.211	91.69
384.436	76.69
384.662	82.69
384.887	109.69
385.112	83.69
385.337	82.69
385.562	90.69
385.787	73.69
386.013	102.69
386.238	95.69
386.463	93.69
386.688	82.69
386.913	85.69
387.138	80.69
387.363	77.69
387.588	85.69
387.813	97.69
388.038	96.69
388.263	97.69
388.488	76.69
388.713	89.69
388.938	90.69
389.163	88.69
389.387	80.69
389.612	101.69
389.837	74.69
390.062	78.69
390.287	69.69
390.512	89.69
390.736	88.69
390.961	87.69
391.186	78.69
391.411	82.69
391.636	87.69
391.86	89.69
392.085	74.69
392.31	75.69
392.534	81.69
392.759	79.69
392.984	78.69
393.208	99.69
393.433	81.69
393.658	83.69
393.882	77.69
394.107	79.69
394.331	83.69
394.556	86.69
394.78	83.69
395.005	81.69
395.229	100.69
395.454	73.69
395.678	81.69
395.903	84.69
396.127	94.69
396.352	81.69
396.576	82.69
396.801	88.69
397.025	86.69
397.249	95.69
397.474	89.69
397.698	95.69
397.922	82.69
398.147	79.69
398.371	84.69
398.595	84.69
398.82	87.69
399.044	72.69
399.268	84.69
399.492	86.69
399.717	83.69
399.941	97.69
400.165	102.69
400.389	95.69
400.613	89.69
400.837	82.69
401.062	78.69
401.286	91.69
401.51	90.69
401.734	95.69
401.958	92.69
402.182	89.69
402.406	94.69
402.63	73.69
402.854	70.69
403.078	86.69
403.302	84.69
403.526	76.69
403.75	85.69
403.974	91.69
404.198	82.69
404.422	98.69
404.645	84.69
404.869	96.69
405.093	95.69
405.317	93.69
405.541	88.69
405.765	82.69
405.988	86.69
406.212	91.69
406.436	82.69
406.66	87.69
406.883	90.69
407.107	92.69
407.331	88.69
407.555	99.69
407.778	82.69
408.002	85.69
408.226	82.69
408.449	81.69
408.673	89.69
408.896	86.69
409.12	85.69
409.344	88.69
409.567	78.69
409.791	89.69
410.014	91.69
410.238	99.69
410.461	93.69
410.685	88.69
410.908	81.69
411.132	91.69
411.355	88.69
411.578	92.69
411.802	86.69
412.025	85.69
412.249	91.69
412.472	89.69
412.695	86.69
412.919	97.69
413.142	78.69
413.365	93.69
413.589	88.69
413.812	87.69
414.035	95.69
414.258	95.69
414.482	80.69
414.705	87.69
414.928	92.69
415.151	87.69
415.374	90.69
415.597	91.69
415.821	81.69
416.044	95.69
416.267	90.69
416.49	97.69
416.713	88.69
416.936	71.69
417.159	91.69
417.382	95.69
417.605	92.69
417.828	80.69
418.051	90.69
418.274	86.69
418.497	96.69
418.72	92.69
418.943	90.69
419.166	97.69
419.389	107.69
419.611	93.69
419.834	100.69
420.057	118.69
420.28	99.69
420.503	96.69
420.726	88.69
420.948	71.69
421.171	99.69
421.394	99.69
421.617	96.69
421.839	87.69
422.062	96.69
422.285	93.69
422.507	100.69
422.73	100.69
422.953	92.69
423.175	82.69
423.398	96.69
423.621	93.69
423.843	105.69
424.066	87.69
424.288	92.69
424.511	84.69
424.733	82.69
424.956	79.69
425.178	89.69
425.401	93.69
425.623	96.69
425.846	83.69
426.068	88.69
426.291	76.69
426.513	71.69
426.735	91.69
426.958	91.69
427.18	80.69
427.402	91.69
427.625	96.69
427.847	92.69
428.069	85.69
428.292	99.69
428.514	101.69
428.736	75.69
428.958	74.69
429.181	92.69
429.403	104.69
429.625	87.69
429.847	96.69
430.069	96.69
430.292	100.69
430.514	87.69
430.736	89.69
430.958	90.69
431.18	100.69
431.402	97.69
431.624	84.69
431.846	83.69
432.068	96.69
432.29	82.69
432.512	92.69
432.734	80.69
432.956	91.69
433.178	113.69
433.4	107.69
433.622	92.69
433.844	88.69
434.066	83.69
434.287	91.69
434.509	93.69
434.731	99.69
434.953	89.69
435.175	96.69
435.397	92.69
435.618	89.69
435.84	93.69
436.062	85.69
436.284	74.69
436.505	76.69
436.727	90.69
436.949	91.69
437.17	105.69
437.392	99.69
437.614	98.69
437.835	89.69
438.057	95.69
438.278	92.69
438.5	92.69
438.721	92.69
438.943	84.69
439.165	91.69
439.386	91.69
439.608	95.69
439.829	92.69
440.05	111.69
440.272	93.69
440.493	103.69
440.715	90.69
440.936	83.69
441.158	86.69
441.379	98.69
441.6	97.69
441.822	91.69
442.043	95.69
442.264	93.69
442.486	90.69
442.707	87.69
442.928	107.69
443.149	88.69
443.371	90.69
443.592	96.69
443.813	91.69
444.034	81.69
444.255	105.69
444.476	90.69
444.698	103.69
444.919	95.69
445.14	222.69
445.361	151.69
445.582	95.69
445.803	99.69
446.024	88.69
446.245	93.69
446.466	96.69
446.687	93.69
446.908	83.69
447.129	95.69
447.35	92.69
447.571	104.69
447.792	90.69
448.013	79.69
448.234	89.69
448.455	101.69
448.675	94.69
448.896	83.69
449.117	93.69
449.338	95.69
449.559	93.69
449.779	96.69
450	100.69
450.221	93.69
450.442	105.69
450.662	105.69
450.883	99.69
451.104	82.69
451.324	82.69
451.545	93.69
451.766	85.69
451.986	86.69
452.207	108.69
452.428	95.69
452.648	109.69
452.869	105.69
453.089	86.69
453.31	81.69
453.53	91.69
453.751	86.69
453.971	87.69
454.192	82.69
454.412	83.69
454.633	99.69
454.853	95.69
455.073	87.69
455.294	77.69
455.514	93.69
455.734	85.69
455.955	93.69
456.175	101.69
456.395	83.69
456.616	88.69
456.836	82.69
457.056	81.69
457.276	86.69
457.497	79.69
457.717	87.69
457.937	74.69
458.157	78.69
458.377	84.69
458.598	87.69
458.818	92.69
459.038	86.69
459.258	92.69
459.478	85.69
459.698	91.69
459.918	89.69
460.138	91.69
460.358	83.69
460.578	83.69
460.798	84.69
461.018	93.69
461.238	96.69
461.458	92.69
461.678	69.69
461.898	102.69
462.118	95.69
462.338	99.69
462.558	99.69
462.777	90.69
462.997	87.69
463.217	79.69
463.437	80.69
463.657	87.69
463.876	81.69
464.096	82.69
464.316	82.69
464.536	90.69
464.755	90.69
464.975	85.69
465.195	92.69
465.414	87.69
465.634	93.69
465.854	98.69
466.073	96.69
466.293	97.69
466.512	88.69
466.732	84.69
466.951	80.69
467.171	93.69
467.391	99.69
467.61	104.69
467.829	99.69
468.049	101.69
468.268	100.69
468.488	93.69
468.707	92.69
468.927	97.69
469.146	89.69
469.365	93.69
469.585	95.69
469.804	84.69
470.023	102.69
470.243	101.69
470.462	86.69
470.681	106.69
470.901	97.69
471.12	88.69
471.339	110.69
471.558	89.69
471.777	83.69
471.997	92.69
472.216	94.69
472.435	100.69
472.654	96.69
472.873	83.69
473.092	92.69
473.311	103.69
473.53	83.69
473.749	84.69
473.968	90.69
474.187	88.69
474.406	87.69
474.625	100.69
474.844	84.69
475.063	95.69
475.282	78.69
475.501	87.69
475.72	89.69
475.939	97.69
476.158	83.69
476.377	85.69
476.596	81.69
476.814	91.69
477.033	103.69
477.252	108.69
477.471	93.69
477.69	82.69
477.908	80.69
478.127	92.69
478.346	102.69
478.564	94.69
478.783	86.69
479.002	97.69
479.22	109.69
479.439	103.69
479.658	94.69
479.876	89.69
480.095	95.69
480.313	91.69
480.532	95.69
480.751	87.69
480.969	81.69
481.188	93.69
481.406	86.69
481.624	80.69
481.843	77.69
482.061	76.69
482.28	104.69
482.498	88.69
482.717	93.69
482.935	100.69
483.153	89.69
483.372	95.69
483.59	102.69
483.808	95.69
484.027	87.69
484.245	86.69
484.463	96.69
484.681	104.69
484.9	93.69
485.118	90.69
485.336	90.69
485.554	86.69
485.772	91.69
485.99	90.69
486.209	90.69
486.427	89.69
486.645	92.69
486.863	106.69
487.081	96.69
487.299	102.69
487.517	89.69
487.735	89.69
487.953	105.69
488.171	90.69
488.389	107.69
488.607	116.69
488.825	101.69
489.043	101.69
489.261	90.69
489.479	108.69
489.696	92.69
489.914	109.69
490.132	104.69
490.35	92.69
490.568	89.69
490.786	88.69
491.003	115.69
491.221	108.69
491.439	105.69
491.657	118.69
491.874	116.69
492.092	100.69
492.31	128.69
492.527	127.69
492.745	104.69
492.963	101.69
493.18	111.69
493.398	115.69
493.615	109.69
493.833	104.69
494.05	108.69
494.268	125.69
494.485	104.69
494.703	117.69
494.92	104.69
495.138	103.69
495.355	111.69
495.573	113.69
495.79	98.69
496.008	107.69
496.225	110.69
496.442	118.69
496.66	93.69
496.877	98.69
497.094	105.69
497.312	103.69
497.529	115.69
497.746	93.69
497.963	88.69
498.181	89.69
498.398	92.69
498.615	91.69
498.832	83.69
499.049	87.69
499.267	91.69
499.484	101.69
499.701	103.69
499.918	100.69
500.135	89.69
500.352	92.69
500.569	102.69
500.786	99.69
501.003	106.69
501.22	91.69
501.437	96.69
501.654	74.69
501.871	94.69
502.088	90.69
502.305	118.69
502.522	91.69
502.739	103.69
502.956	108.69
503.172	82.69
503.389	81.69
503.606	100.69
503.823	95.69
504.04	92.69
504.256	84.69
504.473	108.69
504.69	98.69
504.907	99.69
505.123	96.69
505.34	97.69
505.557	87.69
505.773	99.69
505.99	95.69
506.207	95.69
506.423	99.69
506.64	99.69
506.856	82.69
507.073	87.69
507.289	85.69
507.506	87.69
507.722	91.69
507.939	86.69
508.155	83.69
508.372	102.69
508.588	106.69
508.805	101.69
509.021	101.69
509.238	89.69
509.454	88.69
509.67	81.69
509.887	87.69
510.103	88.69
510.319	74.69
510.536	72.69
510.752	86.69
510.968	80.69
511.184	84.69
511.401	84.69
511.617	90.69
511.833	83.69
512.049	86.69
512.265	82.69
512.481	83.69
512.698	91.69
512.914	91.69
513.13	92.69
513.346	82.69
513.562	85.69
513.778	77.69
513.994	89.69
514.21	89.69
514.426	97.69
514.642	91.69
514.858	89.69
515.074	83.69
515.29	85.69
515.506	93.69
515.721	76.69
515.937	92.69
516.153	73.69
516.369	90.69
516.585	76.69
516.801	73.69
517.016	96.69
517.232	102.69
517.448	100.69
517.664	72.69
