Data from Location5.07152019.Energy5.Lamp.07192019.3%Agarose_HRD10591_15-38-20-387.txt Node
Date: Fri Jul 19 15:38:20 EDT 2019
User: cochatt
Spectrometer: HR+D1059
Trigger mode: 1
Integration Time (sec): 1.000000E-1
Scans to average: 1
Electric dark correction enabled: true
Nonlinearity correction enabled: false
Boxcar width: 0
XAxis mode: Wavelengths
Number of Pixels in Spectrum: 2048
>>>>>Begin Spectral Data<<<<<
223.165	-22.19
223.4	-22.19
223.635	-22.19
223.869	-13.19
224.104	-7.19
224.338	-15.19
224.573	-31.19
224.808	-12.19
225.042	-14.19
225.277	-4.19
225.511	-0.19
225.746	-0.19
225.98	5.81
226.215	29.81
226.449	14.81
226.683	23.81
226.918	22.81
227.152	22.81
227.387	30.81
227.621	30.81
227.856	39.81
228.09	48.81
228.324	35.81
228.559	65.81
228.793	68.81
229.027	59.81
229.262	68.81
229.496	74.81
229.73	58.81
229.964	78.81
230.199	67.81
230.433	84.81
230.667	87.81
230.901	72.81
231.136	86.81
231.37	84.81
231.604	78.81
231.838	76.81
232.072	73.81
232.306	88.81
232.541	80.81
232.775	80.81
233.009	99.81
233.243	93.81
233.477	84.81
233.711	73.81
233.945	100.81
234.179	80.81
234.413	86.81
234.647	90.81
234.881	78.81
235.115	74.81
235.349	76.81
235.583	68.81
235.817	76.81
236.051	67.81
236.285	74.81
236.519	56.81
236.753	87.81
236.987	86.81
237.221	70.81
237.455	83.81
237.689	81.81
237.922	67.81
238.156	64.81
238.39	70.81
238.624	86.81
238.858	88.81
239.091	73.81
239.325	81.81
239.559	83.81
239.793	83.81
240.027	81.81
240.26	71.81
240.494	71.81
240.728	72.81
240.961	75.81
241.195	69.81
241.429	72.81
241.662	86.81
241.896	71.81
242.13	72.81
242.363	81.81
242.597	82.81
242.83	67.81
243.064	89.81
243.298	78.81
243.531	74.81
243.765	71.81
243.998	88.81
244.232	90.81
244.465	72.81
244.699	66.81
244.932	89.81
245.166	83.81
245.399	89.81
245.633	73.81
245.866	67.81
246.099	79.81
246.333	84.81
246.566	81.81
246.8	94.81
247.033	82.81
247.266	78.81
247.5	65.81
247.733	79.81
247.966	70.81
248.2	89.81
248.433	76.81
248.666	78.81
248.899	81.81
249.133	77.81
249.366	74.81
249.599	72.81
249.832	75.81
250.066	81.81
250.299	68.81
250.532	75.81
250.765	89.81
250.998	85.81
251.231	74.81
251.465	82.81
251.698	73.81
251.931	69.81
252.164	76.81
252.397	81.81
252.63	75.81
252.863	82.81
253.096	80.81
253.329	80.81
253.562	75.81
253.795	84.81
254.028	87.81
254.261	87.81
254.494	72.81
254.727	85.81
254.96	72.81
255.193	75.81
255.426	82.81
255.659	79.81
255.892	91.81
256.124	84.81
256.357	81.81
256.59	71.81
256.823	84.81
257.056	73.81
257.289	75.81
257.521	83.81
257.754	76.81
257.987	80.81
258.22	75.81
258.452	75.81
258.685	72.81
258.918	80.81
259.151	71.81
259.383	79.81
259.616	80.81
259.849	82.81
260.081	88.81
260.314	84.81
260.547	81.81
260.779	74.81
261.012	77.81
261.244	78.81
261.477	96.81
261.71	86.81
261.942	65.81
262.175	72.81
262.407	74.81
262.64	86.81
262.872	82.81
263.105	80.81
263.337	79.81
263.57	74.81
263.802	79.81
264.035	89.81
264.267	80.81
264.499	83.81
264.732	83.81
264.964	66.81
265.197	82.81
265.429	78.81
265.661	77.81
265.894	64.81
266.126	76.81
266.358	80.81
266.591	81.81
266.823	89.81
267.055	76.81
267.287	82.81
267.52	75.81
267.752	100.81
267.984	86.81
268.216	78.81
268.448	80.81
268.681	87.81
268.913	85.81
269.145	86.81
269.377	77.81
269.609	81.81
269.841	87.81
270.073	92.81
270.306	99.81
270.538	85.81
270.77	95.81
271.002	83.81
271.234	96.81
271.466	92.81
271.698	80.81
271.93	81.81
272.162	71.81
272.394	90.81
272.626	85.81
272.858	73.81
273.09	89.81
273.322	81.81
273.553	82.81
273.785	82.81
274.017	84.81
274.249	105.81
274.481	89.81
274.713	93.81
274.945	76.81
275.176	73.81
275.408	75.81
275.64	82.81
275.872	78.81
276.104	92.81
276.335	88.81
276.567	75.81
276.799	92.81
277.031	77.81
277.262	84.81
277.494	80.81
277.726	77.81
277.957	77.81
278.189	97.81
278.421	74.81
278.652	87.81
278.884	92.81
279.115	80.81
279.347	82.81
279.579	91.81
279.81	90.81
280.042	81.81
280.273	61.81
280.505	77.81
280.736	76.81
280.968	81.81
281.199	84.81
281.431	99.81
281.662	94.81
281.894	80.81
282.125	77.81
282.356	75.81
282.588	85.81
282.819	79.81
283.051	97.81
283.282	77.81
283.513	76.81
283.745	93.81
283.976	85.81
284.207	85.81
284.439	82.81
284.67	86.81
284.901	78.81
285.132	83.81
285.364	77.81
285.595	98.81
285.826	78.81
286.057	76.81
286.288	81.81
286.52	95.81
286.751	88.81
286.982	86.81
287.213	65.81
287.444	92.81
287.675	91.81
287.906	80.81
288.138	90.81
288.369	84.81
288.6	83.81
288.831	80.81
289.062	80.81
289.293	78.81
289.524	77.81
289.755	95.81
289.986	79.81
290.217	92.81
290.448	82.81
290.679	79.81
290.91	82.81
291.141	78.81
291.371	86.81
291.602	96.81
291.833	95.81
292.064	88.81
292.295	89.81
292.526	83.81
292.757	92.81
292.987	83.81
293.218	76.81
293.449	84.81
293.68	87.81
293.91	77.81
294.141	76.81
294.372	81.81
294.603	80.81
294.833	74.81
295.064	85.81
295.295	85.81
295.525	76.81
295.756	96.81
295.987	87.81
296.217	93.81
296.448	100.81
296.679	85.81
296.909	87.81
297.14	85.81
297.37	86.81
297.601	96.81
297.831	83.81
298.062	88.81
298.292	78.81
298.523	76.81
298.753	87.81
298.984	74.81
299.214	88.81
299.445	93.81
299.675	95.81
299.905	88.81
300.136	89.81
300.366	74.81
300.597	79.81
300.827	84.81
301.057	85.81
301.288	79.81
301.518	85.81
301.748	61.81
301.979	80.81
302.209	85.81
302.439	88.81
302.669	89.81
302.9	90.81
303.13	79.81
303.36	92.81
303.59	70.81
303.82	86.81
304.051	88.81
304.281	76.81
304.511	82.81
304.741	82.81
304.971	80.81
305.201	87.81
305.431	78.81
305.661	86.81
305.891	72.81
306.121	97.81
306.352	81.81
306.582	85.81
306.812	95.81
307.042	86.81
307.272	84.81
307.502	80.81
307.731	75.81
307.961	92.81
308.191	84.81
308.421	99.81
308.651	76.81
308.881	92.81
309.111	94.81
309.341	99.81
309.571	88.81
309.8	84.81
310.03	76.81
310.26	77.81
310.49	78.81
310.72	88.81
310.949	83.81
311.179	75.81
311.409	85.81
311.639	99.81
311.868	81.81
312.098	83.81
312.328	78.81
312.557	91.81
312.787	87.81
313.017	83.81
313.246	88.81
313.476	83.81
313.706	84.81
313.935	97.81
314.165	82.81
314.394	96.81
314.624	89.81
314.853	106.81
315.083	86.81
315.312	84.81
315.542	80.81
315.771	88.81
316.001	73.81
316.23	84.81
316.46	86.81
316.689	90.81
316.919	80.81
317.148	76.81
317.377	75.81
317.607	81.81
317.836	82.81
318.065	82.81
318.295	88.81
318.524	75.81
318.753	80.81
318.983	73.81
319.212	83.81
319.441	87.81
319.67	79.81
319.9	97.81
320.129	86.81
320.358	77.81
320.587	88.81
320.816	97.81
321.046	76.81
321.275	95.81
321.504	86.81
321.733	83.81
321.962	95.81
322.191	88.81
322.42	77.81
322.649	89.81
322.878	79.81
323.108	88.81
323.337	89.81
323.566	86.81
323.795	97.81
324.024	92.81
324.253	86.81
324.482	83.81
324.71	83.81
324.939	77.81
325.168	83.81
325.397	80.81
325.626	84.81
325.855	81.81
326.084	76.81
326.313	89.81
326.542	91.81
326.77	80.81
326.999	97.81
327.228	90.81
327.457	79.81
327.686	84.81
327.914	94.81
328.143	85.81
328.372	93.81
328.6	93.81
328.829	99.81
329.058	72.81
329.287	88.81
329.515	84.81
329.744	83.81
329.972	74.81
330.201	97.81
330.43	87.81
330.658	94.81
330.887	93.81
331.115	83.81
331.344	73.81
331.572	77.81
331.801	89.81
332.03	75.81
332.258	75.81
332.486	87.81
332.715	79.81
332.943	81.81
333.172	91.81
333.4	79.81
333.629	87.81
333.857	86.81
334.085	85.81
334.314	85.81
334.542	87.81
334.771	62.81
334.999	83.81
335.227	85.81
335.455	92.81
335.684	90.81
335.912	82.81
336.14	74.81
336.369	80.81
336.597	99.81
336.825	78.81
337.053	84.81
337.281	104.81
337.51	86.81
337.738	78.81
337.966	87.81
338.194	91.81
338.422	82.81
338.65	81.81
338.878	85.81
339.106	85.81
339.334	80.81
339.562	70.81
339.79	85.81
340.018	87.81
340.246	72.81
340.474	83.81
340.702	83.81
340.93	92.81
341.158	77.81
341.386	88.81
341.614	85.81
341.842	68.81
342.07	74.81
342.298	73.81
342.526	96.81
342.754	74.81
342.981	83.81
343.209	89.81
343.437	93.81
343.665	76.81
343.893	101.81
344.12	82.81
344.348	86.81
344.576	90.81
344.804	83.81
345.031	86.81
345.259	75.81
345.487	75.81
345.714	85.81
345.942	81.81
346.17	82.81
346.397	77.81
346.625	89.81
346.853	84.81
347.08	67.81
347.308	91.81
347.535	97.81
347.763	81.81
347.99	90.81
348.218	84.81
348.445	84.81
348.673	83.81
348.9	76.81
349.128	91.81
349.355	89.81
349.583	90.81
349.81	91.81
350.037	80.81
350.265	72.81
350.492	84.81
350.72	78.81
350.947	88.81
351.174	89.81
351.402	88.81
351.629	98.81
351.856	77.81
352.083	72.81
352.311	90.81
352.538	83.81
352.765	85.81
352.992	88.81
353.22	78.81
353.447	83.81
353.674	96.81
353.901	98.81
354.128	76.81
354.355	81.81
354.583	81.81
354.81	85.81
355.037	92.81
355.264	79.81
355.491	77.81
355.718	91.81
355.945	82.81
356.172	93.81
356.399	97.81
356.626	96.81
356.853	87.81
357.08	72.81
357.307	84.81
357.534	73.81
357.761	89.81
357.988	105.81
358.215	104.81
358.441	91.81
358.668	87.81
358.895	83.81
359.122	81.81
359.349	80.81
359.576	80.81
359.802	88.81
360.029	91.81
360.256	84.81
360.483	85.81
360.709	91.81
360.936	83.81
361.163	87.81
361.39	95.81
361.616	82.81
361.843	87.81
362.07	85.81
362.296	88.81
362.523	70.81
362.749	81.81
362.976	99.81
363.203	84.81
363.429	73.81
363.656	71.81
363.882	85.81
364.109	76.81
364.335	80.81
364.562	77.81
364.788	86.81
365.015	88.81
365.241	82.81
365.468	69.81
365.694	70.81
365.92	90.81
366.147	91.81
366.373	85.81
366.599	88.81
366.826	80.81
367.052	91.81
367.278	84.81
367.505	76.81
367.731	80.81
367.957	80.81
368.184	77.81
368.41	95.81
368.636	80.81
368.862	99.81
369.089	91.81
369.315	71.81
369.541	89.81
369.767	92.81
369.993	78.81
370.219	84.81
370.445	69.81
370.672	96.81
370.898	76.81
371.124	96.81
371.35	79.81
371.576	92.81
371.802	91.81
372.028	85.81
372.254	89.81
372.48	84.81
372.706	79.81
372.932	71.81
373.158	65.81
373.384	87.81
373.61	82.81
373.835	91.81
374.061	73.81
374.287	83.81
374.513	88.81
374.739	82.81
374.965	71.81
375.191	83.81
375.416	78.81
375.642	83.81
375.868	95.81
376.094	92.81
376.319	92.81
376.545	66.81
376.771	75.81
376.997	91.81
377.222	72.81
377.448	70.81
377.674	86.81
377.899	83.81
378.125	81.81
378.35	81.81
378.576	63.81
378.802	99.81
379.027	84.81
379.253	77.81
379.478	82.81
379.704	93.81
379.929	77.81
380.155	82.81
380.38	71.81
380.606	80.81
380.831	87.81
381.057	76.81
381.282	85.81
381.507	85.81
381.733	74.81
381.958	74.81
382.184	94.81
382.409	90.81
382.634	89.81
382.86	72.81
383.085	92.81
383.31	92.81
383.535	87.81
383.761	81.81
383.986	81.81
384.211	90.81
384.436	83.81
384.662	82.81
384.887	82.81
385.112	82.81
385.337	90.81
385.562	76.81
385.787	78.81
386.013	94.81
386.238	85.81
386.463	85.81
386.688	79.81
386.913	83.81
387.138	79.81
387.363	87.81
387.588	87.81
387.813	82.81
388.038	93.81
388.263	73.81
388.488	93.81
388.713	77.81
388.938	88.81
389.163	82.81
389.387	81.81
389.612	80.81
389.837	76.81
390.062	100.81
390.287	85.81
390.512	88.81
390.736	93.81
390.961	85.81
391.186	81.81
391.411	85.81
391.636	95.81
391.86	89.81
392.085	84.81
392.31	98.81
392.534	86.81
392.759	91.81
392.984	87.81
393.208	95.81
393.433	93.81
393.658	101.81
393.882	84.81
394.107	81.81
394.331	92.81
394.556	78.81
394.78	77.81
395.005	88.81
395.229	93.81
395.454	81.81
395.678	85.81
395.903	80.81
396.127	92.81
396.352	87.81
396.576	89.81
396.801	82.81
397.025	69.81
397.249	78.81
397.474	95.81
397.698	90.81
397.922	80.81
398.147	82.81
398.371	81.81
398.595	87.81
398.82	71.81
399.044	89.81
399.268	80.81
399.492	86.81
399.717	89.81
399.941	79.81
400.165	78.81
400.389	104.81
400.613	89.81
400.837	104.81
401.062	91.81
401.286	91.81
401.51	97.81
401.734	89.81
401.958	87.81
402.182	89.81
402.406	86.81
402.63	80.81
402.854	95.81
403.078	95.81
403.302	91.81
403.526	84.81
403.75	80.81
403.974	90.81
404.198	104.81
404.422	81.81
404.645	88.81
404.869	92.81
405.093	83.81
405.317	87.81
405.541	97.81
405.765	84.81
405.988	83.81
406.212	86.81
406.436	86.81
406.66	92.81
406.883	107.81
407.107	93.81
407.331	83.81
407.555	87.81
407.778	96.81
408.002	89.81
408.226	81.81
408.449	98.81
408.673	97.81
408.896	84.81
409.12	95.81
409.344	102.81
409.567	106.81
409.791	92.81
410.014	90.81
410.238	83.81
410.461	86.81
410.685	89.81
410.908	79.81
411.132	103.81
411.355	80.81
411.578	90.81
411.802	95.81
412.025	91.81
412.249	74.81
412.472	79.81
412.695	84.81
412.919	92.81
413.142	90.81
413.365	92.81
413.589	91.81
413.812	81.81
414.035	80.81
414.258	94.81
414.482	86.81
414.705	101.81
414.928	91.81
415.151	97.81
415.374	85.81
415.597	96.81
415.821	83.81
416.044	88.81
416.267	97.81
416.49	100.81
416.713	98.81
416.936	100.81
417.159	95.81
417.382	85.81
417.605	99.81
417.828	88.81
418.051	94.81
418.274	87.81
418.497	92.81
418.72	97.81
418.943	99.81
419.166	95.81
419.389	88.81
419.611	82.81
419.834	92.81
420.057	97.81
420.28	96.81
420.503	87.81
420.726	100.81
420.948	99.81
421.171	80.81
421.394	85.81
421.617	86.81
421.839	85.81
422.062	97.81
422.285	104.81
422.507	100.81
422.73	88.81
422.953	81.81
423.175	85.81
423.398	81.81
423.621	89.81
423.843	86.81
424.066	84.81
424.288	93.81
424.511	102.81
424.733	99.81
424.956	86.81
425.178	96.81
425.401	88.81
425.623	93.81
425.846	96.81
426.068	95.81
426.291	90.81
426.513	86.81
426.735	84.81
426.958	94.81
427.18	87.81
427.402	86.81
427.625	86.81
427.847	81.81
428.069	87.81
428.292	98.81
428.514	99.81
428.736	93.81
428.958	82.81
429.181	94.81
429.403	103.81
429.625	94.81
429.847	80.81
430.069	92.81
430.292	97.81
430.514	89.81
430.736	88.81
430.958	85.81
431.18	99.81
431.402	106.81
431.624	98.81
431.846	83.81
432.068	90.81
432.29	87.81
432.512	84.81
432.734	93.81
432.956	92.81
433.178	93.81
433.4	89.81
433.622	98.81
433.844	91.81
434.066	102.81
434.287	97.81
434.509	75.81
434.731	87.81
434.953	95.81
435.175	86.81
435.397	82.81
435.618	87.81
435.84	90.81
436.062	95.81
436.284	98.81
436.505	103.81
436.727	82.81
436.949	88.81
437.17	108.81
437.392	105.81
437.614	99.81
437.835	75.81
438.057	92.81
438.278	82.81
438.5	108.81
438.721	92.81
438.943	88.81
439.165	84.81
439.386	93.81
439.608	98.81
439.829	98.81
440.05	104.81
440.272	104.81
440.493	105.81
440.715	89.81
440.936	89.81
441.158	102.81
441.379	111.81
441.6	81.81
441.822	89.81
442.043	84.81
442.264	83.81
442.486	98.81
442.707	93.81
442.928	100.81
443.149	85.81
443.371	89.81
443.592	82.81
443.813	84.81
444.034	93.81
444.255	100.81
444.476	94.81
444.698	98.81
444.919	104.81
445.14	211.81
445.361	157.81
445.582	94.81
445.803	87.81
446.024	97.81
446.245	98.81
446.466	101.81
446.687	103.81
446.908	105.81
447.129	84.81
447.35	108.81
447.571	107.81
447.792	105.81
448.013	92.81
448.234	95.81
448.455	99.81
448.675	103.81
448.896	97.81
449.117	103.81
449.338	96.81
449.559	93.81
449.779	94.81
450	96.81
450.221	98.81
450.442	115.81
450.662	81.81
450.883	92.81
451.104	96.81
451.324	103.81
451.545	95.81
451.766	101.81
451.986	100.81
452.207	91.81
452.428	83.81
452.648	78.81
452.869	92.81
453.089	77.81
453.31	90.81
453.53	81.81
453.751	92.81
453.971	93.81
454.192	97.81
454.412	88.81
454.633	98.81
454.853	93.81
455.073	93.81
455.294	93.81
455.514	97.81
455.734	95.81
455.955	92.81
456.175	95.81
456.395	93.81
456.616	89.81
456.836	93.81
457.056	77.81
457.276	77.81
457.497	78.81
457.717	85.81
457.937	90.81
458.157	105.81
458.377	81.81
458.598	74.81
458.818	79.81
459.038	93.81
459.258	87.81
459.478	81.81
459.698	88.81
459.918	78.81
460.138	84.81
460.358	95.81
460.578	89.81
460.798	99.81
461.018	98.81
461.238	81.81
461.458	92.81
461.678	103.81
461.898	99.81
462.118	100.81
462.338	86.81
462.558	83.81
462.777	81.81
462.997	96.81
463.217	84.81
463.437	75.81
463.657	81.81
463.876	88.81
464.096	93.81
464.316	99.81
464.536	83.81
464.755	91.81
464.975	101.81
465.195	86.81
465.414	83.81
465.634	81.81
465.854	100.81
466.073	97.81
466.293	93.81
466.512	104.81
466.732	89.81
466.951	105.81
467.171	99.81
467.391	93.81
467.61	92.81
467.829	81.81
468.049	89.81
468.268	100.81
468.488	92.81
468.707	102.81
468.927	93.81
469.146	105.81
469.365	98.81
469.585	92.81
469.804	86.81
470.023	95.81
470.243	95.81
470.462	103.81
470.681	93.81
470.901	99.81
471.12	83.81
471.339	88.81
471.558	87.81
471.777	86.81
471.997	95.81
472.216	88.81
472.435	92.81
472.654	100.81
472.873	82.81
473.092	89.81
473.311	85.81
473.53	96.81
473.749	81.81
473.968	83.81
474.187	94.81
474.406	94.81
474.625	83.81
474.844	99.81
475.063	85.81
475.282	96.81
475.501	93.81
475.72	97.81
475.939	95.81
476.158	92.81
476.377	100.81
476.596	96.81
476.814	76.81
477.033	92.81
477.252	112.81
477.471	97.81
477.69	99.81
477.908	90.81
478.127	102.81
478.346	88.81
478.564	112.81
478.783	93.81
479.002	100.81
479.22	89.81
479.439	101.81
479.658	95.81
479.876	71.81
480.095	86.81
480.313	104.81
480.532	81.81
480.751	92.81
480.969	74.81
481.188	75.81
481.406	80.81
481.624	81.81
481.843	84.81
482.061	89.81
482.28	100.81
482.498	92.81
482.717	89.81
482.935	97.81
483.153	104.81
483.372	101.81
483.59	106.81
483.808	108.81
484.027	112.81
484.245	98.81
484.463	85.81
484.681	92.81
484.9	101.81
485.118	82.81
485.336	92.81
485.554	91.81
485.772	88.81
485.99	95.81
486.209	99.81
486.427	76.81
486.645	86.81
486.863	97.81
487.081	101.81
487.299	108.81
487.517	97.81
487.735	119.81
487.953	119.81
488.171	87.81
488.389	104.81
488.607	111.81
488.825	96.81
489.043	104.81
489.261	101.81
489.479	101.81
489.696	96.81
489.914	95.81
490.132	94.81
490.35	114.81
490.568	110.81
490.786	115.81
491.003	101.81
491.221	97.81
491.439	126.81
491.657	119.81
491.874	115.81
492.092	124.81
492.31	119.81
492.527	115.81
492.745	112.81
492.963	101.81
493.18	124.81
493.398	109.81
493.615	107.81
493.833	107.81
494.05	105.81
494.268	111.81
494.485	106.81
494.703	105.81
494.92	91.81
495.138	99.81
495.355	121.81
495.573	93.81
495.79	100.81
496.008	118.81
496.225	111.81
496.442	98.81
496.66	106.81
496.877	121.81
497.094	105.81
497.312	98.81
497.529	99.81
497.746	105.81
497.963	99.81
498.181	98.81
498.398	90.81
498.615	90.81
498.832	95.81
499.049	85.81
499.267	91.81
499.484	93.81
499.701	98.81
499.918	97.81
500.135	95.81
500.352	97.81
500.569	97.81
500.786	97.81
501.003	103.81
501.22	112.81
501.437	99.81
501.654	97.81
501.871	89.81
502.088	100.81
502.305	100.81
502.522	92.81
502.739	100.81
502.956	98.81
503.172	92.81
503.389	84.81
503.606	96.81
503.823	90.81
504.04	91.81
504.256	90.81
504.473	100.81
504.69	89.81
504.907	90.81
505.123	89.81
505.34	95.81
505.557	90.81
505.773	75.81
505.99	89.81
506.207	100.81
506.423	79.81
506.64	91.81
506.856	90.81
507.073	87.81
507.289	97.81
507.506	88.81
507.722	88.81
507.939	84.81
508.155	88.81
508.372	95.81
508.588	84.81
508.805	101.81
509.021	99.81
509.238	91.81
509.454	91.81
509.67	77.81
509.887	97.81
510.103	66.81
510.319	95.81
510.536	78.81
510.752	84.81
510.968	83.81
511.184	88.81
511.401	82.81
511.617	89.81
511.833	81.81
512.049	74.81
512.265	87.81
512.481	81.81
512.698	90.81
512.914	87.81
513.13	93.81
513.346	77.81
513.562	86.81
513.778	97.81
513.994	79.81
514.21	85.81
514.426	92.81
514.642	94.81
514.858	94.81
515.074	83.81
515.29	95.81
515.506	83.81
515.721	82.81
515.937	81.81
516.153	82.81
516.369	81.81
516.585	80.81
516.801	81.81
517.016	78.81
517.232	84.81
517.448	98.81
517.664	84.81
