Data from Location5.07152019.Energy5.Lamp.07192019.3%Agarose_HRD10591_15-36-38-387.txt Node
Date: Fri Jul 19 15:36:38 EDT 2019
User: cochatt
Spectrometer: HR+D1059
Trigger mode: 1
Integration Time (sec): 1.000000E-1
Scans to average: 1
Electric dark correction enabled: true
Nonlinearity correction enabled: false
Boxcar width: 0
XAxis mode: Wavelengths
Number of Pixels in Spectrum: 2048
>>>>>Begin Spectral Data<<<<<
223.165	-21.5
223.4	-21.5
223.635	-21.5
223.869	-20.5
224.104	-22.5
224.338	-13.5
224.573	-4.5
224.808	-10.5
225.042	2.5
225.277	2.5
225.511	2.5
225.746	8.5
225.98	19.5
226.215	3.5
226.449	1.5
226.683	4.5
226.918	16.5
227.152	31.5
227.387	26.5
227.621	30.5
227.856	32.5
228.09	44.5
228.324	61.5
228.559	59.5
228.793	66.5
229.027	66.5
229.262	67.5
229.496	68.5
229.73	84.5
229.964	70.5
230.199	76.5
230.433	73.5
230.667	75.5
230.901	76.5
231.136	79.5
231.37	77.5
231.604	86.5
231.838	75.5
232.072	68.5
232.306	83.5
232.541	90.5
232.775	90.5
233.009	87.5
233.243	83.5
233.477	82.5
233.711	91.5
233.945	73.5
234.179	76.5
234.413	76.5
234.647	96.5
234.881	80.5
235.115	80.5
235.349	80.5
235.583	83.5
235.817	76.5
236.051	76.5
236.285	91.5
236.519	79.5
236.753	81.5
236.987	74.5
237.221	79.5
237.455	76.5
237.689	82.5
237.922	87.5
238.156	69.5
238.39	87.5
238.624	91.5
238.858	79.5
239.091	80.5
239.325	96.5
239.559	77.5
239.793	75.5
240.027	81.5
240.26	95.5
240.494	66.5
240.728	75.5
240.961	72.5
241.195	77.5
241.429	77.5
241.662	85.5
241.896	85.5
242.13	64.5
242.363	72.5
242.597	75.5
242.83	88.5
243.064	84.5
243.298	73.5
243.531	80.5
243.765	79.5
243.998	83.5
244.232	81.5
244.465	80.5
244.699	77.5
244.932	71.5
245.166	73.5
245.399	85.5
245.633	78.5
245.866	76.5
246.099	67.5
246.333	74.5
246.566	76.5
246.8	86.5
247.033	89.5
247.266	86.5
247.5	78.5
247.733	77.5
247.966	76.5
248.2	90.5
248.433	86.5
248.666	81.5
248.899	82.5
249.133	76.5
249.366	85.5
249.599	92.5
249.832	85.5
250.066	90.5
250.299	83.5
250.532	74.5
250.765	75.5
250.998	75.5
251.231	72.5
251.465	83.5
251.698	82.5
251.931	78.5
252.164	72.5
252.397	76.5
252.63	98.5
252.863	83.5
253.096	81.5
253.329	75.5
253.562	88.5
253.795	75.5
254.028	80.5
254.261	68.5
254.494	69.5
254.727	80.5
254.96	92.5
255.193	69.5
255.426	84.5
255.659	72.5
255.892	93.5
256.124	77.5
256.357	94.5
256.59	74.5
256.823	85.5
257.056	86.5
257.289	79.5
257.521	73.5
257.754	66.5
257.987	93.5
258.22	105.5
258.452	80.5
258.685	94.5
258.918	80.5
259.151	87.5
259.383	88.5
259.616	90.5
259.849	77.5
260.081	89.5
260.314	103.5
260.547	86.5
260.779	91.5
261.012	79.5
261.244	83.5
261.477	84.5
261.71	88.5
261.942	75.5
262.175	86.5
262.407	87.5
262.64	86.5
262.872	84.5
263.105	85.5
263.337	87.5
263.57	64.5
263.802	83.5
264.035	84.5
264.267	85.5
264.499	81.5
264.732	83.5
264.964	87.5
265.197	90.5
265.429	88.5
265.661	80.5
265.894	75.5
266.126	79.5
266.358	77.5
266.591	80.5
266.823	83.5
267.055	92.5
267.287	81.5
267.52	74.5
267.752	91.5
267.984	99.5
268.216	74.5
268.448	97.5
268.681	81.5
268.913	84.5
269.145	58.5
269.377	83.5
269.609	91.5
269.841	92.5
270.073	69.5
270.306	87.5
270.538	76.5
270.77	80.5
271.002	93.5
271.234	86.5
271.466	89.5
271.698	69.5
271.93	73.5
272.162	98.5
272.394	81.5
272.626	80.5
272.858	75.5
273.09	81.5
273.322	75.5
273.553	69.5
273.785	88.5
274.017	81.5
274.249	89.5
274.481	94.5
274.713	73.5
274.945	76.5
275.176	81.5
275.408	86.5
275.64	82.5
275.872	79.5
276.104	96.5
276.335	86.5
276.567	84.5
276.799	94.5
277.031	90.5
277.262	83.5
277.494	103.5
277.726	97.5
277.957	88.5
278.189	90.5
278.421	84.5
278.652	87.5
278.884	89.5
279.115	89.5
279.347	86.5
279.579	88.5
279.81	86.5
280.042	83.5
280.273	79.5
280.505	87.5
280.736	84.5
280.968	81.5
281.199	99.5
281.431	82.5
281.662	77.5
281.894	75.5
282.125	88.5
282.356	92.5
282.588	86.5
282.819	80.5
283.051	94.5
283.282	87.5
283.513	79.5
283.745	83.5
283.976	80.5
284.207	81.5
284.439	74.5
284.67	90.5
284.901	73.5
285.132	93.5
285.364	80.5
285.595	87.5
285.826	88.5
286.057	90.5
286.288	103.5
286.52	92.5
286.751	77.5
286.982	89.5
287.213	85.5
287.444	84.5
287.675	87.5
287.906	75.5
288.138	82.5
288.369	85.5
288.6	88.5
288.831	77.5
289.062	91.5
289.293	82.5
289.524	95.5
289.755	80.5
289.986	74.5
290.217	71.5
290.448	85.5
290.679	76.5
290.91	86.5
291.141	83.5
291.371	95.5
291.602	72.5
291.833	77.5
292.064	74.5
292.295	81.5
292.526	84.5
292.757	93.5
292.987	77.5
293.218	79.5
293.449	86.5
293.68	88.5
293.91	98.5
294.141	86.5
294.372	99.5
294.603	85.5
294.833	83.5
295.064	92.5
295.295	77.5
295.525	83.5
295.756	91.5
295.987	85.5
296.217	87.5
296.448	99.5
296.679	82.5
296.909	81.5
297.14	103.5
297.37	92.5
297.601	85.5
297.831	83.5
298.062	93.5
298.292	92.5
298.523	96.5
298.753	79.5
298.984	92.5
299.214	81.5
299.445	74.5
299.675	96.5
299.905	89.5
300.136	92.5
300.366	96.5
300.597	98.5
300.827	79.5
301.057	75.5
301.288	83.5
301.518	91.5
301.748	82.5
301.979	84.5
302.209	91.5
302.439	83.5
302.669	104.5
302.9	90.5
303.13	89.5
303.36	98.5
303.59	74.5
303.82	87.5
304.051	96.5
304.281	86.5
304.511	82.5
304.741	83.5
304.971	88.5
305.201	96.5
305.431	77.5
305.661	94.5
305.891	76.5
306.121	78.5
306.352	99.5
306.582	101.5
306.812	89.5
307.042	86.5
307.272	74.5
307.502	80.5
307.731	89.5
307.961	93.5
308.191	82.5
308.421	89.5
308.651	92.5
308.881	87.5
309.111	87.5
309.341	93.5
309.571	85.5
309.8	76.5
310.03	79.5
310.26	81.5
310.49	82.5
310.72	75.5
310.949	93.5
311.179	88.5
311.409	87.5
311.639	96.5
311.868	91.5
312.098	94.5
312.328	97.5
312.557	88.5
312.787	87.5
313.017	75.5
313.246	86.5
313.476	90.5
313.706	108.5
313.935	89.5
314.165	81.5
314.394	83.5
314.624	91.5
314.853	86.5
315.083	92.5
315.312	89.5
315.542	72.5
315.771	85.5
316.001	88.5
316.23	98.5
316.46	84.5
316.689	88.5
316.919	88.5
317.148	93.5
317.377	98.5
317.607	82.5
317.836	93.5
318.065	88.5
318.295	92.5
318.524	91.5
318.753	77.5
318.983	107.5
319.212	87.5
319.441	81.5
319.67	78.5
319.9	97.5
320.129	88.5
320.358	72.5
320.587	88.5
320.816	82.5
321.046	97.5
321.275	88.5
321.504	86.5
321.733	92.5
321.962	72.5
322.191	78.5
322.42	81.5
322.649	90.5
322.878	81.5
323.108	91.5
323.337	89.5
323.566	96.5
323.795	92.5
324.024	84.5
324.253	88.5
324.482	81.5
324.71	87.5
324.939	78.5
325.168	71.5
325.397	80.5
325.626	79.5
325.855	74.5
326.084	70.5
326.313	83.5
326.542	78.5
326.77	90.5
326.999	71.5
327.228	78.5
327.457	99.5
327.686	83.5
327.914	76.5
328.143	92.5
328.372	96.5
328.6	96.5
328.829	87.5
329.058	75.5
329.287	97.5
329.515	94.5
329.744	98.5
329.972	79.5
330.201	90.5
330.43	83.5
330.658	84.5
330.887	82.5
331.115	86.5
331.344	89.5
331.572	85.5
331.801	102.5
332.03	90.5
332.258	96.5
332.486	82.5
332.715	82.5
332.943	75.5
333.172	83.5
333.4	80.5
333.629	92.5
333.857	82.5
334.085	100.5
334.314	99.5
334.542	90.5
334.771	76.5
334.999	76.5
335.227	77.5
335.455	81.5
335.684	89.5
335.912	92.5
336.14	83.5
336.369	83.5
336.597	90.5
336.825	92.5
337.053	93.5
337.281	87.5
337.51	89.5
337.738	85.5
337.966	97.5
338.194	76.5
338.422	78.5
338.65	80.5
338.878	82.5
339.106	96.5
339.334	93.5
339.562	87.5
339.79	91.5
340.018	89.5
340.246	84.5
340.474	79.5
340.702	93.5
340.93	95.5
341.158	83.5
341.386	76.5
341.614	66.5
341.842	80.5
342.07	84.5
342.298	80.5
342.526	78.5
342.754	88.5
342.981	95.5
343.209	95.5
343.437	87.5
343.665	76.5
343.893	97.5
344.12	84.5
344.348	86.5
344.576	87.5
344.804	82.5
345.031	86.5
345.259	77.5
345.487	80.5
345.714	80.5
345.942	90.5
346.17	75.5
346.397	79.5
346.625	75.5
346.853	75.5
347.08	97.5
347.308	82.5
347.535	90.5
347.763	92.5
347.99	91.5
348.218	88.5
348.445	84.5
348.673	74.5
348.9	88.5
349.128	81.5
349.355	81.5
349.583	86.5
349.81	88.5
350.037	104.5
350.265	89.5
350.492	77.5
350.72	103.5
350.947	82.5
351.174	76.5
351.402	75.5
351.629	85.5
351.856	76.5
352.083	84.5
352.311	96.5
352.538	76.5
352.765	71.5
352.992	81.5
353.22	86.5
353.447	87.5
353.674	93.5
353.901	77.5
354.128	94.5
354.355	89.5
354.583	74.5
354.81	87.5
355.037	86.5
355.264	97.5
355.491	78.5
355.718	91.5
355.945	96.5
356.172	82.5
356.399	83.5
356.626	98.5
356.853	80.5
357.08	94.5
357.307	67.5
357.534	79.5
357.761	81.5
357.988	87.5
358.215	87.5
358.441	94.5
358.668	81.5
358.895	95.5
359.122	97.5
359.349	89.5
359.576	78.5
359.802	93.5
360.029	90.5
360.256	86.5
360.483	89.5
360.709	90.5
360.936	97.5
361.163	86.5
361.39	76.5
361.616	82.5
361.843	90.5
362.07	89.5
362.296	77.5
362.523	74.5
362.749	88.5
362.976	93.5
363.203	92.5
363.429	85.5
363.656	82.5
363.882	68.5
364.109	93.5
364.335	76.5
364.562	87.5
364.788	88.5
365.015	81.5
365.241	86.5
365.468	91.5
365.694	86.5
365.92	100.5
366.147	86.5
366.373	78.5
366.599	80.5
366.826	93.5
367.052	88.5
367.278	91.5
367.505	91.5
367.731	77.5
367.957	91.5
368.184	91.5
368.41	95.5
368.636	71.5
368.862	84.5
369.089	75.5
369.315	84.5
369.541	79.5
369.767	77.5
369.993	73.5
370.219	79.5
370.445	54.5
370.672	95.5
370.898	84.5
371.124	77.5
371.35	83.5
371.576	69.5
371.802	78.5
372.028	86.5
372.254	82.5
372.48	83.5
372.706	106.5
372.932	85.5
373.158	93.5
373.384	92.5
373.61	98.5
373.835	87.5
374.061	94.5
374.287	93.5
374.513	92.5
374.739	93.5
374.965	77.5
375.191	98.5
375.416	87.5
375.642	82.5
375.868	87.5
376.094	96.5
376.319	75.5
376.545	89.5
376.771	98.5
376.997	74.5
377.222	84.5
377.448	87.5
377.674	93.5
377.899	91.5
378.125	83.5
378.35	90.5
378.576	87.5
378.802	90.5
379.027	90.5
379.253	83.5
379.478	88.5
379.704	100.5
379.929	78.5
380.155	93.5
380.38	92.5
380.606	103.5
380.831	96.5
381.057	89.5
381.282	97.5
381.507	77.5
381.733	86.5
381.958	78.5
382.184	80.5
382.409	86.5
382.634	71.5
382.86	88.5
383.085	72.5
383.31	86.5
383.535	90.5
383.761	93.5
383.986	88.5
384.211	78.5
384.436	78.5
384.662	76.5
384.887	77.5
385.112	92.5
385.337	78.5
385.562	85.5
385.787	75.5
386.013	81.5
386.238	78.5
386.463	87.5
386.688	70.5
386.913	73.5
387.138	86.5
387.363	71.5
387.588	84.5
387.813	83.5
388.038	83.5
388.263	82.5
388.488	76.5
388.713	98.5
388.938	90.5
389.163	90.5
389.387	101.5
389.612	82.5
389.837	83.5
390.062	84.5
390.287	96.5
390.512	83.5
390.736	78.5
390.961	84.5
391.186	89.5
391.411	86.5
391.636	71.5
391.86	73.5
392.085	90.5
392.31	86.5
392.534	91.5
392.759	85.5
392.984	90.5
393.208	95.5
393.433	93.5
393.658	96.5
393.882	92.5
394.107	83.5
394.331	96.5
394.556	87.5
394.78	68.5
395.005	71.5
395.229	88.5
395.454	83.5
395.678	93.5
395.903	86.5
396.127	91.5
396.352	77.5
396.576	85.5
396.801	76.5
397.025	76.5
397.249	94.5
397.474	80.5
397.698	91.5
397.922	92.5
398.147	80.5
398.371	84.5
398.595	105.5
398.82	83.5
399.044	96.5
399.268	89.5
399.492	91.5
399.717	88.5
399.941	88.5
400.165	82.5
400.389	78.5
400.613	88.5
400.837	80.5
401.062	83.5
401.286	76.5
401.51	93.5
401.734	99.5
401.958	77.5
402.182	90.5
402.406	92.5
402.63	91.5
402.854	88.5
403.078	95.5
403.302	93.5
403.526	100.5
403.75	78.5
403.974	90.5
404.198	91.5
404.422	87.5
404.645	92.5
404.869	83.5
405.093	106.5
405.317	100.5
405.541	87.5
405.765	80.5
405.988	106.5
406.212	94.5
406.436	90.5
406.66	86.5
406.883	96.5
407.107	84.5
407.331	98.5
407.555	106.5
407.778	90.5
408.002	77.5
408.226	90.5
408.449	83.5
408.673	97.5
408.896	93.5
409.12	90.5
409.344	88.5
409.567	102.5
409.791	87.5
410.014	93.5
410.238	104.5
410.461	85.5
410.685	101.5
410.908	88.5
411.132	94.5
411.355	91.5
411.578	90.5
411.802	89.5
412.025	100.5
412.249	89.5
412.472	100.5
412.695	87.5
412.919	75.5
413.142	87.5
413.365	89.5
413.589	83.5
413.812	103.5
414.035	94.5
414.258	89.5
414.482	89.5
414.705	94.5
414.928	92.5
415.151	92.5
415.374	83.5
415.597	88.5
415.821	82.5
416.044	100.5
416.267	88.5
416.49	98.5
416.713	90.5
416.936	81.5
417.159	88.5
417.382	99.5
417.605	93.5
417.828	89.5
418.051	89.5
418.274	90.5
418.497	95.5
418.72	113.5
418.943	103.5
419.166	97.5
419.389	92.5
419.611	92.5
419.834	84.5
420.057	106.5
420.28	90.5
420.503	102.5
420.726	84.5
420.948	97.5
421.171	92.5
421.394	94.5
421.617	96.5
421.839	78.5
422.062	95.5
422.285	90.5
422.507	95.5
422.73	88.5
422.953	91.5
423.175	89.5
423.398	108.5
423.621	99.5
423.843	98.5
424.066	107.5
424.288	79.5
424.511	92.5
424.733	98.5
424.956	92.5
425.178	102.5
425.401	102.5
425.623	91.5
425.846	84.5
426.068	104.5
426.291	86.5
426.513	103.5
426.735	90.5
426.958	90.5
427.18	91.5
427.402	81.5
427.625	83.5
427.847	98.5
428.069	95.5
428.292	87.5
428.514	86.5
428.736	94.5
428.958	77.5
429.181	100.5
429.403	78.5
429.625	91.5
429.847	92.5
430.069	82.5
430.292	85.5
430.514	80.5
430.736	108.5
430.958	84.5
431.18	91.5
431.402	96.5
431.624	95.5
431.846	85.5
432.068	81.5
432.29	83.5
432.512	91.5
432.734	88.5
432.956	115.5
433.178	103.5
433.4	104.5
433.622	96.5
433.844	87.5
434.066	88.5
434.287	92.5
434.509	82.5
434.731	92.5
434.953	99.5
435.175	88.5
435.397	92.5
435.618	87.5
435.84	98.5
436.062	94.5
436.284	89.5
436.505	91.5
436.727	93.5
436.949	98.5
437.17	98.5
437.392	95.5
437.614	100.5
437.835	81.5
438.057	95.5
438.278	87.5
438.5	76.5
438.721	108.5
438.943	100.5
439.165	95.5
439.386	93.5
439.608	101.5
439.829	95.5
440.05	74.5
440.272	102.5
440.493	87.5
440.715	91.5
440.936	88.5
441.158	96.5
441.379	104.5
441.6	100.5
441.822	104.5
442.043	102.5
442.264	88.5
442.486	93.5
442.707	99.5
442.928	92.5
443.149	93.5
443.371	101.5
443.592	87.5
443.813	72.5
444.034	94.5
444.255	89.5
444.476	96.5
444.698	97.5
444.919	103.5
445.14	208.5
445.361	158.5
445.582	114.5
445.803	112.5
446.024	97.5
446.245	98.5
446.466	91.5
446.687	95.5
446.908	111.5
447.129	104.5
447.35	102.5
447.571	99.5
447.792	74.5
448.013	99.5
448.234	98.5
448.455	106.5
448.675	85.5
448.896	96.5
449.117	93.5
449.338	88.5
449.559	95.5
449.779	98.5
450	90.5
450.221	92.5
450.442	96.5
450.662	89.5
450.883	85.5
451.104	91.5
451.324	93.5
451.545	90.5
451.766	88.5
451.986	78.5
452.207	101.5
452.428	87.5
452.648	93.5
452.869	91.5
453.089	90.5
453.31	85.5
453.53	88.5
453.751	80.5
453.971	99.5
454.192	79.5
454.412	82.5
454.633	88.5
454.853	96.5
455.073	91.5
455.294	94.5
455.514	76.5
455.734	99.5
455.955	85.5
456.175	96.5
456.395	90.5
456.616	81.5
456.836	77.5
457.056	100.5
457.276	96.5
457.497	85.5
457.717	89.5
457.937	85.5
458.157	93.5
458.377	88.5
458.598	84.5
458.818	95.5
459.038	90.5
459.258	93.5
459.478	85.5
459.698	87.5
459.918	88.5
460.138	84.5
460.358	86.5
460.578	100.5
460.798	87.5
461.018	85.5
461.238	87.5
461.458	94.5
461.678	82.5
461.898	87.5
462.118	100.5
462.338	80.5
462.558	86.5
462.777	79.5
462.997	89.5
463.217	96.5
463.437	81.5
463.657	97.5
463.876	92.5
464.096	94.5
464.316	77.5
464.536	86.5
464.755	89.5
464.975	91.5
465.195	90.5
465.414	89.5
465.634	90.5
465.854	90.5
466.073	80.5
466.293	90.5
466.512	88.5
466.732	103.5
466.951	75.5
467.171	100.5
467.391	105.5
467.61	83.5
467.829	90.5
468.049	91.5
468.268	105.5
468.488	107.5
468.707	87.5
468.927	82.5
469.146	89.5
469.365	87.5
469.585	88.5
469.804	102.5
470.023	84.5
470.243	95.5
470.462	109.5
470.681	92.5
470.901	108.5
471.12	106.5
471.339	106.5
471.558	97.5
471.777	107.5
471.997	90.5
472.216	100.5
472.435	95.5
472.654	91.5
472.873	87.5
473.092	83.5
473.311	102.5
473.53	89.5
473.749	83.5
473.968	98.5
474.187	89.5
474.406	84.5
474.625	87.5
474.844	94.5
475.063	108.5
475.282	95.5
475.501	92.5
475.72	90.5
475.939	105.5
476.158	98.5
476.377	96.5
476.596	91.5
476.814	109.5
477.033	86.5
477.252	88.5
477.471	84.5
477.69	90.5
477.908	116.5
478.127	91.5
478.346	98.5
478.564	107.5
478.783	104.5
479.002	96.5
479.22	94.5
479.439	105.5
479.658	91.5
479.876	97.5
480.095	94.5
480.313	89.5
480.532	73.5
480.751	105.5
480.969	79.5
481.188	80.5
481.406	74.5
481.624	89.5
481.843	82.5
482.061	89.5
482.28	87.5
482.498	91.5
482.717	84.5
482.935	89.5
483.153	99.5
483.372	101.5
483.59	96.5
483.808	91.5
484.027	86.5
484.245	89.5
484.463	90.5
484.681	99.5
484.9	91.5
485.118	90.5
485.336	105.5
485.554	92.5
485.772	86.5
485.99	87.5
486.209	95.5
486.427	96.5
486.645	106.5
486.863	104.5
487.081	89.5
487.299	96.5
487.517	99.5
487.735	106.5
487.953	100.5
488.171	103.5
488.389	111.5
488.607	116.5
488.825	108.5
489.043	87.5
489.261	96.5
489.479	86.5
489.696	83.5
489.914	96.5
490.132	107.5
490.35	109.5
490.568	107.5
490.786	113.5
491.003	108.5
491.221	113.5
491.439	111.5
491.657	93.5
491.874	104.5
492.092	113.5
492.31	119.5
492.527	121.5
492.745	118.5
492.963	113.5
493.18	124.5
493.398	129.5
493.615	100.5
493.833	93.5
494.05	107.5
494.268	110.5
494.485	107.5
494.703	127.5
494.92	95.5
495.138	97.5
495.355	123.5
495.573	114.5
495.79	101.5
496.008	106.5
496.225	115.5
496.442	85.5
496.66	106.5
496.877	102.5
497.094	118.5
497.312	112.5
497.529	111.5
497.746	105.5
497.963	98.5
498.181	100.5
498.398	97.5
498.615	95.5
498.832	100.5
499.049	92.5
499.267	102.5
499.484	88.5
499.701	98.5
499.918	88.5
500.135	106.5
500.352	97.5
500.569	114.5
500.786	94.5
501.003	100.5
501.22	108.5
501.437	97.5
501.654	99.5
501.871	80.5
502.088	104.5
502.305	96.5
502.522	94.5
502.739	94.5
502.956	96.5
503.172	99.5
503.389	105.5
503.606	105.5
503.823	90.5
504.04	90.5
504.256	105.5
504.473	88.5
504.69	102.5
504.907	100.5
505.123	89.5
505.34	91.5
505.557	90.5
505.773	98.5
505.99	87.5
506.207	98.5
506.423	67.5
506.64	90.5
506.856	92.5
507.073	96.5
507.289	87.5
507.506	98.5
507.722	92.5
507.939	90.5
508.155	95.5
508.372	97.5
508.588	88.5
508.805	81.5
509.021	81.5
509.238	81.5
509.454	102.5
509.67	101.5
509.887	81.5
510.103	84.5
510.319	82.5
510.536	119.5
510.752	80.5
510.968	87.5
511.184	115.5
511.401	84.5
511.617	85.5
511.833	83.5
512.049	72.5
512.265	74.5
512.481	76.5
512.698	82.5
512.914	94.5
513.13	99.5
513.346	92.5
513.562	76.5
513.778	83.5
513.994	96.5
514.21	95.5
514.426	95.5
514.642	97.5
514.858	105.5
515.074	83.5
515.29	78.5
515.506	82.5
515.721	92.5
515.937	90.5
516.153	80.5
516.369	79.5
516.585	80.5
516.801	84.5
517.016	96.5
517.232	100.5
517.448	87.5
517.664	85.5
517.879	88.5
518.095	89.5
518.311	87.5
518.527	83.5
518.742	96.5
518.958	88.5
519.173	84.5
519.389	96.5
519.605	89.5
519.82	93.5
520.036	97.5
520.251	83.5
520.467	91.5
520.682	78.5
520.898	89.5
521.113	85.5
521.329	64.5
521.544	76.5
521.76	86.5
521.975	87.5
522.19	83.5
522.406	95.5
522.621	98.5
522.836	85.5
523.052	92.5
523.267	81.5
523.482	85.5
523.698	87.5
523.913	84.5
524.128	83.5
524.343	97.5
524.559	80.5
524.774	83.5
524.989	99.5
525.204	91.5
525.419	97.5
525.634	92.5
525.849	94.5
526.064	91.5
526.28	101.5
526.495	79.5
526.71	94.5
526.925	91.5
527.14	83.5
527.355	83.5
527.57	80.5
527.785	76.5
527.999	91.5
528.214	86.5
528.429	88.5
528.644	104.5
528.859	96.5
529.074	101.5
529.289	111.5
529.503	93.5
529.718	98.5
529.933	84.5
530.148	96.5
530.363	98.5
530.577	75.5
530.792	83.5
531.007	92.5
531.221	87.5
531.436	82.5
531.651	96.5
531.865	80.5
532.08	88.5
532.295	92.5
532.509	85.5
532.724	80.5
532.938	86.5
533.153	93.5
533.367	92.5
533.582	90.5
533.796	97.5
534.011	90.5
534.225	89.5
534.44	87.5
534.654	90.5
534.868	88.5
535.083	92.5
535.297	89.5
535.511	88.5
535.726	77.5
535.94	90.5
536.154	82.5
536.369	83.5
536.583	87.5
536.797	81.5
537.011	79.5
537.225	91.5
537.44	75.5
537.654	84.5
