Data from Location5.07152019.Energy5.Lamp.07192019.3%Agarose_HRD10591_15-37-20-387.txt Node
Date: Fri Jul 19 15:37:20 EDT 2019
User: cochatt
Spectrometer: HR+D1059
Trigger mode: 1
Integration Time (sec): 1.000000E-1
Scans to average: 1
Electric dark correction enabled: true
Nonlinearity correction enabled: false
Boxcar width: 0
XAxis mode: Wavelengths
Number of Pixels in Spectrum: 2048
>>>>>Begin Spectral Data<<<<<
223.165	-13.44
223.4	-13.44
223.635	-13.44
223.869	1.56
224.104	-26.44
224.338	-19.44
224.573	-16.44
224.808	-23.44
225.042	-12.44
225.277	-13.44
225.511	-4.44
225.746	10.56
225.98	2.56
226.215	7.56
226.449	30.56
226.683	23.56
226.918	20.56
227.152	32.56
227.387	31.56
227.621	40.56
227.856	39.56
228.09	47.56
228.324	64.56
228.559	57.56
228.793	58.56
229.027	55.56
229.262	60.56
229.496	72.56
229.73	64.56
229.964	72.56
230.199	80.56
230.433	62.56
230.667	83.56
230.901	62.56
231.136	76.56
231.37	64.56
231.604	81.56
231.838	81.56
232.072	90.56
232.306	88.56
232.541	75.56
232.775	95.56
233.009	87.56
233.243	87.56
233.477	83.56
233.711	84.56
233.945	75.56
234.179	96.56
234.413	71.56
234.647	80.56
234.881	86.56
235.115	84.56
235.349	83.56
235.583	76.56
235.817	66.56
236.051	87.56
236.285	94.56
236.519	77.56
236.753	79.56
236.987	72.56
237.221	76.56
237.455	76.56
237.689	73.56
237.922	87.56
238.156	68.56
238.39	67.56
238.624	64.56
238.858	80.56
239.091	78.56
239.325	88.56
239.559	71.56
239.793	88.56
240.027	84.56
240.26	78.56
240.494	88.56
240.728	62.56
240.961	79.56
241.195	74.56
241.429	81.56
241.662	75.56
241.896	75.56
242.13	71.56
242.363	69.56
242.597	79.56
242.83	74.56
243.064	72.56
243.298	71.56
243.531	71.56
243.765	84.56
243.998	85.56
244.232	63.56
244.465	67.56
244.699	76.56
244.932	76.56
245.166	74.56
245.399	97.56
245.633	72.56
245.866	85.56
246.099	72.56
246.333	77.56
246.566	69.56
246.8	78.56
247.033	84.56
247.266	88.56
247.5	80.56
247.733	89.56
247.966	78.56
248.2	74.56
248.433	59.56
248.666	75.56
248.899	70.56
249.133	70.56
249.366	74.56
249.599	90.56
249.832	88.56
250.066	91.56
250.299	81.56
250.532	79.56
250.765	79.56
250.998	79.56
251.231	63.56
251.465	83.56
251.698	86.56
251.931	68.56
252.164	65.56
252.397	90.56
252.63	92.56
252.863	85.56
253.096	79.56
253.329	70.56
253.562	85.56
253.795	74.56
254.028	80.56
254.261	84.56
254.494	74.56
254.727	69.56
254.96	70.56
255.193	88.56
255.426	73.56
255.659	75.56
255.892	80.56
256.124	72.56
256.357	86.56
256.59	95.56
256.823	98.56
257.056	81.56
257.289	64.56
257.521	90.56
257.754	82.56
257.987	86.56
258.22	95.56
258.452	84.56
258.685	73.56
258.918	90.56
259.151	80.56
259.383	87.56
259.616	78.56
259.849	75.56
260.081	89.56
260.314	91.56
260.547	87.56
260.779	85.56
261.012	82.56
261.244	87.56
261.477	91.56
261.71	82.56
261.942	73.56
262.175	68.56
262.407	86.56
262.64	94.56
262.872	71.56
263.105	65.56
263.337	97.56
263.57	92.56
263.802	86.56
264.035	81.56
264.267	82.56
264.499	92.56
264.732	91.56
264.964	84.56
265.197	78.56
265.429	90.56
265.661	82.56
265.894	93.56
266.126	78.56
266.358	80.56
266.591	79.56
266.823	84.56
267.055	79.56
267.287	79.56
267.52	93.56
267.752	78.56
267.984	80.56
268.216	93.56
268.448	90.56
268.681	80.56
268.913	75.56
269.145	75.56
269.377	83.56
269.609	80.56
269.841	74.56
270.073	92.56
270.306	88.56
270.538	87.56
270.77	86.56
271.002	72.56
271.234	83.56
271.466	74.56
271.698	83.56
271.93	76.56
272.162	76.56
272.394	80.56
272.626	76.56
272.858	86.56
273.09	76.56
273.322	77.56
273.553	79.56
273.785	77.56
274.017	91.56
274.249	89.56
274.481	83.56
274.713	86.56
274.945	82.56
275.176	83.56
275.408	81.56
275.64	82.56
275.872	73.56
276.104	90.56
276.335	80.56
276.567	71.56
276.799	70.56
277.031	70.56
277.262	79.56
277.494	92.56
277.726	87.56
277.957	92.56
278.189	83.56
278.421	82.56
278.652	70.56
278.884	76.56
279.115	93.56
279.347	76.56
279.579	89.56
279.81	89.56
280.042	83.56
280.273	98.56
280.505	81.56
280.736	63.56
280.968	84.56
281.199	85.56
281.431	78.56
281.662	73.56
281.894	82.56
282.125	73.56
282.356	95.56
282.588	82.56
282.819	82.56
283.051	85.56
283.282	81.56
283.513	75.56
283.745	91.56
283.976	79.56
284.207	75.56
284.439	77.56
284.67	82.56
284.901	74.56
285.132	95.56
285.364	82.56
285.595	80.56
285.826	94.56
286.057	87.56
286.288	85.56
286.52	79.56
286.751	100.56
286.982	92.56
287.213	70.56
287.444	89.56
287.675	64.56
287.906	70.56
288.138	78.56
288.369	79.56
288.6	79.56
288.831	85.56
289.062	74.56
289.293	90.56
289.524	82.56
289.755	90.56
289.986	89.56
290.217	77.56
290.448	90.56
290.679	78.56
290.91	87.56
291.141	98.56
291.371	76.56
291.602	84.56
291.833	97.56
292.064	90.56
292.295	86.56
292.526	92.56
292.757	91.56
292.987	89.56
293.218	83.56
293.449	75.56
293.68	76.56
293.91	88.56
294.141	67.56
294.372	78.56
294.603	85.56
294.833	78.56
295.064	72.56
295.295	81.56
295.525	84.56
295.756	68.56
295.987	81.56
296.217	85.56
296.448	77.56
296.679	84.56
296.909	77.56
297.14	67.56
297.37	69.56
297.601	96.56
297.831	86.56
298.062	84.56
298.292	93.56
298.523	85.56
298.753	80.56
298.984	90.56
299.214	85.56
299.445	90.56
299.675	82.56
299.905	77.56
300.136	93.56
300.366	78.56
300.597	90.56
300.827	77.56
301.057	99.56
301.288	90.56
301.518	79.56
301.748	69.56
301.979	74.56
302.209	89.56
302.439	86.56
302.669	74.56
302.9	80.56
303.13	80.56
303.36	84.56
303.59	94.56
303.82	85.56
304.051	84.56
304.281	71.56
304.511	92.56
304.741	69.56
304.971	88.56
305.201	95.56
305.431	79.56
305.661	74.56
305.891	85.56
306.121	92.56
306.352	87.56
306.582	71.56
306.812	75.56
307.042	80.56
307.272	79.56
307.502	92.56
307.731	77.56
307.961	80.56
308.191	86.56
308.421	71.56
308.651	82.56
308.881	86.56
309.111	79.56
309.341	73.56
309.571	96.56
309.8	83.56
310.03	83.56
310.26	78.56
310.49	98.56
310.72	84.56
310.949	77.56
311.179	83.56
311.409	75.56
311.639	87.56
311.868	88.56
312.098	91.56
312.328	88.56
312.557	73.56
312.787	81.56
313.017	90.56
313.246	87.56
313.476	76.56
313.706	84.56
313.935	95.56
314.165	72.56
314.394	95.56
314.624	87.56
314.853	95.56
315.083	92.56
315.312	78.56
315.542	80.56
315.771	87.56
316.001	85.56
316.23	97.56
316.46	77.56
316.689	80.56
316.919	86.56
317.148	92.56
317.377	86.56
317.607	94.56
317.836	83.56
318.065	85.56
318.295	82.56
318.524	95.56
318.753	90.56
318.983	85.56
319.212	91.56
319.441	89.56
319.67	62.56
319.9	76.56
320.129	75.56
320.358	94.56
320.587	73.56
320.816	90.56
321.046	71.56
321.275	71.56
321.504	71.56
321.733	84.56
321.962	81.56
322.191	77.56
322.42	81.56
322.649	84.56
322.878	86.56
323.108	83.56
323.337	89.56
323.566	93.56
323.795	91.56
324.024	77.56
324.253	91.56
324.482	93.56
324.71	85.56
324.939	84.56
325.168	85.56
325.397	74.56
325.626	83.56
325.855	83.56
326.084	92.56
326.313	81.56
326.542	89.56
326.77	91.56
326.999	65.56
327.228	88.56
327.457	86.56
327.686	78.56
327.914	87.56
328.143	89.56
328.372	77.56
328.6	73.56
328.829	88.56
329.058	83.56
329.287	80.56
329.515	74.56
329.744	89.56
329.972	86.56
330.201	82.56
330.43	76.56
330.658	88.56
330.887	80.56
331.115	74.56
331.344	77.56
331.572	84.56
331.801	83.56
332.03	77.56
332.258	89.56
332.486	81.56
332.715	79.56
332.943	69.56
333.172	81.56
333.4	85.56
333.629	92.56
333.857	85.56
334.085	97.56
334.314	81.56
334.542	85.56
334.771	79.56
334.999	87.56
335.227	102.56
335.455	87.56
335.684	80.56
335.912	87.56
336.14	86.56
336.369	78.56
336.597	81.56
336.825	101.56
337.053	88.56
337.281	77.56
337.51	96.56
337.738	96.56
337.966	81.56
338.194	84.56
338.422	91.56
338.65	97.56
338.878	92.56
339.106	90.56
339.334	91.56
339.562	90.56
339.79	93.56
340.018	94.56
340.246	99.56
340.474	82.56
340.702	90.56
340.93	76.56
341.158	94.56
341.386	85.56
341.614	76.56
341.842	98.56
342.07	84.56
342.298	84.56
342.526	86.56
342.754	83.56
342.981	90.56
343.209	87.56
343.437	81.56
343.665	78.56
343.893	100.56
344.12	84.56
344.348	79.56
344.576	62.56
344.804	68.56
345.031	84.56
345.259	69.56
345.487	89.56
345.714	92.56
345.942	88.56
346.17	86.56
346.397	78.56
346.625	75.56
346.853	79.56
347.08	80.56
347.308	79.56
347.535	89.56
347.763	92.56
347.99	75.56
348.218	104.56
348.445	80.56
348.673	83.56
348.9	80.56
349.128	84.56
349.355	80.56
349.583	67.56
349.81	77.56
350.037	74.56
350.265	86.56
350.492	86.56
350.72	84.56
350.947	90.56
351.174	77.56
351.402	91.56
351.629	73.56
351.856	85.56
352.083	84.56
352.311	89.56
352.538	90.56
352.765	89.56
352.992	65.56
353.22	75.56
353.447	80.56
353.674	92.56
353.901	81.56
354.128	89.56
354.355	87.56
354.583	84.56
354.81	94.56
355.037	88.56
355.264	74.56
355.491	86.56
355.718	70.56
355.945	76.56
356.172	78.56
356.399	93.56
356.626	71.56
356.853	94.56
357.08	80.56
357.307	96.56
357.534	88.56
357.761	83.56
357.988	82.56
358.215	88.56
358.441	91.56
358.668	88.56
358.895	94.56
359.122	77.56
359.349	89.56
359.576	79.56
359.802	83.56
360.029	90.56
360.256	86.56
360.483	74.56
360.709	85.56
360.936	81.56
361.163	85.56
361.39	79.56
361.616	79.56
361.843	88.56
362.07	89.56
362.296	92.56
362.523	87.56
362.749	82.56
362.976	84.56
363.203	89.56
363.429	91.56
363.656	92.56
363.882	93.56
364.109	86.56
364.335	68.56
364.562	94.56
364.788	94.56
365.015	84.56
365.241	74.56
365.468	88.56
365.694	87.56
365.92	75.56
366.147	96.56
366.373	86.56
366.599	82.56
366.826	70.56
367.052	85.56
367.278	71.56
367.505	84.56
367.731	76.56
367.957	80.56
368.184	80.56
368.41	87.56
368.636	81.56
368.862	92.56
369.089	91.56
369.315	74.56
369.541	73.56
369.767	84.56
369.993	86.56
370.219	86.56
370.445	102.56
370.672	89.56
370.898	79.56
371.124	88.56
371.35	80.56
371.576	89.56
371.802	76.56
372.028	83.56
372.254	72.56
372.48	91.56
372.706	76.56
372.932	94.56
373.158	76.56
373.384	80.56
373.61	97.56
373.835	86.56
374.061	92.56
374.287	85.56
374.513	94.56
374.739	83.56
374.965	87.56
375.191	86.56
375.416	67.56
375.642	86.56
375.868	73.56
376.094	84.56
376.319	83.56
376.545	82.56
376.771	92.56
376.997	88.56
377.222	96.56
377.448	78.56
377.674	70.56
377.899	94.56
378.125	82.56
378.35	86.56
378.576	84.56
378.802	80.56
379.027	86.56
379.253	83.56
379.478	95.56
379.704	88.56
379.929	107.56
380.155	94.56
380.38	80.56
380.606	80.56
380.831	82.56
381.057	94.56
381.282	92.56
381.507	89.56
381.733	96.56
381.958	88.56
382.184	89.56
382.409	79.56
382.634	85.56
382.86	91.56
383.085	88.56
383.31	88.56
383.535	79.56
383.761	87.56
383.986	93.56
384.211	97.56
384.436	66.56
384.662	81.56
384.887	79.56
385.112	75.56
385.337	86.56
385.562	79.56
385.787	92.56
386.013	99.56
386.238	95.56
386.463	84.56
386.688	85.56
386.913	79.56
387.138	77.56
387.363	81.56
387.588	76.56
387.813	85.56
388.038	92.56
388.263	81.56
388.488	97.56
388.713	84.56
388.938	75.56
389.163	84.56
389.387	89.56
389.612	86.56
389.837	86.56
390.062	90.56
390.287	90.56
390.512	76.56
390.736	67.56
390.961	80.56
391.186	99.56
391.411	76.56
391.636	90.56
391.86	94.56
392.085	82.56
392.31	62.56
392.534	80.56
392.759	82.56
392.984	88.56
393.208	87.56
393.433	89.56
393.658	90.56
393.882	88.56
394.107	92.56
394.331	96.56
394.556	98.56
394.78	82.56
395.005	93.56
395.229	95.56
395.454	87.56
395.678	88.56
395.903	79.56
396.127	82.56
396.352	87.56
396.576	86.56
396.801	85.56
397.025	93.56
397.249	81.56
397.474	96.56
397.698	79.56
397.922	84.56
398.147	74.56
398.371	90.56
398.595	81.56
398.82	79.56
399.044	91.56
399.268	76.56
399.492	82.56
399.717	97.56
399.941	90.56
400.165	87.56
400.389	96.56
400.613	88.56
400.837	91.56
401.062	99.56
401.286	98.56
401.51	86.56
401.734	100.56
401.958	89.56
402.182	80.56
402.406	100.56
402.63	90.56
402.854	95.56
403.078	92.56
403.302	84.56
403.526	84.56
403.75	85.56
403.974	88.56
404.198	81.56
404.422	96.56
404.645	73.56
404.869	86.56
405.093	94.56
405.317	95.56
405.541	82.56
405.765	78.56
405.988	89.56
406.212	104.56
406.436	105.56
406.66	97.56
406.883	85.56
407.107	79.56
407.331	87.56
407.555	87.56
407.778	98.56
408.002	86.56
408.226	78.56
408.449	94.56
408.673	81.56
408.896	75.56
409.12	87.56
409.344	76.56
409.567	95.56
409.791	107.56
410.014	90.56
410.238	79.56
410.461	80.56
410.685	89.56
410.908	92.56
411.132	88.56
411.355	74.56
411.578	94.56
411.802	86.56
412.025	98.56
412.249	86.56
412.472	90.56
412.695	96.56
412.919	87.56
413.142	86.56
413.365	83.56
413.589	81.56
413.812	82.56
414.035	98.56
414.258	80.56
414.482	75.56
414.705	79.56
414.928	96.56
415.151	91.56
415.374	84.56
415.597	84.56
415.821	80.56
416.044	111.56
416.267	95.56
416.49	94.56
416.713	80.56
416.936	94.56
417.159	103.56
417.382	93.56
417.605	95.56
417.828	88.56
418.051	105.56
418.274	90.56
418.497	92.56
418.72	99.56
418.943	105.56
419.166	74.56
419.389	104.56
419.611	98.56
419.834	87.56
420.057	81.56
420.28	92.56
420.503	96.56
420.726	115.56
420.948	86.56
421.171	86.56
421.394	98.56
421.617	89.56
421.839	90.56
422.062	83.56
422.285	79.56
422.507	86.56
422.73	85.56
422.953	95.56
423.175	88.56
423.398	94.56
423.621	96.56
423.843	107.56
424.066	94.56
424.288	84.56
424.511	90.56
424.733	95.56
424.956	108.56
425.178	116.56
425.401	83.56
425.623	96.56
425.846	101.56
426.068	94.56
426.291	104.56
426.513	91.56
426.735	87.56
426.958	88.56
427.18	95.56
427.402	90.56
427.625	104.56
427.847	97.56
428.069	93.56
428.292	102.56
428.514	85.56
428.736	77.56
428.958	86.56
429.181	84.56
429.403	87.56
429.625	90.56
429.847	99.56
430.069	83.56
430.292	105.56
430.514	87.56
430.736	84.56
430.958	88.56
431.18	92.56
431.402	86.56
431.624	86.56
431.846	85.56
432.068	80.56
432.29	80.56
432.512	82.56
432.734	82.56
432.956	87.56
433.178	102.56
433.4	99.56
433.622	95.56
433.844	87.56
434.066	79.56
434.287	85.56
434.509	84.56
434.731	82.56
434.953	87.56
435.175	94.56
435.397	103.56
435.618	86.56
435.84	87.56
436.062	84.56
436.284	94.56
436.505	83.56
436.727	91.56
436.949	91.56
437.17	92.56
437.392	88.56
437.614	92.56
437.835	81.56
438.057	83.56
438.278	84.56
438.5	87.56
438.721	90.56
438.943	97.56
439.165	97.56
439.386	87.56
439.608	81.56
439.829	91.56
440.05	87.56
440.272	85.56
440.493	103.56
440.715	90.56
440.936	100.56
441.158	95.56
441.379	108.56
441.6	94.56
441.822	92.56
442.043	106.56
442.264	90.56
442.486	98.56
442.707	90.56
442.928	93.56
443.149	102.56
443.371	100.56
443.592	110.56
443.813	80.56
444.034	102.56
444.255	95.56
444.476	94.56
444.698	84.56
444.919	94.56
445.14	242.56
445.361	161.56
445.582	89.56
445.803	82.56
446.024	111.56
446.245	94.56
446.466	94.56
446.687	97.56
446.908	96.56
447.129	102.56
447.35	102.56
447.571	77.56
447.792	94.56
448.013	96.56
448.234	86.56
448.455	102.56
448.675	88.56
448.896	78.56
449.117	77.56
449.338	97.56
449.559	98.56
449.779	75.56
450	93.56
450.221	118.56
450.442	88.56
450.662	103.56
450.883	88.56
451.104	99.56
451.324	95.56
451.545	82.56
451.766	100.56
451.986	83.56
452.207	83.56
452.428	98.56
452.648	90.56
452.869	96.56
453.089	97.56
453.31	82.56
453.53	74.56
453.751	91.56
453.971	76.56
454.192	75.56
454.412	95.56
454.633	87.56
454.853	105.56
455.073	90.56
455.294	86.56
455.514	93.56
455.734	90.56
455.955	86.56
456.175	99.56
456.395	79.56
456.616	84.56
456.836	94.56
457.056	78.56
457.276	80.56
457.497	73.56
457.717	69.56
457.937	91.56
458.157	88.56
458.377	85.56
458.598	88.56
458.818	100.56
459.038	83.56
459.258	80.56
459.478	87.56
459.698	83.56
459.918	83.56
460.138	88.56
460.358	92.56
460.578	90.56
460.798	79.56
461.018	90.56
461.238	88.56
461.458	86.56
461.678	81.56
461.898	88.56
462.118	93.56
462.338	94.56
462.558	84.56
462.777	91.56
462.997	85.56
463.217	80.56
463.437	90.56
463.657	91.56
463.876	95.56
464.096	75.56
464.316	76.56
464.536	100.56
464.755	82.56
464.975	93.56
465.195	88.56
465.414	89.56
465.634	98.56
465.854	95.56
466.073	100.56
466.293	87.56
466.512	80.56
466.732	88.56
466.951	95.56
467.171	98.56
467.391	96.56
467.61	102.56
467.829	97.56
468.049	98.56
468.268	96.56
468.488	85.56
468.707	87.56
468.927	101.56
469.146	108.56
469.365	89.56
469.585	93.56
469.804	96.56
470.023	88.56
470.243	95.56
470.462	94.56
470.681	98.56
470.901	89.56
471.12	104.56
471.339	101.56
471.558	99.56
471.777	98.56
471.997	81.56
472.216	93.56
472.435	92.56
472.654	96.56
472.873	74.56
473.092	81.56
473.311	100.56
473.53	84.56
473.749	88.56
473.968	82.56
474.187	91.56
474.406	88.56
474.625	97.56
474.844	98.56
475.063	95.56
475.282	101.56
475.501	92.56
475.72	100.56
475.939	98.56
476.158	81.56
476.377	91.56
476.596	71.56
476.814	84.56
477.033	73.56
477.252	78.56
477.471	82.56
477.69	89.56
477.908	96.56
478.127	95.56
478.346	89.56
478.564	90.56
478.783	86.56
479.002	105.56
479.22	89.56
479.439	87.56
479.658	81.56
479.876	71.56
480.095	81.56
480.313	83.56
480.532	88.56
480.751	94.56
480.969	94.56
481.188	76.56
481.406	86.56
481.624	99.56
481.843	86.56
482.061	83.56
482.28	95.56
482.498	86.56
482.717	89.56
482.935	96.56
483.153	97.56
483.372	105.56
483.59	90.56
483.808	97.56
484.027	92.56
484.245	96.56
484.463	99.56
484.681	115.56
484.9	93.56
485.118	98.56
485.336	92.56
485.554	88.56
485.772	84.56
485.99	82.56
486.209	97.56
486.427	96.56
486.645	73.56
486.863	95.56
487.081	111.56
487.299	91.56
487.517	87.56
487.735	101.56
487.953	100.56
488.171	104.56
488.389	100.56
488.607	94.56
488.825	95.56
489.043	108.56
489.261	86.56
489.479	104.56
489.696	102.56
489.914	96.56
490.132	93.56
490.35	105.56
490.568	101.56
490.786	104.56
491.003	110.56
491.221	104.56
491.439	104.56
491.657	106.56
491.874	113.56
492.092	134.56
492.31	126.56
492.527	120.56
492.745	129.56
492.963	122.56
493.18	120.56
493.398	110.56
493.615	87.56
493.833	86.56
494.05	100.56
494.268	102.56
494.485	106.56
494.703	110.56
494.92	118.56
495.138	92.56
495.355	98.56
495.573	90.56
495.79	112.56
496.008	109.56
496.225	92.56
496.442	103.56
496.66	95.56
496.877	92.56
497.094	107.56
497.312	107.56
497.529	89.56
497.746	94.56
497.963	94.56
498.181	97.56
498.398	92.56
498.615	98.56
498.832	79.56
499.049	90.56
499.267	99.56
499.484	88.56
499.701	95.56
499.918	99.56
500.135	104.56
500.352	97.56
500.569	106.56
500.786	117.56
501.003	99.56
501.22	104.56
501.437	102.56
501.654	101.56
501.871	92.56
502.088	101.56
502.305	104.56
502.522	89.56
502.739	91.56
502.956	79.56
503.172	79.56
503.389	85.56
503.606	96.56
503.823	96.56
504.04	79.56
504.256	78.56
504.473	85.56
504.69	81.56
504.907	87.56
505.123	79.56
505.34	83.56
505.557	91.56
505.773	98.56
505.99	92.56
506.207	101.56
506.423	103.56
506.64	89.56
506.856	81.56
507.073	83.56
507.289	90.56
507.506	110.56
507.722	93.56
507.939	98.56
508.155	98.56
508.372	95.56
508.588	86.56
508.805	92.56
509.021	81.56
509.238	81.56
509.454	83.56
509.67	84.56
509.887	87.56
510.103	101.56
510.319	76.56
510.536	103.56
510.752	87.56
510.968	90.56
511.184	85.56
511.401	69.56
511.617	83.56
511.833	76.56
512.049	87.56
512.265	81.56
512.481	89.56
512.698	79.56
512.914	70.56
513.13	95.56
513.346	88.56
513.562	96.56
513.778	89.56
513.994	98.56
514.21	90.56
514.426	78.56
514.642	90.56
514.858	80.56
515.074	86.56
515.29	80.56
515.506	83.56
515.721	76.56
515.937	76.56
516.153	75.56
516.369	87.56
516.585	87.56
516.801	78.56
517.016	83.56
517.232	92.56
517.448	88.56
517.664	79.56
517.879	82.56
518.095	76.56
