Data from Location5.07152019.Energy5.Lamp.07192019.3%Agarose_HRD10591_15-38-45-389.txt Node
Date: Fri Jul 19 15:38:45 EDT 2019
User: cochatt
Spectrometer: HR+D1059
Trigger mode: 1
Integration Time (sec): 1.000000E-1
Scans to average: 1
Electric dark correction enabled: true
Nonlinearity correction enabled: false
Boxcar width: 0
XAxis mode: Wavelengths
Number of Pixels in Spectrum: 2048
>>>>>Begin Spectral Data<<<<<
223.165	-10.31
223.4	-10.31
223.635	-10.31
223.869	-27.31
224.104	-11.31
224.338	-2.31
224.573	-12.31
224.808	-25.31
225.042	-13.31
225.277	-15.31
225.511	-2.31
225.746	16.69
225.98	2.69
226.215	27.69
226.449	1.69
226.683	22.69
226.918	29.69
227.152	18.69
227.387	29.69
227.621	45.69
227.856	33.69
228.09	35.69
228.324	54.69
228.559	42.69
228.793	63.69
229.027	62.69
229.262	49.69
229.496	59.69
229.73	72.69
229.964	71.69
230.199	78.69
230.433	72.69
230.667	90.69
230.901	78.69
231.136	80.69
231.37	73.69
231.604	81.69
231.838	78.69
232.072	80.69
232.306	89.69
232.541	81.69
232.775	89.69
233.009	67.69
233.243	71.69
233.477	82.69
233.711	81.69
233.945	73.69
234.179	93.69
234.413	72.69
234.647	70.69
234.881	97.69
235.115	70.69
235.349	74.69
235.583	77.69
235.817	66.69
236.051	82.69
236.285	77.69
236.519	78.69
236.753	82.69
236.987	80.69
237.221	73.69
237.455	81.69
237.689	86.69
237.922	71.69
238.156	81.69
238.39	88.69
238.624	67.69
238.858	89.69
239.091	72.69
239.325	72.69
239.559	75.69
239.793	72.69
240.027	70.69
240.26	66.69
240.494	68.69
240.728	73.69
240.961	72.69
241.195	73.69
241.429	75.69
241.662	67.69
241.896	82.69
242.13	87.69
242.363	85.69
242.597	73.69
242.83	71.69
243.064	84.69
243.298	80.69
243.531	76.69
243.765	73.69
243.998	81.69
244.232	88.69
244.465	80.69
244.699	88.69
244.932	73.69
245.166	63.69
245.399	69.69
245.633	78.69
245.866	85.69
246.099	79.69
246.333	69.69
246.566	88.69
246.8	61.69
247.033	66.69
247.266	71.69
247.5	86.69
247.733	79.69
247.966	77.69
248.2	74.69
248.433	69.69
248.666	80.69
248.899	77.69
249.133	82.69
249.366	63.69
249.599	79.69
249.832	81.69
250.066	91.69
250.299	85.69
250.532	70.69
250.765	88.69
250.998	87.69
251.231	81.69
251.465	87.69
251.698	69.69
251.931	79.69
252.164	77.69
252.397	71.69
252.63	79.69
252.863	93.69
253.096	73.69
253.329	82.69
253.562	87.69
253.795	90.69
254.028	75.69
254.261	75.69
254.494	78.69
254.727	74.69
254.96	67.69
255.193	78.69
255.426	81.69
255.659	75.69
255.892	79.69
256.124	76.69
256.357	85.69
256.59	87.69
256.823	81.69
257.056	75.69
257.289	64.69
257.521	76.69
257.754	70.69
257.987	74.69
258.22	74.69
258.452	66.69
258.685	83.69
258.918	85.69
259.151	83.69
259.383	79.69
259.616	84.69
259.849	79.69
260.081	70.69
260.314	86.69
260.547	92.69
260.779	88.69
261.012	79.69
261.244	81.69
261.477	81.69
261.71	80.69
261.942	73.69
262.175	78.69
262.407	92.69
262.64	87.69
262.872	86.69
263.105	79.69
263.337	90.69
263.57	80.69
263.802	83.69
264.035	83.69
264.267	81.69
264.499	78.69
264.732	80.69
264.964	90.69
265.197	94.69
265.429	78.69
265.661	78.69
265.894	71.69
266.126	92.69
266.358	73.69
266.591	83.69
266.823	89.69
267.055	79.69
267.287	67.69
267.52	76.69
267.752	90.69
267.984	80.69
268.216	87.69
268.448	67.69
268.681	82.69
268.913	80.69
269.145	78.69
269.377	71.69
269.609	74.69
269.841	87.69
270.073	74.69
270.306	79.69
270.538	81.69
270.77	69.69
271.002	91.69
271.234	84.69
271.466	94.69
271.698	81.69
271.93	73.69
272.162	94.69
272.394	91.69
272.626	86.69
272.858	93.69
273.09	85.69
273.322	82.69
273.553	71.69
273.785	76.69
274.017	70.69
274.249	87.69
274.481	76.69
274.713	82.69
274.945	95.69
275.176	74.69
275.408	82.69
275.64	78.69
275.872	73.69
276.104	81.69
276.335	89.69
276.567	70.69
276.799	66.69
277.031	79.69
277.262	79.69
277.494	90.69
277.726	78.69
277.957	70.69
278.189	93.69
278.421	79.69
278.652	77.69
278.884	101.69
279.115	83.69
279.347	76.69
279.579	78.69
279.81	75.69
280.042	85.69
280.273	78.69
280.505	79.69
280.736	77.69
280.968	88.69
281.199	97.69
281.431	84.69
281.662	94.69
281.894	75.69
282.125	74.69
282.356	84.69
282.588	76.69
282.819	66.69
283.051	72.69
283.282	87.69
283.513	86.69
283.745	89.69
283.976	85.69
284.207	90.69
284.439	94.69
284.67	86.69
284.901	91.69
285.132	90.69
285.364	94.69
285.595	84.69
285.826	89.69
286.057	90.69
286.288	85.69
286.52	82.69
286.751	85.69
286.982	92.69
287.213	75.69
287.444	68.69
287.675	63.69
287.906	79.69
288.138	67.69
288.369	91.69
288.6	69.69
288.831	83.69
289.062	80.69
289.293	69.69
289.524	89.69
289.755	90.69
289.986	80.69
290.217	75.69
290.448	80.69
290.679	80.69
290.91	94.69
291.141	82.69
291.371	68.69
291.602	77.69
291.833	74.69
292.064	79.69
292.295	82.69
292.526	89.69
292.757	93.69
292.987	77.69
293.218	83.69
293.449	75.69
293.68	90.69
293.91	86.69
294.141	79.69
294.372	85.69
294.603	87.69
294.833	74.69
295.064	71.69
295.295	84.69
295.525	103.69
295.756	89.69
295.987	66.69
296.217	79.69
296.448	64.69
296.679	87.69
296.909	95.69
297.14	88.69
297.37	69.69
297.601	74.69
297.831	78.69
298.062	80.69
298.292	84.69
298.523	86.69
298.753	91.69
298.984	79.69
299.214	82.69
299.445	80.69
299.675	83.69
299.905	97.69
300.136	79.69
300.366	82.69
300.597	90.69
300.827	78.69
301.057	75.69
301.288	79.69
301.518	80.69
301.748	85.69
301.979	83.69
302.209	72.69
302.439	89.69
302.669	86.69
302.9	83.69
303.13	90.69
303.36	94.69
303.59	97.69
303.82	89.69
304.051	78.69
304.281	82.69
304.511	83.69
304.741	80.69
304.971	90.69
305.201	75.69
305.431	88.69
305.661	77.69
305.891	95.69
306.121	74.69
306.352	87.69
306.582	69.69
306.812	86.69
307.042	81.69
307.272	82.69
307.502	96.69
307.731	72.69
307.961	85.69
308.191	77.69
308.421	84.69
308.651	92.69
308.881	86.69
309.111	81.69
309.341	92.69
309.571	84.69
309.8	94.69
310.03	99.69
310.26	103.69
310.49	87.69
310.72	73.69
310.949	94.69
311.179	81.69
311.409	85.69
311.639	74.69
311.868	89.69
312.098	94.69
312.328	83.69
312.557	78.69
312.787	83.69
313.017	90.69
313.246	86.69
313.476	78.69
313.706	94.69
313.935	97.69
314.165	96.69
314.394	82.69
314.624	96.69
314.853	89.69
315.083	64.69
315.312	77.69
315.542	78.69
315.771	74.69
316.001	71.69
316.23	85.69
316.46	73.69
316.689	70.69
316.919	87.69
317.148	80.69
317.377	91.69
317.607	82.69
317.836	86.69
318.065	85.69
318.295	79.69
318.524	80.69
318.753	78.69
318.983	84.69
319.212	76.69
319.441	75.69
319.67	88.69
319.9	82.69
320.129	88.69
320.358	79.69
320.587	87.69
320.816	101.69
321.046	79.69
321.275	98.69
321.504	84.69
321.733	79.69
321.962	70.69
322.191	97.69
322.42	90.69
322.649	83.69
322.878	88.69
323.108	83.69
323.337	81.69
323.566	75.69
323.795	80.69
324.024	86.69
324.253	84.69
324.482	98.69
324.71	96.69
324.939	91.69
325.168	67.69
325.397	88.69
325.626	89.69
325.855	79.69
326.084	91.69
326.313	88.69
326.542	84.69
326.77	80.69
326.999	70.69
327.228	83.69
327.457	81.69
327.686	97.69
327.914	93.69
328.143	75.69
328.372	98.69
328.6	83.69
328.829	94.69
329.058	90.69
329.287	102.69
329.515	98.69
329.744	87.69
329.972	89.69
330.201	82.69
330.43	85.69
330.658	79.69
330.887	84.69
331.115	111.69
331.344	96.69
331.572	79.69
331.801	77.69
332.03	96.69
332.258	81.69
332.486	83.69
332.715	76.69
332.943	77.69
333.172	74.69
333.4	82.69
333.629	87.69
333.857	85.69
334.085	71.69
334.314	78.69
334.542	69.69
334.771	88.69
334.999	78.69
335.227	85.69
335.455	81.69
335.684	93.69
335.912	99.69
336.14	89.69
336.369	77.69
336.597	75.69
336.825	89.69
337.053	93.69
337.281	78.69
337.51	72.69
337.738	91.69
337.966	77.69
338.194	92.69
338.422	97.69
338.65	88.69
338.878	88.69
339.106	71.69
339.334	80.69
339.562	65.69
339.79	82.69
340.018	84.69
340.246	98.69
340.474	87.69
340.702	92.69
340.93	91.69
341.158	79.69
341.386	89.69
341.614	80.69
341.842	79.69
342.07	90.69
342.298	85.69
342.526	85.69
342.754	74.69
342.981	82.69
343.209	76.69
343.437	86.69
343.665	82.69
343.893	85.69
344.12	78.69
344.348	66.69
344.576	89.69
344.804	76.69
345.031	81.69
345.259	97.69
345.487	94.69
345.714	85.69
345.942	79.69
346.17	77.69
346.397	95.69
346.625	78.69
346.853	76.69
347.08	71.69
347.308	74.69
347.535	91.69
347.763	85.69
347.99	89.69
348.218	70.69
348.445	66.69
348.673	80.69
348.9	75.69
349.128	75.69
349.355	93.69
349.583	86.69
349.81	92.69
350.037	84.69
350.265	72.69
350.492	71.69
350.72	79.69
350.947	78.69
351.174	79.69
351.402	95.69
351.629	86.69
351.856	86.69
352.083	84.69
352.311	96.69
352.538	60.69
352.765	80.69
352.992	84.69
353.22	89.69
353.447	86.69
353.674	76.69
353.901	86.69
354.128	91.69
354.355	89.69
354.583	79.69
354.81	70.69
355.037	78.69
355.264	89.69
355.491	93.69
355.718	87.69
355.945	83.69
356.172	76.69
356.399	76.69
356.626	80.69
356.853	66.69
357.08	78.69
357.307	79.69
357.534	83.69
357.761	69.69
357.988	86.69
358.215	88.69
358.441	89.69
358.668	74.69
358.895	78.69
359.122	86.69
359.349	90.69
359.576	78.69
359.802	80.69
360.029	85.69
360.256	87.69
360.483	89.69
360.709	91.69
360.936	85.69
361.163	81.69
361.39	84.69
361.616	95.69
361.843	93.69
362.07	87.69
362.296	89.69
362.523	73.69
362.749	78.69
362.976	69.69
363.203	75.69
363.429	91.69
363.656	77.69
363.882	90.69
364.109	104.69
364.335	81.69
364.562	84.69
364.788	81.69
365.015	87.69
365.241	90.69
365.468	85.69
365.694	82.69
365.92	81.69
366.147	82.69
366.373	89.69
366.599	84.69
366.826	90.69
367.052	83.69
367.278	89.69
367.505	85.69
367.731	86.69
367.957	86.69
368.184	87.69
368.41	80.69
368.636	79.69
368.862	83.69
369.089	78.69
369.315	73.69
369.541	87.69
369.767	89.69
369.993	79.69
370.219	81.69
370.445	89.69
370.672	75.69
370.898	87.69
371.124	86.69
371.35	87.69
371.576	73.69
371.802	71.69
372.028	76.69
372.254	97.69
372.48	90.69
372.706	90.69
372.932	91.69
373.158	68.69
373.384	91.69
373.61	92.69
373.835	81.69
374.061	88.69
374.287	79.69
374.513	93.69
374.739	84.69
374.965	85.69
375.191	71.69
375.416	89.69
375.642	72.69
375.868	84.69
376.094	87.69
376.319	82.69
376.545	83.69
376.771	72.69
376.997	91.69
377.222	76.69
377.448	79.69
377.674	87.69
377.899	95.69
378.125	93.69
378.35	86.69
378.576	74.69
378.802	84.69
379.027	91.69
379.253	77.69
379.478	71.69
379.704	91.69
379.929	70.69
380.155	70.69
380.38	75.69
380.606	80.69
380.831	99.69
381.057	84.69
381.282	77.69
381.507	90.69
381.733	97.69
381.958	75.69
382.184	91.69
382.409	83.69
382.634	78.69
382.86	90.69
383.085	89.69
383.31	88.69
383.535	81.69
383.761	91.69
383.986	94.69
384.211	90.69
384.436	85.69
384.662	84.69
384.887	76.69
385.112	88.69
385.337	90.69
385.562	80.69
385.787	82.69
386.013	88.69
386.238	81.69
386.463	86.69
386.688	85.69
386.913	76.69
387.138	85.69
387.363	70.69
387.588	93.69
387.813	101.69
388.038	77.69
388.263	85.69
388.488	75.69
388.713	64.69
388.938	97.69
389.163	82.69
389.387	87.69
389.612	86.69
389.837	83.69
390.062	72.69
390.287	89.69
390.512	79.69
390.736	73.69
390.961	75.69
391.186	73.69
391.411	79.69
391.636	70.69
391.86	88.69
392.085	88.69
392.31	88.69
392.534	96.69
392.759	85.69
392.984	82.69
393.208	80.69
393.433	97.69
393.658	93.69
393.882	83.69
394.107	90.69
394.331	74.69
394.556	77.69
394.78	78.69
395.005	90.69
395.229	91.69
395.454	82.69
395.678	75.69
395.903	87.69
396.127	99.69
396.352	77.69
396.576	82.69
396.801	94.69
397.025	83.69
397.249	88.69
397.474	84.69
397.698	90.69
397.922	82.69
398.147	75.69
398.371	81.69
398.595	93.69
398.82	88.69
399.044	96.69
399.268	102.69
399.492	85.69
399.717	88.69
399.941	74.69
400.165	85.69
400.389	89.69
400.613	92.69
400.837	94.69
401.062	86.69
401.286	88.69
401.51	99.69
401.734	86.69
401.958	80.69
402.182	80.69
402.406	73.69
402.63	83.69
402.854	84.69
403.078	92.69
403.302	79.69
403.526	90.69
403.75	90.69
403.974	72.69
404.198	90.69
404.422	88.69
404.645	83.69
404.869	82.69
405.093	91.69
405.317	99.69
405.541	88.69
405.765	94.69
405.988	72.69
406.212	81.69
406.436	94.69
406.66	94.69
406.883	76.69
407.107	86.69
407.331	80.69
407.555	82.69
407.778	91.69
408.002	85.69
408.226	99.69
408.449	91.69
408.673	83.69
408.896	73.69
409.12	90.69
409.344	75.69
409.567	91.69
409.791	96.69
410.014	95.69
410.238	101.69
410.461	95.69
410.685	81.69
410.908	97.69
411.132	90.69
411.355	87.69
411.578	93.69
411.802	98.69
412.025	89.69
412.249	89.69
412.472	93.69
412.695	73.69
412.919	91.69
413.142	81.69
413.365	87.69
413.589	88.69
413.812	91.69
414.035	92.69
414.258	92.69
414.482	69.69
414.705	78.69
414.928	91.69
415.151	91.69
415.374	80.69
415.597	95.69
415.821	78.69
416.044	86.69
416.267	80.69
416.49	83.69
416.713	81.69
416.936	95.69
417.159	82.69
417.382	86.69
417.605	89.69
417.828	90.69
418.051	107.69
418.274	91.69
418.497	86.69
418.72	94.69
418.943	86.69
419.166	92.69
419.389	90.69
419.611	70.69
419.834	88.69
420.057	100.69
420.28	91.69
420.503	93.69
420.726	86.69
420.948	107.69
421.171	107.69
421.394	83.69
421.617	100.69
421.839	100.69
422.062	85.69
422.285	82.69
422.507	82.69
422.73	79.69
422.953	98.69
423.175	88.69
423.398	95.69
423.621	98.69
423.843	94.69
424.066	86.69
424.288	94.69
424.511	108.69
424.733	86.69
424.956	91.69
425.178	85.69
425.401	98.69
425.623	91.69
425.846	97.69
426.068	93.69
426.291	91.69
426.513	78.69
426.735	90.69
426.958	104.69
427.18	85.69
427.402	84.69
427.625	81.69
427.847	87.69
428.069	98.69
428.292	84.69
428.514	80.69
428.736	98.69
428.958	108.69
429.181	98.69
429.403	87.69
429.625	99.69
429.847	80.69
430.069	80.69
430.292	95.69
430.514	77.69
430.736	85.69
430.958	87.69
431.18	87.69
431.402	101.69
431.624	80.69
431.846	73.69
432.068	85.69
432.29	84.69
432.512	99.69
432.734	98.69
432.956	81.69
433.178	114.69
433.4	91.69
433.622	96.69
433.844	91.69
434.066	95.69
434.287	86.69
434.509	87.69
434.731	93.69
434.953	91.69
435.175	84.69
435.397	88.69
435.618	83.69
435.84	81.69
436.062	92.69
436.284	81.69
436.505	95.69
436.727	85.69
436.949	82.69
437.17	93.69
437.392	84.69
437.614	104.69
437.835	87.69
438.057	84.69
438.278	75.69
438.5	82.69
438.721	84.69
438.943	88.69
439.165	91.69
439.386	108.69
439.608	97.69
439.829	96.69
440.05	116.69
440.272	89.69
440.493	98.69
440.715	104.69
440.936	100.69
441.158	101.69
441.379	102.69
441.6	98.69
441.822	98.69
442.043	89.69
442.264	95.69
442.486	97.69
442.707	98.69
442.928	99.69
443.149	88.69
443.371	100.69
443.592	103.69
443.813	90.69
444.034	93.69
444.255	98.69
444.476	82.69
444.698	111.69
444.919	106.69
445.14	200.69
445.361	149.69
445.582	81.69
445.803	99.69
446.024	103.69
446.245	97.69
446.466	109.69
446.687	98.69
446.908	109.69
447.129	104.69
447.35	96.69
447.571	94.69
447.792	102.69
448.013	99.69
448.234	86.69
448.455	83.69
448.675	96.69
448.896	90.69
449.117	110.69
449.338	98.69
449.559	89.69
449.779	91.69
450	93.69
450.221	86.69
450.442	94.69
450.662	81.69
450.883	89.69
451.104	90.69
451.324	94.69
451.545	83.69
451.766	91.69
451.986	88.69
452.207	97.69
452.428	83.69
452.648	83.69
452.869	94.69
453.089	96.69
453.31	83.69
453.53	106.69
453.751	97.69
453.971	98.69
454.192	102.69
454.412	99.69
454.633	77.69
454.853	87.69
455.073	100.69
455.294	98.69
455.514	93.69
455.734	93.69
455.955	88.69
456.175	91.69
456.395	75.69
456.616	94.69
456.836	92.69
457.056	80.69
457.276	94.69
457.497	82.69
457.717	87.69
457.937	88.69
458.157	87.69
458.377	79.69
458.598	80.69
458.818	84.69
459.038	85.69
459.258	81.69
459.478	85.69
459.698	74.69
459.918	93.69
460.138	85.69
460.358	70.69
460.578	90.69
460.798	93.69
461.018	81.69
461.238	94.69
461.458	93.69
461.678	88.69
461.898	95.69
462.118	86.69
462.338	88.69
462.558	96.69
462.777	99.69
462.997	94.69
463.217	79.69
463.437	94.69
463.657	87.69
463.876	78.69
464.096	68.69
464.316	72.69
464.536	94.69
464.755	91.69
464.975	88.69
465.195	83.69
465.414	96.69
465.634	93.69
465.854	97.69
466.073	82.69
466.293	97.69
466.512	91.69
466.732	87.69
466.951	97.69
467.171	101.69
467.391	91.69
467.61	90.69
467.829	84.69
468.049	94.69
468.268	79.69
468.488	93.69
468.707	89.69
468.927	80.69
469.146	92.69
469.365	118.69
469.585	97.69
469.804	86.69
470.023	95.69
470.243	104.69
470.462	98.69
470.681	110.69
470.901	85.69
471.12	98.69
471.339	96.69
471.558	83.69
471.777	93.69
471.997	91.69
472.216	90.69
472.435	88.69
472.654	90.69
472.873	81.69
473.092	81.69
473.311	92.69
473.53	90.69
473.749	99.69
473.968	102.69
474.187	85.69
474.406	84.69
474.625	92.69
474.844	97.69
475.063	82.69
475.282	109.69
475.501	93.69
475.72	96.69
475.939	94.69
476.158	80.69
476.377	88.69
476.596	92.69
476.814	80.69
477.033	79.69
477.252	80.69
477.471	92.69
477.69	80.69
477.908	89.69
478.127	89.69
478.346	90.69
478.564	96.69
478.783	74.69
479.002	92.69
479.22	105.69
479.439	106.69
479.658	88.69
479.876	82.69
480.095	86.69
480.313	87.69
480.532	81.69
480.751	89.69
480.969	89.69
481.188	98.69
481.406	91.69
481.624	80.69
481.843	73.69
482.061	85.69
482.28	85.69
482.498	95.69
482.717	92.69
482.935	102.69
483.153	95.69
483.372	93.69
483.59	98.69
483.808	85.69
484.027	89.69
484.245	88.69
484.463	88.69
484.681	105.69
484.9	90.69
485.118	97.69
485.336	103.69
485.554	81.69
485.772	97.69
485.99	87.69
486.209	109.69
486.427	91.69
486.645	90.69
486.863	98.69
487.081	101.69
487.299	91.69
487.517	96.69
487.735	102.69
487.953	101.69
488.171	115.69
488.389	97.69
488.607	96.69
488.825	93.69
489.043	92.69
489.261	100.69
489.479	95.69
489.696	92.69
489.914	97.69
490.132	95.69
490.35	93.69
490.568	97.69
490.786	89.69
491.003	110.69
491.221	106.69
491.439	98.69
491.657	85.69
491.874	106.69
492.092	101.69
492.31	122.69
492.527	126.69
492.745	125.69
492.963	116.69
493.18	109.69
493.398	115.69
493.615	105.69
493.833	96.69
494.05	102.69
494.268	110.69
494.485	99.69
494.703	103.69
494.92	113.69
495.138	111.69
495.355	111.69
495.573	107.69
495.79	89.69
496.008	101.69
496.225	91.69
496.442	84.69
496.66	115.69
496.877	100.69
497.094	103.69
497.312	92.69
497.529	103.69
497.746	107.69
497.963	90.69
498.181	95.69
498.398	92.69
498.615	103.69
498.832	87.69
499.049	86.69
499.267	83.69
499.484	99.69
499.701	93.69
499.918	96.69
500.135	86.69
500.352	98.69
500.569	85.69
500.786	94.69
501.003	88.69
501.22	97.69
501.437	102.69
501.654	97.69
501.871	102.69
502.088	81.69
502.305	91.69
502.522	99.69
502.739	102.69
502.956	95.69
503.172	107.69
503.389	91.69
503.606	92.69
503.823	81.69
504.04	88.69
504.256	88.69
504.473	95.69
504.69	84.69
504.907	84.69
505.123	82.69
505.34	75.69
505.557	79.69
505.773	99.69
505.99	97.69
506.207	75.69
506.423	89.69
506.64	96.69
506.856	97.69
507.073	79.69
507.289	97.69
507.506	95.69
507.722	81.69
507.939	88.69
508.155	90.69
508.372	73.69
508.588	91.69
508.805	101.69
509.021	96.69
509.238	77.69
509.454	83.69
509.67	89.69
509.887	85.69
510.103	86.69
510.319	93.69
510.536	68.69
510.752	83.69
510.968	78.69
511.184	73.69
511.401	92.69
511.617	94.69
511.833	98.69
512.049	83.69
512.265	84.69
512.481	81.69
512.698	89.69
512.914	83.69
513.13	75.69
513.346	75.69
513.562	85.69
513.778	98.69
513.994	92.69
514.21	93.69
514.426	86.69
514.642	83.69
514.858	75.69
515.074	84.69
515.29	76.69
515.506	75.69
515.721	87.69
515.937	78.69
516.153	87.69
516.369	79.69
516.585	78.69
516.801	79.69
517.016	86.69
517.232	93.69
517.448	92.69
517.664	62.69
517.879	73.69
518.095	89.69
518.311	79.69
