Data from Location5.07152019.Energy5.Lamp.07192019.3%Agarose_HRD10591_15-36-39-387.txt Node
Date: Fri Jul 19 15:36:39 EDT 2019
User: cochatt
Spectrometer: HR+D1059
Trigger mode: 1
Integration Time (sec): 1.000000E-1
Scans to average: 1
Electric dark correction enabled: true
Nonlinearity correction enabled: false
Boxcar width: 0
XAxis mode: Wavelengths
Number of Pixels in Spectrum: 2048
>>>>>Begin Spectral Data<<<<<
223.165	-21.38
223.4	-21.38
223.635	-21.38
223.869	-24.38
224.104	-18.38
224.338	-6.38
224.573	-11.38
224.808	-2.38
225.042	-18.38
225.277	1.62
225.511	-3.38
225.746	17.62
225.98	15.62
226.215	3.62
226.449	12.62
226.683	5.62
226.918	21.62
227.152	27.62
227.387	27.62
227.621	41.62
227.856	40.62
228.09	51.62
228.324	60.62
228.559	55.62
228.793	64.62
229.027	60.62
229.262	48.62
229.496	67.62
229.73	66.62
229.964	77.62
230.199	65.62
230.433	77.62
230.667	71.62
230.901	76.62
231.136	89.62
231.37	71.62
231.604	84.62
231.838	79.62
232.072	71.62
232.306	72.62
232.541	88.62
232.775	85.62
233.009	76.62
233.243	75.62
233.477	75.62
233.711	87.62
233.945	94.62
234.179	71.62
234.413	80.62
234.647	83.62
234.881	75.62
235.115	78.62
235.349	79.62
235.583	90.62
235.817	84.62
236.051	78.62
236.285	75.62
236.519	86.62
236.753	67.62
236.987	76.62
237.221	89.62
237.455	77.62
237.689	85.62
237.922	81.62
238.156	77.62
238.39	85.62
238.624	57.62
238.858	76.62
239.091	83.62
239.325	78.62
239.559	79.62
239.793	77.62
240.027	88.62
240.26	67.62
240.494	74.62
240.728	73.62
240.961	66.62
241.195	77.62
241.429	77.62
241.662	73.62
241.896	75.62
242.13	86.62
242.363	82.62
242.597	109.62
242.83	72.62
243.064	80.62
243.298	74.62
243.531	73.62
243.765	79.62
243.998	65.62
244.232	88.62
244.465	80.62
244.699	71.62
244.932	69.62
245.166	77.62
245.399	87.62
245.633	74.62
245.866	84.62
246.099	89.62
246.333	95.62
246.566	81.62
246.8	71.62
247.033	82.62
247.266	85.62
247.5	82.62
247.733	82.62
247.966	78.62
248.2	66.62
248.433	76.62
248.666	75.62
248.899	83.62
249.133	85.62
249.366	83.62
249.599	75.62
249.832	92.62
250.066	87.62
250.299	72.62
250.532	76.62
250.765	82.62
250.998	80.62
251.231	95.62
251.465	86.62
251.698	79.62
251.931	81.62
252.164	79.62
252.397	76.62
252.63	83.62
252.863	68.62
253.096	74.62
253.329	80.62
253.562	80.62
253.795	75.62
254.028	91.62
254.261	78.62
254.494	73.62
254.727	73.62
254.96	83.62
255.193	79.62
255.426	74.62
255.659	80.62
255.892	90.62
256.124	84.62
256.357	67.62
256.59	84.62
256.823	84.62
257.056	75.62
257.289	62.62
257.521	73.62
257.754	80.62
257.987	88.62
258.22	81.62
258.452	81.62
258.685	77.62
258.918	77.62
259.151	80.62
259.383	73.62
259.616	91.62
259.849	89.62
260.081	73.62
260.314	74.62
260.547	82.62
260.779	86.62
261.012	71.62
261.244	78.62
261.477	86.62
261.71	82.62
261.942	86.62
262.175	91.62
262.407	84.62
262.64	80.62
262.872	76.62
263.105	75.62
263.337	101.62
263.57	84.62
263.802	65.62
264.035	78.62
264.267	69.62
264.499	78.62
264.732	81.62
264.964	75.62
265.197	93.62
265.429	90.62
265.661	81.62
265.894	71.62
266.126	85.62
266.358	94.62
266.591	85.62
266.823	86.62
267.055	69.62
267.287	97.62
267.52	72.62
267.752	73.62
267.984	91.62
268.216	85.62
268.448	93.62
268.681	81.62
268.913	84.62
269.145	84.62
269.377	78.62
269.609	71.62
269.841	71.62
270.073	95.62
270.306	87.62
270.538	85.62
270.77	80.62
271.002	80.62
271.234	78.62
271.466	82.62
271.698	82.62
271.93	87.62
272.162	77.62
272.394	79.62
272.626	75.62
272.858	81.62
273.09	78.62
273.322	77.62
273.553	84.62
273.785	79.62
274.017	84.62
274.249	96.62
274.481	84.62
274.713	81.62
274.945	76.62
275.176	88.62
275.408	90.62
275.64	86.62
275.872	65.62
276.104	93.62
276.335	79.62
276.567	85.62
276.799	86.62
277.031	79.62
277.262	74.62
277.494	88.62
277.726	84.62
277.957	92.62
278.189	91.62
278.421	80.62
278.652	94.62
278.884	85.62
279.115	85.62
279.347	86.62
279.579	85.62
279.81	71.62
280.042	91.62
280.273	75.62
280.505	74.62
280.736	86.62
280.968	94.62
281.199	86.62
281.431	81.62
281.662	76.62
281.894	90.62
282.125	93.62
282.356	80.62
282.588	83.62
282.819	87.62
283.051	84.62
283.282	83.62
283.513	90.62
283.745	74.62
283.976	87.62
284.207	96.62
284.439	93.62
284.67	80.62
284.901	85.62
285.132	77.62
285.364	80.62
285.595	80.62
285.826	79.62
286.057	83.62
286.288	97.62
286.52	85.62
286.751	85.62
286.982	81.62
287.213	82.62
287.444	88.62
287.675	68.62
287.906	82.62
288.138	93.62
288.369	72.62
288.6	76.62
288.831	74.62
289.062	82.62
289.293	92.62
289.524	82.62
289.755	93.62
289.986	83.62
290.217	94.62
290.448	83.62
290.679	81.62
290.91	91.62
291.141	93.62
291.371	83.62
291.602	78.62
291.833	83.62
292.064	91.62
292.295	78.62
292.526	103.62
292.757	80.62
292.987	89.62
293.218	82.62
293.449	90.62
293.68	95.62
293.91	77.62
294.141	86.62
294.372	74.62
294.603	88.62
294.833	89.62
295.064	88.62
295.295	92.62
295.525	78.62
295.756	85.62
295.987	83.62
296.217	74.62
296.448	84.62
296.679	85.62
296.909	80.62
297.14	83.62
297.37	95.62
297.601	82.62
297.831	93.62
298.062	95.62
298.292	82.62
298.523	90.62
298.753	82.62
298.984	89.62
299.214	78.62
299.445	93.62
299.675	75.62
299.905	87.62
300.136	78.62
300.366	85.62
300.597	84.62
300.827	76.62
301.057	79.62
301.288	86.62
301.518	86.62
301.748	84.62
301.979	78.62
302.209	86.62
302.439	85.62
302.669	86.62
302.9	86.62
303.13	86.62
303.36	95.62
303.59	82.62
303.82	78.62
304.051	89.62
304.281	80.62
304.511	94.62
304.741	93.62
304.971	89.62
305.201	86.62
305.431	79.62
305.661	77.62
305.891	65.62
306.121	92.62
306.352	90.62
306.582	94.62
306.812	73.62
307.042	79.62
307.272	101.62
307.502	93.62
307.731	81.62
307.961	81.62
308.191	66.62
308.421	83.62
308.651	85.62
308.881	89.62
309.111	76.62
309.341	97.62
309.571	90.62
309.8	79.62
310.03	76.62
310.26	88.62
310.49	96.62
310.72	75.62
310.949	74.62
311.179	98.62
311.409	83.62
311.639	85.62
311.868	91.62
312.098	75.62
312.328	106.62
312.557	98.62
312.787	79.62
313.017	93.62
313.246	100.62
313.476	87.62
313.706	85.62
313.935	84.62
314.165	81.62
314.394	89.62
314.624	71.62
314.853	72.62
315.083	77.62
315.312	81.62
315.542	84.62
315.771	67.62
316.001	89.62
316.23	86.62
316.46	86.62
316.689	85.62
316.919	88.62
317.148	86.62
317.377	76.62
317.607	71.62
317.836	93.62
318.065	93.62
318.295	103.62
318.524	73.62
318.753	76.62
318.983	75.62
319.212	85.62
319.441	77.62
319.67	84.62
319.9	81.62
320.129	91.62
320.358	87.62
320.587	87.62
320.816	84.62
321.046	75.62
321.275	82.62
321.504	79.62
321.733	72.62
321.962	95.62
322.191	82.62
322.42	71.62
322.649	88.62
322.878	83.62
323.108	95.62
323.337	76.62
323.566	95.62
323.795	86.62
324.024	75.62
324.253	92.62
324.482	82.62
324.71	90.62
324.939	78.62
325.168	91.62
325.397	87.62
325.626	89.62
325.855	87.62
326.084	82.62
326.313	74.62
326.542	71.62
326.77	89.62
326.999	82.62
327.228	92.62
327.457	86.62
327.686	95.62
327.914	70.62
328.143	88.62
328.372	102.62
328.6	92.62
328.829	90.62
329.058	82.62
329.287	86.62
329.515	85.62
329.744	72.62
329.972	95.62
330.201	102.62
330.43	87.62
330.658	82.62
330.887	93.62
331.115	85.62
331.344	86.62
331.572	95.62
331.801	85.62
332.03	82.62
332.258	92.62
332.486	76.62
332.715	80.62
332.943	82.62
333.172	68.62
333.4	87.62
333.629	93.62
333.857	82.62
334.085	91.62
334.314	90.62
334.542	81.62
334.771	73.62
334.999	75.62
335.227	77.62
335.455	85.62
335.684	79.62
335.912	78.62
336.14	93.62
336.369	89.62
336.597	75.62
336.825	95.62
337.053	88.62
337.281	76.62
337.51	85.62
337.738	93.62
337.966	86.62
338.194	79.62
338.422	82.62
338.65	82.62
338.878	84.62
339.106	88.62
339.334	77.62
339.562	90.62
339.79	74.62
340.018	91.62
340.246	86.62
340.474	88.62
340.702	81.62
340.93	83.62
341.158	77.62
341.386	88.62
341.614	76.62
341.842	79.62
342.07	78.62
342.298	75.62
342.526	77.62
342.754	94.62
342.981	82.62
343.209	75.62
343.437	78.62
343.665	74.62
343.893	74.62
344.12	82.62
344.348	90.62
344.576	71.62
344.804	81.62
345.031	85.62
345.259	74.62
345.487	79.62
345.714	88.62
345.942	77.62
346.17	75.62
346.397	83.62
346.625	80.62
346.853	85.62
347.08	91.62
347.308	78.62
347.535	73.62
347.763	79.62
347.99	85.62
348.218	78.62
348.445	74.62
348.673	90.62
348.9	75.62
349.128	94.62
349.355	80.62
349.583	89.62
349.81	83.62
350.037	92.62
350.265	80.62
350.492	77.62
350.72	86.62
350.947	73.62
351.174	85.62
351.402	81.62
351.629	74.62
351.856	85.62
352.083	74.62
352.311	89.62
352.538	70.62
352.765	91.62
352.992	97.62
353.22	79.62
353.447	91.62
353.674	85.62
353.901	79.62
354.128	85.62
354.355	85.62
354.583	95.62
354.81	86.62
355.037	93.62
355.264	79.62
355.491	73.62
355.718	85.62
355.945	77.62
356.172	86.62
356.399	92.62
356.626	71.62
356.853	82.62
357.08	81.62
357.307	83.62
357.534	89.62
357.761	84.62
357.988	89.62
358.215	94.62
358.441	81.62
358.668	70.62
358.895	83.62
359.122	83.62
359.349	90.62
359.576	89.62
359.802	66.62
360.029	71.62
360.256	95.62
360.483	88.62
360.709	81.62
360.936	91.62
361.163	73.62
361.39	90.62
361.616	79.62
361.843	87.62
362.07	85.62
362.296	85.62
362.523	85.62
362.749	75.62
362.976	91.62
363.203	96.62
363.429	77.62
363.656	92.62
363.882	75.62
364.109	85.62
364.335	97.62
364.562	90.62
364.788	80.62
365.015	96.62
365.241	67.62
365.468	82.62
365.694	89.62
365.92	86.62
366.147	87.62
366.373	82.62
366.599	76.62
366.826	81.62
367.052	95.62
367.278	79.62
367.505	85.62
367.731	84.62
367.957	92.62
368.184	75.62
368.41	69.62
368.636	75.62
368.862	93.62
369.089	100.62
369.315	62.62
369.541	72.62
369.767	80.62
369.993	96.62
370.219	96.62
370.445	83.62
370.672	84.62
370.898	89.62
371.124	82.62
371.35	75.62
371.576	79.62
371.802	77.62
372.028	74.62
372.254	78.62
372.48	90.62
372.706	79.62
372.932	75.62
373.158	78.62
373.384	75.62
373.61	84.62
373.835	65.62
374.061	98.62
374.287	79.62
374.513	103.62
374.739	82.62
374.965	71.62
375.191	86.62
375.416	90.62
375.642	69.62
375.868	72.62
376.094	85.62
376.319	72.62
376.545	90.62
376.771	87.62
376.997	99.62
377.222	82.62
377.448	89.62
377.674	87.62
377.899	90.62
378.125	83.62
378.35	80.62
378.576	84.62
378.802	82.62
379.027	77.62
379.253	86.62
379.478	73.62
379.704	80.62
379.929	82.62
380.155	97.62
380.38	84.62
380.606	79.62
380.831	93.62
381.057	85.62
381.282	85.62
381.507	87.62
381.733	85.62
381.958	90.62
382.184	83.62
382.409	81.62
382.634	85.62
382.86	76.62
383.085	95.62
383.31	90.62
383.535	82.62
383.761	100.62
383.986	70.62
384.211	82.62
384.436	69.62
384.662	73.62
384.887	79.62
385.112	95.62
385.337	87.62
385.562	88.62
385.787	73.62
386.013	85.62
386.238	84.62
386.463	72.62
386.688	76.62
386.913	81.62
387.138	91.62
387.363	78.62
387.588	76.62
387.813	85.62
388.038	79.62
388.263	88.62
388.488	71.62
388.713	85.62
388.938	81.62
389.163	97.62
389.387	104.62
389.612	88.62
389.837	93.62
390.062	85.62
390.287	86.62
390.512	85.62
390.736	89.62
390.961	87.62
391.186	80.62
391.411	89.62
391.636	83.62
391.86	75.62
392.085	100.62
392.31	77.62
392.534	80.62
392.759	99.62
392.984	87.62
393.208	95.62
393.433	79.62
393.658	86.62
393.882	87.62
394.107	94.62
394.331	89.62
394.556	79.62
394.78	85.62
395.005	96.62
395.229	84.62
395.454	82.62
395.678	97.62
395.903	86.62
396.127	100.62
396.352	81.62
396.576	96.62
396.801	86.62
397.025	85.62
397.249	90.62
397.474	87.62
397.698	102.62
397.922	83.62
398.147	79.62
398.371	88.62
398.595	89.62
398.82	87.62
399.044	90.62
399.268	79.62
399.492	87.62
399.717	83.62
399.941	91.62
400.165	92.62
400.389	80.62
400.613	92.62
400.837	88.62
401.062	74.62
401.286	82.62
401.51	96.62
401.734	91.62
401.958	81.62
402.182	82.62
402.406	87.62
402.63	99.62
402.854	98.62
403.078	93.62
403.302	83.62
403.526	94.62
403.75	91.62
403.974	82.62
404.198	89.62
404.422	93.62
404.645	87.62
404.869	78.62
405.093	64.62
405.317	83.62
405.541	80.62
405.765	92.62
405.988	100.62
406.212	80.62
406.436	77.62
406.66	96.62
406.883	86.62
407.107	97.62
407.331	99.62
407.555	82.62
407.778	99.62
408.002	86.62
408.226	79.62
408.449	93.62
408.673	84.62
408.896	82.62
409.12	80.62
409.344	90.62
409.567	90.62
409.791	75.62
410.014	93.62
410.238	80.62
410.461	79.62
410.685	92.62
410.908	90.62
411.132	100.62
411.355	94.62
411.578	82.62
411.802	84.62
412.025	80.62
412.249	84.62
412.472	87.62
412.695	95.62
412.919	94.62
413.142	90.62
413.365	96.62
413.589	80.62
413.812	95.62
414.035	94.62
414.258	87.62
414.482	97.62
414.705	96.62
414.928	87.62
415.151	81.62
415.374	90.62
415.597	107.62
415.821	92.62
416.044	95.62
416.267	91.62
416.49	98.62
416.713	97.62
416.936	88.62
417.159	89.62
417.382	77.62
417.605	85.62
417.828	89.62
418.051	97.62
418.274	81.62
418.497	110.62
418.72	92.62
418.943	85.62
419.166	96.62
419.389	81.62
419.611	94.62
419.834	94.62
420.057	85.62
420.28	98.62
420.503	83.62
420.726	103.62
420.948	92.62
421.171	88.62
421.394	93.62
421.617	95.62
421.839	85.62
422.062	91.62
422.285	102.62
422.507	117.62
422.73	85.62
422.953	92.62
423.175	89.62
423.398	97.62
423.621	86.62
423.843	75.62
424.066	77.62
424.288	81.62
424.511	100.62
424.733	112.62
424.956	103.62
425.178	90.62
425.401	99.62
425.623	86.62
425.846	78.62
426.068	94.62
426.291	96.62
426.513	73.62
426.735	83.62
426.958	94.62
427.18	90.62
427.402	111.62
427.625	83.62
427.847	73.62
428.069	92.62
428.292	107.62
428.514	83.62
428.736	97.62
428.958	99.62
429.181	82.62
429.403	95.62
429.625	86.62
429.847	93.62
430.069	88.62
430.292	85.62
430.514	93.62
430.736	86.62
430.958	101.62
431.18	94.62
431.402	86.62
431.624	87.62
431.846	75.62
432.068	89.62
432.29	75.62
432.512	69.62
432.734	81.62
432.956	88.62
433.178	90.62
433.4	101.62
433.622	97.62
433.844	88.62
434.066	84.62
434.287	96.62
434.509	78.62
434.731	94.62
434.953	83.62
435.175	86.62
435.397	86.62
435.618	96.62
435.84	87.62
436.062	89.62
436.284	106.62
436.505	84.62
436.727	83.62
436.949	87.62
437.17	100.62
437.392	89.62
437.614	86.62
437.835	83.62
438.057	75.62
438.278	82.62
438.5	84.62
438.721	82.62
438.943	82.62
439.165	76.62
439.386	93.62
439.608	80.62
439.829	66.62
440.05	85.62
440.272	109.62
440.493	81.62
440.715	94.62
440.936	101.62
441.158	88.62
441.379	99.62
441.6	89.62
441.822	109.62
442.043	101.62
442.264	101.62
442.486	88.62
442.707	97.62
442.928	94.62
443.149	95.62
443.371	115.62
443.592	107.62
443.813	91.62
444.034	101.62
444.255	101.62
444.476	85.62
444.698	95.62
444.919	93.62
445.14	212.62
445.361	147.62
445.582	91.62
445.803	103.62
446.024	96.62
446.245	96.62
446.466	109.62
446.687	91.62
446.908	102.62
447.129	101.62
447.35	96.62
447.571	103.62
447.792	97.62
448.013	85.62
448.234	100.62
448.455	86.62
448.675	88.62
448.896	98.62
449.117	93.62
449.338	84.62
449.559	97.62
449.779	83.62
450	100.62
450.221	98.62
450.442	96.62
450.662	80.62
450.883	93.62
451.104	103.62
451.324	92.62
451.545	96.62
451.766	80.62
451.986	88.62
452.207	92.62
452.428	101.62
452.648	83.62
452.869	72.62
453.089	79.62
453.31	71.62
453.53	90.62
453.751	92.62
453.971	90.62
454.192	91.62
454.412	77.62
454.633	86.62
454.853	96.62
455.073	79.62
455.294	101.62
455.514	100.62
455.734	95.62
455.955	94.62
456.175	96.62
456.395	89.62
456.616	99.62
456.836	80.62
457.056	83.62
457.276	89.62
457.497	85.62
457.717	86.62
457.937	75.62
458.157	85.62
458.377	89.62
458.598	80.62
458.818	75.62
459.038	83.62
459.258	87.62
459.478	89.62
459.698	83.62
459.918	79.62
460.138	91.62
460.358	105.62
460.578	80.62
460.798	83.62
461.018	82.62
461.238	66.62
461.458	93.62
461.678	97.62
461.898	85.62
462.118	82.62
462.338	100.62
462.558	82.62
462.777	86.62
462.997	81.62
463.217	71.62
463.437	95.62
463.657	82.62
463.876	91.62
464.096	73.62
464.316	84.62
464.536	70.62
464.755	91.62
464.975	85.62
465.195	100.62
465.414	100.62
465.634	91.62
465.854	82.62
466.073	86.62
466.293	90.62
466.512	85.62
466.732	95.62
466.951	96.62
467.171	88.62
467.391	108.62
467.61	98.62
467.829	102.62
468.049	99.62
468.268	78.62
468.488	87.62
468.707	87.62
468.927	92.62
469.146	91.62
469.365	94.62
469.585	86.62
469.804	77.62
470.023	98.62
470.243	96.62
470.462	97.62
470.681	97.62
470.901	100.62
471.12	100.62
471.339	93.62
471.558	74.62
471.777	97.62
471.997	97.62
472.216	83.62
472.435	90.62
472.654	80.62
472.873	84.62
473.092	96.62
473.311	100.62
473.53	96.62
473.749	87.62
473.968	97.62
474.187	94.62
474.406	94.62
474.625	76.62
474.844	97.62
475.063	85.62
475.282	88.62
475.501	84.62
475.72	92.62
475.939	83.62
476.158	105.62
476.377	76.62
476.596	86.62
476.814	89.62
477.033	81.62
477.252	80.62
477.471	100.62
477.69	109.62
477.908	100.62
478.127	109.62
478.346	79.62
478.564	89.62
478.783	88.62
479.002	92.62
479.22	101.62
479.439	90.62
479.658	87.62
479.876	76.62
480.095	101.62
480.313	87.62
480.532	89.62
480.751	73.62
480.969	79.62
481.188	87.62
481.406	85.62
481.624	79.62
481.843	75.62
482.061	87.62
482.28	85.62
482.498	83.62
482.717	88.62
482.935	99.62
483.153	83.62
483.372	99.62
483.59	98.62
483.808	98.62
484.027	103.62
484.245	101.62
484.463	90.62
484.681	88.62
484.9	86.62
485.118	88.62
485.336	101.62
485.554	82.62
485.772	91.62
485.99	85.62
486.209	82.62
486.427	84.62
486.645	76.62
486.863	101.62
487.081	87.62
487.299	73.62
487.517	99.62
487.735	113.62
487.953	107.62
488.171	109.62
488.389	88.62
488.607	99.62
488.825	96.62
489.043	95.62
489.261	92.62
489.479	91.62
489.696	94.62
489.914	98.62
490.132	83.62
490.35	102.62
490.568	92.62
490.786	101.62
491.003	99.62
491.221	98.62
491.439	112.62
491.657	113.62
491.874	102.62
492.092	109.62
492.31	127.62
492.527	114.62
492.745	112.62
492.963	104.62
493.18	104.62
493.398	101.62
493.615	109.62
493.833	101.62
494.05	97.62
494.268	104.62
494.485	112.62
494.703	100.62
494.92	104.62
495.138	90.62
495.355	105.62
495.573	115.62
495.79	98.62
496.008	104.62
496.225	114.62
496.442	90.62
496.66	105.62
496.877	94.62
497.094	99.62
497.312	101.62
497.529	95.62
497.746	100.62
497.963	93.62
498.181	96.62
498.398	86.62
498.615	89.62
498.832	79.62
499.049	96.62
499.267	103.62
499.484	102.62
499.701	83.62
499.918	107.62
500.135	82.62
500.352	89.62
500.569	95.62
500.786	94.62
501.003	85.62
501.22	89.62
501.437	104.62
501.654	80.62
501.871	88.62
502.088	90.62
502.305	91.62
502.522	100.62
502.739	103.62
502.956	91.62
503.172	83.62
503.389	80.62
503.606	96.62
503.823	92.62
504.04	92.62
504.256	87.62
504.473	78.62
504.69	87.62
504.907	91.62
505.123	94.62
505.34	89.62
505.557	102.62
505.773	95.62
505.99	98.62
506.207	88.62
506.423	84.62
506.64	85.62
506.856	100.62
507.073	82.62
507.289	109.62
507.506	93.62
507.722	98.62
507.939	96.62
508.155	92.62
508.372	98.62
508.588	90.62
508.805	77.62
509.021	95.62
509.238	97.62
509.454	96.62
509.67	93.62
509.887	98.62
510.103	82.62
510.319	89.62
510.536	91.62
510.752	87.62
510.968	80.62
511.184	74.62
511.401	92.62
511.617	77.62
511.833	81.62
512.049	82.62
512.265	86.62
512.481	79.62
512.698	87.62
512.914	97.62
513.13	88.62
513.346	84.62
513.562	99.62
513.778	86.62
513.994	93.62
514.21	80.62
514.426	79.62
514.642	92.62
514.858	83.62
515.074	89.62
515.29	82.62
515.506	82.62
515.721	85.62
515.937	88.62
516.153	81.62
516.369	88.62
516.585	80.62
516.801	90.62
517.016	76.62
517.232	82.62
517.448	79.62
517.664	85.62
517.879	77.62
