Data from Location5.07152019.Energy5.Lamp.07192019.3%Agarose_HRD10591_16-03-16-628.txt Node
Date: Fri Jul 19 16:03:16 EDT 2019
User: cochatt
Spectrometer: HR+D1059
Trigger mode: 1
Integration Time (sec): 1.000000E-1
Scans to average: 1
Electric dark correction enabled: true
Nonlinearity correction enabled: false
Boxcar width: 0
XAxis mode: Wavelengths
Number of Pixels in Spectrum: 2048
>>>>>Begin Spectral Data<<<<<
223.165	-20.12
223.4	-20.12
223.635	-20.12
223.869	-12.12
224.104	-16.12
224.338	-15.12
224.573	-13.12
224.808	-11.12
225.042	8.88
225.277	-13.12
225.511	-8.12
225.746	3.88
225.98	8.88
226.215	0.88
226.449	10.88
226.683	24.88
226.918	7.88
227.152	42.88
227.387	34.88
227.621	36.88
227.856	62.88
228.09	51.88
228.324	54.88
228.559	59.88
228.793	44.88
229.027	48.88
229.262	63.88
229.496	65.88
229.73	80.88
229.964	72.88
230.199	61.88
230.433	90.88
230.667	72.88
230.901	82.88
231.136	64.88
231.37	85.88
231.604	91.88
231.838	83.88
232.072	75.88
232.306	82.88
232.541	68.88
232.775	66.88
233.009	77.88
233.243	85.88
233.477	68.88
233.711	69.88
233.945	85.88
234.179	77.88
234.413	78.88
234.647	97.88
234.881	84.88
235.115	85.88
235.349	92.88
235.583	80.88
235.817	84.88
236.051	74.88
236.285	81.88
236.519	71.88
236.753	70.88
236.987	79.88
237.221	87.88
237.455	82.88
237.689	72.88
237.922	89.88
238.156	74.88
238.39	81.88
238.624	76.88
238.858	74.88
239.091	77.88
239.325	87.88
239.559	73.88
239.793	65.88
240.027	75.88
240.26	82.88
240.494	75.88
240.728	86.88
240.961	87.88
241.195	84.88
241.429	79.88
241.662	72.88
241.896	85.88
242.13	71.88
242.363	75.88
242.597	77.88
242.83	63.88
243.064	87.88
243.298	77.88
243.531	71.88
243.765	81.88
243.998	91.88
244.232	80.88
244.465	76.88
244.699	72.88
244.932	88.88
245.166	85.88
245.399	68.88
245.633	82.88
245.866	88.88
246.099	96.88
246.333	80.88
246.566	90.88
246.8	69.88
247.033	85.88
247.266	73.88
247.5	67.88
247.733	83.88
247.966	74.88
248.2	80.88
248.433	83.88
248.666	80.88
248.899	84.88
249.133	89.88
249.366	85.88
249.599	68.88
249.832	83.88
250.066	71.88
250.299	89.88
250.532	75.88
250.765	78.88
250.998	80.88
251.231	97.88
251.465	87.88
251.698	84.88
251.931	75.88
252.164	75.88
252.397	81.88
252.63	90.88
252.863	93.88
253.096	100.88
253.329	77.88
253.562	83.88
253.795	87.88
254.028	90.88
254.261	86.88
254.494	91.88
254.727	88.88
254.96	77.88
255.193	89.88
255.426	83.88
255.659	83.88
255.892	80.88
256.124	80.88
256.357	81.88
256.59	86.88
256.823	87.88
257.056	83.88
257.289	86.88
257.521	76.88
257.754	89.88
257.987	72.88
258.22	88.88
258.452	82.88
258.685	80.88
258.918	87.88
259.151	88.88
259.383	87.88
259.616	83.88
259.849	97.88
260.081	72.88
260.314	84.88
260.547	84.88
260.779	75.88
261.012	91.88
261.244	94.88
261.477	97.88
261.71	86.88
261.942	84.88
262.175	76.88
262.407	78.88
262.64	80.88
262.872	80.88
263.105	86.88
263.337	71.88
263.57	85.88
263.802	82.88
264.035	88.88
264.267	91.88
264.499	84.88
264.732	104.88
264.964	68.88
265.197	89.88
265.429	74.88
265.661	83.88
265.894	75.88
266.126	92.88
266.358	89.88
266.591	88.88
266.823	88.88
267.055	82.88
267.287	69.88
267.52	91.88
267.752	84.88
267.984	73.88
268.216	93.88
268.448	87.88
268.681	90.88
268.913	88.88
269.145	91.88
269.377	84.88
269.609	83.88
269.841	77.88
270.073	88.88
270.306	89.88
270.538	89.88
270.77	78.88
271.002	94.88
271.234	89.88
271.466	87.88
271.698	90.88
271.93	87.88
272.162	70.88
272.394	82.88
272.626	72.88
272.858	84.88
273.09	76.88
273.322	97.88
273.553	88.88
273.785	88.88
274.017	95.88
274.249	97.88
274.481	91.88
274.713	78.88
274.945	99.88
275.176	76.88
275.408	82.88
275.64	92.88
275.872	95.88
276.104	85.88
276.335	76.88
276.567	90.88
276.799	75.88
277.031	70.88
277.262	91.88
277.494	95.88
277.726	95.88
277.957	89.88
278.189	103.88
278.421	99.88
278.652	97.88
278.884	78.88
279.115	84.88
279.347	87.88
279.579	85.88
279.81	97.88
280.042	85.88
280.273	84.88
280.505	95.88
280.736	82.88
280.968	111.88
281.199	100.88
281.431	96.88
281.662	80.88
281.894	88.88
282.125	105.88
282.356	92.88
282.588	96.88
282.819	90.88
283.051	88.88
283.282	83.88
283.513	83.88
283.745	91.88
283.976	80.88
284.207	63.88
284.439	92.88
284.67	100.88
284.901	87.88
285.132	98.88
285.364	87.88
285.595	89.88
285.826	87.88
286.057	96.88
286.288	91.88
286.52	89.88
286.751	93.88
286.982	109.88
287.213	88.88
287.444	85.88
287.675	81.88
287.906	83.88
288.138	80.88
288.369	90.88
288.6	85.88
288.831	93.88
289.062	82.88
289.293	88.88
289.524	91.88
289.755	107.88
289.986	95.88
290.217	85.88
290.448	89.88
290.679	94.88
290.91	91.88
291.141	103.88
291.371	97.88
291.602	94.88
291.833	101.88
292.064	104.88
292.295	104.88
292.526	84.88
292.757	91.88
292.987	84.88
293.218	98.88
293.449	84.88
293.68	105.88
293.91	85.88
294.141	98.88
294.372	90.88
294.603	83.88
294.833	86.88
295.064	91.88
295.295	76.88
295.525	111.88
295.756	99.88
295.987	90.88
296.217	90.88
296.448	93.88
296.679	103.88
296.909	93.88
297.14	79.88
297.37	84.88
297.601	95.88
297.831	92.88
298.062	97.88
298.292	91.88
298.523	105.88
298.753	84.88
298.984	98.88
299.214	90.88
299.445	89.88
299.675	92.88
299.905	82.88
300.136	96.88
300.366	98.88
300.597	94.88
300.827	107.88
301.057	88.88
301.288	83.88
301.518	81.88
301.748	98.88
301.979	91.88
302.209	105.88
302.439	87.88
302.669	88.88
302.9	101.88
303.13	97.88
303.36	100.88
303.59	101.88
303.82	83.88
304.051	95.88
304.281	95.88
304.511	91.88
304.741	103.88
304.971	89.88
305.201	102.88
305.431	97.88
305.661	90.88
305.891	102.88
306.121	99.88
306.352	105.88
306.582	95.88
306.812	92.88
307.042	93.88
307.272	88.88
307.502	80.88
307.731	95.88
307.961	90.88
308.191	78.88
308.421	96.88
308.651	90.88
308.881	103.88
309.111	104.88
309.341	96.88
309.571	98.88
309.8	85.88
310.03	95.88
310.26	87.88
310.49	104.88
310.72	74.88
310.949	86.88
311.179	76.88
311.409	94.88
311.639	95.88
311.868	90.88
312.098	90.88
312.328	99.88
312.557	97.88
312.787	104.88
313.017	90.88
313.246	92.88
313.476	87.88
313.706	98.88
313.935	94.88
314.165	97.88
314.394	85.88
314.624	86.88
314.853	108.88
315.083	90.88
315.312	87.88
315.542	93.88
315.771	93.88
316.001	98.88
316.23	85.88
316.46	103.88
316.689	79.88
316.919	96.88
317.148	96.88
317.377	114.88
317.607	98.88
317.836	83.88
318.065	92.88
318.295	86.88
318.524	85.88
318.753	91.88
318.983	97.88
319.212	99.88
319.441	93.88
319.67	85.88
319.9	92.88
320.129	95.88
320.358	100.88
320.587	66.88
320.816	89.88
321.046	85.88
321.275	89.88
321.504	96.88
321.733	81.88
321.962	88.88
322.191	105.88
322.42	77.88
322.649	105.88
322.878	87.88
323.108	93.88
323.337	106.88
323.566	102.88
323.795	92.88
324.024	96.88
324.253	88.88
324.482	78.88
324.71	97.88
324.939	85.88
325.168	90.88
325.397	98.88
325.626	103.88
325.855	103.88
326.084	94.88
326.313	94.88
326.542	83.88
326.77	98.88
326.999	88.88
327.228	95.88
327.457	108.88
327.686	92.88
327.914	95.88
328.143	101.88
328.372	95.88
328.6	106.88
328.829	88.88
329.058	90.88
329.287	92.88
329.515	88.88
329.744	85.88
329.972	92.88
330.201	96.88
330.43	89.88
330.658	116.88
330.887	100.88
331.115	97.88
331.344	97.88
331.572	95.88
331.801	79.88
332.03	99.88
332.258	91.88
332.486	98.88
332.715	102.88
332.943	97.88
333.172	99.88
333.4	73.88
333.629	92.88
333.857	101.88
334.085	102.88
334.314	103.88
334.542	102.88
334.771	109.88
334.999	98.88
335.227	79.88
335.455	94.88
335.684	93.88
335.912	84.88
336.14	88.88
336.369	96.88
336.597	82.88
336.825	96.88
337.053	106.88
337.281	96.88
337.51	98.88
337.738	102.88
337.966	101.88
338.194	90.88
338.422	116.88
338.65	105.88
338.878	96.88
339.106	95.88
339.334	89.88
339.562	90.88
339.79	95.88
340.018	106.88
340.246	83.88
340.474	99.88
340.702	91.88
340.93	96.88
341.158	84.88
341.386	99.88
341.614	88.88
341.842	97.88
342.07	81.88
342.298	88.88
342.526	77.88
342.754	97.88
342.981	92.88
343.209	84.88
343.437	98.88
343.665	108.88
343.893	98.88
344.12	96.88
344.348	105.88
344.576	97.88
344.804	110.88
345.031	97.88
345.259	85.88
345.487	93.88
345.714	101.88
345.942	92.88
346.17	92.88
346.397	97.88
346.625	102.88
346.853	82.88
347.08	100.88
347.308	75.88
347.535	93.88
347.763	100.88
347.99	108.88
348.218	88.88
348.445	89.88
348.673	91.88
348.9	96.88
349.128	98.88
349.355	102.88
349.583	80.88
349.81	94.88
350.037	98.88
350.265	83.88
350.492	93.88
350.72	90.88
350.947	89.88
351.174	105.88
351.402	85.88
351.629	95.88
351.856	90.88
352.083	85.88
352.311	90.88
352.538	104.88
352.765	96.88
352.992	91.88
353.22	88.88
353.447	102.88
353.674	89.88
353.901	101.88
354.128	95.88
354.355	86.88
354.583	90.88
354.81	82.88
355.037	102.88
355.264	95.88
355.491	93.88
355.718	85.88
355.945	89.88
356.172	86.88
356.399	89.88
356.626	85.88
356.853	83.88
357.08	101.88
357.307	88.88
357.534	84.88
357.761	81.88
357.988	105.88
358.215	99.88
358.441	72.88
358.668	93.88
358.895	89.88
359.122	92.88
359.349	96.88
359.576	95.88
359.802	81.88
360.029	106.88
360.256	85.88
360.483	82.88
360.709	90.88
360.936	95.88
361.163	90.88
361.39	92.88
361.616	93.88
361.843	85.88
362.07	81.88
362.296	93.88
362.523	85.88
362.749	90.88
362.976	83.88
363.203	88.88
363.429	96.88
363.656	86.88
363.882	104.88
364.109	88.88
364.335	91.88
364.562	112.88
364.788	84.88
365.015	78.88
365.241	92.88
365.468	89.88
365.694	84.88
365.92	89.88
366.147	90.88
366.373	104.88
366.599	103.88
366.826	95.88
367.052	87.88
367.278	96.88
367.505	80.88
367.731	95.88
367.957	95.88
368.184	101.88
368.41	88.88
368.636	96.88
368.862	88.88
369.089	91.88
369.315	95.88
369.541	83.88
369.767	81.88
369.993	95.88
370.219	92.88
370.445	91.88
370.672	106.88
370.898	91.88
371.124	83.88
371.35	111.88
371.576	95.88
371.802	93.88
372.028	87.88
372.254	78.88
372.48	93.88
372.706	99.88
372.932	96.88
373.158	92.88
373.384	89.88
373.61	102.88
373.835	90.88
374.061	96.88
374.287	106.88
374.513	93.88
374.739	92.88
374.965	89.88
375.191	100.88
375.416	99.88
375.642	106.88
375.868	76.88
376.094	99.88
376.319	99.88
376.545	96.88
376.771	100.88
376.997	82.88
377.222	100.88
377.448	91.88
377.674	99.88
377.899	87.88
378.125	99.88
378.35	94.88
378.576	95.88
378.802	93.88
379.027	98.88
379.253	90.88
379.478	103.88
379.704	93.88
379.929	87.88
380.155	85.88
380.38	92.88
380.606	93.88
380.831	90.88
381.057	96.88
381.282	95.88
381.507	71.88
381.733	96.88
381.958	87.88
382.184	88.88
382.409	91.88
382.634	93.88
382.86	98.88
383.085	97.88
383.31	94.88
383.535	94.88
383.761	105.88
383.986	104.88
384.211	90.88
384.436	101.88
384.662	92.88
384.887	95.88
385.112	87.88
385.337	112.88
385.562	91.88
385.787	95.88
386.013	97.88
386.238	87.88
386.463	96.88
386.688	97.88
386.913	99.88
387.138	96.88
387.363	99.88
387.588	96.88
387.813	87.88
388.038	104.88
388.263	99.88
388.488	84.88
388.713	111.88
388.938	93.88
389.163	93.88
389.387	84.88
389.612	103.88
389.837	96.88
390.062	96.88
390.287	91.88
390.512	99.88
390.736	91.88
390.961	84.88
391.186	100.88
391.411	101.88
391.636	99.88
391.86	88.88
392.085	93.88
392.31	104.88
392.534	98.88
392.759	96.88
392.984	93.88
393.208	102.88
393.433	100.88
393.658	95.88
393.882	93.88
394.107	90.88
394.331	96.88
394.556	96.88
394.78	94.88
395.005	95.88
395.229	92.88
395.454	85.88
395.678	98.88
395.903	99.88
396.127	105.88
396.352	105.88
396.576	107.88
396.801	89.88
397.025	99.88
397.249	95.88
397.474	100.88
397.698	106.88
397.922	96.88
398.147	85.88
398.371	96.88
398.595	102.88
398.82	96.88
399.044	107.88
399.268	100.88
399.492	114.88
399.717	119.88
399.941	112.88
400.165	105.88
400.389	82.88
400.613	96.88
400.837	98.88
401.062	106.88
401.286	98.88
401.51	105.88
401.734	103.88
401.958	99.88
402.182	113.88
402.406	104.88
402.63	93.88
402.854	104.88
403.078	96.88
403.302	87.88
403.526	101.88
403.75	92.88
403.974	104.88
404.198	101.88
404.422	95.88
404.645	106.88
404.869	85.88
405.093	96.88
405.317	98.88
405.541	100.88
405.765	96.88
405.988	105.88
406.212	112.88
406.436	105.88
406.66	115.88
406.883	96.88
407.107	86.88
407.331	106.88
407.555	106.88
407.778	108.88
408.002	108.88
408.226	112.88
408.449	101.88
408.673	102.88
408.896	102.88
409.12	99.88
409.344	96.88
409.567	92.88
409.791	95.88
410.014	100.88
410.238	94.88
410.461	95.88
410.685	109.88
410.908	100.88
411.132	105.88
411.355	99.88
411.578	91.88
411.802	103.88
412.025	90.88
412.249	109.88
412.472	100.88
412.695	102.88
412.919	88.88
413.142	104.88
413.365	97.88
413.589	104.88
413.812	115.88
414.035	95.88
414.258	91.88
414.482	97.88
414.705	98.88
414.928	100.88
415.151	105.88
415.374	104.88
415.597	100.88
415.821	94.88
416.044	91.88
416.267	79.88
416.49	89.88
416.713	94.88
416.936	111.88
417.159	109.88
417.382	115.88
417.605	93.88
417.828	95.88
418.051	106.88
418.274	94.88
418.497	94.88
418.72	87.88
418.943	104.88
419.166	89.88
419.389	91.88
419.611	93.88
419.834	108.88
420.057	96.88
420.28	99.88
420.503	99.88
420.726	101.88
420.948	93.88
421.171	87.88
421.394	105.88
421.617	97.88
421.839	103.88
422.062	114.88
422.285	87.88
422.507	98.88
422.73	106.88
422.953	89.88
423.175	86.88
423.398	101.88
423.621	107.88
423.843	99.88
424.066	108.88
424.288	91.88
424.511	98.88
424.733	117.88
424.956	105.88
425.178	92.88
425.401	87.88
425.623	99.88
425.846	88.88
426.068	104.88
426.291	90.88
426.513	93.88
426.735	101.88
426.958	99.88
427.18	93.88
427.402	100.88
427.625	103.88
427.847	94.88
428.069	99.88
428.292	97.88
428.514	93.88
428.736	100.88
428.958	99.88
429.181	93.88
429.403	100.88
429.625	106.88
429.847	108.88
430.069	87.88
430.292	108.88
430.514	97.88
430.736	85.88
430.958	86.88
431.18	91.88
431.402	92.88
431.624	114.88
431.846	91.88
432.068	92.88
432.29	90.88
432.512	104.88
432.734	88.88
432.956	100.88
433.178	83.88
433.4	100.88
433.622	103.88
433.844	93.88
434.066	106.88
434.287	91.88
434.509	99.88
434.731	90.88
434.953	93.88
435.175	86.88
435.397	93.88
435.618	87.88
435.84	92.88
436.062	87.88
436.284	105.88
436.505	106.88
436.727	97.88
436.949	108.88
437.17	103.88
437.392	92.88
437.614	96.88
437.835	89.88
438.057	84.88
438.278	83.88
438.5	93.88
438.721	97.88
438.943	98.88
439.165	95.88
439.386	100.88
439.608	100.88
439.829	102.88
440.05	90.88
440.272	100.88
440.493	97.88
440.715	88.88
440.936	95.88
441.158	102.88
441.379	88.88
441.6	97.88
441.822	99.88
442.043	106.88
442.264	95.88
442.486	100.88
442.707	85.88
442.928	93.88
443.149	109.88
443.371	105.88
443.592	101.88
443.813	98.88
444.034	86.88
444.255	97.88
444.476	90.88
444.698	113.88
444.919	102.88
445.14	229.88
445.361	148.88
445.582	105.88
445.803	93.88
446.024	89.88
446.245	105.88
446.466	97.88
446.687	89.88
446.908	87.88
447.129	91.88
447.35	84.88
447.571	93.88
447.792	106.88
448.013	91.88
448.234	90.88
448.455	99.88
448.675	84.88
448.896	95.88
449.117	83.88
449.338	86.88
449.559	106.88
449.779	94.88
450	95.88
450.221	96.88
450.442	87.88
450.662	91.88
450.883	93.88
451.104	89.88
451.324	85.88
451.545	97.88
451.766	90.88
451.986	100.88
452.207	97.88
452.428	99.88
452.648	105.88
452.869	92.88
453.089	83.88
453.31	99.88
453.53	97.88
453.751	97.88
453.971	91.88
454.192	100.88
454.412	74.88
454.633	89.88
454.853	96.88
455.073	92.88
455.294	89.88
455.514	92.88
455.734	102.88
455.955	96.88
456.175	85.88
456.395	87.88
456.616	84.88
456.836	100.88
457.056	102.88
457.276	93.88
457.497	79.88
457.717	77.88
457.937	106.88
458.157	101.88
458.377	101.88
458.598	94.88
458.818	96.88
459.038	76.88
459.258	95.88
459.478	94.88
459.698	102.88
459.918	103.88
460.138	96.88
460.358	102.88
460.578	97.88
460.798	109.88
461.018	100.88
461.238	104.88
461.458	100.88
461.678	91.88
461.898	105.88
462.118	106.88
462.338	113.88
462.558	95.88
462.777	85.88
462.997	88.88
463.217	107.88
463.437	114.88
463.657	103.88
463.876	113.88
464.096	119.88
464.316	85.88
464.536	119.88
464.755	102.88
464.975	104.88
465.195	113.88
465.414	115.88
465.634	92.88
465.854	109.88
466.073	105.88
466.293	105.88
466.512	98.88
466.732	89.88
466.951	100.88
467.171	111.88
467.391	101.88
467.61	98.88
467.829	87.88
468.049	98.88
468.268	104.88
468.488	92.88
468.707	83.88
468.927	103.88
469.146	89.88
469.365	87.88
469.585	89.88
469.804	106.88
470.023	102.88
470.243	101.88
470.462	112.88
470.681	95.88
470.901	96.88
471.12	92.88
471.339	92.88
471.558	105.88
471.777	107.88
471.997	98.88
472.216	101.88
472.435	92.88
472.654	112.88
472.873	105.88
473.092	106.88
473.311	103.88
473.53	108.88
473.749	105.88
473.968	89.88
474.187	103.88
474.406	83.88
474.625	95.88
474.844	99.88
475.063	105.88
475.282	86.88
475.501	103.88
475.72	96.88
475.939	112.88
476.158	93.88
476.377	92.88
476.596	92.88
476.814	106.88
477.033	88.88
477.252	84.88
477.471	87.88
477.69	104.88
477.908	97.88
478.127	119.88
478.346	107.88
478.564	124.88
478.783	108.88
479.002	104.88
479.22	102.88
479.439	101.88
479.658	99.88
479.876	98.88
480.095	99.88
480.313	97.88
480.532	104.88
480.751	88.88
480.969	90.88
481.188	92.88
481.406	93.88
481.624	96.88
481.843	105.88
482.061	85.88
482.28	101.88
482.498	92.88
482.717	88.88
482.935	112.88
483.153	110.88
483.372	108.88
483.59	111.88
483.808	103.88
484.027	92.88
484.245	101.88
484.463	100.88
484.681	114.88
484.9	109.88
485.118	107.88
485.336	111.88
485.554	116.88
485.772	107.88
485.99	95.88
486.209	104.88
486.427	104.88
486.645	103.88
486.863	112.88
487.081	103.88
487.299	106.88
487.517	117.88
487.735	106.88
487.953	105.88
488.171	100.88
488.389	112.88
488.607	107.88
488.825	110.88
489.043	109.88
489.261	107.88
489.479	104.88
489.696	107.88
489.914	105.88
490.132	105.88
490.35	114.88
490.568	93.88
490.786	120.88
491.003	105.88
491.221	120.88
491.439	109.88
491.657	102.88
491.874	117.88
492.092	112.88
492.31	123.88
492.527	93.88
492.745	110.88
492.963	102.88
493.18	120.88
493.398	101.88
493.615	119.88
493.833	99.88
494.05	113.88
494.268	113.88
494.485	99.88
494.703	99.88
494.92	111.88
495.138	107.88
495.355	123.88
495.573	118.88
495.79	112.88
496.008	107.88
496.225	103.88
496.442	114.88
496.66	107.88
496.877	119.88
497.094	107.88
497.312	116.88
497.529	117.88
497.746	124.88
497.963	122.88
498.181	105.88
498.398	113.88
498.615	121.88
498.832	119.88
499.049	116.88
499.267	132.88
499.484	131.88
499.701	123.88
499.918	136.88
500.135	148.88
500.352	159.88
500.569	164.88
500.786	176.88
501.003	146.88
501.22	147.88
501.437	128.88
501.654	143.88
501.871	128.88
502.088	123.88
502.305	121.88
502.522	119.88
502.739	109.88
502.956	116.88
503.172	106.88
503.389	123.88
503.606	131.88
503.823	121.88
504.04	117.88
504.256	120.88
504.473	104.88
504.69	125.88
504.907	119.88
505.123	98.88
505.34	122.88
505.557	112.88
505.773	103.88
505.99	95.88
506.207	99.88
506.423	92.88
506.64	97.88
506.856	106.88
507.073	111.88
507.289	90.88
507.506	117.88
507.722	100.88
507.939	98.88
508.155	102.88
508.372	98.88
508.588	102.88
508.805	95.88
509.021	125.88
509.238	99.88
509.454	97.88
509.67	103.88
509.887	108.88
510.103	103.88
510.319	95.88
510.536	91.88
510.752	104.88
510.968	118.88
511.184	106.88
511.401	109.88
511.617	95.88
511.833	96.88
512.049	100.88
512.265	107.88
512.481	100.88
512.698	103.88
512.914	101.88
513.13	114.88
513.346	101.88
513.562	101.88
513.778	103.88
513.994	111.88
