Data from Location5.07152019.Energy5.Lamp.07192019.3%Agarose_HRD10591_16-02-36-628.txt Node
Date: Fri Jul 19 16:02:36 EDT 2019
User: cochatt
Spectrometer: HR+D1059
Trigger mode: 1
Integration Time (sec): 1.000000E-1
Scans to average: 1
Electric dark correction enabled: true
Nonlinearity correction enabled: false
Boxcar width: 0
XAxis mode: Wavelengths
Number of Pixels in Spectrum: 2048
>>>>>Begin Spectral Data<<<<<
223.165	-20.19
223.4	-20.19
223.635	-20.19
223.869	-16.19
224.104	-28.19
224.338	-16.19
224.573	-13.19
224.808	-12.19
225.042	3.81
225.277	6.81
225.511	-1.19
225.746	5.81
225.98	0.81
226.215	13.81
226.449	9.81
226.683	18.81
226.918	18.81
227.152	28.81
227.387	34.81
227.621	37.81
227.856	28.81
228.09	40.81
228.324	41.81
228.559	54.81
228.793	48.81
229.027	53.81
229.262	76.81
229.496	69.81
229.73	83.81
229.964	77.81
230.199	66.81
230.433	85.81
230.667	84.81
230.901	66.81
231.136	79.81
231.37	89.81
231.604	88.81
231.838	87.81
232.072	83.81
232.306	67.81
232.541	76.81
232.775	72.81
233.009	64.81
233.243	70.81
233.477	83.81
233.711	87.81
233.945	85.81
234.179	90.81
234.413	80.81
234.647	77.81
234.881	74.81
235.115	79.81
235.349	75.81
235.583	71.81
235.817	94.81
236.051	87.81
236.285	68.81
236.519	90.81
236.753	96.81
236.987	78.81
237.221	73.81
237.455	70.81
237.689	66.81
237.922	75.81
238.156	68.81
238.39	76.81
238.624	73.81
238.858	68.81
239.091	62.81
239.325	69.81
239.559	78.81
239.793	81.81
240.027	75.81
240.26	75.81
240.494	80.81
240.728	75.81
240.961	88.81
241.195	81.81
241.429	70.81
241.662	74.81
241.896	62.81
242.13	87.81
242.363	90.81
242.597	85.81
242.83	83.81
243.064	76.81
243.298	92.81
243.531	85.81
243.765	80.81
243.998	89.81
244.232	79.81
244.465	84.81
244.699	82.81
244.932	68.81
245.166	74.81
245.399	79.81
245.633	74.81
245.866	80.81
246.099	82.81
246.333	76.81
246.566	74.81
246.8	65.81
247.033	79.81
247.266	62.81
247.5	86.81
247.733	85.81
247.966	74.81
248.2	89.81
248.433	68.81
248.666	94.81
248.899	77.81
249.133	94.81
249.366	101.81
249.599	90.81
249.832	83.81
250.066	85.81
250.299	78.81
250.532	79.81
250.765	75.81
250.998	83.81
251.231	81.81
251.465	93.81
251.698	76.81
251.931	88.81
252.164	78.81
252.397	94.81
252.63	76.81
252.863	79.81
253.096	78.81
253.329	90.81
253.562	78.81
253.795	92.81
254.028	92.81
254.261	88.81
254.494	81.81
254.727	80.81
254.96	75.81
255.193	66.81
255.426	84.81
255.659	68.81
255.892	87.81
256.124	84.81
256.357	95.81
256.59	83.81
256.823	72.81
257.056	71.81
257.289	78.81
257.521	81.81
257.754	75.81
257.987	75.81
258.22	82.81
258.452	75.81
258.685	89.81
258.918	83.81
259.151	71.81
259.383	83.81
259.616	93.81
259.849	91.81
260.081	94.81
260.314	86.81
260.547	81.81
260.779	81.81
261.012	81.81
261.244	77.81
261.477	81.81
261.71	91.81
261.942	83.81
262.175	91.81
262.407	79.81
262.64	83.81
262.872	94.81
263.105	86.81
263.337	87.81
263.57	89.81
263.802	79.81
264.035	90.81
264.267	76.81
264.499	76.81
264.732	94.81
264.964	82.81
265.197	92.81
265.429	87.81
265.661	94.81
265.894	91.81
266.126	88.81
266.358	89.81
266.591	76.81
266.823	88.81
267.055	84.81
267.287	74.81
267.52	92.81
267.752	90.81
267.984	87.81
268.216	97.81
268.448	90.81
268.681	82.81
268.913	87.81
269.145	86.81
269.377	78.81
269.609	77.81
269.841	92.81
270.073	92.81
270.306	102.81
270.538	84.81
270.77	86.81
271.002	92.81
271.234	78.81
271.466	79.81
271.698	81.81
271.93	70.81
272.162	90.81
272.394	87.81
272.626	78.81
272.858	78.81
273.09	92.81
273.322	91.81
273.553	83.81
273.785	87.81
274.017	84.81
274.249	97.81
274.481	88.81
274.713	72.81
274.945	87.81
275.176	87.81
275.408	89.81
275.64	90.81
275.872	86.81
276.104	85.81
276.335	92.81
276.567	68.81
276.799	89.81
277.031	90.81
277.262	79.81
277.494	75.81
277.726	87.81
277.957	76.81
278.189	91.81
278.421	84.81
278.652	93.81
278.884	87.81
279.115	80.81
279.347	85.81
279.579	84.81
279.81	81.81
280.042	95.81
280.273	80.81
280.505	104.81
280.736	86.81
280.968	79.81
281.199	102.81
281.431	90.81
281.662	102.81
281.894	88.81
282.125	91.81
282.356	96.81
282.588	80.81
282.819	79.81
283.051	94.81
283.282	99.81
283.513	100.81
283.745	96.81
283.976	98.81
284.207	88.81
284.439	96.81
284.67	90.81
284.901	81.81
285.132	87.81
285.364	84.81
285.595	81.81
285.826	87.81
286.057	90.81
286.288	83.81
286.52	85.81
286.751	101.81
286.982	103.81
287.213	96.81
287.444	82.81
287.675	88.81
287.906	85.81
288.138	90.81
288.369	89.81
288.6	95.81
288.831	98.81
289.062	83.81
289.293	75.81
289.524	96.81
289.755	89.81
289.986	86.81
290.217	93.81
290.448	83.81
290.679	83.81
290.91	88.81
291.141	92.81
291.371	95.81
291.602	86.81
291.833	81.81
292.064	89.81
292.295	97.81
292.526	88.81
292.757	80.81
292.987	80.81
293.218	94.81
293.449	92.81
293.68	86.81
293.91	89.81
294.141	94.81
294.372	86.81
294.603	87.81
294.833	100.81
295.064	95.81
295.295	87.81
295.525	91.81
295.756	100.81
295.987	102.81
296.217	75.81
296.448	81.81
296.679	96.81
296.909	97.81
297.14	100.81
297.37	86.81
297.601	93.81
297.831	91.81
298.062	102.81
298.292	80.81
298.523	85.81
298.753	78.81
298.984	96.81
299.214	88.81
299.445	90.81
299.675	89.81
299.905	95.81
300.136	89.81
300.366	73.81
300.597	93.81
300.827	92.81
301.057	87.81
301.288	93.81
301.518	92.81
301.748	91.81
301.979	76.81
302.209	92.81
302.439	77.81
302.669	85.81
302.9	101.81
303.13	91.81
303.36	90.81
303.59	81.81
303.82	95.81
304.051	84.81
304.281	101.81
304.511	92.81
304.741	96.81
304.971	87.81
305.201	95.81
305.431	81.81
305.661	97.81
305.891	94.81
306.121	92.81
306.352	92.81
306.582	87.81
306.812	94.81
307.042	82.81
307.272	96.81
307.502	83.81
307.731	91.81
307.961	83.81
308.191	94.81
308.421	93.81
308.651	92.81
308.881	84.81
309.111	79.81
309.341	83.81
309.571	82.81
309.8	91.81
310.03	84.81
310.26	90.81
310.49	78.81
310.72	94.81
310.949	77.81
311.179	96.81
311.409	83.81
311.639	96.81
311.868	106.81
312.098	81.81
312.328	89.81
312.557	79.81
312.787	92.81
313.017	87.81
313.246	88.81
313.476	111.81
313.706	94.81
313.935	104.81
314.165	107.81
314.394	94.81
314.624	92.81
314.853	88.81
315.083	92.81
315.312	77.81
315.542	77.81
315.771	106.81
316.001	94.81
316.23	97.81
316.46	91.81
316.689	90.81
316.919	87.81
317.148	82.81
317.377	101.81
317.607	81.81
317.836	90.81
318.065	102.81
318.295	103.81
318.524	94.81
318.753	94.81
318.983	90.81
319.212	103.81
319.441	94.81
319.67	91.81
319.9	93.81
320.129	101.81
320.358	92.81
320.587	84.81
320.816	95.81
321.046	94.81
321.275	108.81
321.504	88.81
321.733	88.81
321.962	88.81
322.191	83.81
322.42	101.81
322.649	94.81
322.878	96.81
323.108	96.81
323.337	89.81
323.566	93.81
323.795	101.81
324.024	99.81
324.253	88.81
324.482	87.81
324.71	92.81
324.939	98.81
325.168	84.81
325.397	80.81
325.626	79.81
325.855	99.81
326.084	94.81
326.313	100.81
326.542	92.81
326.77	87.81
326.999	99.81
327.228	91.81
327.457	89.81
327.686	94.81
327.914	99.81
328.143	98.81
328.372	97.81
328.6	92.81
328.829	75.81
329.058	82.81
329.287	99.81
329.515	101.81
329.744	88.81
329.972	79.81
330.201	87.81
330.43	87.81
330.658	82.81
330.887	88.81
331.115	95.81
331.344	86.81
331.572	90.81
331.801	103.81
332.03	93.81
332.258	86.81
332.486	94.81
332.715	110.81
332.943	96.81
333.172	91.81
333.4	86.81
333.629	96.81
333.857	94.81
334.085	95.81
334.314	108.81
334.542	101.81
334.771	85.81
334.999	91.81
335.227	91.81
335.455	106.81
335.684	91.81
335.912	91.81
336.14	86.81
336.369	85.81
336.597	110.81
336.825	99.81
337.053	95.81
337.281	95.81
337.51	94.81
337.738	100.81
337.966	81.81
338.194	89.81
338.422	85.81
338.65	83.81
338.878	90.81
339.106	92.81
339.334	95.81
339.562	89.81
339.79	88.81
340.018	90.81
340.246	103.81
340.474	93.81
340.702	85.81
340.93	71.81
341.158	92.81
341.386	95.81
341.614	79.81
341.842	96.81
342.07	105.81
342.298	101.81
342.526	65.81
342.754	98.81
342.981	82.81
343.209	97.81
343.437	104.81
343.665	94.81
343.893	110.81
344.12	86.81
344.348	92.81
344.576	89.81
344.804	94.81
345.031	82.81
345.259	80.81
345.487	82.81
345.714	80.81
345.942	86.81
346.17	100.81
346.397	99.81
346.625	107.81
346.853	102.81
347.08	94.81
347.308	90.81
347.535	106.81
347.763	85.81
347.99	99.81
348.218	84.81
348.445	77.81
348.673	100.81
348.9	80.81
349.128	90.81
349.355	97.81
349.583	90.81
349.81	88.81
350.037	88.81
350.265	94.81
350.492	73.81
350.72	76.81
350.947	91.81
351.174	95.81
351.402	84.81
351.629	81.81
351.856	76.81
352.083	85.81
352.311	79.81
352.538	89.81
352.765	104.81
352.992	98.81
353.22	91.81
353.447	92.81
353.674	93.81
353.901	99.81
354.128	98.81
354.355	98.81
354.583	98.81
354.81	99.81
355.037	90.81
355.264	97.81
355.491	89.81
355.718	74.81
355.945	93.81
356.172	82.81
356.399	102.81
356.626	90.81
356.853	92.81
357.08	91.81
357.307	94.81
357.534	100.81
357.761	96.81
357.988	74.81
358.215	86.81
358.441	89.81
358.668	89.81
358.895	83.81
359.122	102.81
359.349	82.81
359.576	95.81
359.802	100.81
360.029	97.81
360.256	77.81
360.483	92.81
360.709	81.81
360.936	99.81
361.163	97.81
361.39	90.81
361.616	90.81
361.843	88.81
362.07	72.81
362.296	79.81
362.523	79.81
362.749	95.81
362.976	97.81
363.203	96.81
363.429	92.81
363.656	89.81
363.882	85.81
364.109	89.81
364.335	86.81
364.562	75.81
364.788	86.81
365.015	98.81
365.241	100.81
365.468	82.81
365.694	92.81
365.92	85.81
366.147	95.81
366.373	83.81
366.599	97.81
366.826	83.81
367.052	75.81
367.278	84.81
367.505	106.81
367.731	96.81
367.957	84.81
368.184	94.81
368.41	81.81
368.636	86.81
368.862	90.81
369.089	91.81
369.315	90.81
369.541	80.81
369.767	96.81
369.993	89.81
370.219	98.81
370.445	100.81
370.672	91.81
370.898	103.81
371.124	94.81
371.35	93.81
371.576	91.81
371.802	80.81
372.028	99.81
372.254	103.81
372.48	73.81
372.706	99.81
372.932	86.81
373.158	93.81
373.384	97.81
373.61	95.81
373.835	91.81
374.061	101.81
374.287	84.81
374.513	94.81
374.739	96.81
374.965	99.81
375.191	98.81
375.416	84.81
375.642	92.81
375.868	92.81
376.094	94.81
376.319	84.81
376.545	82.81
376.771	89.81
376.997	86.81
377.222	82.81
377.448	94.81
377.674	86.81
377.899	100.81
378.125	107.81
378.35	99.81
378.576	104.81
378.802	84.81
379.027	86.81
379.253	101.81
379.478	81.81
379.704	94.81
379.929	96.81
380.155	88.81
380.38	89.81
380.606	75.81
380.831	74.81
381.057	100.81
381.282	94.81
381.507	76.81
381.733	90.81
381.958	80.81
382.184	106.81
382.409	103.81
382.634	96.81
382.86	102.81
383.085	90.81
383.31	90.81
383.535	83.81
383.761	80.81
383.986	96.81
384.211	66.81
384.436	85.81
384.662	86.81
384.887	93.81
385.112	100.81
385.337	98.81
385.562	98.81
385.787	88.81
386.013	70.81
386.238	78.81
386.463	89.81
386.688	81.81
386.913	96.81
387.138	79.81
387.363	88.81
387.588	102.81
387.813	97.81
388.038	97.81
388.263	102.81
388.488	97.81
388.713	95.81
388.938	89.81
389.163	88.81
389.387	91.81
389.612	95.81
389.837	87.81
390.062	90.81
390.287	98.81
390.512	92.81
390.736	80.81
390.961	95.81
391.186	95.81
391.411	89.81
391.636	100.81
391.86	110.81
392.085	92.81
392.31	88.81
392.534	99.81
392.759	91.81
392.984	99.81
393.208	95.81
393.433	86.81
393.658	114.81
393.882	77.81
394.107	112.81
394.331	95.81
394.556	86.81
394.78	94.81
395.005	88.81
395.229	91.81
395.454	93.81
395.678	98.81
395.903	94.81
396.127	99.81
396.352	90.81
396.576	97.81
396.801	91.81
397.025	88.81
397.249	84.81
397.474	99.81
397.698	91.81
397.922	80.81
398.147	89.81
398.371	91.81
398.595	100.81
398.82	88.81
399.044	95.81
399.268	98.81
399.492	93.81
399.717	111.81
399.941	123.81
400.165	103.81
400.389	90.81
400.613	89.81
400.837	82.81
401.062	101.81
401.286	104.81
401.51	87.81
401.734	99.81
401.958	98.81
402.182	84.81
402.406	89.81
402.63	82.81
402.854	111.81
403.078	103.81
403.302	103.81
403.526	99.81
403.75	102.81
403.974	88.81
404.198	96.81
404.422	102.81
404.645	106.81
404.869	98.81
405.093	104.81
405.317	103.81
405.541	105.81
405.765	106.81
405.988	102.81
406.212	103.81
406.436	88.81
406.66	95.81
406.883	99.81
407.107	99.81
407.331	94.81
407.555	115.81
407.778	88.81
408.002	102.81
408.226	103.81
408.449	114.81
408.673	113.81
408.896	96.81
409.12	86.81
409.344	98.81
409.567	103.81
409.791	87.81
410.014	100.81
410.238	103.81
410.461	110.81
410.685	97.81
410.908	88.81
411.132	108.81
411.355	99.81
411.578	85.81
411.802	92.81
412.025	92.81
412.249	98.81
412.472	84.81
412.695	102.81
412.919	99.81
413.142	89.81
413.365	97.81
413.589	93.81
413.812	88.81
414.035	94.81
414.258	103.81
414.482	108.81
414.705	97.81
414.928	96.81
415.151	94.81
415.374	85.81
415.597	92.81
415.821	105.81
416.044	97.81
416.267	71.81
416.49	98.81
416.713	92.81
416.936	96.81
417.159	93.81
417.382	84.81
417.605	92.81
417.828	95.81
418.051	110.81
418.274	95.81
418.497	102.81
418.72	101.81
418.943	89.81
419.166	94.81
419.389	107.81
419.611	88.81
419.834	94.81
420.057	99.81
420.28	95.81
420.503	97.81
420.726	87.81
420.948	93.81
421.171	99.81
421.394	98.81
421.617	106.81
421.839	86.81
422.062	83.81
422.285	98.81
422.507	96.81
422.73	90.81
422.953	104.81
423.175	91.81
423.398	94.81
423.621	95.81
423.843	97.81
424.066	83.81
424.288	95.81
424.511	91.81
424.733	108.81
424.956	87.81
425.178	105.81
425.401	88.81
425.623	98.81
425.846	98.81
426.068	92.81
426.291	97.81
426.513	90.81
426.735	101.81
426.958	101.81
427.18	106.81
427.402	95.81
427.625	91.81
427.847	76.81
428.069	96.81
428.292	89.81
428.514	94.81
428.736	106.81
428.958	90.81
429.181	80.81
429.403	94.81
429.625	89.81
429.847	92.81
430.069	95.81
430.292	102.81
430.514	90.81
430.736	96.81
430.958	94.81
431.18	89.81
431.402	103.81
431.624	84.81
431.846	97.81
432.068	120.81
432.29	105.81
432.512	94.81
432.734	103.81
432.956	89.81
433.178	100.81
433.4	95.81
433.622	97.81
433.844	103.81
434.066	104.81
434.287	97.81
434.509	90.81
434.731	88.81
434.953	96.81
435.175	97.81
435.397	98.81
435.618	91.81
435.84	98.81
436.062	87.81
436.284	99.81
436.505	99.81
436.727	96.81
436.949	95.81
437.17	110.81
437.392	94.81
437.614	85.81
437.835	88.81
438.057	77.81
438.278	90.81
438.5	85.81
438.721	94.81
438.943	99.81
439.165	85.81
439.386	98.81
439.608	106.81
439.829	100.81
440.05	106.81
440.272	94.81
440.493	100.81
440.715	88.81
440.936	85.81
441.158	94.81
441.379	90.81
441.6	89.81
441.822	97.81
442.043	98.81
442.264	97.81
442.486	83.81
442.707	94.81
442.928	89.81
443.149	103.81
443.371	84.81
443.592	104.81
443.813	99.81
444.034	104.81
444.255	96.81
444.476	98.81
444.698	93.81
444.919	116.81
445.14	224.81
445.361	162.81
445.582	90.81
445.803	92.81
446.024	101.81
446.245	84.81
446.466	99.81
446.687	81.81
446.908	96.81
447.129	95.81
447.35	75.81
447.571	98.81
447.792	103.81
448.013	99.81
448.234	98.81
448.455	97.81
448.675	96.81
448.896	92.81
449.117	86.81
449.338	87.81
449.559	89.81
449.779	86.81
450	95.81
450.221	86.81
450.442	96.81
450.662	97.81
450.883	90.81
451.104	107.81
451.324	90.81
451.545	98.81
451.766	91.81
451.986	90.81
452.207	90.81
452.428	94.81
452.648	95.81
452.869	91.81
453.089	86.81
453.31	90.81
453.53	92.81
453.751	101.81
453.971	84.81
454.192	87.81
454.412	107.81
454.633	89.81
454.853	90.81
455.073	86.81
455.294	82.81
455.514	92.81
455.734	69.81
455.955	90.81
456.175	89.81
456.395	110.81
456.616	104.81
456.836	91.81
457.056	94.81
457.276	92.81
457.497	89.81
457.717	84.81
457.937	83.81
458.157	86.81
458.377	103.81
458.598	88.81
458.818	84.81
459.038	87.81
459.258	107.81
459.478	93.81
459.698	96.81
459.918	88.81
460.138	86.81
460.358	109.81
460.578	100.81
460.798	107.81
461.018	100.81
461.238	94.81
461.458	111.81
461.678	107.81
461.898	92.81
462.118	86.81
462.338	98.81
462.558	90.81
462.777	86.81
462.997	109.81
463.217	106.81
463.437	103.81
463.657	111.81
463.876	99.81
464.096	89.81
464.316	100.81
464.536	103.81
464.755	96.81
464.975	100.81
465.195	110.81
465.414	104.81
465.634	98.81
465.854	93.81
466.073	91.81
466.293	85.81
466.512	99.81
466.732	92.81
466.951	99.81
467.171	84.81
467.391	91.81
467.61	87.81
467.829	91.81
468.049	103.81
468.268	88.81
468.488	87.81
468.707	99.81
468.927	93.81
469.146	97.81
469.365	113.81
469.585	91.81
469.804	98.81
470.023	100.81
470.243	98.81
470.462	122.81
470.681	93.81
470.901	101.81
471.12	101.81
471.339	90.81
471.558	86.81
471.777	94.81
471.997	92.81
472.216	102.81
472.435	94.81
472.654	99.81
472.873	103.81
473.092	100.81
473.311	105.81
473.53	92.81
473.749	96.81
473.968	114.81
474.187	109.81
474.406	94.81
474.625	102.81
474.844	114.81
475.063	100.81
475.282	88.81
475.501	99.81
475.72	113.81
475.939	94.81
476.158	91.81
476.377	88.81
476.596	104.81
476.814	83.81
477.033	107.81
477.252	95.81
477.471	96.81
477.69	103.81
477.908	95.81
478.127	112.81
478.346	107.81
478.564	98.81
478.783	112.81
479.002	89.81
479.22	98.81
479.439	114.81
479.658	83.81
479.876	104.81
480.095	96.81
480.313	103.81
480.532	103.81
480.751	103.81
480.969	98.81
481.188	104.81
481.406	108.81
481.624	91.81
481.843	107.81
482.061	84.81
482.28	98.81
482.498	101.81
482.717	86.81
482.935	94.81
483.153	107.81
483.372	109.81
483.59	93.81
483.808	103.81
484.027	101.81
484.245	90.81
484.463	107.81
484.681	111.81
484.9	112.81
485.118	111.81
485.336	114.81
485.554	111.81
485.772	87.81
485.99	87.81
486.209	96.81
486.427	113.81
486.645	97.81
486.863	99.81
487.081	113.81
487.299	111.81
487.517	108.81
487.735	116.81
487.953	111.81
488.171	102.81
488.389	101.81
488.607	103.81
488.825	108.81
489.043	97.81
489.261	110.81
489.479	121.81
489.696	103.81
489.914	106.81
490.132	116.81
490.35	106.81
490.568	108.81
490.786	105.81
491.003	110.81
491.221	130.81
491.439	122.81
491.657	107.81
491.874	112.81
492.092	105.81
492.31	114.81
492.527	124.81
492.745	122.81
492.963	119.81
493.18	136.81
493.398	101.81
493.615	110.81
493.833	121.81
494.05	123.81
494.268	97.81
494.485	103.81
494.703	120.81
494.92	103.81
495.138	112.81
495.355	106.81
495.573	123.81
495.79	123.81
496.008	107.81
496.225	112.81
496.442	126.81
496.66	120.81
496.877	102.81
497.094	124.81
497.312	113.81
497.529	104.81
497.746	123.81
497.963	118.81
498.181	103.81
498.398	100.81
498.615	122.81
498.832	103.81
499.049	114.81
499.267	114.81
499.484	121.81
499.701	143.81
499.918	143.81
500.135	150.81
500.352	153.81
500.569	168.81
500.786	175.81
501.003	148.81
501.22	142.81
501.437	138.81
501.654	116.81
501.871	119.81
502.088	123.81
502.305	126.81
502.522	114.81
502.739	113.81
502.956	121.81
503.172	119.81
503.389	106.81
503.606	112.81
503.823	113.81
504.04	110.81
504.256	95.81
504.473	107.81
504.69	108.81
504.907	126.81
505.123	104.81
505.34	118.81
505.557	97.81
505.773	114.81
505.99	87.81
506.207	102.81
506.423	110.81
506.64	105.81
506.856	104.81
507.073	94.81
507.289	105.81
507.506	98.81
507.722	88.81
507.939	83.81
508.155	96.81
508.372	112.81
508.588	104.81
508.805	100.81
509.021	90.81
509.238	106.81
509.454	103.81
509.67	86.81
509.887	88.81
510.103	92.81
510.319	99.81
510.536	104.81
510.752	90.81
510.968	96.81
511.184	98.81
511.401	101.81
511.617	105.81
511.833	101.81
512.049	91.81
512.265	89.81
512.481	96.81
512.698	102.81
512.914	97.81
513.13	95.81
513.346	91.81
513.562	102.81
513.778	90.81
513.994	95.81
514.21	107.81
514.426	110.81
514.642	94.81
514.858	117.81
515.074	110.81
