Data from Location5.07152019.Energy5.Lamp.07192019.3%Agarose_HRD10591_15-38-07-387.txt Node
Date: Fri Jul 19 15:38:07 EDT 2019
User: cochatt
Spectrometer: HR+D1059
Trigger mode: 1
Integration Time (sec): 1.000000E-1
Scans to average: 1
Electric dark correction enabled: true
Nonlinearity correction enabled: false
Boxcar width: 0
XAxis mode: Wavelengths
Number of Pixels in Spectrum: 2048
>>>>>Begin Spectral Data<<<<<
223.165	-20.69
223.4	-20.69
223.635	-20.69
223.869	-14.69
224.104	-16.69
224.338	-10.69
224.573	-13.69
224.808	-1.69
225.042	-3.69
225.277	-7.69
225.511	-15.69
225.746	7.31
225.98	-0.69
226.215	7.31
226.449	23.31
226.683	16.31
226.918	34.31
227.152	17.31
227.387	41.31
227.621	41.31
227.856	36.31
228.09	47.31
228.324	31.31
228.559	50.31
228.793	64.31
229.027	52.31
229.262	61.31
229.496	59.31
229.73	57.31
229.964	69.31
230.199	67.31
230.433	62.31
230.667	83.31
230.901	87.31
231.136	78.31
231.37	75.31
231.604	76.31
231.838	79.31
232.072	74.31
232.306	90.31
232.541	78.31
232.775	80.31
233.009	81.31
233.243	72.31
233.477	76.31
233.711	84.31
233.945	83.31
234.179	81.31
234.413	92.31
234.647	86.31
234.881	96.31
235.115	74.31
235.349	85.31
235.583	84.31
235.817	81.31
236.051	77.31
236.285	83.31
236.519	85.31
236.753	86.31
236.987	84.31
237.221	85.31
237.455	95.31
237.689	80.31
237.922	78.31
238.156	81.31
238.39	91.31
238.624	69.31
238.858	71.31
239.091	69.31
239.325	78.31
239.559	78.31
239.793	65.31
240.027	73.31
240.26	93.31
240.494	84.31
240.728	75.31
240.961	95.31
241.195	76.31
241.429	84.31
241.662	75.31
241.896	73.31
242.13	74.31
242.363	80.31
242.597	72.31
242.83	65.31
243.064	82.31
243.298	77.31
243.531	72.31
243.765	81.31
243.998	71.31
244.232	64.31
244.465	76.31
244.699	57.31
244.932	89.31
245.166	68.31
245.399	73.31
245.633	92.31
245.866	60.31
246.099	72.31
246.333	77.31
246.566	99.31
246.8	94.31
247.033	68.31
247.266	82.31
247.5	76.31
247.733	83.31
247.966	71.31
248.2	76.31
248.433	88.31
248.666	78.31
248.899	80.31
249.133	72.31
249.366	74.31
249.599	85.31
249.832	84.31
250.066	89.31
250.299	77.31
250.532	91.31
250.765	77.31
250.998	85.31
251.231	99.31
251.465	82.31
251.698	85.31
251.931	75.31
252.164	91.31
252.397	64.31
252.63	85.31
252.863	86.31
253.096	79.31
253.329	79.31
253.562	87.31
253.795	84.31
254.028	83.31
254.261	78.31
254.494	100.31
254.727	89.31
254.96	84.31
255.193	82.31
255.426	73.31
255.659	95.31
255.892	80.31
256.124	73.31
256.357	80.31
256.59	93.31
256.823	87.31
257.056	80.31
257.289	87.31
257.521	74.31
257.754	87.31
257.987	79.31
258.22	94.31
258.452	99.31
258.685	88.31
258.918	80.31
259.151	83.31
259.383	76.31
259.616	75.31
259.849	89.31
260.081	76.31
260.314	81.31
260.547	76.31
260.779	81.31
261.012	81.31
261.244	96.31
261.477	79.31
261.71	71.31
261.942	82.31
262.175	65.31
262.407	88.31
262.64	91.31
262.872	73.31
263.105	84.31
263.337	88.31
263.57	75.31
263.802	94.31
264.035	84.31
264.267	89.31
264.499	72.31
264.732	83.31
264.964	87.31
265.197	91.31
265.429	89.31
265.661	82.31
265.894	76.31
266.126	80.31
266.358	82.31
266.591	96.31
266.823	73.31
267.055	89.31
267.287	95.31
267.52	87.31
267.752	91.31
267.984	84.31
268.216	82.31
268.448	83.31
268.681	94.31
268.913	77.31
269.145	76.31
269.377	79.31
269.609	87.31
269.841	93.31
270.073	82.31
270.306	72.31
270.538	94.31
270.77	90.31
271.002	78.31
271.234	68.31
271.466	86.31
271.698	74.31
271.93	80.31
272.162	84.31
272.394	82.31
272.626	100.31
272.858	82.31
273.09	88.31
273.322	79.31
273.553	88.31
273.785	88.31
274.017	91.31
274.249	84.31
274.481	86.31
274.713	82.31
274.945	78.31
275.176	93.31
275.408	92.31
275.64	84.31
275.872	97.31
276.104	93.31
276.335	97.31
276.567	85.31
276.799	80.31
277.031	90.31
277.262	81.31
277.494	82.31
277.726	85.31
277.957	97.31
278.189	88.31
278.421	92.31
278.652	80.31
278.884	103.31
279.115	78.31
279.347	92.31
279.579	84.31
279.81	87.31
280.042	90.31
280.273	79.31
280.505	92.31
280.736	85.31
280.968	85.31
281.199	84.31
281.431	75.31
281.662	87.31
281.894	89.31
282.125	94.31
282.356	92.31
282.588	92.31
282.819	70.31
283.051	81.31
283.282	86.31
283.513	93.31
283.745	87.31
283.976	82.31
284.207	82.31
284.439	82.31
284.67	88.31
284.901	86.31
285.132	84.31
285.364	87.31
285.595	82.31
285.826	79.31
286.057	86.31
286.288	88.31
286.52	91.31
286.751	77.31
286.982	94.31
287.213	81.31
287.444	95.31
287.675	83.31
287.906	81.31
288.138	87.31
288.369	97.31
288.6	89.31
288.831	84.31
289.062	78.31
289.293	86.31
289.524	81.31
289.755	85.31
289.986	90.31
290.217	88.31
290.448	98.31
290.679	83.31
290.91	77.31
291.141	79.31
291.371	96.31
291.602	89.31
291.833	74.31
292.064	67.31
292.295	76.31
292.526	82.31
292.757	87.31
292.987	85.31
293.218	84.31
293.449	82.31
293.68	98.31
293.91	79.31
294.141	86.31
294.372	92.31
294.603	68.31
294.833	89.31
295.064	82.31
295.295	85.31
295.525	92.31
295.756	87.31
295.987	92.31
296.217	82.31
296.448	82.31
296.679	77.31
296.909	81.31
297.14	90.31
297.37	86.31
297.601	77.31
297.831	91.31
298.062	107.31
298.292	89.31
298.523	84.31
298.753	75.31
298.984	97.31
299.214	89.31
299.445	91.31
299.675	84.31
299.905	94.31
300.136	87.31
300.366	77.31
300.597	80.31
300.827	87.31
301.057	89.31
301.288	89.31
301.518	95.31
301.748	77.31
301.979	72.31
302.209	93.31
302.439	103.31
302.669	73.31
302.9	94.31
303.13	79.31
303.36	76.31
303.59	88.31
303.82	84.31
304.051	98.31
304.281	95.31
304.511	89.31
304.741	94.31
304.971	78.31
305.201	91.31
305.431	99.31
305.661	84.31
305.891	93.31
306.121	75.31
306.352	89.31
306.582	84.31
306.812	90.31
307.042	94.31
307.272	81.31
307.502	90.31
307.731	78.31
307.961	71.31
308.191	87.31
308.421	89.31
308.651	92.31
308.881	100.31
309.111	89.31
309.341	80.31
309.571	85.31
309.8	95.31
310.03	95.31
310.26	89.31
310.49	75.31
310.72	87.31
310.949	100.31
311.179	84.31
311.409	82.31
311.639	92.31
311.868	88.31
312.098	85.31
312.328	94.31
312.557	83.31
312.787	80.31
313.017	79.31
313.246	74.31
313.476	77.31
313.706	78.31
313.935	81.31
314.165	89.31
314.394	92.31
314.624	85.31
314.853	74.31
315.083	89.31
315.312	88.31
315.542	92.31
315.771	79.31
316.001	94.31
316.23	95.31
316.46	88.31
316.689	87.31
316.919	75.31
317.148	86.31
317.377	89.31
317.607	87.31
317.836	80.31
318.065	89.31
318.295	91.31
318.524	87.31
318.753	82.31
318.983	77.31
319.212	88.31
319.441	92.31
319.67	95.31
319.9	85.31
320.129	90.31
320.358	89.31
320.587	80.31
320.816	83.31
321.046	86.31
321.275	85.31
321.504	97.31
321.733	90.31
321.962	96.31
322.191	73.31
322.42	91.31
322.649	90.31
322.878	86.31
323.108	85.31
323.337	82.31
323.566	83.31
323.795	70.31
324.024	99.31
324.253	83.31
324.482	84.31
324.71	89.31
324.939	95.31
325.168	88.31
325.397	101.31
325.626	84.31
325.855	78.31
326.084	84.31
326.313	102.31
326.542	76.31
326.77	80.31
326.999	76.31
327.228	81.31
327.457	93.31
327.686	93.31
327.914	85.31
328.143	85.31
328.372	75.31
328.6	89.31
328.829	88.31
329.058	91.31
329.287	88.31
329.515	85.31
329.744	87.31
329.972	84.31
330.201	96.31
330.43	96.31
330.658	77.31
330.887	98.31
331.115	93.31
331.344	92.31
331.572	89.31
331.801	92.31
332.03	85.31
332.258	82.31
332.486	84.31
332.715	93.31
332.943	78.31
333.172	73.31
333.4	76.31
333.629	91.31
333.857	95.31
334.085	78.31
334.314	81.31
334.542	83.31
334.771	74.31
334.999	81.31
335.227	96.31
335.455	86.31
335.684	86.31
335.912	94.31
336.14	79.31
336.369	90.31
336.597	89.31
336.825	78.31
337.053	90.31
337.281	80.31
337.51	68.31
337.738	87.31
337.966	79.31
338.194	75.31
338.422	77.31
338.65	83.31
338.878	79.31
339.106	88.31
339.334	80.31
339.562	84.31
339.79	81.31
340.018	81.31
340.246	80.31
340.474	84.31
340.702	72.31
340.93	84.31
341.158	74.31
341.386	86.31
341.614	76.31
341.842	97.31
342.07	89.31
342.298	85.31
342.526	89.31
342.754	92.31
342.981	76.31
343.209	90.31
343.437	91.31
343.665	103.31
343.893	85.31
344.12	82.31
344.348	92.31
344.576	86.31
344.804	83.31
345.031	80.31
345.259	81.31
345.487	87.31
345.714	100.31
345.942	90.31
346.17	86.31
346.397	80.31
346.625	88.31
346.853	80.31
347.08	79.31
347.308	87.31
347.535	87.31
347.763	89.31
347.99	83.31
348.218	103.31
348.445	77.31
348.673	65.31
348.9	94.31
349.128	80.31
349.355	69.31
349.583	86.31
349.81	83.31
350.037	88.31
350.265	70.31
350.492	87.31
350.72	99.31
350.947	83.31
351.174	86.31
351.402	85.31
351.629	76.31
351.856	93.31
352.083	91.31
352.311	75.31
352.538	89.31
352.765	84.31
352.992	84.31
353.22	86.31
353.447	83.31
353.674	68.31
353.901	89.31
354.128	91.31
354.355	74.31
354.583	85.31
354.81	77.31
355.037	95.31
355.264	78.31
355.491	84.31
355.718	84.31
355.945	81.31
356.172	80.31
356.399	94.31
356.626	86.31
356.853	95.31
357.08	79.31
357.307	74.31
357.534	81.31
357.761	77.31
357.988	94.31
358.215	85.31
358.441	84.31
358.668	71.31
358.895	87.31
359.122	103.31
359.349	96.31
359.576	88.31
359.802	80.31
360.029	98.31
360.256	89.31
360.483	85.31
360.709	89.31
360.936	97.31
361.163	73.31
361.39	86.31
361.616	71.31
361.843	81.31
362.07	80.31
362.296	91.31
362.523	83.31
362.749	90.31
362.976	82.31
363.203	82.31
363.429	91.31
363.656	90.31
363.882	84.31
364.109	67.31
364.335	67.31
364.562	82.31
364.788	77.31
365.015	88.31
365.241	75.31
365.468	97.31
365.694	97.31
365.92	86.31
366.147	85.31
366.373	81.31
366.599	89.31
366.826	93.31
367.052	84.31
367.278	82.31
367.505	84.31
367.731	83.31
367.957	87.31
368.184	78.31
368.41	83.31
368.636	83.31
368.862	101.31
369.089	83.31
369.315	74.31
369.541	91.31
369.767	97.31
369.993	84.31
370.219	93.31
370.445	94.31
370.672	83.31
370.898	82.31
371.124	100.31
371.35	79.31
371.576	85.31
371.802	98.31
372.028	88.31
372.254	69.31
372.48	81.31
372.706	105.31
372.932	83.31
373.158	90.31
373.384	86.31
373.61	91.31
373.835	82.31
374.061	77.31
374.287	81.31
374.513	85.31
374.739	93.31
374.965	92.31
375.191	76.31
375.416	77.31
375.642	86.31
375.868	95.31
376.094	82.31
376.319	67.31
376.545	76.31
376.771	68.31
376.997	82.31
377.222	74.31
377.448	91.31
377.674	95.31
377.899	84.31
378.125	88.31
378.35	81.31
378.576	100.31
378.802	85.31
379.027	89.31
379.253	88.31
379.478	87.31
379.704	97.31
379.929	82.31
380.155	97.31
380.38	92.31
380.606	87.31
380.831	90.31
381.057	103.31
381.282	87.31
381.507	88.31
381.733	80.31
381.958	92.31
382.184	88.31
382.409	84.31
382.634	100.31
382.86	80.31
383.085	77.31
383.31	83.31
383.535	85.31
383.761	81.31
383.986	91.31
384.211	88.31
384.436	96.31
384.662	87.31
384.887	86.31
385.112	71.31
385.337	93.31
385.562	93.31
385.787	87.31
386.013	89.31
386.238	79.31
386.463	82.31
386.688	76.31
386.913	74.31
387.138	90.31
387.363	90.31
387.588	93.31
387.813	85.31
388.038	83.31
388.263	80.31
388.488	73.31
388.713	98.31
388.938	78.31
389.163	76.31
389.387	89.31
389.612	92.31
389.837	79.31
390.062	74.31
390.287	75.31
390.512	74.31
390.736	91.31
390.961	74.31
391.186	74.31
391.411	83.31
391.636	86.31
391.86	87.31
392.085	83.31
392.31	90.31
392.534	88.31
392.759	89.31
392.984	81.31
393.208	90.31
393.433	81.31
393.658	96.31
393.882	85.31
394.107	76.31
394.331	99.31
394.556	69.31
394.78	90.31
395.005	75.31
395.229	82.31
395.454	71.31
395.678	75.31
395.903	89.31
396.127	93.31
396.352	84.31
396.576	76.31
396.801	77.31
397.025	87.31
397.249	100.31
397.474	85.31
397.698	85.31
397.922	96.31
398.147	83.31
398.371	75.31
398.595	74.31
398.82	83.31
399.044	85.31
399.268	99.31
399.492	92.31
399.717	81.31
399.941	76.31
400.165	81.31
400.389	93.31
400.613	103.31
400.837	90.31
401.062	84.31
401.286	87.31
401.51	89.31
401.734	78.31
401.958	99.31
402.182	91.31
402.406	84.31
402.63	95.31
402.854	83.31
403.078	84.31
403.302	86.31
403.526	97.31
403.75	93.31
403.974	70.31
404.198	91.31
404.422	95.31
404.645	98.31
404.869	86.31
405.093	93.31
405.317	85.31
405.541	80.31
405.765	86.31
405.988	85.31
406.212	89.31
406.436	97.31
406.66	97.31
406.883	96.31
407.107	84.31
407.331	82.31
407.555	97.31
407.778	74.31
408.002	93.31
408.226	90.31
408.449	97.31
408.673	92.31
408.896	98.31
409.12	87.31
409.344	82.31
409.567	87.31
409.791	90.31
410.014	95.31
410.238	89.31
410.461	100.31
410.685	89.31
410.908	93.31
411.132	95.31
411.355	85.31
411.578	92.31
411.802	99.31
412.025	87.31
412.249	78.31
412.472	100.31
412.695	95.31
412.919	83.31
413.142	84.31
413.365	95.31
413.589	87.31
413.812	73.31
414.035	83.31
414.258	97.31
414.482	100.31
414.705	85.31
414.928	91.31
415.151	105.31
415.374	97.31
415.597	88.31
415.821	100.31
416.044	88.31
416.267	101.31
416.49	92.31
416.713	87.31
416.936	91.31
417.159	95.31
417.382	92.31
417.605	104.31
417.828	84.31
418.051	93.31
418.274	101.31
418.497	97.31
418.72	100.31
418.943	84.31
419.166	84.31
419.389	93.31
419.611	92.31
419.834	93.31
420.057	73.31
420.28	97.31
420.503	81.31
420.726	96.31
420.948	99.31
421.171	113.31
421.394	94.31
421.617	95.31
421.839	94.31
422.062	90.31
422.285	93.31
422.507	100.31
422.73	94.31
422.953	98.31
423.175	91.31
423.398	83.31
423.621	91.31
423.843	89.31
424.066	86.31
424.288	96.31
424.511	89.31
424.733	79.31
424.956	89.31
425.178	89.31
425.401	88.31
425.623	99.31
425.846	87.31
426.068	87.31
426.291	88.31
426.513	104.31
426.735	82.31
426.958	92.31
427.18	98.31
427.402	100.31
427.625	91.31
427.847	111.31
428.069	98.31
428.292	89.31
428.514	97.31
428.736	85.31
428.958	87.31
429.181	82.31
429.403	90.31
429.625	77.31
429.847	91.31
430.069	89.31
430.292	103.31
430.514	84.31
430.736	86.31
430.958	75.31
431.18	76.31
431.402	89.31
431.624	81.31
431.846	100.31
432.068	90.31
432.29	89.31
432.512	73.31
432.734	90.31
432.956	101.31
433.178	93.31
433.4	97.31
433.622	89.31
433.844	101.31
434.066	100.31
434.287	84.31
434.509	84.31
434.731	84.31
434.953	97.31
435.175	96.31
435.397	94.31
435.618	101.31
435.84	95.31
436.062	81.31
436.284	85.31
436.505	96.31
436.727	83.31
436.949	92.31
437.17	111.31
437.392	83.31
437.614	87.31
437.835	89.31
438.057	92.31
438.278	93.31
438.5	95.31
438.721	86.31
438.943	83.31
439.165	85.31
439.386	96.31
439.608	85.31
439.829	96.31
440.05	91.31
440.272	96.31
440.493	97.31
440.715	112.31
440.936	98.31
441.158	92.31
441.379	86.31
441.6	101.31
441.822	99.31
442.043	98.31
442.264	87.31
442.486	96.31
442.707	108.31
442.928	96.31
443.149	103.31
443.371	96.31
443.592	88.31
443.813	98.31
444.034	98.31
444.255	79.31
444.476	84.31
444.698	106.31
444.919	93.31
445.14	212.31
445.361	149.31
445.582	103.31
445.803	102.31
446.024	86.31
446.245	96.31
446.466	89.31
446.687	105.31
446.908	102.31
447.129	96.31
447.35	102.31
447.571	113.31
447.792	103.31
448.013	79.31
448.234	91.31
448.455	91.31
448.675	90.31
448.896	86.31
449.117	96.31
449.338	99.31
449.559	97.31
449.779	96.31
450	86.31
450.221	84.31
450.442	83.31
450.662	97.31
450.883	96.31
451.104	97.31
451.324	96.31
451.545	104.31
451.766	93.31
451.986	89.31
452.207	95.31
452.428	80.31
452.648	86.31
452.869	89.31
453.089	84.31
453.31	104.31
453.53	90.31
453.751	95.31
453.971	87.31
454.192	94.31
454.412	87.31
454.633	87.31
454.853	89.31
455.073	88.31
455.294	78.31
455.514	96.31
455.734	93.31
455.955	88.31
456.175	94.31
456.395	97.31
456.616	96.31
456.836	84.31
457.056	93.31
457.276	87.31
457.497	86.31
457.717	86.31
457.937	89.31
458.157	90.31
458.377	82.31
458.598	86.31
458.818	91.31
459.038	79.31
459.258	67.31
459.478	79.31
459.698	75.31
459.918	89.31
460.138	99.31
460.358	82.31
460.578	92.31
460.798	101.31
461.018	94.31
461.238	92.31
461.458	88.31
461.678	81.31
461.898	81.31
462.118	88.31
462.338	107.31
462.558	105.31
462.777	83.31
462.997	107.31
463.217	88.31
463.437	92.31
463.657	89.31
463.876	86.31
464.096	89.31
464.316	102.31
464.536	88.31
464.755	82.31
464.975	88.31
465.195	81.31
465.414	93.31
465.634	81.31
465.854	84.31
466.073	92.31
466.293	97.31
466.512	86.31
466.732	75.31
466.951	81.31
467.171	94.31
467.391	94.31
467.61	99.31
467.829	106.31
468.049	80.31
468.268	101.31
468.488	88.31
468.707	94.31
468.927	87.31
469.146	91.31
469.365	103.31
469.585	93.31
469.804	86.31
470.023	93.31
470.243	104.31
470.462	82.31
470.681	100.31
470.901	93.31
471.12	93.31
471.339	107.31
471.558	102.31
471.777	96.31
471.997	97.31
472.216	93.31
472.435	84.31
472.654	92.31
472.873	86.31
473.092	94.31
473.311	101.31
473.53	97.31
473.749	90.31
473.968	105.31
474.187	92.31
474.406	91.31
474.625	83.31
474.844	84.31
475.063	75.31
475.282	94.31
475.501	92.31
475.72	84.31
475.939	77.31
476.158	96.31
476.377	91.31
476.596	94.31
476.814	100.31
477.033	83.31
477.252	97.31
477.471	92.31
477.69	96.31
477.908	96.31
478.127	97.31
478.346	85.31
478.564	97.31
478.783	99.31
479.002	98.31
479.22	92.31
479.439	78.31
479.658	85.31
479.876	97.31
480.095	78.31
480.313	107.31
480.532	93.31
480.751	98.31
480.969	79.31
481.188	70.31
481.406	79.31
481.624	83.31
481.843	96.31
482.061	75.31
482.28	78.31
482.498	88.31
482.717	92.31
482.935	98.31
483.153	115.31
483.372	97.31
483.59	97.31
483.808	90.31
484.027	103.31
484.245	88.31
484.463	91.31
484.681	102.31
484.9	76.31
485.118	92.31
485.336	95.31
485.554	84.31
485.772	77.31
485.99	83.31
486.209	86.31
486.427	89.31
486.645	93.31
486.863	89.31
487.081	93.31
487.299	91.31
487.517	106.31
487.735	103.31
487.953	116.31
488.171	121.31
488.389	90.31
488.607	102.31
488.825	101.31
489.043	100.31
489.261	95.31
489.479	95.31
489.696	96.31
489.914	91.31
490.132	111.31
490.35	104.31
490.568	111.31
490.786	104.31
491.003	103.31
491.221	100.31
491.439	111.31
491.657	109.31
491.874	125.31
492.092	128.31
492.31	124.31
492.527	120.31
492.745	118.31
492.963	123.31
493.18	87.31
493.398	91.31
493.615	100.31
493.833	104.31
494.05	120.31
494.268	108.31
494.485	100.31
494.703	102.31
494.92	104.31
495.138	113.31
495.355	94.31
495.573	102.31
495.79	103.31
496.008	119.31
496.225	110.31
496.442	106.31
496.66	111.31
496.877	118.31
497.094	114.31
497.312	106.31
497.529	105.31
497.746	93.31
497.963	97.31
498.181	107.31
498.398	98.31
498.615	100.31
498.832	82.31
499.049	109.31
499.267	88.31
499.484	89.31
499.701	92.31
499.918	104.31
500.135	81.31
500.352	81.31
500.569	89.31
500.786	105.31
501.003	96.31
501.22	86.31
501.437	99.31
501.654	97.31
501.871	102.31
502.088	91.31
502.305	103.31
502.522	89.31
502.739	109.31
502.956	110.31
503.172	91.31
503.389	87.31
503.606	88.31
503.823	95.31
504.04	96.31
504.256	95.31
504.473	85.31
504.69	102.31
504.907	95.31
505.123	92.31
505.34	94.31
505.557	100.31
505.773	94.31
505.99	106.31
506.207	105.31
506.423	83.31
506.64	90.31
506.856	85.31
507.073	80.31
507.289	89.31
507.506	95.31
507.722	84.31
507.939	96.31
508.155	92.31
508.372	92.31
508.588	88.31
508.805	96.31
509.021	88.31
509.238	93.31
509.454	94.31
509.67	85.31
509.887	84.31
510.103	89.31
510.319	77.31
510.536	87.31
510.752	75.31
510.968	77.31
511.184	82.31
511.401	76.31
511.617	76.31
511.833	93.31
512.049	80.31
512.265	86.31
512.481	87.31
512.698	81.31
512.914	91.31
513.13	94.31
513.346	97.31
513.562	99.31
513.778	88.31
513.994	75.31
514.21	87.31
514.426	82.31
514.642	88.31
514.858	93.31
515.074	96.31
515.29	88.31
515.506	85.31
515.721	88.31
515.937	83.31
516.153	90.31
516.369	80.31
516.585	87.31
516.801	82.31
517.016	82.31
517.232	77.31
517.448	85.31
517.664	99.31
