Data from Location5.07152019.Energy5.Lamp.07192019.3%Agarose_HRD10591_16-04-38-629.txt Node
Date: Fri Jul 19 16:04:38 EDT 2019
User: cochatt
Spectrometer: HR+D1059
Trigger mode: 1
Integration Time (sec): 1.000000E-1
Scans to average: 1
Electric dark correction enabled: true
Nonlinearity correction enabled: false
Boxcar width: 0
XAxis mode: Wavelengths
Number of Pixels in Spectrum: 2048
>>>>>Begin Spectral Data<<<<<
223.165	-11.88
223.4	-11.88
223.635	-11.88
223.869	-10.88
224.104	-31.88
224.338	-24.88
224.573	-14.88
224.808	-10.88
225.042	-4.88
225.277	-18.88
225.511	8.12
225.746	1.12
225.98	6.12
226.215	8.12
226.449	22.12
226.683	12.12
226.918	35.12
227.152	36.12
227.387	31.12
227.621	44.12
227.856	47.12
228.09	42.12
228.324	47.12
228.559	59.12
228.793	50.12
229.027	59.12
229.262	59.12
229.496	75.12
229.73	65.12
229.964	62.12
230.199	86.12
230.433	53.12
230.667	73.12
230.901	84.12
231.136	77.12
231.37	90.12
231.604	76.12
231.838	68.12
232.072	81.12
232.306	90.12
232.541	87.12
232.775	76.12
233.009	75.12
233.243	87.12
233.477	89.12
233.711	87.12
233.945	86.12
234.179	86.12
234.413	86.12
234.647	92.12
234.881	90.12
235.115	91.12
235.349	91.12
235.583	88.12
235.817	85.12
236.051	79.12
236.285	95.12
236.519	78.12
236.753	84.12
236.987	91.12
237.221	77.12
237.455	82.12
237.689	80.12
237.922	69.12
238.156	81.12
238.39	76.12
238.624	72.12
238.858	74.12
239.091	75.12
239.325	76.12
239.559	80.12
239.793	88.12
240.027	67.12
240.26	85.12
240.494	92.12
240.728	84.12
240.961	74.12
241.195	76.12
241.429	69.12
241.662	82.12
241.896	68.12
242.13	74.12
242.363	77.12
242.597	82.12
242.83	81.12
243.064	88.12
243.298	93.12
243.531	75.12
243.765	83.12
243.998	77.12
244.232	71.12
244.465	82.12
244.699	87.12
244.932	88.12
245.166	94.12
245.399	75.12
245.633	78.12
245.866	76.12
246.099	77.12
246.333	84.12
246.566	72.12
246.8	62.12
247.033	90.12
247.266	81.12
247.5	75.12
247.733	83.12
247.966	72.12
248.2	87.12
248.433	82.12
248.666	80.12
248.899	93.12
249.133	76.12
249.366	78.12
249.599	79.12
249.832	81.12
250.066	91.12
250.299	96.12
250.532	81.12
250.765	95.12
250.998	93.12
251.231	87.12
251.465	84.12
251.698	81.12
251.931	76.12
252.164	89.12
252.397	89.12
252.63	76.12
252.863	89.12
253.096	89.12
253.329	79.12
253.562	88.12
253.795	85.12
254.028	90.12
254.261	78.12
254.494	77.12
254.727	75.12
254.96	80.12
255.193	90.12
255.426	73.12
255.659	96.12
255.892	86.12
256.124	74.12
256.357	85.12
256.59	80.12
256.823	83.12
257.056	81.12
257.289	83.12
257.521	91.12
257.754	84.12
257.987	77.12
258.22	69.12
258.452	92.12
258.685	84.12
258.918	84.12
259.151	80.12
259.383	91.12
259.616	84.12
259.849	87.12
260.081	77.12
260.314	89.12
260.547	86.12
260.779	88.12
261.012	92.12
261.244	96.12
261.477	83.12
261.71	76.12
261.942	81.12
262.175	91.12
262.407	85.12
262.64	91.12
262.872	93.12
263.105	78.12
263.337	99.12
263.57	88.12
263.802	95.12
264.035	73.12
264.267	90.12
264.499	95.12
264.732	87.12
264.964	84.12
265.197	87.12
265.429	71.12
265.661	90.12
265.894	80.12
266.126	71.12
266.358	93.12
266.591	85.12
266.823	107.12
267.055	87.12
267.287	70.12
267.52	89.12
267.752	77.12
267.984	84.12
268.216	90.12
268.448	89.12
268.681	85.12
268.913	86.12
269.145	99.12
269.377	78.12
269.609	89.12
269.841	87.12
270.073	87.12
270.306	81.12
270.538	80.12
270.77	80.12
271.002	83.12
271.234	92.12
271.466	88.12
271.698	87.12
271.93	100.12
272.162	95.12
272.394	99.12
272.626	77.12
272.858	97.12
273.09	80.12
273.322	82.12
273.553	100.12
273.785	89.12
274.017	79.12
274.249	69.12
274.481	87.12
274.713	98.12
274.945	74.12
275.176	91.12
275.408	102.12
275.64	87.12
275.872	94.12
276.104	98.12
276.335	106.12
276.567	89.12
276.799	95.12
277.031	91.12
277.262	81.12
277.494	90.12
277.726	98.12
277.957	85.12
278.189	102.12
278.421	96.12
278.652	89.12
278.884	89.12
279.115	88.12
279.347	98.12
279.579	92.12
279.81	79.12
280.042	98.12
280.273	91.12
280.505	87.12
280.736	87.12
280.968	102.12
281.199	93.12
281.431	93.12
281.662	78.12
281.894	83.12
282.125	91.12
282.356	87.12
282.588	83.12
282.819	83.12
283.051	95.12
283.282	99.12
283.513	94.12
283.745	107.12
283.976	78.12
284.207	86.12
284.439	88.12
284.67	88.12
284.901	77.12
285.132	89.12
285.364	79.12
285.595	89.12
285.826	91.12
286.057	91.12
286.288	87.12
286.52	80.12
286.751	86.12
286.982	70.12
287.213	92.12
287.444	93.12
287.675	94.12
287.906	95.12
288.138	76.12
288.369	87.12
288.6	90.12
288.831	80.12
289.062	93.12
289.293	90.12
289.524	93.12
289.755	85.12
289.986	93.12
290.217	94.12
290.448	95.12
290.679	88.12
290.91	74.12
291.141	97.12
291.371	95.12
291.602	84.12
291.833	92.12
292.064	87.12
292.295	90.12
292.526	104.12
292.757	89.12
292.987	91.12
293.218	95.12
293.449	91.12
293.68	94.12
293.91	88.12
294.141	96.12
294.372	92.12
294.603	87.12
294.833	89.12
295.064	76.12
295.295	91.12
295.525	87.12
295.756	101.12
295.987	86.12
296.217	107.12
296.448	91.12
296.679	97.12
296.909	98.12
297.14	103.12
297.37	108.12
297.601	92.12
297.831	97.12
298.062	98.12
298.292	96.12
298.523	85.12
298.753	100.12
298.984	95.12
299.214	98.12
299.445	91.12
299.675	104.12
299.905	83.12
300.136	93.12
300.366	84.12
300.597	101.12
300.827	99.12
301.057	80.12
301.288	82.12
301.518	98.12
301.748	92.12
301.979	82.12
302.209	95.12
302.439	90.12
302.669	104.12
302.9	101.12
303.13	99.12
303.36	106.12
303.59	81.12
303.82	98.12
304.051	96.12
304.281	90.12
304.511	94.12
304.741	74.12
304.971	87.12
305.201	106.12
305.431	96.12
305.661	92.12
305.891	94.12
306.121	89.12
306.352	91.12
306.582	72.12
306.812	95.12
307.042	93.12
307.272	100.12
307.502	88.12
307.731	88.12
307.961	104.12
308.191	88.12
308.421	93.12
308.651	92.12
308.881	86.12
309.111	95.12
309.341	99.12
309.571	91.12
309.8	103.12
310.03	95.12
310.26	98.12
310.49	86.12
310.72	103.12
310.949	90.12
311.179	89.12
311.409	92.12
311.639	86.12
311.868	79.12
312.098	96.12
312.328	90.12
312.557	101.12
312.787	86.12
313.017	102.12
313.246	91.12
313.476	95.12
313.706	87.12
313.935	83.12
314.165	92.12
314.394	90.12
314.624	78.12
314.853	109.12
315.083	87.12
315.312	78.12
315.542	87.12
315.771	83.12
316.001	96.12
316.23	82.12
316.46	101.12
316.689	97.12
316.919	89.12
317.148	96.12
317.377	98.12
317.607	104.12
317.836	97.12
318.065	90.12
318.295	106.12
318.524	94.12
318.753	80.12
318.983	90.12
319.212	95.12
319.441	89.12
319.67	95.12
319.9	98.12
320.129	97.12
320.358	87.12
320.587	99.12
320.816	105.12
321.046	76.12
321.275	97.12
321.504	104.12
321.733	98.12
321.962	90.12
322.191	101.12
322.42	97.12
322.649	92.12
322.878	96.12
323.108	77.12
323.337	99.12
323.566	89.12
323.795	104.12
324.024	99.12
324.253	90.12
324.482	92.12
324.71	103.12
324.939	83.12
325.168	96.12
325.397	96.12
325.626	84.12
325.855	79.12
326.084	89.12
326.313	87.12
326.542	96.12
326.77	92.12
326.999	99.12
327.228	97.12
327.457	99.12
327.686	91.12
327.914	100.12
328.143	82.12
328.372	91.12
328.6	83.12
328.829	83.12
329.058	104.12
329.287	90.12
329.515	102.12
329.744	94.12
329.972	97.12
330.201	92.12
330.43	93.12
330.658	96.12
330.887	101.12
331.115	99.12
331.344	100.12
331.572	111.12
331.801	106.12
332.03	100.12
332.258	81.12
332.486	91.12
332.715	99.12
332.943	84.12
333.172	98.12
333.4	82.12
333.629	93.12
333.857	98.12
334.085	92.12
334.314	104.12
334.542	99.12
334.771	95.12
334.999	97.12
335.227	96.12
335.455	102.12
335.684	102.12
335.912	98.12
336.14	103.12
336.369	104.12
336.597	108.12
336.825	113.12
337.053	95.12
337.281	95.12
337.51	83.12
337.738	96.12
337.966	80.12
338.194	99.12
338.422	99.12
338.65	107.12
338.878	90.12
339.106	94.12
339.334	90.12
339.562	104.12
339.79	94.12
340.018	91.12
340.246	104.12
340.474	101.12
340.702	99.12
340.93	97.12
341.158	94.12
341.386	84.12
341.614	85.12
341.842	80.12
342.07	93.12
342.298	106.12
342.526	96.12
342.754	91.12
342.981	106.12
343.209	100.12
343.437	98.12
343.665	111.12
343.893	96.12
344.12	99.12
344.348	99.12
344.576	104.12
344.804	88.12
345.031	98.12
345.259	95.12
345.487	102.12
345.714	94.12
345.942	84.12
346.17	103.12
346.397	90.12
346.625	91.12
346.853	98.12
347.08	97.12
347.308	83.12
347.535	108.12
347.763	87.12
347.99	107.12
348.218	95.12
348.445	90.12
348.673	87.12
348.9	90.12
349.128	102.12
349.355	87.12
349.583	94.12
349.81	90.12
350.037	103.12
350.265	90.12
350.492	91.12
350.72	97.12
350.947	99.12
351.174	95.12
351.402	90.12
351.629	83.12
351.856	96.12
352.083	101.12
352.311	97.12
352.538	95.12
352.765	89.12
352.992	103.12
353.22	108.12
353.447	95.12
353.674	98.12
353.901	108.12
354.128	94.12
354.355	96.12
354.583	99.12
354.81	76.12
355.037	95.12
355.264	104.12
355.491	88.12
355.718	80.12
355.945	84.12
356.172	81.12
356.399	97.12
356.626	74.12
356.853	89.12
357.08	91.12
357.307	93.12
357.534	73.12
357.761	89.12
357.988	82.12
358.215	85.12
358.441	75.12
358.668	99.12
358.895	97.12
359.122	90.12
359.349	100.12
359.576	107.12
359.802	84.12
360.029	96.12
360.256	90.12
360.483	94.12
360.709	94.12
360.936	101.12
361.163	89.12
361.39	96.12
361.616	95.12
361.843	100.12
362.07	96.12
362.296	78.12
362.523	88.12
362.749	85.12
362.976	91.12
363.203	104.12
363.429	102.12
363.656	90.12
363.882	87.12
364.109	89.12
364.335	102.12
364.562	92.12
364.788	93.12
365.015	99.12
365.241	96.12
365.468	84.12
365.694	105.12
365.92	111.12
366.147	88.12
366.373	93.12
366.599	97.12
366.826	94.12
367.052	88.12
367.278	81.12
367.505	86.12
367.731	92.12
367.957	99.12
368.184	106.12
368.41	95.12
368.636	86.12
368.862	97.12
369.089	98.12
369.315	87.12
369.541	97.12
369.767	104.12
369.993	96.12
370.219	82.12
370.445	98.12
370.672	85.12
370.898	104.12
371.124	91.12
371.35	102.12
371.576	112.12
371.802	92.12
372.028	78.12
372.254	84.12
372.48	90.12
372.706	83.12
372.932	99.12
373.158	96.12
373.384	88.12
373.61	97.12
373.835	69.12
374.061	94.12
374.287	94.12
374.513	79.12
374.739	88.12
374.965	100.12
375.191	105.12
375.416	104.12
375.642	96.12
375.868	104.12
376.094	99.12
376.319	105.12
376.545	95.12
376.771	96.12
376.997	90.12
377.222	82.12
377.448	97.12
377.674	98.12
377.899	100.12
378.125	107.12
378.35	80.12
378.576	91.12
378.802	89.12
379.027	100.12
379.253	108.12
379.478	93.12
379.704	77.12
379.929	89.12
380.155	93.12
380.38	95.12
380.606	85.12
380.831	102.12
381.057	100.12
381.282	86.12
381.507	93.12
381.733	106.12
381.958	82.12
382.184	113.12
382.409	101.12
382.634	94.12
382.86	89.12
383.085	109.12
383.31	98.12
383.535	92.12
383.761	98.12
383.986	92.12
384.211	97.12
384.436	91.12
384.662	92.12
384.887	96.12
385.112	105.12
385.337	104.12
385.562	87.12
385.787	90.12
386.013	102.12
386.238	77.12
386.463	82.12
386.688	102.12
386.913	90.12
387.138	90.12
387.363	106.12
387.588	106.12
387.813	107.12
388.038	97.12
388.263	91.12
388.488	85.12
388.713	91.12
388.938	106.12
389.163	97.12
389.387	97.12
389.612	103.12
389.837	94.12
390.062	92.12
390.287	76.12
390.512	103.12
390.736	107.12
390.961	101.12
391.186	106.12
391.411	96.12
391.636	97.12
391.86	98.12
392.085	79.12
392.31	99.12
392.534	109.12
392.759	104.12
392.984	99.12
393.208	83.12
393.433	101.12
393.658	96.12
393.882	91.12
394.107	96.12
394.331	107.12
394.556	100.12
394.78	107.12
395.005	99.12
395.229	73.12
395.454	87.12
395.678	102.12
395.903	87.12
396.127	104.12
396.352	103.12
396.576	81.12
396.801	100.12
397.025	104.12
397.249	88.12
397.474	113.12
397.698	99.12
397.922	103.12
398.147	97.12
398.371	94.12
398.595	99.12
398.82	99.12
399.044	99.12
399.268	101.12
399.492	106.12
399.717	120.12
399.941	115.12
400.165	98.12
400.389	117.12
400.613	105.12
400.837	104.12
401.062	100.12
401.286	89.12
401.51	77.12
401.734	91.12
401.958	114.12
402.182	98.12
402.406	86.12
402.63	101.12
402.854	97.12
403.078	101.12
403.302	93.12
403.526	113.12
403.75	103.12
403.974	95.12
404.198	93.12
404.422	104.12
404.645	91.12
404.869	102.12
405.093	103.12
405.317	111.12
405.541	86.12
405.765	88.12
405.988	95.12
406.212	89.12
406.436	106.12
406.66	97.12
406.883	103.12
407.107	95.12
407.331	98.12
407.555	100.12
407.778	98.12
408.002	112.12
408.226	82.12
408.449	107.12
408.673	102.12
408.896	88.12
409.12	99.12
409.344	107.12
409.567	90.12
409.791	112.12
410.014	119.12
410.238	113.12
410.461	83.12
410.685	102.12
410.908	112.12
411.132	95.12
411.355	101.12
411.578	111.12
411.802	107.12
412.025	108.12
412.249	96.12
412.472	94.12
412.695	104.12
412.919	85.12
413.142	105.12
413.365	106.12
413.589	99.12
413.812	99.12
414.035	105.12
414.258	81.12
414.482	100.12
414.705	102.12
414.928	107.12
415.151	96.12
415.374	98.12
415.597	87.12
415.821	91.12
416.044	113.12
416.267	94.12
416.49	98.12
416.713	102.12
416.936	103.12
417.159	87.12
417.382	83.12
417.605	95.12
417.828	88.12
418.051	83.12
418.274	94.12
418.497	99.12
418.72	116.12
418.943	93.12
419.166	97.12
419.389	88.12
419.611	88.12
419.834	102.12
420.057	106.12
420.28	92.12
420.503	97.12
420.726	95.12
420.948	105.12
421.171	101.12
421.394	95.12
421.617	102.12
421.839	105.12
422.062	101.12
422.285	98.12
422.507	108.12
422.73	100.12
422.953	101.12
423.175	108.12
423.398	96.12
423.621	93.12
423.843	91.12
424.066	111.12
424.288	104.12
424.511	104.12
424.733	99.12
424.956	99.12
425.178	106.12
425.401	91.12
425.623	108.12
425.846	98.12
426.068	99.12
426.291	96.12
426.513	93.12
426.735	87.12
426.958	112.12
427.18	98.12
427.402	96.12
427.625	92.12
427.847	118.12
428.069	94.12
428.292	78.12
428.514	81.12
428.736	91.12
428.958	94.12
429.181	97.12
429.403	88.12
429.625	97.12
429.847	81.12
430.069	86.12
430.292	87.12
430.514	95.12
430.736	101.12
430.958	112.12
431.18	86.12
431.402	112.12
431.624	93.12
431.846	99.12
432.068	81.12
432.29	88.12
432.512	86.12
432.734	100.12
432.956	97.12
433.178	93.12
433.4	104.12
433.622	94.12
433.844	87.12
434.066	85.12
434.287	97.12
434.509	97.12
434.731	105.12
434.953	91.12
435.175	98.12
435.397	89.12
435.618	92.12
435.84	88.12
436.062	85.12
436.284	92.12
436.505	94.12
436.727	109.12
436.949	101.12
437.17	95.12
437.392	76.12
437.614	101.12
437.835	96.12
438.057	98.12
438.278	89.12
438.5	104.12
438.721	95.12
438.943	107.12
439.165	96.12
439.386	97.12
439.608	109.12
439.829	107.12
440.05	103.12
440.272	101.12
440.493	105.12
440.715	96.12
440.936	91.12
441.158	87.12
441.379	87.12
441.6	104.12
441.822	94.12
442.043	91.12
442.264	99.12
442.486	83.12
442.707	98.12
442.928	94.12
443.149	85.12
443.371	92.12
443.592	87.12
443.813	75.12
444.034	84.12
444.255	83.12
444.476	87.12
444.698	102.12
444.919	86.12
445.14	221.12
445.361	156.12
445.582	99.12
445.803	89.12
446.024	98.12
446.245	99.12
446.466	97.12
446.687	85.12
446.908	115.12
447.129	110.12
447.35	94.12
447.571	109.12
447.792	101.12
448.013	80.12
448.234	93.12
448.455	99.12
448.675	90.12
448.896	98.12
449.117	87.12
449.338	84.12
449.559	79.12
449.779	81.12
450	83.12
450.221	105.12
450.442	89.12
450.662	95.12
450.883	92.12
451.104	94.12
451.324	112.12
451.545	87.12
451.766	97.12
451.986	88.12
452.207	76.12
452.428	85.12
452.648	98.12
452.869	94.12
453.089	88.12
453.31	99.12
453.53	105.12
453.751	98.12
453.971	97.12
454.192	95.12
454.412	107.12
454.633	92.12
454.853	95.12
455.073	93.12
455.294	82.12
455.514	112.12
455.734	96.12
455.955	89.12
456.175	102.12
456.395	114.12
456.616	84.12
456.836	98.12
457.056	93.12
457.276	83.12
457.497	80.12
457.717	96.12
457.937	88.12
458.157	93.12
458.377	98.12
458.598	91.12
458.818	93.12
459.038	86.12
459.258	104.12
459.478	93.12
459.698	99.12
459.918	96.12
460.138	103.12
460.358	107.12
460.578	97.12
460.798	97.12
461.018	107.12
461.238	102.12
461.458	89.12
461.678	103.12
461.898	87.12
462.118	115.12
462.338	91.12
462.558	117.12
462.777	92.12
462.997	105.12
463.217	116.12
463.437	104.12
463.657	107.12
463.876	100.12
464.096	101.12
464.316	109.12
464.536	105.12
464.755	113.12
464.975	89.12
465.195	100.12
465.414	98.12
465.634	90.12
465.854	102.12
466.073	103.12
466.293	102.12
466.512	88.12
466.732	99.12
466.951	86.12
467.171	96.12
467.391	96.12
467.61	99.12
467.829	94.12
468.049	99.12
468.268	96.12
468.488	93.12
468.707	92.12
468.927	100.12
469.146	84.12
469.365	104.12
469.585	104.12
469.804	96.12
470.023	106.12
470.243	99.12
470.462	101.12
470.681	116.12
470.901	96.12
471.12	88.12
471.339	92.12
471.558	105.12
471.777	107.12
471.997	98.12
472.216	93.12
472.435	102.12
472.654	86.12
472.873	93.12
473.092	99.12
473.311	92.12
473.53	89.12
473.749	111.12
473.968	94.12
474.187	91.12
474.406	91.12
474.625	103.12
474.844	112.12
475.063	97.12
475.282	116.12
475.501	100.12
475.72	103.12
475.939	117.12
476.158	97.12
476.377	99.12
476.596	100.12
476.814	108.12
477.033	103.12
477.252	101.12
477.471	107.12
477.69	93.12
477.908	88.12
478.127	106.12
478.346	98.12
478.564	108.12
478.783	110.12
479.002	102.12
479.22	93.12
479.439	104.12
479.658	123.12
479.876	110.12
480.095	106.12
480.313	116.12
480.532	108.12
480.751	106.12
480.969	102.12
481.188	97.12
481.406	99.12
481.624	104.12
481.843	109.12
482.061	100.12
482.28	104.12
482.498	116.12
482.717	116.12
482.935	89.12
483.153	97.12
483.372	112.12
483.59	101.12
483.808	97.12
484.027	97.12
484.245	102.12
484.463	97.12
484.681	98.12
484.9	99.12
485.118	115.12
485.336	112.12
485.554	104.12
485.772	93.12
485.99	128.12
486.209	114.12
486.427	116.12
486.645	92.12
486.863	103.12
487.081	95.12
487.299	108.12
487.517	109.12
487.735	112.12
487.953	102.12
488.171	121.12
488.389	106.12
488.607	104.12
488.825	98.12
489.043	97.12
489.261	101.12
489.479	96.12
489.696	109.12
489.914	106.12
490.132	118.12
490.35	105.12
490.568	111.12
490.786	116.12
491.003	107.12
491.221	116.12
491.439	122.12
491.657	116.12
491.874	117.12
492.092	114.12
492.31	107.12
492.527	108.12
492.745	121.12
492.963	115.12
493.18	105.12
493.398	117.12
493.615	111.12
493.833	120.12
494.05	105.12
494.268	110.12
494.485	111.12
494.703	101.12
494.92	113.12
495.138	105.12
495.355	116.12
495.573	122.12
495.79	103.12
496.008	105.12
496.225	113.12
496.442	103.12
496.66	117.12
496.877	113.12
497.094	129.12
497.312	120.12
497.529	111.12
497.746	114.12
497.963	108.12
498.181	108.12
498.398	103.12
498.615	124.12
498.832	113.12
499.049	106.12
499.267	113.12
499.484	135.12
499.701	134.12
499.918	140.12
500.135	137.12
500.352	150.12
500.569	159.12
500.786	155.12
501.003	148.12
501.22	144.12
501.437	133.12
501.654	122.12
501.871	127.12
502.088	123.12
502.305	121.12
502.522	111.12
502.739	125.12
502.956	115.12
503.172	105.12
503.389	108.12
503.606	102.12
503.823	116.12
504.04	115.12
504.256	98.12
504.473	118.12
504.69	119.12
504.907	113.12
505.123	120.12
505.34	111.12
505.557	107.12
505.773	109.12
505.99	115.12
506.207	110.12
506.423	108.12
506.64	104.12
506.856	97.12
507.073	93.12
507.289	105.12
507.506	104.12
507.722	99.12
507.939	112.12
508.155	103.12
508.372	108.12
508.588	90.12
508.805	114.12
509.021	104.12
509.238	107.12
509.454	110.12
509.67	91.12
509.887	115.12
510.103	107.12
510.319	100.12
510.536	96.12
510.752	91.12
510.968	99.12
511.184	89.12
511.401	98.12
511.617	105.12
511.833	97.12
512.049	111.12
512.265	104.12
512.481	110.12
512.698	107.12
512.914	93.12
513.13	114.12
513.346	115.12
513.562	94.12
513.778	104.12
