Data from Location5.07152019.Energy5.Lamp.07192019.3%Agarose_HRD10591_15-37-17-386.txt Node
Date: Fri Jul 19 15:37:17 EDT 2019
User: cochatt
Spectrometer: HR+D1059
Trigger mode: 1
Integration Time (sec): 1.000000E-1
Scans to average: 1
Electric dark correction enabled: true
Nonlinearity correction enabled: false
Boxcar width: 0
XAxis mode: Wavelengths
Number of Pixels in Spectrum: 2048
>>>>>Begin Spectral Data<<<<<
223.165	2.06
223.4	2.06
223.635	2.06
223.869	-25.94
224.104	-17.94
224.338	-13.94
224.573	-9.94
224.808	-17.94
225.042	-8.94
225.277	5.06
225.511	-4.94
225.746	2.06
225.98	5.06
226.215	5.06
226.449	15.06
226.683	17.06
226.918	26.06
227.152	22.06
227.387	23.06
227.621	39.06
227.856	33.06
228.09	36.06
228.324	57.06
228.559	56.06
228.793	52.06
229.027	56.06
229.262	59.06
229.496	55.06
229.73	68.06
229.964	73.06
230.199	68.06
230.433	72.06
230.667	74.06
230.901	78.06
231.136	88.06
231.37	81.06
231.604	58.06
231.838	74.06
232.072	73.06
232.306	85.06
232.541	81.06
232.775	82.06
233.009	79.06
233.243	101.06
233.477	91.06
233.711	86.06
233.945	83.06
234.179	73.06
234.413	75.06
234.647	73.06
234.881	70.06
235.115	75.06
235.349	76.06
235.583	89.06
235.817	86.06
236.051	73.06
236.285	88.06
236.519	71.06
236.753	67.06
236.987	68.06
237.221	70.06
237.455	58.06
237.689	74.06
237.922	96.06
238.156	93.06
238.39	74.06
238.624	65.06
238.858	70.06
239.091	74.06
239.325	80.06
239.559	68.06
239.793	83.06
240.027	75.06
240.26	80.06
240.494	75.06
240.728	76.06
240.961	71.06
241.195	93.06
241.429	74.06
241.662	84.06
241.896	76.06
242.13	69.06
242.363	87.06
242.597	70.06
242.83	71.06
243.064	66.06
243.298	80.06
243.531	78.06
243.765	79.06
243.998	56.06
244.232	78.06
244.465	71.06
244.699	58.06
244.932	69.06
245.166	86.06
245.399	79.06
245.633	75.06
245.866	74.06
246.099	61.06
246.333	74.06
246.566	83.06
246.8	63.06
247.033	71.06
247.266	89.06
247.5	78.06
247.733	73.06
247.966	83.06
248.2	70.06
248.433	78.06
248.666	71.06
248.899	67.06
249.133	82.06
249.366	68.06
249.599	69.06
249.832	78.06
250.066	75.06
250.299	62.06
250.532	84.06
250.765	73.06
250.998	74.06
251.231	69.06
251.465	85.06
251.698	82.06
251.931	83.06
252.164	79.06
252.397	78.06
252.63	79.06
252.863	79.06
253.096	79.06
253.329	73.06
253.562	78.06
253.795	64.06
254.028	76.06
254.261	72.06
254.494	76.06
254.727	74.06
254.96	67.06
255.193	85.06
255.426	68.06
255.659	67.06
255.892	70.06
256.124	71.06
256.357	80.06
256.59	81.06
256.823	94.06
257.056	81.06
257.289	86.06
257.521	81.06
257.754	77.06
257.987	70.06
258.22	85.06
258.452	92.06
258.685	71.06
258.918	83.06
259.151	90.06
259.383	75.06
259.616	73.06
259.849	83.06
260.081	85.06
260.314	81.06
260.547	70.06
260.779	74.06
261.012	83.06
261.244	96.06
261.477	98.06
261.71	83.06
261.942	75.06
262.175	87.06
262.407	81.06
262.64	86.06
262.872	86.06
263.105	79.06
263.337	82.06
263.57	74.06
263.802	84.06
264.035	84.06
264.267	87.06
264.499	71.06
264.732	80.06
264.964	96.06
265.197	75.06
265.429	82.06
265.661	78.06
265.894	88.06
266.126	76.06
266.358	74.06
266.591	90.06
266.823	83.06
267.055	84.06
267.287	73.06
267.52	66.06
267.752	89.06
267.984	80.06
268.216	86.06
268.448	70.06
268.681	87.06
268.913	79.06
269.145	73.06
269.377	75.06
269.609	71.06
269.841	75.06
270.073	85.06
270.306	72.06
270.538	84.06
270.77	75.06
271.002	75.06
271.234	75.06
271.466	78.06
271.698	67.06
271.93	71.06
272.162	83.06
272.394	68.06
272.626	78.06
272.858	82.06
273.09	70.06
273.322	84.06
273.553	67.06
273.785	82.06
274.017	73.06
274.249	69.06
274.481	80.06
274.713	82.06
274.945	80.06
275.176	79.06
275.408	74.06
275.64	75.06
275.872	95.06
276.104	79.06
276.335	90.06
276.567	94.06
276.799	80.06
277.031	72.06
277.262	93.06
277.494	86.06
277.726	87.06
277.957	88.06
278.189	72.06
278.421	73.06
278.652	75.06
278.884	95.06
279.115	91.06
279.347	92.06
279.579	91.06
279.81	86.06
280.042	80.06
280.273	75.06
280.505	87.06
280.736	82.06
280.968	91.06
281.199	79.06
281.431	95.06
281.662	73.06
281.894	68.06
282.125	79.06
282.356	79.06
282.588	90.06
282.819	66.06
283.051	74.06
283.282	82.06
283.513	86.06
283.745	83.06
283.976	76.06
284.207	68.06
284.439	93.06
284.67	94.06
284.901	89.06
285.132	92.06
285.364	92.06
285.595	78.06
285.826	82.06
286.057	82.06
286.288	76.06
286.52	85.06
286.751	79.06
286.982	103.06
287.213	74.06
287.444	86.06
287.675	90.06
287.906	82.06
288.138	98.06
288.369	83.06
288.6	90.06
288.831	87.06
289.062	83.06
289.293	89.06
289.524	80.06
289.755	97.06
289.986	88.06
290.217	95.06
290.448	91.06
290.679	82.06
290.91	91.06
291.141	92.06
291.371	92.06
291.602	79.06
291.833	84.06
292.064	82.06
292.295	77.06
292.526	86.06
292.757	83.06
292.987	88.06
293.218	90.06
293.449	80.06
293.68	81.06
293.91	94.06
294.141	80.06
294.372	86.06
294.603	70.06
294.833	72.06
295.064	79.06
295.295	96.06
295.525	81.06
295.756	83.06
295.987	86.06
296.217	72.06
296.448	79.06
296.679	82.06
296.909	89.06
297.14	83.06
297.37	71.06
297.601	86.06
297.831	95.06
298.062	88.06
298.292	81.06
298.523	92.06
298.753	61.06
298.984	79.06
299.214	88.06
299.445	85.06
299.675	79.06
299.905	75.06
300.136	74.06
300.366	88.06
300.597	83.06
300.827	84.06
301.057	81.06
301.288	89.06
301.518	73.06
301.748	78.06
301.979	88.06
302.209	81.06
302.439	87.06
302.669	70.06
302.9	96.06
303.13	88.06
303.36	86.06
303.59	83.06
303.82	91.06
304.051	77.06
304.281	75.06
304.511	88.06
304.741	88.06
304.971	77.06
305.201	83.06
305.431	77.06
305.661	91.06
305.891	85.06
306.121	91.06
306.352	95.06
306.582	88.06
306.812	89.06
307.042	87.06
307.272	78.06
307.502	81.06
307.731	92.06
307.961	87.06
308.191	88.06
308.421	74.06
308.651	97.06
308.881	75.06
309.111	85.06
309.341	93.06
309.571	85.06
309.8	77.06
310.03	84.06
310.26	86.06
310.49	76.06
310.72	83.06
310.949	90.06
311.179	90.06
311.409	82.06
311.639	77.06
311.868	93.06
312.098	76.06
312.328	95.06
312.557	100.06
312.787	84.06
313.017	86.06
313.246	85.06
313.476	78.06
313.706	74.06
313.935	88.06
314.165	84.06
314.394	80.06
314.624	79.06
314.853	85.06
315.083	91.06
315.312	82.06
315.542	80.06
315.771	82.06
316.001	72.06
316.23	88.06
316.46	85.06
316.689	81.06
316.919	88.06
317.148	84.06
317.377	86.06
317.607	80.06
317.836	79.06
318.065	102.06
318.295	86.06
318.524	82.06
318.753	86.06
318.983	72.06
319.212	98.06
319.441	83.06
319.67	90.06
319.9	87.06
320.129	74.06
320.358	80.06
320.587	85.06
320.816	87.06
321.046	88.06
321.275	89.06
321.504	83.06
321.733	63.06
321.962	97.06
322.191	79.06
322.42	80.06
322.649	89.06
322.878	93.06
323.108	97.06
323.337	87.06
323.566	94.06
323.795	92.06
324.024	90.06
324.253	72.06
324.482	76.06
324.71	78.06
324.939	82.06
325.168	71.06
325.397	91.06
325.626	99.06
325.855	79.06
326.084	82.06
326.313	81.06
326.542	82.06
326.77	86.06
326.999	82.06
327.228	81.06
327.457	103.06
327.686	78.06
327.914	92.06
328.143	79.06
328.372	81.06
328.6	81.06
328.829	76.06
329.058	76.06
329.287	82.06
329.515	84.06
329.744	94.06
329.972	94.06
330.201	79.06
330.43	67.06
330.658	94.06
330.887	86.06
331.115	88.06
331.344	89.06
331.572	77.06
331.801	82.06
332.03	76.06
332.258	83.06
332.486	75.06
332.715	69.06
332.943	83.06
333.172	95.06
333.4	94.06
333.629	72.06
333.857	87.06
334.085	91.06
334.314	91.06
334.542	82.06
334.771	81.06
334.999	87.06
335.227	83.06
335.455	81.06
335.684	87.06
335.912	87.06
336.14	86.06
336.369	89.06
336.597	76.06
336.825	81.06
337.053	88.06
337.281	82.06
337.51	73.06
337.738	90.06
337.966	88.06
338.194	85.06
338.422	87.06
338.65	89.06
338.878	81.06
339.106	82.06
339.334	86.06
339.562	82.06
339.79	85.06
340.018	73.06
340.246	76.06
340.474	92.06
340.702	90.06
340.93	93.06
341.158	70.06
341.386	77.06
341.614	88.06
341.842	101.06
342.07	80.06
342.298	89.06
342.526	83.06
342.754	87.06
342.981	76.06
343.209	75.06
343.437	68.06
343.665	68.06
343.893	89.06
344.12	92.06
344.348	83.06
344.576	77.06
344.804	92.06
345.031	76.06
345.259	76.06
345.487	77.06
345.714	80.06
345.942	85.06
346.17	84.06
346.397	91.06
346.625	81.06
346.853	89.06
347.08	91.06
347.308	86.06
347.535	78.06
347.763	72.06
347.99	79.06
348.218	75.06
348.445	95.06
348.673	93.06
348.9	89.06
349.128	94.06
349.355	80.06
349.583	83.06
349.81	89.06
350.037	92.06
350.265	94.06
350.492	84.06
350.72	82.06
350.947	88.06
351.174	92.06
351.402	87.06
351.629	73.06
351.856	82.06
352.083	82.06
352.311	80.06
352.538	76.06
352.765	71.06
352.992	83.06
353.22	82.06
353.447	88.06
353.674	83.06
353.901	79.06
354.128	83.06
354.355	84.06
354.583	76.06
354.81	95.06
355.037	79.06
355.264	77.06
355.491	92.06
355.718	89.06
355.945	91.06
356.172	85.06
356.399	86.06
356.626	80.06
356.853	81.06
357.08	90.06
357.307	81.06
357.534	71.06
357.761	79.06
357.988	85.06
358.215	83.06
358.441	86.06
358.668	76.06
358.895	87.06
359.122	75.06
359.349	92.06
359.576	95.06
359.802	76.06
360.029	100.06
360.256	87.06
360.483	88.06
360.709	77.06
360.936	85.06
361.163	85.06
361.39	97.06
361.616	90.06
361.843	84.06
362.07	80.06
362.296	80.06
362.523	82.06
362.749	89.06
362.976	72.06
363.203	93.06
363.429	87.06
363.656	88.06
363.882	91.06
364.109	80.06
364.335	80.06
364.562	83.06
364.788	78.06
365.015	103.06
365.241	82.06
365.468	90.06
365.694	91.06
365.92	87.06
366.147	93.06
366.373	76.06
366.599	84.06
366.826	103.06
367.052	76.06
367.278	69.06
367.505	81.06
367.731	90.06
367.957	90.06
368.184	85.06
368.41	89.06
368.636	83.06
368.862	78.06
369.089	82.06
369.315	90.06
369.541	88.06
369.767	90.06
369.993	99.06
370.219	92.06
370.445	82.06
370.672	83.06
370.898	79.06
371.124	84.06
371.35	84.06
371.576	91.06
371.802	89.06
372.028	91.06
372.254	82.06
372.48	69.06
372.706	86.06
372.932	76.06
373.158	82.06
373.384	81.06
373.61	94.06
373.835	81.06
374.061	86.06
374.287	88.06
374.513	95.06
374.739	98.06
374.965	81.06
375.191	95.06
375.416	85.06
375.642	84.06
375.868	76.06
376.094	92.06
376.319	73.06
376.545	82.06
376.771	104.06
376.997	73.06
377.222	80.06
377.448	77.06
377.674	76.06
377.899	100.06
378.125	72.06
378.35	80.06
378.576	89.06
378.802	72.06
379.027	87.06
379.253	97.06
379.478	90.06
379.704	89.06
379.929	81.06
380.155	95.06
380.38	83.06
380.606	79.06
380.831	76.06
381.057	73.06
381.282	98.06
381.507	89.06
381.733	78.06
381.958	94.06
382.184	90.06
382.409	89.06
382.634	80.06
382.86	97.06
383.085	91.06
383.31	82.06
383.535	115.06
383.761	93.06
383.986	76.06
384.211	85.06
384.436	84.06
384.662	84.06
384.887	89.06
385.112	69.06
385.337	79.06
385.562	95.06
385.787	83.06
386.013	86.06
386.238	80.06
386.463	69.06
386.688	90.06
386.913	106.06
387.138	90.06
387.363	82.06
387.588	90.06
387.813	95.06
388.038	82.06
388.263	89.06
388.488	79.06
388.713	84.06
388.938	79.06
389.163	62.06
389.387	95.06
389.612	82.06
389.837	91.06
390.062	83.06
390.287	77.06
390.512	77.06
390.736	84.06
390.961	73.06
391.186	91.06
391.411	86.06
391.636	86.06
391.86	80.06
392.085	85.06
392.31	77.06
392.534	83.06
392.759	79.06
392.984	84.06
393.208	78.06
393.433	72.06
393.658	88.06
393.882	82.06
394.107	87.06
394.331	85.06
394.556	82.06
394.78	82.06
395.005	83.06
395.229	92.06
395.454	87.06
395.678	81.06
395.903	87.06
396.127	85.06
396.352	91.06
396.576	94.06
396.801	76.06
397.025	101.06
397.249	85.06
397.474	90.06
397.698	96.06
397.922	106.06
398.147	89.06
398.371	92.06
398.595	84.06
398.82	99.06
399.044	91.06
399.268	92.06
399.492	98.06
399.717	81.06
399.941	88.06
400.165	87.06
400.389	90.06
400.613	88.06
400.837	80.06
401.062	93.06
401.286	90.06
401.51	89.06
401.734	87.06
401.958	85.06
402.182	82.06
402.406	98.06
402.63	82.06
402.854	98.06
403.078	88.06
403.302	82.06
403.526	95.06
403.75	80.06
403.974	82.06
404.198	96.06
404.422	82.06
404.645	79.06
404.869	112.06
405.093	91.06
405.317	89.06
405.541	108.06
405.765	88.06
405.988	82.06
406.212	98.06
406.436	98.06
406.66	94.06
406.883	90.06
407.107	83.06
407.331	104.06
407.555	100.06
407.778	99.06
408.002	91.06
408.226	95.06
408.449	92.06
408.673	92.06
408.896	80.06
409.12	98.06
409.344	94.06
409.567	76.06
409.791	97.06
410.014	86.06
410.238	83.06
410.461	83.06
410.685	87.06
410.908	86.06
411.132	94.06
411.355	84.06
411.578	94.06
411.802	82.06
412.025	79.06
412.249	93.06
412.472	79.06
412.695	84.06
412.919	86.06
413.142	100.06
413.365	94.06
413.589	85.06
413.812	89.06
414.035	95.06
414.258	86.06
414.482	86.06
414.705	87.06
414.928	97.06
415.151	80.06
415.374	93.06
415.597	86.06
415.821	89.06
416.044	91.06
416.267	98.06
416.49	85.06
416.713	91.06
416.936	85.06
417.159	100.06
417.382	77.06
417.605	102.06
417.828	84.06
418.051	87.06
418.274	101.06
418.497	84.06
418.72	89.06
418.943	94.06
419.166	82.06
419.389	96.06
419.611	88.06
419.834	93.06
420.057	85.06
420.28	88.06
420.503	85.06
420.726	94.06
420.948	94.06
421.171	76.06
421.394	83.06
421.617	87.06
421.839	84.06
422.062	87.06
422.285	99.06
422.507	92.06
422.73	92.06
422.953	85.06
423.175	82.06
423.398	89.06
423.621	85.06
423.843	98.06
424.066	89.06
424.288	100.06
424.511	80.06
424.733	106.06
424.956	95.06
425.178	89.06
425.401	98.06
425.623	94.06
425.846	94.06
426.068	83.06
426.291	100.06
426.513	86.06
426.735	82.06
426.958	92.06
427.18	104.06
427.402	91.06
427.625	84.06
427.847	102.06
428.069	95.06
428.292	94.06
428.514	81.06
428.736	97.06
428.958	91.06
429.181	90.06
429.403	113.06
429.625	91.06
429.847	78.06
430.069	90.06
430.292	91.06
430.514	88.06
430.736	93.06
430.958	99.06
431.18	92.06
431.402	95.06
431.624	95.06
431.846	83.06
432.068	98.06
432.29	78.06
432.512	84.06
432.734	87.06
432.956	90.06
433.178	96.06
433.4	90.06
433.622	98.06
433.844	91.06
434.066	79.06
434.287	81.06
434.509	80.06
434.731	84.06
434.953	86.06
435.175	99.06
435.397	83.06
435.618	95.06
435.84	82.06
436.062	86.06
436.284	103.06
436.505	104.06
436.727	80.06
436.949	80.06
437.17	99.06
437.392	94.06
437.614	85.06
437.835	86.06
438.057	91.06
438.278	106.06
438.5	96.06
438.721	90.06
438.943	107.06
439.165	90.06
439.386	103.06
439.608	97.06
439.829	97.06
440.05	103.06
440.272	100.06
440.493	119.06
440.715	95.06
440.936	81.06
441.158	117.06
441.379	99.06
441.6	90.06
441.822	101.06
442.043	99.06
442.264	94.06
442.486	83.06
442.707	102.06
442.928	89.06
443.149	94.06
443.371	87.06
443.592	88.06
443.813	96.06
444.034	94.06
444.255	92.06
444.476	92.06
444.698	100.06
444.919	91.06
445.14	221.06
445.361	162.06
445.582	97.06
445.803	94.06
446.024	84.06
446.245	97.06
446.466	102.06
446.687	105.06
446.908	116.06
447.129	110.06
447.35	94.06
447.571	96.06
447.792	111.06
448.013	104.06
448.234	106.06
448.455	83.06
448.675	101.06
448.896	79.06
449.117	79.06
449.338	95.06
449.559	94.06
449.779	95.06
450	99.06
450.221	98.06
450.442	90.06
450.662	98.06
450.883	93.06
451.104	83.06
451.324	107.06
451.545	88.06
451.766	95.06
451.986	90.06
452.207	92.06
452.428	88.06
452.648	92.06
452.869	87.06
453.089	79.06
453.31	84.06
453.53	86.06
453.751	94.06
453.971	85.06
454.192	94.06
454.412	93.06
454.633	85.06
454.853	100.06
455.073	98.06
455.294	89.06
455.514	79.06
455.734	91.06
455.955	95.06
456.175	98.06
456.395	87.06
456.616	84.06
456.836	78.06
457.056	95.06
457.276	99.06
457.497	91.06
457.717	83.06
457.937	80.06
458.157	69.06
458.377	89.06
458.598	89.06
458.818	85.06
459.038	90.06
459.258	76.06
459.478	84.06
459.698	94.06
459.918	73.06
460.138	86.06
460.358	79.06
460.578	89.06
460.798	96.06
461.018	92.06
461.238	91.06
461.458	87.06
461.678	86.06
461.898	81.06
462.118	84.06
462.338	86.06
462.558	99.06
462.777	95.06
462.997	89.06
463.217	97.06
463.437	93.06
463.657	90.06
463.876	82.06
464.096	84.06
464.316	100.06
464.536	86.06
464.755	86.06
464.975	74.06
465.195	90.06
465.414	90.06
465.634	80.06
465.854	91.06
466.073	84.06
466.293	91.06
466.512	113.06
466.732	114.06
466.951	84.06
467.171	99.06
467.391	106.06
467.61	84.06
467.829	82.06
468.049	91.06
468.268	98.06
468.488	85.06
468.707	92.06
468.927	87.06
469.146	106.06
469.365	94.06
469.585	98.06
469.804	102.06
470.023	82.06
470.243	81.06
470.462	96.06
470.681	93.06
470.901	94.06
471.12	94.06
471.339	99.06
471.558	83.06
471.777	90.06
471.997	90.06
472.216	86.06
472.435	100.06
472.654	91.06
472.873	98.06
473.092	78.06
473.311	97.06
473.53	80.06
473.749	91.06
473.968	90.06
474.187	86.06
474.406	91.06
474.625	92.06
474.844	104.06
475.063	99.06
475.282	107.06
475.501	102.06
475.72	98.06
475.939	84.06
476.158	83.06
476.377	79.06
476.596	88.06
476.814	90.06
477.033	81.06
477.252	86.06
477.471	87.06
477.69	90.06
477.908	101.06
478.127	86.06
478.346	92.06
478.564	92.06
478.783	95.06
479.002	100.06
479.22	87.06
479.439	93.06
479.658	98.06
479.876	91.06
480.095	91.06
480.313	86.06
480.532	91.06
480.751	105.06
480.969	77.06
481.188	86.06
481.406	78.06
481.624	81.06
481.843	90.06
482.061	87.06
482.28	111.06
482.498	107.06
482.717	78.06
482.935	94.06
483.153	99.06
483.372	96.06
483.59	103.06
483.808	83.06
484.027	89.06
484.245	104.06
484.463	103.06
484.681	104.06
484.9	104.06
485.118	101.06
485.336	81.06
485.554	92.06
485.772	91.06
485.99	83.06
486.209	95.06
486.427	85.06
486.645	86.06
486.863	102.06
487.081	111.06
487.299	101.06
487.517	111.06
487.735	104.06
487.953	106.06
488.171	120.06
488.389	100.06
488.607	94.06
488.825	90.06
489.043	104.06
489.261	91.06
489.479	99.06
489.696	98.06
489.914	89.06
490.132	99.06
490.35	113.06
490.568	100.06
490.786	98.06
491.003	105.06
491.221	94.06
491.439	96.06
491.657	103.06
491.874	125.06
492.092	120.06
492.31	130.06
492.527	124.06
492.745	103.06
492.963	116.06
493.18	112.06
493.398	116.06
493.615	114.06
493.833	123.06
494.05	91.06
494.268	104.06
494.485	81.06
494.703	97.06
494.92	103.06
495.138	116.06
495.355	110.06
495.573	106.06
495.79	98.06
496.008	120.06
496.225	94.06
496.442	94.06
496.66	111.06
496.877	108.06
497.094	108.06
497.312	110.06
497.529	108.06
497.746	109.06
497.963	121.06
498.181	93.06
498.398	88.06
498.615	83.06
498.832	83.06
499.049	95.06
499.267	106.06
499.484	90.06
499.701	97.06
499.918	89.06
500.135	106.06
500.352	116.06
500.569	100.06
500.786	105.06
501.003	105.06
501.22	99.06
501.437	117.06
501.654	103.06
501.871	94.06
502.088	90.06
502.305	94.06
502.522	86.06
502.739	99.06
502.956	85.06
503.172	110.06
503.389	96.06
503.606	97.06
503.823	89.06
504.04	91.06
504.256	102.06
504.473	86.06
504.69	103.06
504.907	82.06
505.123	84.06
505.34	91.06
505.557	82.06
505.773	100.06
505.99	101.06
506.207	94.06
506.423	91.06
506.64	104.06
506.856	101.06
507.073	103.06
507.289	101.06
507.506	84.06
507.722	90.06
507.939	80.06
508.155	95.06
508.372	81.06
508.588	78.06
508.805	94.06
509.021	91.06
509.238	82.06
509.454	87.06
509.67	87.06
509.887	98.06
510.103	91.06
510.319	78.06
510.536	83.06
510.752	80.06
510.968	76.06
511.184	83.06
511.401	84.06
511.617	80.06
511.833	81.06
512.049	82.06
512.265	89.06
512.481	81.06
512.698	80.06
512.914	86.06
513.13	91.06
513.346	78.06
513.562	86.06
513.778	81.06
513.994	91.06
514.21	86.06
514.426	71.06
514.642	84.06
514.858	83.06
515.074	79.06
515.29	92.06
515.506	86.06
515.721	83.06
515.937	78.06
516.153	86.06
516.369	93.06
516.585	90.06
516.801	79.06
517.016	80.06
517.232	87.06
517.448	86.06
517.664	90.06
517.879	85.06
