Data from Location5.07152019.Energy5.Lamp.07192019.3%Agarose_HRD10591_16-02-52-628.txt Node
Date: Fri Jul 19 16:02:52 EDT 2019
User: cochatt
Spectrometer: HR+D1059
Trigger mode: 1
Integration Time (sec): 1.000000E-1
Scans to average: 1
Electric dark correction enabled: true
Nonlinearity correction enabled: false
Boxcar width: 0
XAxis mode: Wavelengths
Number of Pixels in Spectrum: 2048
>>>>>Begin Spectral Data<<<<<
223.165	-22.12
223.4	-22.12
223.635	-22.12
223.869	-10.12
224.104	-12.12
224.338	-10.12
224.573	-18.12
224.808	-10.12
225.042	-10.12
225.277	-18.12
225.511	-4.12
225.746	2.88
225.98	9.88
226.215	8.88
226.449	10.88
226.683	13.88
226.918	32.88
227.152	35.88
227.387	32.88
227.621	33.88
227.856	37.88
228.09	29.88
228.324	25.88
228.559	41.88
228.793	45.88
229.027	56.88
229.262	59.88
229.496	63.88
229.73	63.88
229.964	67.88
230.199	85.88
230.433	90.88
230.667	76.88
230.901	80.88
231.136	84.88
231.37	89.88
231.604	77.88
231.838	75.88
232.072	81.88
232.306	72.88
232.541	64.88
232.775	69.88
233.009	80.88
233.243	100.88
233.477	76.88
233.711	70.88
233.945	71.88
234.179	72.88
234.413	74.88
234.647	80.88
234.881	87.88
235.115	81.88
235.349	62.88
235.583	75.88
235.817	91.88
236.051	73.88
236.285	74.88
236.519	77.88
236.753	63.88
236.987	75.88
237.221	83.88
237.455	85.88
237.689	77.88
237.922	75.88
238.156	77.88
238.39	67.88
238.624	80.88
238.858	73.88
239.091	82.88
239.325	73.88
239.559	74.88
239.793	84.88
240.027	75.88
240.26	82.88
240.494	76.88
240.728	88.88
240.961	70.88
241.195	79.88
241.429	67.88
241.662	67.88
241.896	69.88
242.13	82.88
242.363	61.88
242.597	65.88
242.83	62.88
243.064	83.88
243.298	67.88
243.531	67.88
243.765	94.88
243.998	68.88
244.232	77.88
244.465	60.88
244.699	71.88
244.932	84.88
245.166	75.88
245.399	73.88
245.633	66.88
245.866	72.88
246.099	74.88
246.333	59.88
246.566	80.88
246.8	74.88
247.033	86.88
247.266	69.88
247.5	84.88
247.733	82.88
247.966	77.88
248.2	74.88
248.433	70.88
248.666	67.88
248.899	77.88
249.133	70.88
249.366	85.88
249.599	89.88
249.832	78.88
250.066	77.88
250.299	81.88
250.532	73.88
250.765	78.88
250.998	79.88
251.231	80.88
251.465	80.88
251.698	73.88
251.931	73.88
252.164	89.88
252.397	69.88
252.63	74.88
252.863	81.88
253.096	79.88
253.329	83.88
253.562	81.88
253.795	69.88
254.028	81.88
254.261	76.88
254.494	80.88
254.727	73.88
254.96	79.88
255.193	71.88
255.426	88.88
255.659	80.88
255.892	74.88
256.124	72.88
256.357	83.88
256.59	77.88
256.823	80.88
257.056	67.88
257.289	80.88
257.521	80.88
257.754	73.88
257.987	75.88
258.22	95.88
258.452	78.88
258.685	79.88
258.918	71.88
259.151	77.88
259.383	81.88
259.616	76.88
259.849	71.88
260.081	93.88
260.314	85.88
260.547	78.88
260.779	79.88
261.012	82.88
261.244	76.88
261.477	79.88
261.71	72.88
261.942	80.88
262.175	86.88
262.407	96.88
262.64	73.88
262.872	89.88
263.105	71.88
263.337	81.88
263.57	85.88
263.802	84.88
264.035	88.88
264.267	91.88
264.499	68.88
264.732	79.88
264.964	82.88
265.197	68.88
265.429	84.88
265.661	80.88
265.894	70.88
266.126	83.88
266.358	70.88
266.591	76.88
266.823	88.88
267.055	76.88
267.287	64.88
267.52	84.88
267.752	95.88
267.984	79.88
268.216	79.88
268.448	81.88
268.681	84.88
268.913	72.88
269.145	83.88
269.377	73.88
269.609	80.88
269.841	74.88
270.073	88.88
270.306	87.88
270.538	82.88
270.77	75.88
271.002	91.88
271.234	70.88
271.466	81.88
271.698	74.88
271.93	87.88
272.162	80.88
272.394	75.88
272.626	83.88
272.858	82.88
273.09	88.88
273.322	88.88
273.553	79.88
273.785	83.88
274.017	96.88
274.249	75.88
274.481	68.88
274.713	84.88
274.945	81.88
275.176	73.88
275.408	87.88
275.64	78.88
275.872	71.88
276.104	82.88
276.335	81.88
276.567	73.88
276.799	84.88
277.031	82.88
277.262	96.88
277.494	81.88
277.726	90.88
277.957	93.88
278.189	99.88
278.421	97.88
278.652	84.88
278.884	88.88
279.115	87.88
279.347	73.88
279.579	77.88
279.81	79.88
280.042	82.88
280.273	81.88
280.505	84.88
280.736	82.88
280.968	85.88
281.199	94.88
281.431	67.88
281.662	95.88
281.894	87.88
282.125	88.88
282.356	88.88
282.588	94.88
282.819	72.88
283.051	70.88
283.282	83.88
283.513	93.88
283.745	88.88
283.976	85.88
284.207	80.88
284.439	93.88
284.67	78.88
284.901	96.88
285.132	79.88
285.364	80.88
285.595	86.88
285.826	83.88
286.057	84.88
286.288	89.88
286.52	91.88
286.751	82.88
286.982	86.88
287.213	76.88
287.444	85.88
287.675	92.88
287.906	89.88
288.138	98.88
288.369	77.88
288.6	80.88
288.831	82.88
289.062	84.88
289.293	94.88
289.524	77.88
289.755	81.88
289.986	73.88
290.217	92.88
290.448	89.88
290.679	86.88
290.91	97.88
291.141	74.88
291.371	85.88
291.602	82.88
291.833	98.88
292.064	90.88
292.295	84.88
292.526	94.88
292.757	91.88
292.987	83.88
293.218	91.88
293.449	79.88
293.68	81.88
293.91	82.88
294.141	103.88
294.372	80.88
294.603	66.88
294.833	101.88
295.064	79.88
295.295	76.88
295.525	71.88
295.756	93.88
295.987	97.88
296.217	78.88
296.448	86.88
296.679	97.88
296.909	82.88
297.14	58.88
297.37	80.88
297.601	80.88
297.831	84.88
298.062	97.88
298.292	100.88
298.523	90.88
298.753	89.88
298.984	82.88
299.214	101.88
299.445	94.88
299.675	104.88
299.905	89.88
300.136	91.88
300.366	87.88
300.597	92.88
300.827	83.88
301.057	92.88
301.288	93.88
301.518	82.88
301.748	88.88
301.979	99.88
302.209	82.88
302.439	91.88
302.669	91.88
302.9	85.88
303.13	86.88
303.36	95.88
303.59	75.88
303.82	87.88
304.051	95.88
304.281	100.88
304.511	86.88
304.741	93.88
304.971	77.88
305.201	98.88
305.431	87.88
305.661	83.88
305.891	83.88
306.121	82.88
306.352	91.88
306.582	97.88
306.812	90.88
307.042	96.88
307.272	77.88
307.502	89.88
307.731	91.88
307.961	89.88
308.191	87.88
308.421	92.88
308.651	99.88
308.881	83.88
309.111	89.88
309.341	95.88
309.571	91.88
309.8	92.88
310.03	91.88
310.26	86.88
310.49	82.88
310.72	68.88
310.949	69.88
311.179	80.88
311.409	84.88
311.639	91.88
311.868	94.88
312.098	88.88
312.328	91.88
312.557	89.88
312.787	86.88
313.017	97.88
313.246	87.88
313.476	72.88
313.706	89.88
313.935	81.88
314.165	89.88
314.394	89.88
314.624	97.88
314.853	94.88
315.083	71.88
315.312	82.88
315.542	101.88
315.771	94.88
316.001	90.88
316.23	94.88
316.46	89.88
316.689	81.88
316.919	96.88
317.148	86.88
317.377	86.88
317.607	89.88
317.836	101.88
318.065	70.88
318.295	94.88
318.524	98.88
318.753	85.88
318.983	82.88
319.212	88.88
319.441	88.88
319.67	87.88
319.9	90.88
320.129	90.88
320.358	81.88
320.587	88.88
320.816	100.88
321.046	86.88
321.275	90.88
321.504	80.88
321.733	64.88
321.962	95.88
322.191	82.88
322.42	91.88
322.649	88.88
322.878	88.88
323.108	92.88
323.337	94.88
323.566	96.88
323.795	85.88
324.024	84.88
324.253	78.88
324.482	87.88
324.71	79.88
324.939	88.88
325.168	90.88
325.397	73.88
325.626	95.88
325.855	91.88
326.084	86.88
326.313	95.88
326.542	91.88
326.77	103.88
326.999	84.88
327.228	87.88
327.457	80.88
327.686	87.88
327.914	85.88
328.143	94.88
328.372	92.88
328.6	83.88
328.829	96.88
329.058	91.88
329.287	86.88
329.515	84.88
329.744	86.88
329.972	87.88
330.201	94.88
330.43	87.88
330.658	78.88
330.887	95.88
331.115	79.88
331.344	99.88
331.572	85.88
331.801	92.88
332.03	95.88
332.258	113.88
332.486	92.88
332.715	84.88
332.943	83.88
333.172	85.88
333.4	84.88
333.629	98.88
333.857	92.88
334.085	84.88
334.314	95.88
334.542	102.88
334.771	93.88
334.999	96.88
335.227	83.88
335.455	95.88
335.684	93.88
335.912	84.88
336.14	89.88
336.369	88.88
336.597	85.88
336.825	88.88
337.053	88.88
337.281	82.88
337.51	85.88
337.738	75.88
337.966	73.88
338.194	91.88
338.422	84.88
338.65	86.88
338.878	97.88
339.106	82.88
339.334	93.88
339.562	98.88
339.79	86.88
340.018	87.88
340.246	84.88
340.474	93.88
340.702	91.88
340.93	87.88
341.158	93.88
341.386	94.88
341.614	77.88
341.842	85.88
342.07	80.88
342.298	102.88
342.526	97.88
342.754	96.88
342.981	90.88
343.209	89.88
343.437	89.88
343.665	92.88
343.893	98.88
344.12	94.88
344.348	88.88
344.576	92.88
344.804	88.88
345.031	82.88
345.259	91.88
345.487	115.88
345.714	88.88
345.942	96.88
346.17	90.88
346.397	88.88
346.625	90.88
346.853	79.88
347.08	86.88
347.308	97.88
347.535	91.88
347.763	94.88
347.99	93.88
348.218	100.88
348.445	83.88
348.673	73.88
348.9	82.88
349.128	79.88
349.355	85.88
349.583	82.88
349.81	64.88
350.037	81.88
350.265	90.88
350.492	80.88
350.72	94.88
350.947	82.88
351.174	102.88
351.402	87.88
351.629	83.88
351.856	89.88
352.083	86.88
352.311	72.88
352.538	89.88
352.765	89.88
352.992	86.88
353.22	90.88
353.447	96.88
353.674	97.88
353.901	87.88
354.128	92.88
354.355	80.88
354.583	101.88
354.81	91.88
355.037	79.88
355.264	89.88
355.491	66.88
355.718	88.88
355.945	94.88
356.172	86.88
356.399	99.88
356.626	81.88
356.853	94.88
357.08	107.88
357.307	85.88
357.534	75.88
357.761	76.88
357.988	96.88
358.215	90.88
358.441	85.88
358.668	72.88
358.895	98.88
359.122	98.88
359.349	91.88
359.576	84.88
359.802	81.88
360.029	83.88
360.256	94.88
360.483	97.88
360.709	77.88
360.936	94.88
361.163	94.88
361.39	96.88
361.616	101.88
361.843	88.88
362.07	87.88
362.296	96.88
362.523	76.88
362.749	87.88
362.976	103.88
363.203	93.88
363.429	91.88
363.656	98.88
363.882	75.88
364.109	93.88
364.335	89.88
364.562	83.88
364.788	75.88
365.015	92.88
365.241	96.88
365.468	100.88
365.694	79.88
365.92	78.88
366.147	96.88
366.373	88.88
366.599	82.88
366.826	75.88
367.052	97.88
367.278	87.88
367.505	74.88
367.731	81.88
367.957	80.88
368.184	91.88
368.41	88.88
368.636	81.88
368.862	78.88
369.089	87.88
369.315	85.88
369.541	104.88
369.767	95.88
369.993	94.88
370.219	77.88
370.445	93.88
370.672	87.88
370.898	87.88
371.124	79.88
371.35	89.88
371.576	95.88
371.802	88.88
372.028	87.88
372.254	99.88
372.48	82.88
372.706	97.88
372.932	100.88
373.158	97.88
373.384	99.88
373.61	95.88
373.835	81.88
374.061	76.88
374.287	86.88
374.513	80.88
374.739	87.88
374.965	91.88
375.191	87.88
375.416	88.88
375.642	93.88
375.868	84.88
376.094	83.88
376.319	93.88
376.545	98.88
376.771	89.88
376.997	97.88
377.222	85.88
377.448	92.88
377.674	79.88
377.899	85.88
378.125	90.88
378.35	79.88
378.576	87.88
378.802	85.88
379.027	79.88
379.253	73.88
379.478	84.88
379.704	98.88
379.929	84.88
380.155	84.88
380.38	83.88
380.606	82.88
380.831	88.88
381.057	92.88
381.282	87.88
381.507	87.88
381.733	78.88
381.958	83.88
382.184	89.88
382.409	97.88
382.634	91.88
382.86	77.88
383.085	80.88
383.31	75.88
383.535	81.88
383.761	81.88
383.986	96.88
384.211	85.88
384.436	100.88
384.662	84.88
384.887	85.88
385.112	91.88
385.337	77.88
385.562	86.88
385.787	87.88
386.013	104.88
386.238	95.88
386.463	95.88
386.688	90.88
386.913	93.88
387.138	107.88
387.363	86.88
387.588	95.88
387.813	94.88
388.038	83.88
388.263	84.88
388.488	95.88
388.713	92.88
388.938	84.88
389.163	90.88
389.387	88.88
389.612	104.88
389.837	88.88
390.062	84.88
390.287	90.88
390.512	83.88
390.736	79.88
390.961	83.88
391.186	92.88
391.411	96.88
391.636	87.88
391.86	85.88
392.085	91.88
392.31	75.88
392.534	88.88
392.759	89.88
392.984	92.88
393.208	93.88
393.433	98.88
393.658	101.88
393.882	102.88
394.107	88.88
394.331	72.88
394.556	84.88
394.78	91.88
395.005	95.88
395.229	93.88
395.454	83.88
395.678	86.88
395.903	93.88
396.127	86.88
396.352	92.88
396.576	82.88
396.801	88.88
397.025	88.88
397.249	95.88
397.474	99.88
397.698	92.88
397.922	97.88
398.147	88.88
398.371	98.88
398.595	87.88
398.82	79.88
399.044	106.88
399.268	101.88
399.492	95.88
399.717	107.88
399.941	102.88
400.165	97.88
400.389	90.88
400.613	93.88
400.837	87.88
401.062	95.88
401.286	94.88
401.51	102.88
401.734	88.88
401.958	104.88
402.182	87.88
402.406	105.88
402.63	95.88
402.854	108.88
403.078	97.88
403.302	94.88
403.526	96.88
403.75	82.88
403.974	94.88
404.198	97.88
404.422	113.88
404.645	94.88
404.869	96.88
405.093	82.88
405.317	92.88
405.541	94.88
405.765	92.88
405.988	94.88
406.212	105.88
406.436	105.88
406.66	92.88
406.883	101.88
407.107	109.88
407.331	91.88
407.555	98.88
407.778	90.88
408.002	98.88
408.226	100.88
408.449	101.88
408.673	91.88
408.896	96.88
409.12	104.88
409.344	102.88
409.567	86.88
409.791	83.88
410.014	87.88
410.238	88.88
410.461	107.88
410.685	107.88
410.908	87.88
411.132	88.88
411.355	100.88
411.578	100.88
411.802	85.88
412.025	87.88
412.249	93.88
412.472	102.88
412.695	100.88
412.919	93.88
413.142	92.88
413.365	100.88
413.589	93.88
413.812	107.88
414.035	102.88
414.258	93.88
414.482	85.88
414.705	91.88
414.928	91.88
415.151	88.88
415.374	81.88
415.597	98.88
415.821	93.88
416.044	82.88
416.267	95.88
416.49	84.88
416.713	100.88
416.936	99.88
417.159	88.88
417.382	89.88
417.605	73.88
417.828	100.88
418.051	98.88
418.274	86.88
418.497	101.88
418.72	84.88
418.943	101.88
419.166	86.88
419.389	84.88
419.611	97.88
419.834	98.88
420.057	94.88
420.28	81.88
420.503	103.88
420.726	96.88
420.948	96.88
421.171	91.88
421.394	92.88
421.617	91.88
421.839	93.88
422.062	94.88
422.285	98.88
422.507	92.88
422.73	102.88
422.953	99.88
423.175	89.88
423.398	87.88
423.621	98.88
423.843	86.88
424.066	84.88
424.288	91.88
424.511	99.88
424.733	103.88
424.956	116.88
425.178	91.88
425.401	80.88
425.623	95.88
425.846	92.88
426.068	98.88
426.291	104.88
426.513	89.88
426.735	93.88
426.958	99.88
427.18	102.88
427.402	107.88
427.625	92.88
427.847	83.88
428.069	80.88
428.292	107.88
428.514	82.88
428.736	94.88
428.958	94.88
429.181	91.88
429.403	81.88
429.625	76.88
429.847	93.88
430.069	79.88
430.292	86.88
430.514	99.88
430.736	93.88
430.958	76.88
431.18	91.88
431.402	97.88
431.624	95.88
431.846	89.88
432.068	78.88
432.29	95.88
432.512	97.88
432.734	80.88
432.956	94.88
433.178	100.88
433.4	83.88
433.622	84.88
433.844	91.88
434.066	93.88
434.287	89.88
434.509	79.88
434.731	94.88
434.953	87.88
435.175	92.88
435.397	99.88
435.618	95.88
435.84	97.88
436.062	91.88
436.284	94.88
436.505	104.88
436.727	102.88
436.949	84.88
437.17	80.88
437.392	91.88
437.614	80.88
437.835	75.88
438.057	95.88
438.278	85.88
438.5	89.88
438.721	92.88
438.943	87.88
439.165	84.88
439.386	96.88
439.608	92.88
439.829	72.88
440.05	92.88
440.272	78.88
440.493	89.88
440.715	89.88
440.936	96.88
441.158	88.88
441.379	98.88
441.6	100.88
441.822	74.88
442.043	91.88
442.264	96.88
442.486	90.88
442.707	86.88
442.928	87.88
443.149	89.88
443.371	80.88
443.592	97.88
443.813	93.88
444.034	102.88
444.255	100.88
444.476	84.88
444.698	90.88
444.919	100.88
445.14	228.88
445.361	160.88
445.582	97.88
445.803	91.88
446.024	101.88
446.245	101.88
446.466	92.88
446.687	84.88
446.908	83.88
447.129	83.88
447.35	76.88
447.571	85.88
447.792	83.88
448.013	91.88
448.234	80.88
448.455	99.88
448.675	79.88
448.896	92.88
449.117	96.88
449.338	84.88
449.559	103.88
449.779	76.88
450	93.88
450.221	84.88
450.442	93.88
450.662	95.88
450.883	101.88
451.104	84.88
451.324	86.88
451.545	93.88
451.766	87.88
451.986	83.88
452.207	97.88
452.428	84.88
452.648	78.88
452.869	74.88
453.089	79.88
453.31	84.88
453.53	91.88
453.751	69.88
453.971	88.88
454.192	88.88
454.412	93.88
454.633	95.88
454.853	98.88
455.073	97.88
455.294	95.88
455.514	85.88
455.734	89.88
455.955	91.88
456.175	89.88
456.395	91.88
456.616	86.88
456.836	104.88
457.056	82.88
457.276	98.88
457.497	96.88
457.717	89.88
457.937	91.88
458.157	87.88
458.377	81.88
458.598	85.88
458.818	92.88
459.038	79.88
459.258	86.88
459.478	80.88
459.698	102.88
459.918	90.88
460.138	91.88
460.358	104.88
460.578	94.88
460.798	116.88
461.018	101.88
461.238	89.88
461.458	102.88
461.678	90.88
461.898	102.88
462.118	105.88
462.338	93.88
462.558	96.88
462.777	90.88
462.997	113.88
463.217	101.88
463.437	104.88
463.657	108.88
463.876	86.88
464.096	86.88
464.316	99.88
464.536	89.88
464.755	88.88
464.975	102.88
465.195	90.88
465.414	100.88
465.634	97.88
465.854	98.88
466.073	85.88
466.293	86.88
466.512	76.88
466.732	99.88
466.951	94.88
467.171	87.88
467.391	96.88
467.61	97.88
467.829	92.88
468.049	93.88
468.268	100.88
468.488	91.88
468.707	90.88
468.927	92.88
469.146	98.88
469.365	102.88
469.585	102.88
469.804	89.88
470.023	104.88
470.243	95.88
470.462	108.88
470.681	107.88
470.901	97.88
471.12	94.88
471.339	103.88
471.558	97.88
471.777	86.88
471.997	101.88
472.216	95.88
472.435	97.88
472.654	86.88
472.873	88.88
473.092	86.88
473.311	78.88
473.53	103.88
473.749	113.88
473.968	89.88
474.187	91.88
474.406	80.88
474.625	100.88
474.844	108.88
475.063	110.88
475.282	95.88
475.501	82.88
475.72	103.88
475.939	93.88
476.158	95.88
476.377	101.88
476.596	97.88
476.814	94.88
477.033	72.88
477.252	93.88
477.471	93.88
477.69	95.88
477.908	100.88
478.127	90.88
478.346	117.88
478.564	83.88
478.783	91.88
479.002	103.88
479.22	101.88
479.439	100.88
479.658	95.88
479.876	97.88
480.095	88.88
480.313	98.88
480.532	94.88
480.751	105.88
480.969	92.88
481.188	97.88
481.406	92.88
481.624	107.88
481.843	96.88
482.061	89.88
482.28	90.88
482.498	96.88
482.717	88.88
482.935	94.88
483.153	96.88
483.372	83.88
483.59	89.88
483.808	98.88
484.027	86.88
484.245	76.88
484.463	93.88
484.681	83.88
484.9	101.88
485.118	98.88
485.336	92.88
485.554	111.88
485.772	89.88
485.99	97.88
486.209	111.88
486.427	107.88
486.645	95.88
486.863	87.88
487.081	102.88
487.299	104.88
487.517	104.88
487.735	96.88
487.953	97.88
488.171	113.88
488.389	107.88
488.607	93.88
488.825	91.88
489.043	84.88
489.261	96.88
489.479	89.88
489.696	102.88
489.914	95.88
490.132	85.88
490.35	92.88
490.568	111.88
490.786	109.88
491.003	100.88
491.221	111.88
491.439	103.88
491.657	104.88
491.874	121.88
492.092	88.88
492.31	103.88
492.527	114.88
492.745	94.88
492.963	121.88
493.18	115.88
493.398	110.88
493.615	104.88
493.833	103.88
494.05	103.88
494.268	122.88
494.485	95.88
494.703	119.88
494.92	101.88
495.138	100.88
495.355	101.88
495.573	113.88
495.79	117.88
496.008	117.88
496.225	112.88
496.442	118.88
496.66	105.88
496.877	103.88
497.094	104.88
497.312	114.88
497.529	100.88
497.746	121.88
497.963	119.88
498.181	119.88
498.398	104.88
498.615	99.88
498.832	110.88
499.049	113.88
499.267	117.88
499.484	124.88
499.701	117.88
499.918	140.88
500.135	137.88
500.352	153.88
500.569	157.88
500.786	161.88
501.003	141.88
501.22	157.88
501.437	127.88
501.654	127.88
501.871	118.88
502.088	128.88
502.305	123.88
502.522	118.88
502.739	119.88
502.956	109.88
503.172	105.88
503.389	96.88
503.606	115.88
503.823	92.88
504.04	101.88
504.256	104.88
504.473	112.88
504.69	108.88
504.907	88.88
505.123	107.88
505.34	111.88
505.557	103.88
505.773	97.88
505.99	117.88
506.207	115.88
506.423	92.88
506.64	115.88
506.856	105.88
507.073	106.88
507.289	90.88
507.506	97.88
507.722	105.88
507.939	99.88
508.155	103.88
508.372	84.88
508.588	96.88
508.805	103.88
509.021	93.88
509.238	95.88
509.454	89.88
509.67	92.88
509.887	86.88
510.103	96.88
510.319	87.88
510.536	101.88
510.752	85.88
510.968	80.88
511.184	86.88
511.401	107.88
511.617	116.88
511.833	93.88
512.049	86.88
512.265	94.88
512.481	96.88
512.698	87.88
512.914	107.88
513.13	104.88
513.346	99.88
513.562	104.88
513.778	105.88
513.994	100.88
514.21	97.88
514.426	109.88
514.642	103.88
514.858	105.88
515.074	97.88
515.29	105.88
515.506	105.88
515.721	80.88
515.937	96.88
516.153	114.88
516.369	103.88
