Data from Location5.07152019.Energy5.Lamp.07192019.3%Agarose_HRD10591_16-02-37-628.txt Node
Date: Fri Jul 19 16:02:37 EDT 2019
User: cochatt
Spectrometer: HR+D1059
Trigger mode: 1
Integration Time (sec): 1.000000E-1
Scans to average: 1
Electric dark correction enabled: true
Nonlinearity correction enabled: false
Boxcar width: 0
XAxis mode: Wavelengths
Number of Pixels in Spectrum: 2048
>>>>>Begin Spectral Data<<<<<
223.165	-21.06
223.4	-21.06
223.635	-21.06
223.869	-21.06
224.104	-22.06
224.338	-22.06
224.573	-16.06
224.808	-15.06
225.042	-12.06
225.277	-5.06
225.511	4.94
225.746	8.94
225.98	19.94
226.215	13.94
226.449	28.94
226.683	23.94
226.918	24.94
227.152	8.94
227.387	20.94
227.621	32.94
227.856	39.94
228.09	54.94
228.324	54.94
228.559	44.94
228.793	63.94
229.027	58.94
229.262	58.94
229.496	64.94
229.73	65.94
229.964	68.94
230.199	64.94
230.433	77.94
230.667	85.94
230.901	74.94
231.136	91.94
231.37	84.94
231.604	83.94
231.838	81.94
232.072	77.94
232.306	88.94
232.541	82.94
232.775	78.94
233.009	81.94
233.243	78.94
233.477	99.94
233.711	82.94
233.945	71.94
234.179	83.94
234.413	74.94
234.647	78.94
234.881	83.94
235.115	73.94
235.349	73.94
235.583	89.94
235.817	72.94
236.051	84.94
236.285	80.94
236.519	90.94
236.753	88.94
236.987	76.94
237.221	101.94
237.455	78.94
237.689	84.94
237.922	83.94
238.156	72.94
238.39	80.94
238.624	81.94
238.858	81.94
239.091	81.94
239.325	79.94
239.559	86.94
239.793	71.94
240.027	70.94
240.26	71.94
240.494	74.94
240.728	91.94
240.961	62.94
241.195	80.94
241.429	63.94
241.662	70.94
241.896	78.94
242.13	78.94
242.363	84.94
242.597	81.94
242.83	75.94
243.064	88.94
243.298	66.94
243.531	64.94
243.765	75.94
243.998	72.94
244.232	71.94
244.465	79.94
244.699	86.94
244.932	60.94
245.166	72.94
245.399	73.94
245.633	97.94
245.866	82.94
246.099	67.94
246.333	84.94
246.566	72.94
246.8	82.94
247.033	90.94
247.266	78.94
247.5	77.94
247.733	82.94
247.966	85.94
248.2	93.94
248.433	80.94
248.666	73.94
248.899	66.94
249.133	89.94
249.366	78.94
249.599	87.94
249.832	76.94
250.066	88.94
250.299	85.94
250.532	86.94
250.765	68.94
250.998	91.94
251.231	91.94
251.465	83.94
251.698	74.94
251.931	85.94
252.164	69.94
252.397	76.94
252.63	91.94
252.863	79.94
253.096	84.94
253.329	77.94
253.562	69.94
253.795	75.94
254.028	84.94
254.261	69.94
254.494	72.94
254.727	94.94
254.96	84.94
255.193	86.94
255.426	72.94
255.659	82.94
255.892	83.94
256.124	81.94
256.357	88.94
256.59	84.94
256.823	85.94
257.056	78.94
257.289	77.94
257.521	87.94
257.754	83.94
257.987	92.94
258.22	96.94
258.452	79.94
258.685	83.94
258.918	81.94
259.151	77.94
259.383	92.94
259.616	112.94
259.849	89.94
260.081	89.94
260.314	87.94
260.547	77.94
260.779	90.94
261.012	85.94
261.244	79.94
261.477	93.94
261.71	88.94
261.942	86.94
262.175	88.94
262.407	75.94
262.64	90.94
262.872	92.94
263.105	95.94
263.337	89.94
263.57	77.94
263.802	84.94
264.035	86.94
264.267	84.94
264.499	89.94
264.732	85.94
264.964	73.94
265.197	96.94
265.429	99.94
265.661	89.94
265.894	89.94
266.126	93.94
266.358	71.94
266.591	84.94
266.823	100.94
267.055	87.94
267.287	86.94
267.52	82.94
267.752	90.94
267.984	80.94
268.216	76.94
268.448	93.94
268.681	105.94
268.913	88.94
269.145	84.94
269.377	86.94
269.609	92.94
269.841	94.94
270.073	99.94
270.306	82.94
270.538	86.94
270.77	99.94
271.002	85.94
271.234	112.94
271.466	99.94
271.698	68.94
271.93	93.94
272.162	95.94
272.394	86.94
272.626	93.94
272.858	92.94
273.09	95.94
273.322	74.94
273.553	92.94
273.785	76.94
274.017	77.94
274.249	105.94
274.481	96.94
274.713	93.94
274.945	95.94
275.176	78.94
275.408	84.94
275.64	80.94
275.872	90.94
276.104	91.94
276.335	93.94
276.567	97.94
276.799	89.94
277.031	90.94
277.262	85.94
277.494	78.94
277.726	96.94
277.957	92.94
278.189	80.94
278.421	88.94
278.652	90.94
278.884	77.94
279.115	87.94
279.347	117.94
279.579	92.94
279.81	102.94
280.042	105.94
280.273	91.94
280.505	91.94
280.736	94.94
280.968	88.94
281.199	67.94
281.431	93.94
281.662	94.94
281.894	105.94
282.125	92.94
282.356	91.94
282.588	96.94
282.819	87.94
283.051	74.94
283.282	79.94
283.513	104.94
283.745	102.94
283.976	91.94
284.207	97.94
284.439	99.94
284.67	91.94
284.901	84.94
285.132	84.94
285.364	90.94
285.595	101.94
285.826	93.94
286.057	81.94
286.288	86.94
286.52	104.94
286.751	93.94
286.982	82.94
287.213	88.94
287.444	107.94
287.675	71.94
287.906	91.94
288.138	86.94
288.369	92.94
288.6	81.94
288.831	78.94
289.062	89.94
289.293	85.94
289.524	87.94
289.755	90.94
289.986	86.94
290.217	80.94
290.448	95.94
290.679	96.94
290.91	87.94
291.141	106.94
291.371	101.94
291.602	89.94
291.833	90.94
292.064	92.94
292.295	87.94
292.526	101.94
292.757	88.94
292.987	90.94
293.218	90.94
293.449	89.94
293.68	86.94
293.91	96.94
294.141	79.94
294.372	84.94
294.603	87.94
294.833	89.94
295.064	80.94
295.295	77.94
295.525	105.94
295.756	101.94
295.987	85.94
296.217	96.94
296.448	82.94
296.679	102.94
296.909	89.94
297.14	90.94
297.37	95.94
297.601	86.94
297.831	98.94
298.062	91.94
298.292	92.94
298.523	92.94
298.753	107.94
298.984	101.94
299.214	103.94
299.445	97.94
299.675	81.94
299.905	102.94
300.136	83.94
300.366	98.94
300.597	96.94
300.827	91.94
301.057	91.94
301.288	86.94
301.518	85.94
301.748	94.94
301.979	95.94
302.209	92.94
302.439	90.94
302.669	100.94
302.9	93.94
303.13	89.94
303.36	78.94
303.59	90.94
303.82	84.94
304.051	84.94
304.281	101.94
304.511	101.94
304.741	92.94
304.971	87.94
305.201	86.94
305.431	84.94
305.661	86.94
305.891	83.94
306.121	95.94
306.352	86.94
306.582	92.94
306.812	94.94
307.042	89.94
307.272	79.94
307.502	85.94
307.731	85.94
307.961	91.94
308.191	71.94
308.421	93.94
308.651	101.94
308.881	96.94
309.111	103.94
309.341	89.94
309.571	88.94
309.8	101.94
310.03	71.94
310.26	84.94
310.49	95.94
310.72	82.94
310.949	100.94
311.179	84.94
311.409	77.94
311.639	96.94
311.868	101.94
312.098	81.94
312.328	99.94
312.557	98.94
312.787	101.94
313.017	84.94
313.246	88.94
313.476	101.94
313.706	92.94
313.935	92.94
314.165	86.94
314.394	100.94
314.624	78.94
314.853	88.94
315.083	88.94
315.312	94.94
315.542	87.94
315.771	90.94
316.001	101.94
316.23	89.94
316.46	90.94
316.689	88.94
316.919	93.94
317.148	98.94
317.377	94.94
317.607	93.94
317.836	96.94
318.065	99.94
318.295	91.94
318.524	98.94
318.753	99.94
318.983	89.94
319.212	91.94
319.441	99.94
319.67	92.94
319.9	92.94
320.129	93.94
320.358	98.94
320.587	92.94
320.816	83.94
321.046	94.94
321.275	88.94
321.504	100.94
321.733	90.94
321.962	92.94
322.191	86.94
322.42	99.94
322.649	102.94
322.878	104.94
323.108	96.94
323.337	96.94
323.566	110.94
323.795	93.94
324.024	95.94
324.253	91.94
324.482	88.94
324.71	91.94
324.939	84.94
325.168	96.94
325.397	90.94
325.626	99.94
325.855	91.94
326.084	90.94
326.313	85.94
326.542	78.94
326.77	107.94
326.999	84.94
327.228	112.94
327.457	97.94
327.686	92.94
327.914	94.94
328.143	101.94
328.372	88.94
328.6	76.94
328.829	95.94
329.058	103.94
329.287	100.94
329.515	97.94
329.744	82.94
329.972	89.94
330.201	91.94
330.43	84.94
330.658	90.94
330.887	98.94
331.115	81.94
331.344	103.94
331.572	99.94
331.801	103.94
332.03	88.94
332.258	88.94
332.486	94.94
332.715	93.94
332.943	83.94
333.172	84.94
333.4	96.94
333.629	108.94
333.857	96.94
334.085	106.94
334.314	112.94
334.542	82.94
334.771	90.94
334.999	104.94
335.227	102.94
335.455	96.94
335.684	88.94
335.912	109.94
336.14	107.94
336.369	105.94
336.597	100.94
336.825	100.94
337.053	88.94
337.281	91.94
337.51	82.94
337.738	81.94
337.966	87.94
338.194	84.94
338.422	101.94
338.65	101.94
338.878	96.94
339.106	86.94
339.334	106.94
339.562	98.94
339.79	99.94
340.018	96.94
340.246	87.94
340.474	93.94
340.702	87.94
340.93	105.94
341.158	109.94
341.386	96.94
341.614	93.94
341.842	89.94
342.07	98.94
342.298	97.94
342.526	89.94
342.754	99.94
342.981	96.94
343.209	101.94
343.437	97.94
343.665	97.94
343.893	94.94
344.12	94.94
344.348	83.94
344.576	98.94
344.804	88.94
345.031	91.94
345.259	99.94
345.487	105.94
345.714	100.94
345.942	90.94
346.17	88.94
346.397	95.94
346.625	99.94
346.853	89.94
347.08	94.94
347.308	90.94
347.535	88.94
347.763	96.94
347.99	104.94
348.218	101.94
348.445	107.94
348.673	92.94
348.9	94.94
349.128	101.94
349.355	92.94
349.583	90.94
349.81	93.94
350.037	85.94
350.265	90.94
350.492	96.94
350.72	102.94
350.947	85.94
351.174	96.94
351.402	97.94
351.629	102.94
351.856	94.94
352.083	91.94
352.311	102.94
352.538	91.94
352.765	94.94
352.992	91.94
353.22	92.94
353.447	91.94
353.674	85.94
353.901	94.94
354.128	87.94
354.355	90.94
354.583	87.94
354.81	105.94
355.037	95.94
355.264	99.94
355.491	101.94
355.718	95.94
355.945	97.94
356.172	99.94
356.399	88.94
356.626	94.94
356.853	87.94
357.08	97.94
357.307	94.94
357.534	97.94
357.761	88.94
357.988	97.94
358.215	95.94
358.441	112.94
358.668	77.94
358.895	93.94
359.122	103.94
359.349	101.94
359.576	104.94
359.802	93.94
360.029	76.94
360.256	98.94
360.483	89.94
360.709	92.94
360.936	104.94
361.163	97.94
361.39	94.94
361.616	86.94
361.843	87.94
362.07	102.94
362.296	105.94
362.523	82.94
362.749	85.94
362.976	92.94
363.203	100.94
363.429	116.94
363.656	92.94
363.882	83.94
364.109	90.94
364.335	95.94
364.562	91.94
364.788	92.94
365.015	88.94
365.241	93.94
365.468	97.94
365.694	79.94
365.92	95.94
366.147	95.94
366.373	91.94
366.599	80.94
366.826	97.94
367.052	95.94
367.278	90.94
367.505	101.94
367.731	100.94
367.957	95.94
368.184	105.94
368.41	90.94
368.636	91.94
368.862	90.94
369.089	84.94
369.315	87.94
369.541	75.94
369.767	105.94
369.993	66.94
370.219	98.94
370.445	93.94
370.672	108.94
370.898	99.94
371.124	88.94
371.35	97.94
371.576	82.94
371.802	85.94
372.028	84.94
372.254	93.94
372.48	98.94
372.706	87.94
372.932	91.94
373.158	100.94
373.384	89.94
373.61	98.94
373.835	106.94
374.061	98.94
374.287	99.94
374.513	109.94
374.739	103.94
374.965	98.94
375.191	98.94
375.416	104.94
375.642	101.94
375.868	92.94
376.094	89.94
376.319	101.94
376.545	93.94
376.771	91.94
376.997	102.94
377.222	106.94
377.448	99.94
377.674	72.94
377.899	91.94
378.125	91.94
378.35	91.94
378.576	88.94
378.802	80.94
379.027	99.94
379.253	93.94
379.478	95.94
379.704	95.94
379.929	91.94
380.155	96.94
380.38	96.94
380.606	92.94
380.831	88.94
381.057	94.94
381.282	97.94
381.507	96.94
381.733	106.94
381.958	89.94
382.184	112.94
382.409	106.94
382.634	104.94
382.86	110.94
383.085	100.94
383.31	106.94
383.535	91.94
383.761	106.94
383.986	105.94
384.211	99.94
384.436	101.94
384.662	87.94
384.887	89.94
385.112	86.94
385.337	90.94
385.562	96.94
385.787	109.94
386.013	100.94
386.238	89.94
386.463	104.94
386.688	96.94
386.913	97.94
387.138	66.94
387.363	95.94
387.588	100.94
387.813	91.94
388.038	98.94
388.263	105.94
388.488	91.94
388.713	98.94
388.938	108.94
389.163	84.94
389.387	104.94
389.612	84.94
389.837	98.94
390.062	124.94
390.287	92.94
390.512	86.94
390.736	93.94
390.961	94.94
391.186	106.94
391.411	103.94
391.636	94.94
391.86	95.94
392.085	96.94
392.31	101.94
392.534	97.94
392.759	94.94
392.984	91.94
393.208	90.94
393.433	106.94
393.658	93.94
393.882	93.94
394.107	95.94
394.331	84.94
394.556	99.94
394.78	95.94
395.005	98.94
395.229	87.94
395.454	99.94
395.678	101.94
395.903	93.94
396.127	98.94
396.352	92.94
396.576	92.94
396.801	86.94
397.025	106.94
397.249	90.94
397.474	118.94
397.698	94.94
397.922	100.94
398.147	99.94
398.371	93.94
398.595	106.94
398.82	90.94
399.044	109.94
399.268	100.94
399.492	101.94
399.717	103.94
399.941	114.94
400.165	96.94
400.389	100.94
400.613	99.94
400.837	100.94
401.062	96.94
401.286	95.94
401.51	104.94
401.734	94.94
401.958	93.94
402.182	102.94
402.406	116.94
402.63	108.94
402.854	87.94
403.078	97.94
403.302	115.94
403.526	126.94
403.75	98.94
403.974	112.94
404.198	100.94
404.422	101.94
404.645	105.94
404.869	101.94
405.093	100.94
405.317	102.94
405.541	113.94
405.765	101.94
405.988	91.94
406.212	114.94
406.436	114.94
406.66	113.94
406.883	110.94
407.107	106.94
407.331	95.94
407.555	100.94
407.778	98.94
408.002	94.94
408.226	97.94
408.449	105.94
408.673	112.94
408.896	107.94
409.12	100.94
409.344	109.94
409.567	97.94
409.791	91.94
410.014	99.94
410.238	84.94
410.461	101.94
410.685	91.94
410.908	99.94
411.132	93.94
411.355	101.94
411.578	96.94
411.802	98.94
412.025	98.94
412.249	88.94
412.472	94.94
412.695	101.94
412.919	107.94
413.142	89.94
413.365	116.94
413.589	109.94
413.812	96.94
414.035	94.94
414.258	91.94
414.482	109.94
414.705	97.94
414.928	97.94
415.151	116.94
415.374	98.94
415.597	102.94
415.821	109.94
416.044	97.94
416.267	101.94
416.49	87.94
416.713	93.94
416.936	104.94
417.159	103.94
417.382	99.94
417.605	101.94
417.828	100.94
418.051	101.94
418.274	106.94
418.497	106.94
418.72	103.94
418.943	93.94
419.166	104.94
419.389	99.94
419.611	110.94
419.834	108.94
420.057	89.94
420.28	104.94
420.503	100.94
420.726	93.94
420.948	102.94
421.171	92.94
421.394	94.94
421.617	98.94
421.839	91.94
422.062	101.94
422.285	102.94
422.507	90.94
422.73	105.94
422.953	104.94
423.175	96.94
423.398	94.94
423.621	118.94
423.843	102.94
424.066	102.94
424.288	93.94
424.511	109.94
424.733	102.94
424.956	94.94
425.178	123.94
425.401	93.94
425.623	110.94
425.846	102.94
426.068	101.94
426.291	106.94
426.513	91.94
426.735	107.94
426.958	101.94
427.18	104.94
427.402	106.94
427.625	88.94
427.847	93.94
428.069	90.94
428.292	99.94
428.514	107.94
428.736	106.94
428.958	112.94
429.181	98.94
429.403	97.94
429.625	88.94
429.847	106.94
430.069	96.94
430.292	99.94
430.514	91.94
430.736	86.94
430.958	90.94
431.18	89.94
431.402	91.94
431.624	97.94
431.846	81.94
432.068	107.94
432.29	108.94
432.512	89.94
432.734	92.94
432.956	100.94
433.178	111.94
433.4	101.94
433.622	90.94
433.844	98.94
434.066	100.94
434.287	99.94
434.509	105.94
434.731	100.94
434.953	91.94
435.175	105.94
435.397	93.94
435.618	98.94
435.84	84.94
436.062	92.94
436.284	97.94
436.505	86.94
436.727	103.94
436.949	92.94
437.17	86.94
437.392	91.94
437.614	111.94
437.835	116.94
438.057	88.94
438.278	99.94
438.5	84.94
438.721	106.94
438.943	102.94
439.165	92.94
439.386	104.94
439.608	96.94
439.829	107.94
440.05	100.94
440.272	89.94
440.493	91.94
440.715	109.94
440.936	104.94
441.158	93.94
441.379	93.94
441.6	98.94
441.822	85.94
442.043	97.94
442.264	93.94
442.486	94.94
442.707	96.94
442.928	101.94
443.149	97.94
443.371	102.94
443.592	103.94
443.813	103.94
444.034	97.94
444.255	96.94
444.476	79.94
444.698	116.94
444.919	112.94
445.14	227.94
445.361	155.94
445.582	107.94
445.803	100.94
446.024	114.94
446.245	96.94
446.466	97.94
446.687	108.94
446.908	120.94
447.129	93.94
447.35	98.94
447.571	101.94
447.792	99.94
448.013	94.94
448.234	103.94
448.455	78.94
448.675	99.94
448.896	89.94
449.117	99.94
449.338	93.94
449.559	94.94
449.779	90.94
450	88.94
450.221	94.94
450.442	94.94
450.662	97.94
450.883	78.94
451.104	99.94
451.324	101.94
451.545	82.94
451.766	89.94
451.986	84.94
452.207	93.94
452.428	101.94
452.648	112.94
452.869	89.94
453.089	86.94
453.31	97.94
453.53	75.94
453.751	98.94
453.971	105.94
454.192	103.94
454.412	96.94
454.633	91.94
454.853	85.94
455.073	96.94
455.294	91.94
455.514	83.94
455.734	107.94
455.955	93.94
456.175	90.94
456.395	98.94
456.616	98.94
456.836	105.94
457.056	90.94
457.276	84.94
457.497	74.94
457.717	82.94
457.937	97.94
458.157	87.94
458.377	96.94
458.598	101.94
458.818	93.94
459.038	94.94
459.258	87.94
459.478	90.94
459.698	93.94
459.918	115.94
460.138	104.94
460.358	116.94
460.578	90.94
460.798	90.94
461.018	98.94
461.238	99.94
461.458	88.94
461.678	101.94
461.898	97.94
462.118	85.94
462.338	101.94
462.558	103.94
462.777	112.94
462.997	117.94
463.217	100.94
463.437	108.94
463.657	103.94
463.876	106.94
464.096	101.94
464.316	98.94
464.536	107.94
464.755	105.94
464.975	100.94
465.195	94.94
465.414	106.94
465.634	112.94
465.854	113.94
466.073	81.94
466.293	88.94
466.512	102.94
466.732	95.94
466.951	107.94
467.171	107.94
467.391	112.94
467.61	99.94
467.829	100.94
468.049	89.94
468.268	105.94
468.488	92.94
468.707	82.94
468.927	88.94
469.146	94.94
469.365	94.94
469.585	92.94
469.804	95.94
470.023	100.94
470.243	83.94
470.462	111.94
470.681	99.94
470.901	94.94
471.12	101.94
471.339	90.94
471.558	101.94
471.777	106.94
471.997	92.94
472.216	104.94
472.435	101.94
472.654	95.94
472.873	101.94
473.092	96.94
473.311	106.94
473.53	105.94
473.749	109.94
473.968	97.94
474.187	95.94
474.406	99.94
474.625	102.94
474.844	103.94
475.063	99.94
475.282	87.94
475.501	104.94
475.72	95.94
475.939	92.94
476.158	102.94
476.377	95.94
476.596	97.94
476.814	89.94
477.033	90.94
477.252	100.94
477.471	110.94
477.69	99.94
477.908	105.94
478.127	112.94
478.346	105.94
478.564	96.94
478.783	109.94
479.002	92.94
479.22	106.94
479.439	101.94
479.658	93.94
479.876	104.94
480.095	96.94
480.313	93.94
480.532	112.94
480.751	112.94
480.969	121.94
481.188	108.94
481.406	85.94
481.624	104.94
481.843	93.94
482.061	107.94
482.28	100.94
482.498	103.94
482.717	109.94
482.935	97.94
483.153	123.94
483.372	95.94
483.59	124.94
483.808	103.94
484.027	111.94
484.245	96.94
484.463	98.94
484.681	106.94
484.9	104.94
485.118	104.94
485.336	105.94
485.554	106.94
485.772	105.94
485.99	91.94
486.209	112.94
486.427	70.94
486.645	108.94
486.863	109.94
487.081	118.94
487.299	106.94
487.517	94.94
487.735	105.94
487.953	104.94
488.171	116.94
488.389	104.94
488.607	112.94
488.825	108.94
489.043	122.94
489.261	97.94
489.479	104.94
489.696	106.94
489.914	116.94
490.132	96.94
490.35	103.94
490.568	103.94
490.786	112.94
491.003	121.94
491.221	108.94
491.439	104.94
491.657	105.94
491.874	109.94
492.092	124.94
492.31	129.94
492.527	107.94
492.745	116.94
492.963	120.94
493.18	126.94
493.398	118.94
493.615	127.94
493.833	117.94
494.05	105.94
494.268	116.94
494.485	104.94
494.703	109.94
494.92	126.94
495.138	116.94
495.355	121.94
495.573	108.94
495.79	116.94
496.008	121.94
496.225	113.94
496.442	115.94
496.66	116.94
496.877	120.94
497.094	110.94
497.312	126.94
497.529	98.94
497.746	103.94
497.963	109.94
498.181	113.94
498.398	122.94
498.615	100.94
498.832	116.94
499.049	132.94
499.267	123.94
499.484	147.94
499.701	146.94
499.918	159.94
500.135	150.94
500.352	139.94
500.569	173.94
500.786	174.94
501.003	165.94
501.22	146.94
501.437	137.94
501.654	123.94
501.871	115.94
502.088	132.94
502.305	105.94
502.522	118.94
502.739	128.94
502.956	124.94
503.172	104.94
503.389	102.94
503.606	110.94
503.823	113.94
504.04	116.94
504.256	121.94
504.473	115.94
504.69	125.94
504.907	113.94
505.123	102.94
505.34	111.94
505.557	107.94
505.773	111.94
505.99	114.94
506.207	103.94
506.423	105.94
506.64	102.94
506.856	102.94
507.073	111.94
507.289	107.94
507.506	105.94
507.722	106.94
507.939	106.94
508.155	102.94
508.372	106.94
508.588	118.94
508.805	113.94
509.021	102.94
509.238	110.94
509.454	100.94
509.67	98.94
509.887	106.94
510.103	95.94
510.319	99.94
510.536	112.94
510.752	102.94
510.968	93.94
511.184	96.94
511.401	71.94
511.617	103.94
511.833	100.94
512.049	108.94
512.265	119.94
512.481	114.94
512.698	89.94
512.914	100.94
513.13	110.94
513.346	97.94
